Dividing Wavelength (nm)	Counts (n)	Blue Motor Position (mm): 0.000000	Red Motor Position (mm): 19.900000	
326.493990	2129.005298
326.888308	2129.005298
327.282561	2129.005298
327.676750	2096.948601
328.070874	2097.530854
328.464933	2098.092943
328.858929	2103.829776
329.252859	2113.571806
329.646726	2123.807868
330.040528	2138.250774
330.434265	2153.182672
330.827938	2172.820487
331.221547	2186.981088
331.615091	2206.883563
332.008571	2227.189331
332.401986	2247.643813
332.795338	2267.085023
333.188625	2287.597478
333.581847	2307.162196
333.975006	2325.378405
334.368100	2342.679645
334.761129	2361.410052
335.154095	2377.960160
335.546996	2394.109497
335.939833	2411.635068
336.332606	2425.440268
336.725315	2437.707916
337.117960	2449.582353
337.510540	2453.080914
337.903056	2466.283696
338.295508	2472.191928
338.687896	2482.309524
339.080220	2490.468632
339.472480	2494.778818
339.864676	2501.992709
340.256807	2504.326764
340.648875	2510.015706
341.040879	2508.783144
341.432818	2512.672394
341.824694	2513.257168
342.216506	2512.332116
342.608253	2514.696417
342.999937	2513.365553
343.391557	2515.061901
343.783113	2513.864627
344.174605	2511.190295
344.566033	2511.134842
344.957397	2508.268946
345.348697	2506.993534
345.739934	2507.396826
346.131106	2505.569408
346.522215	2504.901455
346.913260	2499.746875
347.304241	2498.486587
347.695159	2497.929539
348.086012	2498.126144
348.476802	2495.787049
348.867528	2492.507778
349.258191	2492.631287
349.648789	2490.672798
350.039324	2489.178096
350.429796	2487.799341
350.820203	2488.152222
351.210548	2484.358753
351.600828	2484.247848
351.991045	2481.379431
352.381198	2483.872282
352.771288	2485.503095
353.161314	2479.254585
353.551276	2483.035450
353.941175	2484.147025
354.331010	2481.329020
354.720782	2482.508650
355.110490	2485.530822
355.500135	2484.111737
355.889717	2484.663743
356.279235	2483.085862
356.668689	2486.551655
357.058080	2483.526963
357.447408	2482.513691
357.836672	2478.261478
358.225873	2484.706593
358.615010	2479.957826
359.004084	2486.551655
359.393095	2484.971253
359.782043	2488.394197
360.170927	2488.069042
360.559748	2486.753301
360.948505	2488.447129
361.337199	2487.098620
361.725830	2488.991574
362.114398	2493.752943
362.502903	2492.527943
362.891344	2492.162459
363.279722	2491.073570
363.668037	2491.865031
364.056289	2492.129692
364.444478	2492.550628
364.832603	2498.133706
365.220665	2495.875269
365.608665	2498.358037
365.996601	2496.996926
366.384474	2496.835609
366.772284	2500.039262
367.160031	2500.437513
367.547715	2502.879953
367.935336	2504.609068
368.322893	2507.875736
368.710388	2508.513442
369.097820	2520.145904
369.485189	2520.972654
369.872495	2525.625639
370.259738	2534.223327
370.646918	2541.217928
371.034035	2549.356870
371.421090	2558.204095
371.808081	2570.481826
372.195010	2578.613207
372.581875	2591.720207
372.968678	2604.713781
373.355418	2615.590070
373.742096	2634.149078
374.128710	2647.820687
374.515262	2662.689571
374.901751	2681.256140
375.288177	2690.118489
375.674540	2712.506253
376.060841	2731.841598
376.447079	2750.859351
376.833254	2775.687034
377.219367	2781.247427
377.605417	2823.111689
377.991404	2830.804490
378.377329	2853.230063
378.763191	2870.430479
379.148991	2910.505132
379.534727	2932.754264
379.920402	2960.291567
380.306013	2974.341263
380.691563	3025.582071
381.077049	3042.575801
381.462474	3059.665313
381.847835	3101.312805
382.233134	3124.076135
382.618371	3122.208388
383.003545	3191.645241
383.388657	3197.263607
383.773706	3230.832650
384.158693	3246.881163
384.543618	3274.705812
384.928480	3311.070175
385.313280	3354.076259
385.698017	3352.057277
386.082692	3407.414187
386.467305	3412.883839
386.851856	3442.397274
387.236344	3467.303095
387.620770	3497.446674
388.005133	3526.771066
388.389435	3551.439952
388.773674	3563.379925
389.157851	3601.995164
389.541965	3619.898822
389.926018	3586.526383
390.310008	3653.039367
390.693936	3676.231195
391.077802	3718.040005
391.461606	3705.172460
391.845348	3768.580093
392.229027	3768.678395
392.612645	3780.472175
392.996200	3860.172817
393.379694	3898.775452
393.763125	3960.637972
394.146494	3927.870472
394.529801	3990.826922
394.913047	4038.889282
395.296230	4006.303264
395.679351	4058.527097
396.062410	4083.014502
396.445408	4061.329979
396.828343	4094.067232
397.211217	4122.524545
397.594028	4040.308367
397.976778	4105.803038
398.359466	4135.820589
398.742092	4161.626255
399.124656	4087.138166
399.507158	4166.564065
399.889598	4191.777396
400.271977	4247.398967
400.654294	4220.630440
401.036549	4232.124271
401.418742	4198.227553
401.800874	4298.591885
402.182944	4323.485102
402.564952	4384.508270
402.946898	4372.903533
403.328783	4372.437227
403.710606	4282.044297
404.092367	4475.357424
404.474067	4439.759316
404.855705	4447.933547
405.237282	4377.228843
405.618797	4482.909072
406.000250	4519.056666
406.381642	4597.330662
406.762972	4564.419489
407.144240	4571.976178
407.525447	4567.721444
407.906593	4622.029795
408.287677	4669.494779
408.668700	4594.994087
409.049661	4645.191376
409.430560	4684.126728
409.811399	4611.531592
410.192176	4765.085138
410.572891	4700.608780
410.953545	4797.519922
411.334138	4677.056510
411.714669	4738.848453
412.095139	4628.210249
412.475547	4760.354015
412.855894	4734.704624
413.236180	4736.723607
413.616405	4681.666645
413.996568	4757.702368
414.376670	4690.478582
414.756711	4632.427175
415.136691	4653.484074
415.516609	4711.646387
415.896466	4733.156990
416.276262	4752.754476
416.655997	4716.672417
417.035670	4861.547617
417.415283	4928.652936
417.794834	4856.705589
418.174324	4795.072442
418.553753	4694.433367
418.933121	4828.812884
419.312428	4867.783524
419.691674	4785.995844
420.070859	4869.948700
420.449983	4764.477679
420.829045	4829.760621
421.208047	4721.993355
421.586988	4746.022015
421.965867	4722.200042
422.344686	4784.851502
422.723444	4640.898834
423.102141	4470.951455
423.480777	4653.728570
423.859352	4443.676292
424.237866	4587.321451
424.616319	4543.833937
424.994712	4576.727466
425.373044	4452.147951
425.751314	4497.422554
426.129524	4326.146832
426.507673	4395.641658
426.885762	4408.173966
427.263789	4310.005057
427.641756	4202.767112
428.019662	4218.286304
428.397508	4174.236702
428.775292	4090.646809
429.153016	4093.419444
429.530679	4008.662524
429.908282	3999.958972
430.285824	3895.100451
430.663305	3962.241059
431.040726	3795.651089
431.418086	3749.980756
431.795385	3746.058738
432.172624	3702.941749
432.549802	3653.641785
432.926920	3610.411370
433.303977	3570.195565
433.680974	3538.224568
434.057910	3495.054647
434.434786	3450.876495
434.811601	3400.222981
435.188355	3424.753236
435.565050	3347.462265
435.941683	3302.217909
436.318257	3308.970535
436.694770	3259.852052
437.071222	3230.063874
437.447614	3176.352901
437.823946	3127.453708
438.200218	3121.883233
438.576429	3064.673699
438.952580	3043.478167
439.328670	3019.479755
439.704700	2981.403920
440.080670	2946.783796
440.456580	2948.976698
440.832429	2909.630492
441.208218	2866.677340
441.583947	2861.265662
441.959616	2838.073833
442.335224	2808.245326
442.710773	2798.420117
443.086261	2776.168464
443.461689	2747.038157
443.837057	2738.294275
444.212365	2727.803634
444.587612	2707.076930
444.962800	2701.629963
445.337927	2686.687983
445.712995	2659.823675
446.088002	2669.953873
446.462949	2651.498209
446.837837	2642.761889
447.212664	2634.345683
447.587431	2631.061371
447.962139	2635.474902
448.336786	2647.523259
448.711374	2633.904582
449.085901	2608.441714
449.460369	2598.571135
449.834776	2593.744230
450.209124	2594.906216
450.583412	2594.303798
450.957640	2592.219281
451.331808	2584.967581
451.705917	2576.813515
452.079965	2573.322516
452.453954	2574.325705
452.827883	2570.277659
453.201752	2569.279510
453.575562	2565.801114
453.949311	2565.052503
454.323001	2563.338511
454.696632	2564.477811
455.070202	2565.042421
455.443713	2561.221226
455.817164	2559.726524
456.190556	2559.759291
456.563888	2558.022614
456.937160	2556.782490
457.310373	2557.934394
457.683526	2557.863818
458.056619	2555.741492
458.429653	2557.024465
458.802628	2556.185113
459.175542	2556.482541
459.548398	2559.164435
459.921194	2558.917419
460.293930	2556.976574
460.666607	2559.842470
461.039224	2563.903120
461.411782	2560.785166
461.784280	2564.001422
462.156719	2561.165773
462.529099	2563.570404
462.901419	2557.364743
463.273680	2557.750392
463.645882	2557.659651
464.018024	2555.817109
464.390106	2559.111503
464.762130	2562.345403
465.134094	2563.456978
465.505999	2567.867987
465.877845	2574.045921
466.249631	2578.638412
466.621358	2573.693041
466.993026	2576.498443
467.364634	2573.801425
467.736184	2568.757751
468.107674	2565.130641
468.479105	2565.932184
468.850477	2566.196845
469.221790	2566.789180
469.593043	2563.328428
469.964238	2563.245249
470.335373	2563.784653
470.706449	2563.898079
471.077467	2565.148285
471.448425	2572.357135
471.819324	2575.185222
472.190164	2579.417271
472.560945	2570.857392
472.931667	2568.041907
473.302330	2567.003429
473.672934	2566.411094
474.043479	2569.576938
474.413965	2565.909499
474.784393	2560.601164
475.154761	2563.877914
475.525070	2562.577296
475.895321	2564.530743
476.265513	2563.477142
476.635645	2568.382185
477.005719	2568.593913
477.375734	2571.719429
477.745691	2570.038204
478.115588	2571.076682
478.485427	2573.478792
478.855207	2576.952147
479.224928	2581.315265
479.594591	2583.871130
479.964194	2584.438260
480.333739	2580.987590
480.703226	2585.302818
481.072653	2581.252251
481.442022	2586.079156
481.811333	2583.288877
482.180584	2584.269381
482.549777	2586.212746
482.918912	2581.078331
483.287988	2582.772159
483.657005	2581.917683
484.025964	2582.157138
484.394864	2580.417940
484.763706	2583.553538
485.132489	2577.662949
485.501213	2579.260995
485.869879	2580.685121
486.238487	2578.971129
486.607036	2577.118505
486.975527	2578.119174
487.343959	2576.931982
487.712333	2579.999524
488.080648	2580.672518
488.448905	2579.810481
488.817104	2577.673032
489.185244	2579.034143
489.553326	2581.302662
489.921350	2585.081007
490.289315	2587.833477
490.657222	2586.487489
491.025070	2584.949937
491.392861	2586.227870
491.760593	2584.619742
492.128267	2582.789803
492.495883	2581.252251
492.863440	2578.698906
493.230939	2577.650346
493.598380	2576.823597
493.965763	2569.758420
494.333088	2573.284707
494.700354	2571.946281
495.067563	2576.024574
495.434713	2569.075344
495.801805	2575.427197
496.168839	2573.924934
496.535815	2573.675397
496.902733	2572.856209
497.269593	2576.201015
497.636395	2571.613565
498.003139	2574.161868
498.369825	2572.957032
498.736453	2574.267732
499.103023	2573.962742
499.469535	2574.852506
499.835989	2573.733370
500.202385	2574.413926
500.568723	2570.186918
500.935003	2574.756724
501.301226	2573.687999
501.667390	2572.936867
502.033497	2574.902918
502.399546	2575.031467
502.765537	2574.076168
503.131470	2572.858730
503.497345	2575.903587
503.863163	2575.447362
504.228923	2576.339646
504.594625	2575.487691
504.960269	2573.045252
505.325856	2574.857547
505.691385	2572.989800
506.056856	2574.567681
506.422270	2574.247567
506.787625	2573.289748
507.152924	2577.247054
507.518164	2578.308217
507.883347	2574.174471
508.248472	2578.139338
508.613540	2574.731518
508.978550	2575.520459
509.343503	2575.575912
509.708398	2576.047259
510.073236	2576.281673
510.438016	2576.884091
510.802738	2577.819225
511.167403	2577.625141
511.532010	2574.890315
511.896561	2578.343505
512.261053	2578.159503
512.625488	2575.865778
512.989866	2572.871332
513.354186	2575.853175
513.718449	2572.387382
514.082655	2574.557598
514.446803	2576.730336
514.810894	2580.992631
515.174927	2579.782754
515.538904	2576.309399
515.902822	2578.638412
516.266684	2580.203691
516.630488	2579.046746
516.994235	2576.528690
517.357925	2575.578432
517.721558	2580.506160
518.085133	2579.971798
518.448651	2583.246027
518.812112	2579.475244
519.175516	2578.330902
519.538863	2580.856520
519.902152	2576.261508
520.265385	2579.649164
520.628560	2580.569174
520.991678	2580.468351
521.354739	2581.486664
521.717743	2581.751325
522.080690	2582.651171
522.443580	2580.425502
522.806413	2581.267374
523.169189	2581.673187
523.531908	2580.841397
523.894569	2580.153279
524.257174	2581.259813
524.619722	2578.777044
524.982213	2580.024730
525.344647	2579.172775
525.707025	2579.046746
526.069345	2580.803588
526.431608	2582.840214
526.793815	2582.086562
527.155964	2583.341809
527.518057	2579.598752
527.880093	2582.832652
528.242072	2579.858372
528.603995	2577.592373
528.965860	2579.329051
529.327669	2579.792837
529.689421	2580.317117
530.051117	2580.541448
530.412755	2579.329051
530.774337	2578.560275
531.135862	2581.020358
531.497331	2577.816704
531.858743	2575.838052
532.220098	2577.178998
532.581396	2573.335119
532.942638	2575.003741
533.303824	2576.841241
533.664953	2578.119174
534.026025	2578.557754
534.387040	2579.051787
534.747999	2576.841241
535.108902	2579.177816
535.469748	2577.879719
535.830537	2580.123032
536.191270	2578.116653
536.551947	2580.985070
536.912567	2581.020358
537.273131	2578.156982
537.633638	2579.480285
537.994089	2581.224524
538.354483	2579.850810
538.714821	2576.521128
539.075103	2577.940213
539.435328	2581.479103
539.795497	2579.069431
540.155609	2580.793506
540.515665	2579.260995
540.875665	2579.611355
541.235609	2577.637743
541.595496	2579.850810
541.955328	2580.198650
542.315102	2583.190574
542.674821	2577.736046
543.034483	2580.606983
543.394090	2576.475757
543.753640	2581.363156
544.113134	2578.184709
544.472571	2580.733012
544.831953	2582.653692
545.191278	2578.842579
545.550548	2580.790985
545.909761	2577.262177
546.268918	2580.339802
546.628019	2578.071283
546.987064	2576.813515
547.346053	2579.991962
547.704986	2578.940882
548.063863	2580.914493
548.422684	2580.773341
548.781449	2579.293763
549.140158	2576.901735
549.498811	2579.981880
549.857408	2578.900552
550.215949	2575.780078
550.574434	2576.047259
550.932864	2576.695048
551.291237	2572.097515
551.649555	2581.083372
552.007817	2577.625141
552.366022	2581.179154
552.724173	2576.342167
553.082267	2577.796540
553.440305	2576.964749
553.798288	2580.584298
554.156215	2580.042374
554.514086	2579.833166
554.871902	2576.725295
555.229661	2577.874678
555.587365	2578.971129
555.945014	2577.247054
556.302606	2579.250913
556.660143	2577.254616
557.017625	2579.835687
557.375050	2580.697724
557.732421	2579.855851
558.089735	2580.402816
558.446994	2577.085737
558.804197	2579.999524
559.161345	2580.201170
559.518437	2577.617579
559.875474	2576.969791
560.232455	2576.304358
560.589381	2577.347877
560.946251	2580.254102
561.303065	2579.618917
561.659825	2580.085224
562.016528	2576.425346
562.373177	2576.211097
562.729770	2580.584298
563.086307	2581.342992
563.442789	2580.067580
563.799216	2578.739236
564.155587	2575.636405
564.511904	2576.183371
564.868164	2578.109091
565.224370	2578.751838
565.580520	2575.449883
565.936615	2576.198494
566.292654	2574.605489
566.648638	2582.585636
567.004567	2577.153793
567.360441	2578.114132
567.716260	2576.987435
568.072023	2576.795871
568.427732	2572.170612
568.783385	2575.205387
569.138982	2572.770509
569.494525	2572.924265
569.850013	2574.257650
570.205445	2575.046590
570.560823	2577.950295
570.916145	2574.318144
571.271412	2576.306879
571.626625	2576.316961
571.981782	2576.216138
572.336884	2574.474419
572.691931	2574.088771
573.046923	2573.554409
573.401860	2576.717733
573.756743	2574.028277
574.111570	2576.102712
574.466342	2575.538103
574.821059	2574.771848
575.175722	2576.750500
575.530330	2572.785633
575.884882	2574.698751
576.239380	2575.681776
576.593823	2577.569688
576.948211	2573.531724
577.302544	2574.439131
577.656823	2575.097002
578.011047	2573.839234
578.365216	2571.185067
578.719330	2573.317475
579.073389	2573.020047
579.427394	2574.471899
579.781344	2572.326888
580.135239	2574.645819
580.489080	2573.624985
580.842866	2573.619944
581.196597	2572.158009
581.550273	2571.578277
581.903895	2571.737073
582.257463	2575.747311
582.610975	2569.090467
582.964434	2574.081209
583.317837	2568.558625
583.671186	2574.665983
584.024481	2574.870150
584.377721	2570.333112
584.730906	2573.057855
585.084037	2574.242526
585.437113	2569.957546
585.790135	2572.016857
586.143103	2571.485015
586.496016	2572.556260
586.848874	2565.223902
587.201679	2567.419325
587.554428	2564.598799
587.907124	2566.363203
588.259765	2565.997719
588.612352	2570.688513
588.964884	2569.856722
589.317362	2567.731876
589.669786	2569.791188
590.022155	2574.986097
590.374470	2569.529048
590.726731	2570.438976
591.078937	2574.048442
591.431090	2567.394119
591.783188	2567.784808
592.135232	2568.246074
592.487222	2570.549881
592.839157	2570.325550
593.191038	2567.028635
593.542866	2567.023594
593.894639	2570.459140
594.246358	2568.898903
594.598022	2568.379664
594.949633	2567.089129
595.301190	2567.583162
595.652692	2571.416960
596.004141	2567.278172
596.355535	2568.059551
596.706876	2568.341856
597.058162	2566.370765
597.409395	2567.933522
597.760573	2568.596434
598.111698	2567.139541
598.462768	2569.206414
598.813785	2567.762123
599.164748	2567.033676
599.515657	2567.457133
599.866511	2566.068295
600.217312	2566.547205
600.568060	2568.392267
600.918753	2567.744479
601.269392	2565.985116
601.619978	2563.726679
601.970510	2567.152143
602.320988	2564.752554
602.671412	2566.524520
603.021783	2566.426217
603.372100	2567.038717
603.722363	2565.516289
604.072572	2566.262380
604.422728	2569.178687
604.772830	2566.300188
605.122878	2559.711400
605.472872	2562.889848
605.822813	2562.985630
606.172701	2563.923284
606.522534	2565.249108
606.872314	2566.184242
607.222041	2566.688357
607.571714	2565.362534
607.921333	2565.077709
608.270899	2564.104766
608.620411	2566.393450
608.969870	2566.983265
609.319276	2567.507545
609.668627	2570.698595
610.017926	2572.962073
610.367171	2575.253278
610.716362	2573.342680
611.065500	2570.834706
611.414585	2568.735066
611.763616	2569.443348
612.112594	2566.826989
612.461518	2569.029973
612.810389	2565.702812
613.159207	2567.835220
613.507971	2567.265569
613.856682	2569.584500
614.205340	2565.836402
614.553945	2567.784808
614.902496	2565.818758
615.250994	2566.464026
615.599439	2568.475446
615.947830	2565.667524
616.296169	2566.640466
616.644454	2568.588872
616.992686	2566.890003
617.340864	2565.982596
617.688990	2564.898748
618.037063	2566.191804
618.385082	2565.148285
618.733048	2566.552246
619.080961	2567.444530
619.428821	2564.941598
619.776628	2564.288768
620.124382	2568.414952
620.472083	2567.378995
620.819731	2569.995354
621.167326	2566.799263
621.514868	2564.848336
621.862357	2565.995199
622.209793	2564.878583
622.557176	2565.997719
622.904506	2562.184086
623.251783	2561.894220
623.599007	2559.887841
623.946179	2562.000084
624.293297	2561.811041
624.640363	2563.313305
624.987376	2564.850857
625.334336	2561.455640
625.681243	2561.538819
626.028097	2561.468242
626.374899	2562.443706
626.721647	2561.926987
627.068343	2559.524878
627.414987	2560.371792
627.761577	2561.478325
628.108115	2559.718962
628.454600	2561.238870
628.801032	2561.564024
629.147412	2561.470763
629.493739	2560.500341
629.840014	2561.964796
630.186236	2560.497820
630.532405	2558.461194
630.878521	2562.403377
631.224585	2559.449260
631.570597	2560.843139
631.916556	2558.564538
632.262462	2562.133675
632.608316	2559.950855
632.954117	2561.246432
633.299866	2561.138047
633.645562	2559.217367
633.991206	2561.773232
634.336797	2558.935063
634.682336	2560.868345
635.027823	2556.938766
635.373257	2559.746688
635.718639	2557.672254
636.063968	2559.146791
636.409245	2558.027655
636.754470	2557.662171
637.099642	2556.532953
637.444762	2557.510937
637.789829	2554.035061
638.134845	2557.672254
638.479808	2558.602347
638.824719	2558.209137
639.169577	2557.621842
639.514383	2557.112686
639.859137	2558.993036
640.203839	2556.212840
640.548489	2554.881975
640.893086	2554.995401
641.237632	2550.438198
641.582125	2551.587581
641.926566	2552.981460
642.270955	2555.096224
642.615292	2554.387942
642.959576	2555.073539
643.303809	2555.527243
643.647990	2556.767367
643.992118	2555.643189
644.336195	2556.268292
644.680219	2552.812581
645.024192	2556.154866
645.368112	2558.161246
645.711981	2555.073539
646.055797	2554.889537
646.399562	2557.745350
646.743274	2555.577654
647.086935	2559.214847
647.430544	2558.897254
647.774101	2555.756615
648.117606	2558.010011
648.461059	2556.686708
648.804460	2561.085115
649.147810	2557.248797
649.491108	2556.376677
649.834354	2556.671585
650.177548	2557.541184
650.520690	2555.048333
650.863781	2552.449618
651.206820	2557.730227
651.549807	2555.043292
651.892742	2554.846687
652.235626	2554.214022
652.578458	2551.764021
652.921238	2553.599001
653.263967	2555.549928
653.606644	2552.195040
653.949269	2553.427602
654.291843	2557.407593
654.634365	2553.606563
654.976836	2552.434495
655.319255	2554.738302
655.661622	2553.425082
656.003938	2550.533980
656.346203	2551.393497
656.688416	2554.050185
657.030577	2552.555483
657.372687	2552.469783
657.714746	2553.208312
658.056753	2552.610935
658.398708	2548.769576
658.740612	2551.300235
659.082465	2549.760163
659.424266	2549.702189
659.766016	2548.099102
660.107715	2554.355174
660.449362	2552.772252
660.790958	2554.030020
661.132503	2554.370298
661.473996	2551.484237
661.815438	2552.898281
662.156829	2556.953889
662.498168	2551.912735
662.839456	2553.639331
663.180693	2554.110678
663.521879	2554.927345
663.863013	2553.478014
664.204097	2553.198230
664.545129	2553.465411
664.886110	2552.857952
665.227040	2552.875596
665.567918	2551.176727
665.908746	2553.616645
666.249522	2552.520194
666.590248	2554.929866
666.930922	2552.527756
667.271545	2554.720658
667.612118	2552.661347
667.952639	2553.606563
668.293109	2554.007335
668.633528	2555.749053
668.973896	2552.247972
669.314213	2554.370298
669.654480	2553.417520
669.994695	2550.647406
670.334859	2553.853580
670.674973	2552.119423
671.015035	2552.850390
671.355047	2550.959957
671.695008	2551.574978
672.034918	2551.927859
672.374777	2555.920453
672.714585	2551.806871
673.054342	2552.608415
673.394049	2553.760318
673.733705	2552.026161
674.073310	2552.994063
674.412864	2552.300904
674.752368	2554.571944
675.091820	2549.901315
675.431223	2549.634134
675.770574	2554.173693
676.109875	2545.235727
676.449125	2549.515667
676.788324	2549.457693
677.127473	2549.833259
677.466571	2544.449307
677.805619	2551.224618
678.144616	2551.708569
678.483562	2552.033723
678.822458	2553.072201
679.161303	2555.935576
679.500098	2549.417364
679.838842	2552.774773
680.177535	2552.598332
680.516179	2551.590102
680.854771	2551.658157
681.193314	2551.506923
681.531805	2552.469783
681.870247	2554.450956
682.208638	2550.223949
682.546978	2554.461039
682.885268	2551.065822
683.223508	2552.810061
683.561697	2551.264947
683.899836	2553.246121
684.237925	2553.014228
684.575963	2552.437015
684.913951	2554.065308
685.251889	2553.689742
685.589776	2551.751418
685.927614	2552.182437
686.265401	2552.091696
686.603137	2552.333672
686.940824	2551.655637
687.278460	2551.796789
687.616046	2553.687222
687.953582	2553.233518
688.291068	2553.170503
688.628504	2551.451470
688.965889	2552.474824
689.303224	2551.766542
689.640510	2554.113199
689.977745	2551.670760
690.314930	2550.060111
690.652065	2552.124464
690.989150	2549.513146
691.326185	2552.681511
691.663170	2549.167827
692.000105	2549.722354
692.336990	2549.233362
692.673825	2550.198743
693.010610	2550.546583
693.347345	2544.711447
693.684030	2544.804708
694.020665	2547.811757
694.357251	2544.686241
694.693786	2547.267312
695.030272	2547.105995
695.366707	2547.320244
695.703093	2547.630275
696.039429	2548.023485
696.375716	2549.671942
696.711952	2548.210008
697.048139	2547.390820
697.384276	2546.395193
697.720363	2547.020296
698.056400	2546.889226
698.392388	2546.710265
698.728326	2548.026006
699.064214	2545.573484
699.400053	2547.322765
699.735842	2545.817980
700.071581	2548.986346
700.407270	2544.842517
700.742910	2548.610780
701.078501	2546.750594
701.414042	2546.622044
701.749533	2546.659853
702.084974	2547.171530
702.420366	2545.313865
702.755709	2542.125335
703.091002	2544.981149
703.426246	2550.844011
703.761440	2543.546941
704.096584	2547.143804
704.431679	2544.298072
704.766725	2545.434853
705.101721	2544.098947
705.436668	2548.189843
705.771565	2546.052394
706.106413	2544.993752
706.441212	2545.182795
706.775961	2547.897456
707.110661	2546.866540
707.445311	2545.636499
707.779913	2549.175389
708.114465	2546.851417
708.448967	2548.940975
708.783421	2546.559030
709.117825	2548.872920
709.452180	2548.204967
709.786485	2545.835624
710.120742	2548.441901
710.454949	2547.100954
710.789107	2547.990718
711.123216	2545.591128
711.457275	2545.303783
711.791286	2544.141797
712.125247	2548.714123
712.459159	2548.474668
712.793023	2549.714792
713.126837	2544.156920
713.460602	2550.327292
713.794318	2547.378217
714.127985	2549.780327
714.461602	2547.151366
714.795171	2548.998948
715.128691	2548.512477
715.462162	2545.974256
715.795584	2547.035419
716.128957	2546.251520
716.462281	2546.745553
716.795556	2546.155738
717.128782	2548.734288
717.461960	2545.457538
717.795088	2544.471992
718.128167	2549.223280
718.461198	2546.833773
718.794180	2547.383259
719.127113	2545.291180
719.459997	2545.392003
719.792833	2543.216745
720.125619	2544.378731
720.458357	2542.657177
720.791046	2545.225645
721.123686	2542.720191
721.456278	2543.516694
721.788821	2541.961498
722.121315	2543.284801
722.453761	2541.858154
722.786158	2543.461241
723.118506	2541.354039
723.450805	2542.024512
723.783056	2543.246992
724.115259	2544.444266
724.447412	2544.595501
724.779518	2545.134904
725.111574	2541.966539
725.443582	2545.334030
725.775542	2545.712116
726.107453	2540.567619
726.439315	2546.518701
726.771129	2547.975594
727.102895	2543.133566
727.434612	2547.335368
727.766281	2544.434184
728.097901	2542.266488
728.429473	2541.038967
728.760996	2543.436035
729.092471	2539.972763
729.423897	2546.866540
729.755276	2544.582898
730.086606	2545.991900
730.417887	2545.001313
730.749120	2547.935265
731.080305	2546.319575
731.411442	2548.661191
731.742530	2545.686910
732.073570	2545.316386
732.404562	2546.601880
732.735506	2544.509801
733.066401	2547.221942
733.397249	2546.455686
733.728048	2546.488454
734.058798	2545.182795
734.389501	2541.538041
734.720156	2543.761190
735.050762	2543.279759
735.381320	2545.777651
735.711831	2541.548123
736.042293	2544.577857
736.372707	2542.329502
736.703073	2540.928061
737.033391	2544.686241
737.363661	2542.601724
737.693883	2541.033925
738.024056	2547.703372
738.354182	2541.835469
738.684260	2543.625078
739.014290	2543.211704
739.344272	2542.586601
739.674207	2543.849410
740.004093	2545.533155
740.333931	2542.853782
740.663722	2545.490305
740.993464	2542.563916
741.323159	2545.694472
741.652806	2542.337064
741.982405	2545.278577
742.311956	2543.133566
742.641460	2544.587939
742.970915	2542.127856
743.300323	2540.683565
743.629683	2542.137938
743.958996	2541.573329
744.288260	2540.446631
744.617477	2541.164995
744.946647	2540.650798
745.275768	2539.060314
745.604842	2536.567463
745.933869	2538.346990
746.262847	2536.995961
746.591778	2540.323123
746.920662	2539.771116
747.249498	2542.382434
747.578286	2540.731456
747.907027	2544.464431
748.235720	2543.115922
748.564365	2541.918648
748.892963	2542.326981
749.221514	2541.898483
749.550017	2539.531662
749.878473	2543.919986
750.206881	2541.346477
750.535242	2540.318082
750.863555	2540.766744
751.191821	2542.027033
751.520039	2540.313040
751.848210	2543.090716
752.176334	2543.095757
752.504411	2541.553164
752.832440	2541.159954
753.160421	2541.548123
753.488356	2541.323792
753.816243	2543.181457
754.144082	2544.797147
754.471875	2541.359080
754.799620	2542.354708
755.127318	2540.605427
755.454969	2541.979142
755.782572	2542.906714
756.110129	2540.655839
756.437638	2542.810932
756.765100	2540.648277
757.092515	2540.202135
757.419882	2541.127187
757.747203	2541.129707
758.074477	2540.305479
758.401703	2539.592155
758.728882	2543.241951
759.056014	2543.761190
759.383099	2537.873122
759.710138	2543.322609
760.037129	2541.533000
760.364073	2541.291024
760.690970	2540.789429
761.017820	2540.242464
761.344623	2539.937474
761.671379	2544.169523
761.998088	2537.439583
762.324751	2543.113401
762.651366	2540.781868
762.977935	2552.096738
763.304456	2546.795964
763.630931	2552.734443
763.957359	2549.583722
764.283740	2547.360573
764.610074	2546.846376
764.936362	2547.423588
765.262602	2542.952084
765.588796	2542.926879
765.914943	2539.743390
766.241044	2542.019471
766.567097	2542.591642
766.893104	2538.745242
767.219064	2542.727753
767.544978	2540.318082
767.870845	2541.233051
768.196665	2540.096271
768.522438	2539.196425
768.848165	2538.319264
769.173846	2540.519728
769.499479	2539.324974
769.825066	2540.776827
770.150607	2539.977804
770.476101	2537.215251
770.801548	2541.971580
771.126949	2538.248688
771.452303	2538.730118
771.777611	2537.958822
772.102872	2537.895807
772.428087	2539.408153
772.753256	2540.784388
773.078378	2539.614841
773.403453	2537.782381
773.728482	2537.764737
774.053465	2540.333205
774.378401	2536.993441
774.703291	2541.381765
775.028135	2536.343132
775.352932	2537.439583
775.677683	2537.013605
776.002388	2540.045859
776.327046	2536.622916
776.651658	2537.921013
776.976224	2536.454037
777.300743	2537.371527
777.625216	2537.921013
777.949643	2538.024357
778.274024	2534.167874
778.598359	2535.566794
778.922647	2535.140817
779.246889	2534.913965
779.571086	2533.096629
779.895236	2536.237268
780.219339	2538.336908
780.543397	2540.053421
780.867409	2537.505118
781.191374	2537.558050
781.515294	2538.319264
781.839167	2537.623585
782.162995	2535.672658
782.486776	2537.457227
782.810511	2536.706095
783.134201	2535.934798
783.457844	2536.209541
783.781441	2539.819007
784.104993	2536.378420
784.428498	2539.030067
784.751958	2540.045859
785.075372	2538.036959
785.398739	2536.696012
785.722061	2536.053265
786.045337	2534.092257
786.368568	2537.454706
786.691752	2535.624767
787.014891	2537.794984
787.337983	2535.861702
787.661030	2537.101825
787.984031	2539.181301
788.306987	2540.376055
788.629897	2539.607279
788.952760	2540.159285
789.275579	2534.767771
789.598351	2540.302958
789.921078	2538.352032
790.243759	2536.572504
790.566395	2535.319777
790.888984	2539.594676
791.211529	2533.663758
791.534027	2537.905889
791.856480	2536.103677
792.178888	2538.402443
792.501249	2534.571166
792.823566	2536.965714
793.145836	2535.481094
793.468062	2537.623585
793.790241	2536.512010
794.112375	2538.576363
794.434464	2533.608306
794.756507	2538.755324
795.078505	2536.743903
795.400457	2536.010416
795.722364	2533.023532
796.044226	2534.919006
796.366042	2534.916485
796.687812	2535.407998
797.009538	2538.772968
797.331218	2537.409336
797.652852	2537.810108
797.974442	2537.225334
798.295986	2535.135775
798.617484	2534.188038
798.938938	2536.428831
799.260346	2537.757175
799.581709	2537.023688
799.903026	2536.522093
800.224299	2536.635519
800.545526	2536.927906
800.866708	2538.367155
801.187845	2534.556043
801.508936	2534.694674
801.829983	2535.866743
802.150984	2536.000333
802.471940	2537.578214
802.792851	2537.742052
803.113717	2537.157278
803.434538	2534.636701
803.755314	2536.905220
804.076045	2537.159799
804.396731	2535.153419
804.717372	2535.047555
805.037967	2537.021167
805.358518	2534.772812
805.679024	2535.657535
805.999485	2536.527134
806.319901	2536.300282
806.640272	2535.909593
806.960598	2536.927906
807.280879	2536.060827
807.601115	2535.685261
807.921306	2535.377751
808.241453	2537.754655
808.561554	2535.251722
808.881611	2535.866743
809.201623	2536.711136
809.521590	2538.467978
809.841513	2536.305323
810.161390	2537.623585
810.481223	2535.082843
810.801011	2539.783719
811.120755	2533.560415
811.440453	2539.256919
811.760107	2537.386651
812.079716	2534.583769
812.399281	2533.575538
812.718801	2534.046886
813.038276	2529.998840
813.357707	2536.285158
813.677093	2537.127031
813.996434	2536.968235
814.315731	2536.398584
814.634983	2536.559901
814.954191	2538.430169
815.273354	2535.685261
815.592473	2534.384643
815.911547	2536.688451
816.230577	2538.276414
816.549562	2535.634850
816.868502	2536.345652
817.187399	2536.285158
817.506250	2538.893956
817.825058	2538.367155
818.143821	2536.023018
818.462539	2539.143493
818.781213	2538.873791
819.099843	2539.687937
819.418429	2540.393699
819.736970	2538.954449
820.055466	2540.522248
820.373919	2541.681714
820.692327	2542.894111
821.010691	2546.238917
821.329011	2556.689229
821.647286	2569.337484
821.965517	2587.427664
822.283704	2602.543564
822.601847	2598.031731
822.919945	2592.410845
823.237999	2582.668815
823.556010	2573.151117
823.873976	2564.939077
824.191897	2560.306257
824.509775	2556.008673
824.827609	2549.548434
825.145398	2549.442570
825.463144	2547.988197
825.780845	2549.308979
826.098502	2549.240924
826.416116	2554.876934
826.733685	2561.183417
827.051210	2562.138716
827.368692	2561.800959
827.686129	2556.971533
828.003522	2549.508105
828.320872	2544.678680
828.638177	2543.819163
828.955439	2540.129038
829.272656	2536.753986
829.589830	2535.463450
829.906960	2540.260108
830.224046	2537.628626
830.541088	2537.053934
830.858086	2537.769778
831.175041	2536.869932
831.491952	2536.247350
831.808819	2537.701723
832.125642	2537.641229
832.442421	2539.072917
832.759157	2540.381096
833.075849	2543.010058
833.392497	2546.168341
833.709101	2548.608259
834.025662	2550.090358
834.342179	2546.904349
834.658653	2543.284801
834.975083	2542.957126
835.291469	2543.879657
835.607811	2539.304810
835.924110	2538.455375
836.240366	2538.866229
836.556578	2533.893131
836.872746	2534.767771
837.188871	2533.237781
837.504952	2536.756506
837.820990	2535.957483
838.136984	2535.607123
838.452935	2537.116949
838.768842	2534.709798
839.084706	2536.653163
839.400526	2535.450848
839.716303	2538.067206
840.032037	2540.973432
840.347727	2542.700027
840.663373	2538.190715
840.978977	2536.030580
841.294537	2535.912113
841.610054	2537.610982
841.925527	2535.322298
842.240957	2535.196269
842.556344	2532.557225
842.871687	2532.499252
843.186987	2536.015457
843.502244	2533.535209
843.817458	2531.700229
844.132629	2531.947246
844.447756	2533.961187
844.762840	2529.802235
845.077881	2531.647297
845.392879	2530.893644
845.707833	2528.922553
846.022745	2526.275948
846.337613	2533.560415
846.652438	2533.678882
846.967221	2534.929088
847.281960	2533.199972
847.596656	2532.274921
847.911309	2531.261649
848.225919	2534.099818
848.540485	2532.161495
848.855009	2535.924716
849.169490	2531.879190
849.483928	2533.414221
849.798323	2536.577545
850.112675	2533.086546
850.426984	2532.494211
850.741251	2533.257946
851.055474	2531.238963
851.369654	2534.654345
851.683792	2533.036135
851.997887	2534.528316
852.311938	2533.318439
852.625947	2533.862884
852.939914	2531.236443
853.253837	2533.910775
853.567718	2531.538912
853.881555	2532.647966
854.195350	2532.400949
854.509103	2533.152081
854.822812	2531.443130
855.136479	2532.597554
855.450103	2530.828109
855.763685	2533.709129
856.077224	2533.288192
856.390720	2533.439427
856.704173	2533.414221
857.017584	2532.048069
857.330953	2531.538912
857.644278	2530.409694
857.957561	2534.906403
858.270802	2534.543440
858.584000	2533.794828
858.897155	2533.187369
859.210268	2532.539581
859.523339	2531.410363
859.836367	2533.416742
860.149352	2532.844571
860.462295	2533.623429
860.775195	2531.238963
861.088054	2530.389529
861.400869	2529.711494
861.713642	2526.807789
862.026373	2532.075795
862.339062	2531.617050
862.651708	2531.231402
862.964312	2532.509334
863.276873	2533.774664
863.589392	2533.434386
863.901869	2535.297092
864.214303	2535.196269
864.526696	2533.179808
864.839045	2534.193080
865.151353	2535.065199
865.463619	2532.562266
865.775842	2535.271887
866.088023	2533.202493
866.400162	2533.880528
866.712258	2531.669982
867.024313	2534.992103
867.336325	2534.636701
867.648296	2534.293903
867.960224	2530.946577
868.272110	2534.006557
868.583954	2535.443286
868.895755	2533.328522
869.207515	2530.336597
869.519233	2533.071423
869.830909	2533.472195
870.142542	2535.488656
870.454134	2532.947915
870.765684	2533.225178
871.077191	2534.949253
871.388657	2535.012267
871.700081	2532.080836
872.011463	2533.961187
872.322803	2534.503111
872.634101	2533.789787
872.945357	2532.718542
873.256571	2531.811134
873.567744	2534.432534
873.878874	2537.096784
874.189963	2533.744417
874.501010	2534.916485
874.812015	2532.466484
875.122979	2533.119314
875.433900	2534.858512
875.744780	2535.556712
876.055618	2535.347504
876.366415	2534.966897
876.677169	2535.017308
876.987882	2533.285672
877.298554	2528.730989
877.609183	2532.872297
877.919771	2530.145033
878.230317	2532.728624
878.540822	2536.819521
878.851285	2534.072092
879.161707	2537.147196
879.472087	2537.822710
879.782425	2539.282124
880.092722	2541.401930
880.402977	2549.908877
880.713191	2554.607232
881.023363	2566.146433
881.333494	2570.433935
881.643583	2570.370920
881.953631	2570.191959
882.263637	2571.968966
882.573602	2563.381360
882.883526	2560.220557
883.193408	2556.890875
883.503248	2551.927859
883.813048	2552.401727
884.122806	2544.356046
884.432522	2546.601880
884.742197	2542.984852
885.051831	2541.563247
885.361424	2540.363452
885.670975	2538.951929
885.980485	2535.899510
886.289954	2536.532175
886.599382	2536.252391
886.908768	2537.832793
887.218113	2535.738193
887.527417	2535.705426
887.836680	2533.353728
888.145901	2535.097967
888.455082	2533.421783
888.764221	2534.538399
889.073319	2535.874304
889.382376	2536.267514
889.691392	2536.970755
890.000366	2530.381967
890.309300	2533.981351
890.618193	2533.275590
890.927044	2532.521937
891.235855	2534.472864
891.544625	2532.842050
891.853353	2535.528985
892.162041	2534.417411
892.470687	2535.110570
892.779293	2534.946732
893.087858	2535.327339
893.396381	2532.708460
893.704864	2536.489325
894.013306	2533.217616
894.321707	2543.330171
894.630068	2546.808567
894.938387	2546.337219
895.246665	2544.638350
895.554903	2543.070552
895.863100	2543.020140
896.171256	2542.211035
896.479371	2537.558050
896.787446	2538.687268
897.095480	2538.082330
897.403473	2537.001002
897.711425	2537.356404
898.019336	2533.086546
898.327207	2534.707277
898.635038	2538.475540
898.942827	2535.670138
899.250576	2531.601927
899.558284	2533.767102
899.865952	2535.662576
900.173579	2533.827596
900.481165	2534.344314
900.788711	2533.918337
901.096216	2532.227030
901.403681	2534.571166
901.711105	2531.296937
902.018489	2535.052596
902.325832	2535.828934
902.633135	2531.859025
902.940397	2532.965559
903.247619	2534.956814
903.554800	2537.195087
903.861941	2542.556354
904.169041	2549.999617
904.476101	2550.990204
904.783121	2551.040616
905.090100	2547.259750
905.397039	2545.016437
905.703938	2538.919161
906.010796	2542.178267
906.317614	2537.747093
906.624391	2536.998482
906.931129	2535.465971
907.237826	2532.794159
907.544483	2532.796680
907.851099	2534.493028
908.157675	2533.275590
908.464211	2535.241640
908.770707	2528.060516
909.077163	2531.145702
909.383578	2529.351051
909.689954	2527.362316
909.996289	2525.058509
910.302584	2532.269879
910.608839	2531.387677
910.915054	2533.048738
911.221229	2531.357431
911.527363	2529.761905
911.833458	2533.363810
912.139513	2535.952442
912.445527	2533.288192
912.751502	2535.337422
913.057436	2535.574356
913.363331	2534.273738
913.669186	2531.559077
913.975000	2530.606299
914.280775	2534.855991
914.586510	2535.418080
914.892205	2537.104346
915.197859	2536.345652
915.503475	2544.144317
915.809050	2547.060625
916.114585	2547.494164
916.420081	2552.217725
916.725536	2549.908877
917.030952	2546.901828
917.336328	2545.800336
917.641665	2543.045346
917.946961	2543.841848
918.252218	2538.561239
918.557435	2538.117618
918.862612	2537.517721
919.167750	2535.632329
919.472848	2536.907741
919.777906	2534.182997
920.082925	2533.338604
920.387904	2533.202493
920.692843	2534.276259
920.997743	2533.157123
921.302603	2532.108563
921.607423	2532.600075
921.912204	2533.585621
922.216946	2531.022194
922.521647	2533.215096
922.826310	2531.180990
923.130932	2532.627801
923.435516	2529.519930
923.740059	2530.616381
924.044564	2528.199148
924.349028	2529.582944
924.653454	2526.066740
924.957840	2527.730320
925.262186	2528.453726
925.566493	2528.897347
925.870761	2525.209743
926.174989	2530.870959
926.479178	2529.971113
926.783328	2531.944725
927.087438	2528.521782
927.391509	2533.031094
927.695541	2530.366844
927.999533	2531.339787
928.303486	2531.977493
928.607400	2530.452543
928.911275	2528.867101
929.215110	2528.073119
929.518906	2531.279293
929.822663	2529.003212
930.126381	2527.548839
930.430060	2529.998840
930.733699	2528.887265
931.037299	2529.608150
931.340861	2530.732327
931.644383	2531.556556
931.947866	2529.061185
932.251309	2532.698378
932.554714	2529.656041
932.858080	2533.343645
933.161407	2529.267872
933.464694	2532.252235
933.767943	2528.829292
934.071153	2529.479601
934.374323	2527.967255
934.677455	2529.706453
934.980548	2531.808614
935.283602	2529.066226
935.586617	2529.225022
935.889593	2528.766278
936.192530	2527.241328
936.495428	2531.153264
936.798287	2527.654703
937.101108	2530.971782
937.403890	2529.025897
937.706632	2529.557739
938.009336	2528.993129
938.312002	2530.611340
938.614628	2530.772657
938.917216	2533.109232
939.219765	2532.196783
939.522275	2531.604447
939.824747	2529.875331
940.127179	2529.469518
940.429573	2525.454239
940.731929	2526.495238
941.034246	2525.053468
941.336524	2529.247708
941.638763	2530.951618
941.940964	2530.215609
942.243126	2529.285516
942.545250	2529.154446
942.847335	2529.217461
943.149381	2529.144364
943.451389	2527.954652
943.753359	2528.824251
944.055290	2529.318284
944.357182	2531.160826
944.659036	2530.747451
944.960851	2528.796524
945.262628	2529.449354
945.564367	2528.352903
945.866067	2530.031607
946.167729	2528.657893
946.469352	2530.001360
946.770937	2531.168387
947.072484	2528.299971
947.373992	2531.105373
947.675462	2530.709642
947.976893	2530.621422
948.278286	2529.242667
948.579641	2528.884745
948.880958	2528.947759
949.182236	2528.483973
949.483476	2529.651000
949.784678	2531.516227
950.085841	2530.765095
950.386967	2529.005732
950.688054	2529.164529
950.989103	2531.707791
951.290114	2530.132430
951.591087	2526.533046
951.892021	2528.811648
952.192917	2531.117976
952.493776	2528.511699
952.794596	2529.711494
953.095378	2527.821061
953.396122	2531.145702
953.696828	2532.216947
953.997496	2532.085877
954.298126	2528.995650
954.598718	2527.657224
954.899272	2526.275947
955.199788	2526.606143
955.500266	2530.190403
955.800706	2529.527492
956.101108	2529.333407
956.401472	2527.006915
956.701798	2523.931811
957.002087	2526.646472
957.302337	2529.517409
957.602550	2531.722914
957.902724	2527.994981
958.202861	2530.150074
958.502960	2526.296112
958.803022	2528.287368
959.103045	2528.741072
959.403031	2529.028418
959.702979	2527.004394
960.002889	2530.046731
960.302762	2526.283509
960.602596	2528.662934
960.902393	2527.848788
961.202153	2528.247039
961.501875	2526.588499
961.801559	2531.672503
962.101205	2526.341483
962.400814	2529.313243
962.700385	2527.634538
962.999918	2527.818541
963.299414	2524.589682
963.598873	2526.359127
963.898293	2527.755526
964.197677	2527.006915
964.497022	2527.702594
964.796331	2526.008766
965.095601	2531.221319
965.394835	2528.662934
965.694030	2526.800228
965.993189	2529.777029
966.292309	2528.826771
966.591393	2527.997502
966.890439	2528.327697
967.189447	2527.165711
967.488419	2528.738551
967.787353	2530.187883
968.086249	2529.119158
968.385108	2528.862059
968.683930	2527.957172
968.982714	2529.093952
969.281462	2527.649662
969.580172	2528.496576
969.878844	2529.035979
970.177480	2526.959024
970.476078	2527.148067
970.774639	2528.403314
971.073162	2525.378622
971.371649	2524.471214
971.670098	2522.699249
971.968510	2526.396935
972.266885	2523.591533
972.565223	2527.127903
972.863524	2528.433561
973.161788	2525.434075
973.460014	2525.862573
973.758204	2528.741072
974.056356	2528.441123
974.354471	2526.172604
974.652550	2527.233767
974.950591	2527.732841
975.248595	2527.445495
975.546563	2527.392563
975.844493	2526.724610
976.142386	2527.629497
976.440243	2526.981709
976.738062	2527.226205
977.035845	2528.952800
977.333590	2526.210412
977.631299	2527.778211
977.928971	2525.562624
978.226606	2528.892306
978.524204	2525.189579
978.821765	2528.201668
979.119290	2528.599919
979.416777	2527.271575
979.714228	2529.018335
980.011642	2527.563962
980.309020	2530.785260
980.606360	2527.884076
980.903664	2526.850639
981.200931	2527.170752
981.498162	2529.497245
981.795356	2527.566483
982.092513	2529.270393
982.389633	2528.471370
982.686717	2526.654034
982.983764	2528.826771
983.280775	2529.305681
983.577749	2530.127389
983.874686	2529.676206
984.171587	2530.571011
984.468451	2529.935825
984.765279	2528.083201
985.062070	2530.157636
985.358824	2528.080681
985.655543	2528.955321
985.952224	2527.110258
986.248869	2525.955834
986.545478	2523.170597
986.842050	2527.095135
987.138586	2527.417769
987.435086	2525.277799
987.731549	2523.304187
988.027975	2527.150588
988.324366	2525.310567
988.620719	2529.653521
988.917037	2526.643952
989.213318	2527.679909
989.509563	2527.916843
989.805772	2527.803417
990.101944	2524.428365
990.398080	2526.553211
990.694180	2526.515402
990.990244	2528.471370
991.286271	2523.929290
991.582262	2527.059847
991.878217	2525.744106
992.174136	2527.160670
992.470019	2526.064219
992.765865	2527.616894
993.061676	2525.590351
993.357450	2528.153777
993.653188	2525.744106
993.948890	2526.535567
994.244556	2525.764270
994.540186	2525.940711
994.835780	2527.374919
995.131337	2524.229239
995.426859	2528.650331
995.722345	2526.217974
996.017795	2527.853829
996.313208	2529.469518
996.608586	2524.987933
996.903928	2528.403314
997.199234	2527.692512
997.494504	2524.927439
997.789738	2526.805269
998.084936	2527.377440
998.380099	2529.030938
998.675225	2525.658406
998.970316	2524.284692
999.265371	2527.319466
999.560390	2528.478932
999.855373	2528.468849
1000.150320	2526.563293
1000.445232	2525.590351
1000.740108	2527.095135
1001.034948	2527.276617
1001.329752	2527.359796
1001.624521	2527.516071
1001.919254	2522.051461
1002.213951	2524.642614
1002.508613	2525.638242
1002.803239	2525.686133
1003.097829	2522.568179
1003.392384	2526.480114
1003.686903	2526.638911
1003.981386	2525.295443
1004.275834	2525.124044
1004.570246	2527.132944
1004.864623	2526.999353
1005.158964	2528.241997
1005.453270	2526.538087
1005.747540	2523.967099
1006.041775	2526.477594
1006.335974	2526.545649
1006.630138	2526.394415
1006.924266	2526.434744
1007.218359	2528.625125
1007.512416	2528.408356
1007.806438	2526.606143
1008.100425	2524.289733
1008.394376	2524.511544
1008.688292	2526.666637
1008.982172	2527.178314
1009.276017	2526.263345
1009.569827	2523.951976
1009.863602	2526.933818
1010.157341	2525.023221
1010.451045	2527.826102
1010.744714	2526.333921
1011.038347	2524.498941
1011.331945	2526.464991
1011.625508	2526.149919
1011.919036	2527.548839
1012.212528	2527.954652
1012.505986	2526.434744
1012.799408	2525.121523
1013.092795	2523.710000
1013.386147	2525.736544
1013.679464	2526.815351
1013.972745	2528.529343
1014.265992	2524.262007
1014.559204	2525.184538
1014.852380	2524.377953
1015.145521	2526.545649
1015.438628	2525.981040
1015.731699	2527.899199
1016.024736	2522.853004
1016.317737	2524.657737
1016.610703	2528.526823
1016.903635	2526.346524
1017.196531	2521.786800
1017.489393	2522.946265
1017.782219	2523.823426
1018.075011	2524.113293
1018.367768	2524.831657
1018.660490	2527.006915
1018.953177	2527.006915
1019.245829	2527.006915
