Dividing Wavelength (nm)	Counts (n)	Blue Motor Position (mm): 50.000000	Red Motor Position (mm): 0.000000	
326.493990	2285.646551
326.888308	2285.646551
327.282561	2285.646551
327.676750	2246.348236
328.070874	2243.061404
328.464933	2244.704820
328.858929	2249.733371
329.252859	2252.324524
329.646726	2261.784249
330.040528	2274.223296
330.434265	2288.827519
330.827938	2303.991310
331.221547	2323.064515
331.615091	2339.148317
332.008571	2362.158663
332.401986	2378.474358
332.795338	2400.040414
333.188625	2419.549679
333.581847	2438.217072
333.975006	2456.818930
334.368100	2475.430870
334.761129	2492.878303
335.154095	2508.944461
335.546996	2538.596528
335.939833	2579.772672
336.332606	2592.602409
336.725315	2606.644543
337.117960	2619.696090
337.510540	2630.385857
337.903056	2642.202321
338.295508	2648.511325
338.687896	2657.529950
339.080220	2660.710918
339.472480	2667.161074
339.864676	2672.212310
340.256807	2678.823783
340.648875	2684.079186
341.040879	2687.713858
341.432818	2690.544466
341.824694	2690.930114
342.216506	2691.628314
342.608253	2694.794159
342.999937	2691.638397
343.391557	2693.906916
343.783113	2696.266176
344.174605	2692.545804
344.566033	2693.357430
344.957397	2689.929445
345.348697	2691.928263
345.739934	2690.204188
346.131106	2687.444157
346.522215	2684.548014
346.913260	2685.765452
347.304241	2681.951819
347.695159	2680.701613
348.086012	2680.005934
348.476802	2678.246571
348.867528	2673.787671
349.258191	2670.768020
349.648789	2670.591579
350.039324	2669.462361
350.429796	2672.350942
350.820203	2669.515293
351.210548	2669.190138
351.600828	2669.096877
351.991045	2669.734583
352.381198	2665.494973
352.771288	2665.716783
353.161314	2662.767708
353.551276	2663.735610
353.941175	2662.795435
354.331010	2664.161587
354.720782	2665.787360
355.110490	2664.456495
355.500135	2663.470949
355.889717	2664.983296
356.279235	2664.522030
356.668689	2663.859118
357.058080	2664.879952
357.447408	2663.349962
357.836672	2662.936587
358.225873	2664.922802
358.615010	2666.225940
359.004084	2664.179232
359.393095	2666.858605
359.782043	2668.307937
360.170927	2669.711898
360.559748	2667.080416
360.948505	2672.310613
361.337199	2672.882784
361.725830	2671.141065
362.114398	2670.294151
362.502903	2672.797084
362.891344	2673.996879
363.279722	2673.137362
363.668037	2672.081240
364.056289	2673.197856
364.444478	2673.417146
364.832603	2675.451252
365.220665	2676.247754
365.608665	2678.382682
365.996601	2679.733712
366.384474	2678.385203
366.772284	2680.187416
367.160031	2680.152127
367.547715	2679.632889
367.935336	2682.715554
368.322893	2678.395285
368.710388	2678.992662
369.097820	2679.832014
369.485189	2679.872343
369.872495	2689.193437
370.259738	2691.131761
370.646918	2695.988912
371.034035	2700.445292
371.421090	2704.551312
371.808081	2711.540872
372.195010	2720.146122
372.581875	2726.878582
372.968678	2737.626322
373.355418	2748.691655
373.742096	2760.273706
374.128710	2776.027312
374.515262	2788.446194
374.901751	2806.269194
375.288177	2818.897284
375.674540	2840.468382
376.060841	2862.727596
376.447079	2889.370094
376.833254	2914.621234
377.219367	2932.938267
377.605417	2966.799697
377.991404	2991.587050
378.377329	3026.721372
378.763191	3050.813046
379.148991	3089.566917
379.534727	3130.642238
379.920402	3171.294103
380.306013	3191.176413
380.691563	3253.112030
381.077049	3272.384361
381.462474	3313.472285
381.847835	3371.218703
382.233134	3415.288469
382.618371	3437.000719
383.003545	3506.082171
383.388657	3530.506561
383.773706	3588.615942
384.158693	3621.557361
384.543618	3647.050476
384.928480	3706.848643
385.313280	3761.091459
385.698017	3784.336219
386.082692	3875.949108
386.467305	3876.095301
386.851856	3916.928647
387.236344	3994.587622
387.620770	4019.937065
388.005133	4070.174683
388.389435	4113.790746
388.773674	4124.495637
389.157851	4196.493396
389.541965	4272.110703
389.926018	4236.880600
390.310008	4334.285774
390.693936	4388.836100
391.077802	4416.902724
391.461606	4422.117798
391.845348	4481.179956
392.229027	4547.294689
392.612645	4547.319895
392.996200	4646.963342
393.379694	4702.965520
393.763125	4811.030214
394.146494	4839.074153
394.529801	4893.291763
394.913047	4982.323581
395.296230	4931.150828
395.679351	5036.364750
396.062410	5093.488585
396.445408	5058.303852
396.828343	5124.428667
397.211217	5176.665103
397.594028	5061.961209
397.976778	5173.113610
398.359466	5220.767637
398.742092	5243.115072
399.124656	5169.942724
399.507158	5287.820024
399.889598	5348.018963
400.271977	5468.452128
400.654294	5475.240042
401.036549	5520.688565
401.418742	5438.583292
401.800874	5644.685826
402.182944	5704.103386
402.564952	5805.909487
402.946898	5869.614549
403.328783	5696.024937
403.710606	5728.893260
404.092367	6050.236570
404.474067	6072.314304
404.855705	5963.448066
405.237282	5904.290125
405.618797	6166.684704
406.000250	6137.330065
406.381642	6352.022725
406.762972	6371.400920
407.144240	6422.742552
407.525447	6408.244193
407.906593	6411.052116
408.287677	6589.617347
408.668700	6508.187589
409.049661	6608.972857
409.430560	6636.679038
409.811399	6502.412947
410.192176	6760.204952
410.572891	6789.978006
410.953545	6974.585060
411.334138	6704.026333
411.714669	6876.322889
412.095139	6669.605335
412.475547	6920.216216
412.855894	6994.079202
413.236180	7180.997625
413.616405	6825.117369
413.996568	7045.597274
414.376670	7114.477079
414.756711	7000.335274
415.136691	7106.741429
415.516609	7308.964795
415.896466	7283.678367
416.276262	7498.325657
416.655997	7487.335941
417.035670	7647.342164
417.415283	7997.972058
417.794834	8081.067918
418.174324	7925.084536
418.553753	7849.946138
418.933121	8136.838203
419.312428	8237.973831
419.691674	8015.197681
420.070859	8498.498142
420.449983	8177.759769
420.829045	8549.121408
421.208047	8314.213722
421.586988	8634.022001
421.965867	8661.713059
422.344686	8736.836334
422.723444	8833.858381
423.102141	8149.844380
423.480777	8926.219881
423.859352	8459.570352
424.237866	9067.861180
424.616319	8928.853884
424.994712	9364.916212
425.373044	8897.298781
425.751314	9402.863497
426.129524	9280.965877
426.507673	9341.237912
426.885762	9497.889247
427.263789	9425.495758
427.641756	9370.637922
428.019662	9448.702709
428.397508	9730.175534
428.775292	9369.995174
429.153016	9769.902347
429.530679	9598.714845
429.908282	9600.522099
430.285824	9335.548970
430.663305	10021.342498
431.040726	9477.283531
431.418086	9448.775806
431.795385	9786.817939
432.172624	9897.521677
432.549802	9786.586046
432.926920	9864.144198
433.303977	9730.808199
433.680974	9930.705073
434.057910	10042.356548
434.434786	10117.147107
434.811601	9925.205174
435.188355	10492.733233
435.565050	10252.355894
435.941683	10150.968208
436.318257	10634.354368
436.694770	10821.907976
437.071222	10856.812925
437.447614	10687.465444
437.823946	10626.049067
438.200218	10692.720847
438.576429	10552.145751
438.952580	10809.239556
439.328670	10809.758795
439.704700	10619.727460
440.080670	10613.201686
440.456580	11107.736358
440.832429	10916.520351
441.208218	10513.462457
441.583947	10788.757348
441.959616	10998.580254
442.335224	10816.584518
442.710773	10899.206508
443.086261	11141.585185
443.461689	10406.584955
443.837057	11104.391552
444.212365	11324.155613
444.587612	10954.523090
444.962800	11166.117961
445.337927	10885.285362
445.712995	10605.385377
446.088002	11620.378854
446.462949	11331.336737
446.837837	11291.065479
447.212664	11188.225941
447.587431	11819.471664
447.962139	12600.439656
448.336786	14900.720676
448.711374	15350.061404
449.085901	13146.462152
449.460369	12820.460815
449.834776	12266.271650
450.209124	13227.710429
450.583412	13649.531498
450.957640	14562.862546
451.331808	13569.588880
451.705917	12678.262468
452.079965	11884.701674
452.453954	12804.193012
452.827883	12481.377684
453.201752	12759.228440
453.575562	12343.005573
453.949311	12740.218249
454.323001	12737.490985
454.696632	12981.913850
455.070202	13246.697935
455.443713	13413.991146
455.817164	13924.750771
456.190556	13892.946132
456.563888	14259.405249
456.937160	14382.817736
457.310373	13749.459770
457.683526	13881.157393
458.056619	13380.291032
458.429653	13620.280202
458.802628	12947.238273
459.175542	13373.901370
459.548398	14328.322863
459.921194	14705.363362
460.293930	14779.022181
460.666607	15600.342089
461.039224	16664.751477
461.411782	17414.245025
461.784280	17138.292264
462.156719	17279.449613
462.529099	16944.719518
462.901419	15914.537044
463.273680	15657.052550
463.645882	15587.310707
464.018024	15299.473425
464.390106	15523.590522
464.762130	16236.969244
465.134094	17056.549954
465.505999	19148.096958
465.877845	22424.186567
466.249631	25206.936258
466.621358	24781.253665
466.993026	23373.032544
467.364634	22769.377056
467.736184	21298.998508
468.107674	20511.933241
468.479105	20633.296499
468.850477	20084.909701
469.221790	19705.232679
469.593043	19005.044136
469.964238	18427.847144
470.335373	18057.045073
470.706449	18595.407536
471.077467	18197.163944
471.448425	20099.642473
471.819324	24267.552527
472.190164	26009.412333
472.560945	22267.106734
472.931667	20020.377891
473.302330	19434.003478
473.672934	19111.349468
474.043479	19299.087078
474.413965	19104.516183
474.784393	18673.512653
475.154761	19489.342745
475.525070	19364.090236
475.895321	19119.889182
476.265513	19728.537933
476.635645	20323.777214
477.005719	20054.100689
477.375734	20235.998123
477.745691	20729.466591
478.115588	21292.694545
478.485427	21869.465560
478.855207	22983.384119
479.224928	24782.342555
479.594591	27032.726234
479.964194	26849.724788
480.333739	27113.278832
480.703226	26704.892438
481.072653	26429.844564
481.442022	27099.876924
481.811333	28032.298822
482.180584	27870.056847
482.549777	26931.938446
482.918912	26619.099561
483.287988	26750.164520
483.657005	26344.954053
484.025964	26169.726066
484.394864	26024.697111
484.763706	25654.172304
485.132489	25157.666541
485.501213	25329.148951
485.869879	25229.349228
486.238487	25096.590441
486.607036	25213.630910
486.975527	24983.134233
487.343959	25274.318841
487.712333	25154.354503
488.080648	24812.712986
488.448905	25339.377452
488.817104	25119.663802
489.185244	25836.213410
489.553326	25779.404647
489.921350	26852.603287
490.289315	29243.052906
490.657222	30903.399775
491.025070	31436.844592
491.392861	31161.620278
491.760593	30281.417172
492.128267	29351.019298
492.495883	28276.053734
492.863440	27428.971009
493.230939	26550.071042
493.598380	26387.360240
493.965763	26018.584712
494.333088	25491.902602
494.700354	25481.469935
495.067563	25306.839324
495.434713	25067.704630
495.801805	25277.220025
496.168839	25015.949624
496.535815	24903.428549
496.902733	25127.538085
497.269593	24845.427554
497.636395	25001.093343
498.003139	24921.188534
498.369825	24645.180320
498.736453	24882.842998
499.103023	24735.346398
499.469535	24719.978440
499.835989	24953.817403
500.202385	24969.084537
500.568723	24534.685790
500.935003	24686.898389
501.301226	24410.736419
501.667390	25249.062660
502.033497	25440.674397
502.399546	25183.603277
502.765537	24695.790984
503.131470	25080.214253
503.497345	25244.893626
503.863163	24494.454861
504.228923	25005.267419
504.594625	25274.606187
504.960269	24857.128072
505.325856	25321.428423
505.691385	24706.339599
506.056856	25307.640868
506.422270	25325.660472
506.787625	24821.885365
507.152924	25273.234993
507.518164	25301.099971
507.883347	25121.203875
508.248472	24789.818586
508.613540	25549.631376
508.978550	25360.467119
509.343503	25393.471553
509.708398	25567.461937
510.073236	25748.754432
510.438016	25965.211496
510.802738	25613.512877
511.167403	25878.014658
511.532010	25640.034388
511.896561	26354.348244
512.261053	26345.241399
512.625488	26165.836816
512.989866	26059.768419
513.354186	25880.683949
513.718449	26026.708532
514.082655	26389.860652
514.446803	26106.948577
514.810894	26593.112413
515.174927	26096.198317
515.538904	26128.169315
515.902822	26632.118341
516.266684	26368.546653
516.630488	26280.016430
516.994235	26211.489505
517.357925	26579.438283
517.721558	26723.811888
518.085133	26864.407149
518.448651	26725.125109
518.812112	26541.160802
519.175516	26749.950271
519.538863	26887.198205
519.902152	26683.994335
520.265385	26951.795551
520.628560	26745.514056
520.991678	26703.425462
521.354739	26753.191733
521.717743	26876.662194
522.080690	26639.697716
522.443580	26972.227347
522.806413	26925.079956
523.169189	27047.322895
523.531908	27090.059277
523.894569	26734.163898
524.257174	26847.879726
524.619722	26951.271271
524.982213	26674.035535
525.344647	26673.223910
525.707025	26852.273091
526.069345	26791.592722
526.431608	26765.076253
526.793815	26929.753105
527.155964	26461.341693
527.518057	26641.595710
527.880093	26550.423922
528.242072	26758.573165
528.603995	26481.430691
528.965860	26271.537209
529.327669	26305.378475
529.689421	26300.861601
530.051117	26144.021223
530.412755	26315.738046
530.774337	26072.457003
531.135862	25996.204510
531.497331	26160.513358
531.858743	25782.767097
532.220098	26207.814504
532.581396	25922.485197
532.942638	25784.773476
533.303824	25924.274806
533.664953	25900.283955
534.026025	25575.868061
534.387040	25814.183568
534.747999	25853.776790
535.108902	26006.848906
535.469748	25534.460023
535.830537	25668.035477
536.191270	25833.937329
536.551947	25623.809434
536.912567	25256.977272
537.273131	25730.412194
537.633638	25370.952719
537.994089	25597.814724
538.354483	25067.077006
538.714821	25589.960607
539.075103	25644.853731
539.435328	25397.345680
539.795497	25028.053434
540.155609	25324.430431
540.515665	25660.985423
540.875665	24861.559246
541.235609	25235.653191
541.595496	25139.291535
541.955328	25508.858523
542.315102	25422.591778
542.674821	24942.709220
543.034483	24827.246633
543.394090	24996.047148
543.753640	24810.013448
544.113134	25441.286897
544.472571	25022.790470
544.831953	25320.805841
545.191278	24989.901982
545.550548	24863.426994
545.909761	25075.137811
546.268918	25300.684075
546.628019	25279.168431
546.987064	24953.217505
547.346053	24684.460991
547.704986	24778.985146
548.063863	24942.658809
548.422684	24972.633509
548.781449	24464.487722
549.140158	24882.361568
549.498811	24451.930208
549.857408	24232.715633
550.215949	24603.847900
550.574434	24322.707791
550.932864	24496.662887
551.291237	24707.660381
551.649555	24530.433576
552.007817	24599.804894
552.366022	24434.760038
552.724173	24436.254740
553.082267	24433.257774
553.440305	24922.620222
553.798288	24123.637667
554.156215	24610.736637
554.514086	24771.194043
554.871902	24164.281970
555.229661	24438.659371
555.587365	24269.112764
555.945014	24194.707854
556.302606	24382.402614
556.660143	24391.436362
557.017625	24615.182934
557.375050	24131.617813
557.732421	24512.852552
558.089735	24340.465255
558.446994	24378.336924
558.804197	24440.927890
559.161345	24291.117400
559.518437	24126.140600
559.875474	24271.184678
560.232455	24454.816269
560.589381	24267.786940
560.946251	24287.646566
561.303065	24566.301386
561.659825	24652.305991
562.016528	24266.430870
562.373177	23995.857020
562.729770	24355.732390
563.086307	24192.555281
563.442789	24376.058322
563.799216	24229.325457
564.155587	24215.810124
564.511904	24195.184243
564.868164	24175.687580
565.224370	24120.572645
565.580520	24075.779473
565.936615	24191.781464
566.292654	23902.429315
566.648638	24097.952988
567.004567	23944.775008
567.360441	23876.842939
567.716260	23606.344706
568.072023	23913.325769
568.427732	23710.870510
568.783385	23447.447537
569.138982	23713.239853
569.494525	23728.801895
569.850013	23490.836748
570.205445	23600.088634
570.560823	23424.853085
570.916145	23212.166804
571.271412	23408.257607
571.626625	23151.534327
571.981782	23256.133228
572.336884	23064.466038
572.691931	23193.789278
573.046923	22930.096603
573.401860	22807.294095
573.756743	22856.352084
574.111570	22746.122214
574.466342	22656.278770
574.821059	22724.447773
575.175722	22448.023663
575.530330	22408.135533
575.884882	22386.597204
576.239380	22306.982261
576.593823	22202.794214
576.948211	22167.251559
577.302544	22036.118544
577.656823	21889.073128
578.011047	22003.494717
578.365216	21860.618335
578.719330	21746.363103
579.073389	21614.456272
579.427394	21785.545472
579.781344	21523.294566
580.135239	21423.038619
580.489080	21352.497753
580.842866	21141.974128
581.196597	21375.800487
581.550273	21307.709622
581.903895	21190.205367
582.257463	21514.810304
582.610975	21035.890607
582.964434	21375.550950
583.317837	21029.468177
583.671186	21106.612954
584.024481	21099.436872
584.377721	20863.006756
584.730906	20977.617389
585.084037	20941.500042
585.437113	20878.170547
585.790135	21075.677913
586.143103	20525.811537
586.496016	20570.892055
586.848874	20795.911519
587.201679	20686.813388
587.554428	20408.740821
587.907124	20738.938919
588.259765	20484.322841
588.612352	20549.978829
588.964884	20136.458020
589.317362	20296.479366
589.669786	20357.018583
590.022155	20337.360603
590.374470	20608.292376
590.726731	20342.570636
591.078937	20156.226905
591.431090	20225.109231
591.783188	20013.859679
592.135232	19957.532346
592.487222	20048.605832
592.839157	20057.145546
593.191038	19937.718091
593.542866	19833.099025
593.894639	19528.018477
594.246358	19742.161651
594.598022	19625.375761
594.949633	19394.112828
595.301190	19387.090501
595.652692	19554.426561
596.004141	19760.604713
596.355535	19085.435416
596.706876	19118.870869
597.058162	19006.420371
597.409395	19268.000803
597.760573	19288.031827
598.111698	19063.337518
598.462768	19010.564199
598.813785	19001.449793
599.164748	18774.769269
599.515657	18848.226443
599.866511	18651.142533
600.217312	18996.829576
600.568060	18491.862236
600.918753	18804.953178
601.269392	18705.193784
601.619978	18517.531791
601.970510	18677.061625
602.320988	18637.551582
602.671412	18831.061314
603.021783	18779.712121
603.372100	18472.708372
603.722363	18640.165420
604.072572	18581.136029
604.422728	18729.398885
604.772830	18473.744329
605.122878	18442.002704
605.472872	18409.905677
605.822813	18408.002642
606.172701	18398.048883
606.522534	18557.281289
606.872314	18599.611858
607.222041	18439.771993
607.571714	18650.083891
607.921333	18465.713771
608.270899	18537.663639
608.620411	18684.250311
608.969870	18504.089555
609.319276	18489.273603
609.668627	18519.109672
610.017926	18659.528492
610.367171	18762.791488
610.716362	18824.472526
611.065500	18625.593965
611.414585	18786.250497
611.763616	18761.974821
612.112594	18692.427062
612.461518	18674.533487
612.810389	18873.119660
613.159207	18723.747751
613.507971	18643.810175
613.856682	18870.042036
614.205340	18784.778480
614.553945	18948.391649
614.902496	18681.661678
615.250994	18891.109018
615.599439	18848.133181
615.947830	18828.253391
616.296169	18906.330782
616.644454	18865.336119
616.992686	18856.723307
617.340864	19078.350074
617.688990	18812.673705
618.037063	18984.713162
618.385082	18860.171457
618.733048	19113.880127
619.080961	19011.514457
619.428821	19046.101813
619.776628	18914.245393
620.124382	18846.918263
620.472083	18904.132839
620.819731	18909.131143
621.167326	18585.012677
621.514868	18632.218041
621.862357	18430.370241
622.209793	18415.587058
622.557176	18250.804341
622.904506	18084.597499
623.251783	18026.470475
623.599007	17768.030682
623.946179	17701.308490
624.293297	17634.165362
624.640363	17348.180704
624.987376	17375.864200
625.334336	17185.089295
625.681243	17030.288063
626.028097	17059.337712
626.374899	16962.915563
626.721647	16840.239084
627.068343	16688.278542
627.414987	16604.124040
627.761577	16566.822022
628.108115	16598.014162
628.454600	16329.469376
628.801032	16427.676094
629.147412	16372.326745
629.493739	16379.200359
629.840014	16189.431163
630.186236	16283.385668
630.532405	16048.230965
630.878521	16242.401087
631.224585	16143.869215
631.570597	15974.418390
631.916556	16006.054151
632.262462	15966.188706
632.608316	15892.734054
632.954117	15828.371122
633.299866	15809.953266
633.645562	15732.803448
633.991206	15520.417116
634.336797	15389.752929
634.682336	15360.320152
635.027823	15205.871801
635.373257	15067.192179
635.718639	14989.903729
636.063968	14926.198668
636.409245	14678.650288
636.754470	14716.837028
637.099642	14565.879676
637.444762	14362.383419
637.789829	14399.788780
638.134845	14229.284354
638.479808	14256.188992
638.824719	14151.136387
639.169577	14022.564279
639.514383	14049.093351
639.859137	13891.655596
640.203839	13986.083969
640.548489	13840.540817
640.893086	13823.005163
641.237632	13709.145662
641.582125	13871.138100
641.926566	13673.358511
642.270955	13699.106204
642.615292	13650.363288
642.959576	13655.152384
643.303809	13681.699100
643.647990	13614.311476
643.992118	13682.992156
644.336195	13448.142443
644.680219	13688.076160
645.024192	13583.903236
645.368112	13832.764837
645.711981	13861.234753
646.055797	14057.607860
646.399562	14028.898489
646.743274	14291.532522
647.086935	14552.339137
647.430544	14523.188665
647.774101	14570.005861
648.117606	14695.709552
648.461059	14683.852758
648.804460	14656.063398
649.147810	14382.646337
649.491108	14305.357887
649.834354	14325.177183
650.177548	13995.107635
650.520690	13809.547803
650.863781	13726.890524
651.206820	13781.090489
651.549807	13607.200929
651.892742	13381.006876
652.235626	13327.638701
652.578458	13339.472810
652.921238	13047.209395
653.263967	13236.693765
653.606644	13072.062283
653.949269	13051.943038
654.291843	12840.070904
654.634365	13005.196419
654.976836	12854.523892
655.319255	12842.571316
655.661622	12817.516782
656.003938	12740.656829
656.346203	12659.451403
656.688416	12745.012386
657.030577	12692.561701
657.372687	12586.475660
657.714746	12586.793252
658.056753	12777.941203
658.398708	12578.412334
658.740612	12582.518354
659.082465	12700.178885
659.424266	12673.909432
659.766016	12701.454297
660.107715	12619.366668
660.449362	12694.989017
660.790958	12637.408958
661.132503	12579.097931
661.473996	12661.553564
661.815438	12666.685458
662.156829	12697.325592
662.498168	12669.067404
662.839456	12669.372393
663.180693	12676.331706
663.521879	12779.776183
663.863013	12743.568096
664.204097	12719.529354
664.545129	12856.517668
664.886110	12835.901870
665.227040	12929.306889
665.567918	12915.811720
665.908746	12936.072117
666.249522	12930.645315
666.590248	12990.420797
666.930922	13103.216614
667.271545	13072.014392
667.612118	13152.463646
667.952639	13052.280796
668.293109	13092.473915
668.633528	13023.946990
668.973896	13011.941482
669.314213	13063.119276
669.654480	12808.223414
669.994695	12907.493816
670.334859	12935.056325
670.674973	12868.248433
671.015035	12882.497255
671.355047	12843.352695
671.695008	12822.477277
672.034918	12833.048577
672.374777	12874.749001
672.714585	12788.454530
673.054342	12824.024911
673.394049	12784.696349
673.733705	12879.712017
674.073310	12767.584153
674.412864	12783.292388
674.752368	12628.034932
675.091820	12687.722193
675.431223	12649.041420
675.770574	12518.407480
676.109875	12425.105804
676.449125	12378.669216
676.788324	12353.261800
677.127473	12169.463852
677.466571	12164.889005
677.805619	12049.091180
678.144616	11988.655307
678.483562	11968.790641
678.822458	11837.188799
679.161303	11809.681743
679.500098	11792.388065
679.838842	11748.252763
680.177535	11793.476954
680.516179	11861.945905
680.854771	11796.993159
681.193314	12014.629852
681.531805	12190.644260
681.870247	12632.408133
682.208638	13036.380996
682.546978	13320.235767
682.885268	13337.395854
683.223508	13053.601578
683.561697	12915.821802
683.899836	12816.014518
684.237925	12608.462652
684.575963	12518.858663
684.913951	12439.158021
685.251889	12399.925241
685.589776	12501.373421
685.927614	12410.486458
686.265401	12385.189948
686.603137	12456.340794
686.940824	12604.202877
687.278460	12742.116243
687.616046	12760.801280
687.953582	12905.610945
688.291068	12861.614275
688.628504	13095.181015
688.965889	13094.694543
689.303224	13041.712017
689.640510	12924.414449
689.977745	12604.744801
690.314930	12391.748489
690.652065	12298.136783
690.989150	11996.527069
691.326185	11771.709252
691.663170	11569.095196
692.000105	11335.667088
692.336990	11204.050123
692.673825	10945.423807
693.010610	10830.735036
693.347345	10634.412341
693.684030	10444.580131
694.020665	10378.173012
694.357251	10178.734883
694.693786	10103.730076
695.030272	9963.341503
695.366707	9843.304068
695.703093	9779.891394
696.039429	9766.509651
696.375716	9667.945011
696.711952	9550.166013
697.048139	9605.447306
697.384276	9559.822343
697.720363	9578.028470
698.056400	9506.769240
698.392388	9451.384603
698.728326	9424.031303
699.064214	9360.631231
699.400053	9393.655830
699.735842	9209.865443
700.071581	9177.052573
700.407270	9107.585473
700.742910	9025.276033
701.078501	8918.360722
701.414042	8785.790979
701.749533	8740.027384
702.084974	8591.867872
702.420366	8730.461795
702.755709	8597.332483
703.091002	8458.552038
703.426246	8495.417997
703.761440	8446.264226
704.096584	8409.657887
704.431679	8341.987959
704.766725	8321.931728
705.101721	8281.718444
705.436668	8333.947318
705.771565	8218.091521
706.106413	8308.749111
706.441212	8339.913524
706.775961	8307.637536
707.110661	8353.426337
707.445311	8475.303793
707.779913	8374.289152
708.114465	8496.907658
708.448967	8532.732617
708.783421	8705.268628
709.117825	8872.778609
709.452180	8900.678875
709.786485	8985.188778
710.120742	9272.894990
710.454949	9289.971898
710.789107	9396.922498
711.123216	9618.526580
711.457275	9799.776225
711.791286	9929.588457
712.125247	9946.758627
712.459159	9936.608264
712.793023	10141.944542
713.126837	9721.958454
713.460602	9889.700327
713.794318	9718.580881
714.127985	9739.191638
714.461602	9395.710100
714.795171	9358.367753
715.128691	9101.866284
715.462162	8871.881283
715.795584	8802.504924
716.128957	8628.023028
716.462281	8466.353224
716.795556	8509.550871
717.128782	8296.272255
717.461960	8045.807567
717.795088	8115.345243
718.128167	8021.748661
718.461198	7861.331583
718.794180	7813.579254
719.127113	7810.448697
719.459997	7624.601519
719.792833	7408.777120
720.125619	7480.696742
720.458357	7331.314750
720.791046	7323.949625
721.123686	7308.374980
721.456278	7152.749519
721.788821	7169.576891
722.121315	7070.971922
722.453761	7149.109806
722.786158	7077.560710
723.118506	7086.576813
723.450805	7054.046248
723.783056	7109.622448
724.115259	7032.381889
724.447412	7030.798967
724.779518	7089.649397
725.111574	7090.718121
725.443582	7161.521127
725.775542	7135.143290
726.107453	7325.373751
726.439315	7234.620378
726.771129	7325.373751
727.102895	7504.128025
727.434612	7608.946216
727.766281	7651.521281
728.097901	7717.487300
728.429473	7734.738128
728.760996	7732.890545
729.092471	7709.383645
729.423897	7635.785319
729.755276	7626.933053
730.086606	7546.390538
730.417887	7647.715210
730.749120	7868.255608
731.080305	8054.806027
731.411442	8162.190166
731.742530	8141.924727
732.073570	8244.343329
732.404562	8322.839136
732.735506	8187.887447
733.066401	8319.988363
733.397249	8232.753717
733.728048	7985.346489
734.058798	7655.443299
734.389501	7421.566528
734.720156	7253.141578
735.050762	7036.881119
735.381320	6957.561084
735.711831	6891.595065
736.042293	6783.356451
736.372707	6794.237781
736.703073	6670.243041
737.033391	6717.390432
737.363661	6724.624488
737.693883	6753.606081
738.024056	6837.768145
738.354182	6872.897425
738.684260	6903.925727
739.014290	7036.886160
739.344272	7139.186295
739.674207	7168.361973
740.004093	7252.937411
740.333931	7261.633401
740.663722	7269.636233
740.993464	7342.412851
741.323159	7311.155176
741.652806	7069.638537
741.982405	7123.001671
742.311956	7147.133674
742.641460	6962.203986
742.970915	6776.162724
743.300323	6767.940602
743.629683	6733.196970
743.958996	6589.070382
744.288260	6498.281721
744.617477	6439.534635
744.946647	6432.338388
745.275768	6283.394977
745.604842	6235.340178
745.933869	6216.778649
746.262847	6172.522360
746.591778	6156.100801
746.920662	6120.366582
747.249498	6123.940760
747.578286	6166.528428
747.907027	6241.364357
748.235720	6303.040353
748.564365	6275.669409
748.892963	6327.061452
749.221514	6457.047603
749.550017	6257.117962
749.878473	6152.292209
750.206881	6224.042952
750.535242	6178.052506
750.863555	6103.246824
751.191821	6110.942145
751.520039	6101.154745
751.848210	6011.303739
752.176334	6054.282096
752.504411	6083.551036
752.832440	6004.818295
753.160421	5942.587771
753.488356	5991.166850
753.816243	6016.251632
754.144082	5865.306883
754.471875	5843.493810
754.799620	5882.408997
755.127318	5902.127470
755.454969	5859.486871
755.782572	5824.644936
756.110129	5865.122881
756.437638	5834.984342
756.765100	5786.543895
757.092515	5800.989321
757.419882	5856.714236
757.747203	5819.341642
758.074477	5878.020673
758.401703	5853.971848
758.728882	5826.484957
759.056014	5902.724847
759.383099	6007.837946
759.710138	6013.869687
760.037129	6006.098748
760.364073	6015.192989
760.690970	6088.493887
761.017820	6061.064969
761.344623	6033.046236
761.671379	6147.830788
761.998088	6272.052381
762.324751	6539.702362
762.651366	7198.513114
762.977935	8593.062626
763.304456	10255.186502
763.630931	11092.365880
763.957359	10617.678231
764.283740	9642.613213
764.610074	8741.963187
764.936362	7749.291939
765.262602	7166.032960
765.588796	6636.457228
765.914943	6319.277910
766.241044	6132.571216
766.567097	5912.078708
766.893104	5658.554040
767.219064	5483.908306
767.544978	5425.743473
767.870845	5337.533363
768.196665	5238.189865
768.522438	5166.867620
768.848165	5123.967401
769.173846	5057.149427
769.499479	5006.747971
769.825066	4961.256599
770.150607	4902.761570
770.476101	4887.446545
770.801548	4873.918608
771.126949	4780.488384
771.452303	4732.108430
771.777611	4700.835632
772.102872	4719.114856
772.428087	4679.624978
772.753256	4631.174448
773.078378	4578.844750
773.403453	4515.850492
773.728482	4505.853884
774.053465	4461.209425
774.378401	4451.159885
774.703291	4433.856125
775.028135	4358.647150
775.352932	4319.167354
775.677683	4306.811486
776.002388	4320.856141
776.327046	4324.687418
776.651658	4253.783589
776.976224	4193.748488
777.300743	4200.478428
777.625216	4213.797156
777.949643	4204.327349
778.274024	4168.031041
778.598359	4138.172287
778.922647	4166.135567
779.246889	4148.368021
779.571086	4135.566010
779.895236	4125.062766
780.219339	4114.388123
780.543397	4112.364100
780.867409	4165.926359
781.191374	4174.307278
781.515294	4104.051237
781.839167	4106.418059
782.162995	4132.400166
782.486776	4117.135552
782.810511	4133.269765
783.134201	4114.874594
783.457844	4063.069177
783.781441	4015.263915
784.104993	4019.518649
784.428498	4037.671844
784.751958	4031.183879
785.075372	4004.594313
785.398739	3973.021566
785.722061	3988.371880
786.045337	4034.218653
786.368568	4055.671284
786.691752	3968.567707
787.014891	4032.481976
787.337983	4168.315866
787.661030	4335.278882
787.984031	4489.918797
788.306987	4650.877798
788.629897	4740.650665
788.952760	4694.294735
789.275579	4630.335096
789.598351	4552.799629
789.921078	4397.441350
790.243759	4200.977502
790.566395	4197.083211
790.888984	4188.727498
791.211529	4076.813883
791.534027	4017.739122
791.856480	3997.937469
792.178888	3940.974951
792.501249	3903.539343
792.823566	3909.729880
793.145836	3927.484824
793.468062	3877.479098
793.790241	3840.419056
794.112375	3871.492728
794.434464	3939.712142
794.756507	3956.920121
795.078505	3928.054474
795.400457	3980.558091
795.722364	4126.539824
796.044226	4228.829877
796.366042	4298.884272
796.687812	4266.658696
797.009538	4271.783028
797.331218	4237.591403
797.652852	4216.443762
797.974442	4190.444011
798.295986	4184.157692
798.617484	4099.652830
798.938938	4021.451931
799.260346	4067.454981
799.581709	4052.485274
799.903026	3972.895537
800.224299	3938.169549
800.545526	3932.410031
800.866708	3891.821181
801.187845	3840.648428
801.508936	3874.041031
801.829983	3856.371787
802.150984	3784.101805
802.471940	3780.525107
802.792851	3785.099954
803.113717	3793.075059
803.434538	3784.512659
803.755314	3724.853124
804.076045	3710.311916
804.396731	3730.365626
804.717372	3751.964450
805.037967	3733.972572
805.358518	3721.679718
805.679024	3755.853700
805.999485	3770.296606
806.319901	3773.717028
806.640272	3782.738173
806.960598	3796.745019
807.280879	3775.607461
807.601115	3791.618166
807.921306	3804.425217
808.241453	3843.284952
808.561554	3815.838389
808.881611	3749.368255
809.201623	3793.846356
809.521590	3800.840957
809.841513	3774.775671
810.161390	3801.327428
810.481223	3774.100156
810.801011	3725.347157
811.120755	3726.791448
811.440453	3757.534925
811.760107	3750.512597
812.079716	3702.856049
812.399281	3684.569264
812.718801	3709.459961
813.038276	3681.042977
813.357707	3678.764375
813.677093	3687.200746
813.996434	3635.188641
814.315731	3653.752690
814.634983	3655.494409
814.954191	3674.746576
815.273354	3697.706511
815.592473	3687.712423
815.911547	3707.519117
816.230577	3754.742125
816.549562	3802.587717
816.868502	3837.895958
817.187399	3862.239690
817.506250	3860.099720
817.825058	3841.933922
818.143821	3944.176084
818.462539	4038.730486
818.781213	4081.171960
819.099843	4152.882374
819.418429	4426.233900
819.736970	4668.453781
820.055466	4928.610087
820.373919	5295.830418
820.692327	5714.846084
821.010691	6238.448049
821.329011	7771.878829
821.647286	10729.831301
821.965517	15525.710327
822.283704	19503.457975
822.601847	21399.435937
822.919945	19450.162897
823.237999	16767.240655
823.556010	14233.730652
823.873976	12037.647761
824.191897	9933.024003
824.509775	8618.696893
824.827609	7487.318297
825.145398	6970.335368
825.463144	6847.668971
825.780845	6950.390042
826.098502	7200.438835
826.416116	8183.310080
826.733685	9562.673116
827.051210	10640.474328
827.368692	10540.198217
827.686129	9189.151342
828.003522	7687.925973
828.320872	6657.836761
828.638177	5933.548982
828.955439	5357.193863
829.272656	4849.542109
829.589830	4590.547789
829.906960	4412.053134
830.224046	4215.281776
830.541088	4093.122016
830.858086	4039.958007
831.175041	3961.817602
831.491952	3956.509267
831.808819	3964.940597
832.125642	4050.312537
832.442421	4212.801528
832.759157	4512.679606
833.075849	5114.487511
833.392497	6023.546181
833.709101	6812.900133
834.025662	7100.014009
834.342179	6655.550598
834.658653	5976.139171
834.975083	5315.145599
835.291469	4725.494436
835.607811	4334.333665
835.924110	4185.226417
836.240366	3975.164057
836.556578	3774.470681
836.872746	3665.281809
837.188871	3617.010241
837.504952	3549.602452
837.820990	3468.820482
838.136984	3427.586364
838.452935	3451.776341
838.768842	3444.665793
839.084706	3470.831903
839.400526	3648.116680
839.716303	4025.389072
840.032037	4583.036470
840.347727	4800.526970
840.663373	4474.046724
840.978977	4081.199687
841.294537	3771.564456
841.610054	3548.150600
841.925527	3445.454734
842.240957	3370.636449
842.556344	3314.525886
842.871687	3252.154210
843.186987	3204.318702
843.502244	3167.475429
843.817458	3131.836992
844.132629	3105.678444
844.447756	3110.989300
844.762840	3087.860486
845.077881	3060.023234
845.392879	3044.385575
845.707833	3037.312836
846.022745	3041.960780
846.337613	3039.399874
846.652438	3029.146167
846.967221	3023.250538
847.281960	3006.244205
847.596656	3007.305368
847.911309	3008.026253
848.225919	3000.275479
848.540485	2994.629387
848.855009	2994.641990
849.169490	2982.986842
849.483928	2974.883187
849.798323	2974.953763
850.112675	2972.884370
850.426984	2986.752584
850.741251	2979.362252
851.055474	2967.434882
851.369654	2964.354737
851.683792	2971.208186
851.997887	2982.016420
852.311938	2983.430463
852.625947	2967.102166
852.939914	2972.465954
853.253837	2977.663383
853.567718	2960.805765
853.881555	2962.607978
854.195350	2978.248157
854.509103	2971.626602
854.822812	2962.222329
855.136479	2959.863069
855.450103	2965.017649
855.763685	2957.952472
856.077224	2955.661268
856.390720	2968.543936
856.704173	2973.864874
857.017584	2966.698874
857.330953	2966.398925
857.644278	2977.570122
857.957561	2984.796616
858.270802	2988.088490
858.584000	2985.756956
858.897155	2971.944194
859.210268	2969.965542
859.523339	2971.823207
859.836367	2970.668783
860.149352	2962.484469
860.462295	2957.836525
860.775195	2966.237608
861.088054	2966.214923
861.400869	2947.983590
861.713642	2949.274126
862.026373	2961.854325
862.339062	2967.399594
862.651708	2972.173567
862.964312	2972.392857
863.276873	2966.590489
863.589392	2980.257057
863.901869	2990.631752
864.214303	3015.877850
864.526696	3027.928728
864.839045	3024.596526
865.151353	3023.192564
865.463619	3025.443440
865.775842	3023.595857
866.088023	3048.113508
866.400162	3048.466389
866.712258	3015.235103
867.024313	3008.253105
867.336325	3019.699045
867.648296	3041.801984
867.960224	3034.361241
868.272110	3018.100999
868.583954	3021.632327
868.895755	3034.376364
869.207515	3022.401103
869.519233	3033.451313
869.830909	3041.386089
870.142542	3049.517470
870.454134	3051.019734
870.765684	3050.966802
871.077191	3054.293963
871.388657	3062.160684
871.700081	3077.752972
872.011463	3089.667740
872.322803	3086.960640
872.634101	3081.927048
872.945357	3106.129627
873.256571	3131.877321
873.567744	3120.144035
873.878874	3120.771659
874.189963	3142.607417
874.501010	3139.827220
874.812015	3133.298926
875.122979	3130.536374
875.433900	3130.667444
875.744780	3136.984010
876.055618	3143.003147
876.366415	3139.567601
876.677169	3150.884991
876.987882	3142.851913
877.298554	3146.426091
877.609183	3169.940553
877.919771	3194.959799
878.230317	3222.250086
878.540822	3274.615071
878.851285	3312.159065
879.161707	3364.110676
879.472087	3483.875888
879.782425	3742.610589
880.092722	4210.044017
880.402977	4757.961988
880.713191	5428.654739
881.023363	6680.630338
881.333494	8002.410794
881.643583	8512.255450
881.953631	8167.624529
882.263637	7459.002136
882.573602	6817.792573
882.883526	6234.823460
883.193408	5667.610473
883.503248	5220.450044
883.813048	4902.229728
884.122806	4552.915576
884.432522	4229.553283
884.742197	3986.985562
885.051831	3797.491110
885.361424	3675.263294
885.670975	3595.973506
885.980485	3498.805265
886.289954	3418.232503
886.599382	3372.605020
886.908768	3340.518076
887.218113	3293.491672
887.527417	3231.621591
887.836680	3185.079138
888.145901	3179.004547
888.455082	3162.746826
888.764221	3109.797067
889.073319	3085.163469
889.382376	3078.657860
889.691392	3084.921493
890.000366	3082.138776
890.309300	3072.626119
890.618193	3082.191708
890.927044	3097.108483
891.235855	3094.580344
891.544625	3085.788572
891.853353	3099.021601
892.162041	3118.543469
892.470687	3162.895540
892.779293	3213.440669
893.087858	3258.599326
893.396381	3338.912468
893.704864	3475.920947
894.013306	3737.272007
894.321707	4052.565933
894.630068	4240.669027
894.938387	4222.467941
895.246665	4184.976880
895.554903	4055.429308
895.863100	3842.221268
896.171256	3670.396060
896.479371	3523.718647
896.787446	3394.813823
897.095480	3288.810961
897.403473	3232.032445
897.711425	3194.546425
898.019336	3185.313552
898.327207	3149.160917
898.635038	3111.569032
898.942827	3097.973041
899.250576	3089.024993
899.558284	3056.759087
899.865952	3037.186807
900.173579	3013.148065
900.481165	3004.424349
900.788711	2988.713593
901.096216	2967.664255
901.403681	2960.639407
901.711105	2962.696198
902.018489	2961.204016
902.325832	2961.277113
902.633135	2973.688434
902.940397	3010.758558
903.247619	3105.194493
903.554800	3317.815239
903.861941	3698.150132
904.169041	4151.763238
904.476101	4439.398873
904.783121	4359.990618
905.090100	4093.991615
905.397039	3797.874238
905.703938	3542.078530
906.010796	3360.740664
906.317614	3243.047366
906.624391	3145.387613
906.931129	3072.984041
907.237826	3007.489370
907.544483	2960.939356
907.851099	2932.950869
908.157675	2910.053949
908.464211	2887.330948
908.770707	2876.368959
909.077163	2857.555372
909.383578	2845.582632
909.689954	2834.943277
909.996289	2834.779439
910.302584	2834.930674
910.608839	2836.687516
910.915054	2827.341217
911.221229	2819.983653
911.527363	2824.339210
911.833458	2831.848008
912.139513	2841.368227
912.445527	2841.501818
912.751502	2848.781244
913.057436	2857.293232
913.363331	2874.554143
913.669186	2895.979047
913.975000	2940.767178
914.280775	3004.782271
914.586510	3073.853640
914.892205	3155.621155
915.197859	3298.232877
915.503475	3515.710775
915.809050	3746.550250
916.114585	3891.102816
916.420081	3889.605594
916.725536	3823.891633
917.030952	3693.456818
917.336328	3561.534863
917.641665	3428.042589
917.946961	3324.419151
918.252218	3248.456524
918.557435	3162.613236
918.862612	3099.704677
919.167750	3049.310783
919.472848	3012.548168
919.777906	2982.265957
920.082925	2953.538942
920.387904	2924.819488
920.692843	2909.075965
920.997743	2894.559962
921.302603	2882.428426
921.607423	2868.900489
921.912204	2857.588140
922.216946	2844.234123
922.521647	2833.506548
922.826310	2827.079077
923.130932	2820.361739
923.435516	2809.843372
923.740059	2800.837351
924.044564	2795.110600
924.349028	2788.582306
924.653454	2781.542334
924.957840	2774.658639
925.262186	2770.822321
925.566493	2765.511465
925.870761	2761.710435
926.174989	2757.445619
926.479178	2752.026378
926.783328	2746.259298
927.087438	2748.681573
927.391509	2745.162847
927.695541	2740.847620
927.999533	2738.430387
928.303486	2736.663462
928.607400	2735.199007
928.911275	2734.092474
929.215110	2731.902092
929.518906	2730.828327
929.822663	2732.413769
930.126381	2729.623491
930.430060	2731.929819
930.733699	2729.588203
931.037299	2734.974676
931.340861	2737.051631
931.644383	2734.634398
931.947866	2735.274624
932.251309	2733.661455
932.554714	2735.912330
932.858080	2731.652555
933.161407	2729.673902
933.464694	2727.304560
933.767943	2724.342882
934.071153	2727.256669
934.374323	2725.814899
934.677455	2724.599981
934.980548	2726.976885
935.283602	2725.633417
935.586617	2723.148129
935.889593	2726.152656
936.192530	2721.739126
936.495428	2725.852708
936.798287	2723.866493
937.101108	2730.845971
937.403890	2735.317474
937.706632	2738.417784
938.009336	2746.057652
938.312002	2754.052922
938.614628	2764.757812
938.917216	2769.340221
939.219765	2772.818617
939.522275	2771.029008
939.824747	2765.345107
940.127179	2763.845364
940.429573	2760.177924
940.731929	2758.713469
941.034246	2753.521081
941.336524	2753.195926
941.638763	2750.410689
941.940964	2747.569998
942.243126	2745.956829
942.545250	2745.258629
942.847335	2740.716550
943.149381	2735.771178
943.451389	2732.030642
943.753359	2732.514592
944.055290	2731.198851
944.357182	2729.661299
944.659036	2728.138871
944.960851	2726.752554
945.262628	2723.140567
945.564367	2723.223746
945.866067	2726.122409
946.167729	2728.620301
946.469352	2725.386401
946.770937	2725.827502
947.072484	2724.932697
947.373992	2724.373129
947.675462	2722.515464
947.976893	2718.527911
948.278286	2719.848693
948.579641	2719.175699
948.880958	2713.844679
949.182236	2719.248796
949.483476	2715.737632
949.784678	2716.105637
950.085841	2716.183775
950.386967	2717.771738
950.688054	2717.247458
950.989103	2720.302397
951.290114	2718.790051
951.591087	2723.080073
951.892021	2725.945969
952.192917	2726.739951
952.493776	2727.833881
952.794596	2728.937894
953.095378	2731.014849
953.396122	2728.532081
953.696828	2725.088973
953.997496	2727.526371
954.298126	2723.014538
954.598718	2721.797099
954.899272	2717.779300
955.199788	2715.425081
955.500266	2712.987683
955.800706	2713.022971
956.101108	2709.010213
956.401472	2706.396374
956.701798	2706.948381
957.002087	2703.396888
957.302337	2701.824048
957.602550	2700.651980
957.902724	2699.336238
958.202861	2698.166691
958.502960	2696.359437
958.803022	2695.197451
959.103045	2695.081505
959.403031	2696.888758
959.702979	2696.024200
960.002889	2694.791638
960.302762	2693.092769
960.602596	2691.991277
960.902393	2695.477235
961.202153	2692.394570
961.501875	2692.024045
961.801559	2690.410876
962.101205	2690.158818
962.400814	2688.611184
962.700385	2689.352233
962.999918	2687.239990
963.299414	2684.600946
963.598873	2687.476924
963.898293	2684.565658
964.197677	2686.662778
964.497022	2690.461287
964.796331	2689.311904
965.095601	2686.388035
965.394835	2684.767304
965.694030	2689.117820
965.993189	2688.013807
966.292309	2688.538087
966.591393	2686.030113
966.890439	2687.988601
967.189447	2687.156811
967.488419	2690.257120
967.787353	2686.594722
968.086249	2685.742767
968.385108	2690.715865
968.683930	2686.524146
968.982714	2686.577078
969.281462	2688.149918
969.580172	2689.238807
969.878844	2686.519105
970.177480	2687.600432
970.476078	2687.713858
970.774639	2688.265865
971.073162	2687.403827
971.371649	2688.429702
971.670098	2687.562624
971.968510	2687.925587
972.266885	2688.036492
972.565223	2689.221163
972.863524	2687.615556
973.161788	2688.893488
973.460014	2686.597243
973.758204	2688.175124
974.056356	2687.915504
974.354471	2686.887109
974.652550	2687.991122
974.950591	2690.851977
975.248595	2686.546831
975.546563	2688.656554
975.844493	2687.287881
976.142386	2685.536080
976.440243	2688.505319
976.738062	2686.531708
977.035845	2685.309228
977.333590	2687.093796
977.631299	2686.032633
977.928971	2683.748991
978.226606	2684.553055
978.524204	2683.373425
978.821765	2681.435101
979.119290	2684.469876
979.416777	2686.211594
979.714228	2684.495082
980.011642	2686.453570
980.309020	2684.893333
980.606360	2685.402489
980.903664	2686.831656
981.200931	2687.668488
981.498162	2687.028261
981.795356	2687.139167
982.092513	2689.213602
982.389633	2692.434899
982.686717	2693.425486
982.983764	2702.668441
983.280775	2705.284800
983.577749	2702.023173
983.874686	2704.795808
984.171587	2699.553008
984.468451	2698.849767
984.765279	2695.404138
985.062070	2694.912626
985.358824	2689.637058
985.655543	2690.557069
985.952224	2689.843746
986.248869	2688.966585
986.545478	2686.277129
986.842050	2685.122705
987.138586	2686.829136
987.435086	2683.552386
987.731549	2685.188240
988.027975	2683.706141
988.324366	2683.123888
988.620719	2682.108095
988.917037	2679.642971
989.213318	2681.692200
989.509563	2684.510205
989.805772	2683.270081
990.101944	2682.032478
990.398080	2680.976356
990.694180	2683.249917
990.990244	2683.121367
991.286271	2681.127591
991.582262	2682.279494
991.878217	2684.326203
992.174136	2682.854186
992.470019	2683.025585
992.765865	2678.969977
993.061676	2678.722960
993.357450	2679.884946
993.653188	2678.380162
993.948890	2682.965091
994.244556	2682.846624
994.540186	2682.390400
994.835780	2680.683969
995.131337	2682.024916
995.426859	2685.341995
995.722345	2683.083558
996.017795	2686.614887
996.313208	2685.863755
996.608586	2684.361491
996.903928	2687.595391
997.199234	2685.195802
997.494504	2685.210925
997.789738	2689.153108
998.084936	2684.653878
998.380099	2682.831501
998.675225	2686.579599
998.970316	2682.559278
999.265371	2684.225380
999.560390	2682.617252
999.855373	2680.875533
1000.150320	2684.999197
1000.445232	2680.711696
1000.740108	2681.961902
1001.034948	2680.837724
1001.329752	2681.795544
1001.624521	2681.460307
1001.919254	2680.661284
1002.213951	2681.465348
1002.508613	2681.493074
1002.803239	2680.479802
1003.097829	2681.462827
1003.392384	2678.579287
1003.686903	2680.202539
1003.981386	2679.567354
1004.275834	2679.837055
1004.570246	2679.360666
1004.864623	2680.441994
1005.158964	2678.997703
1005.453270	2678.589370
1005.747540	2678.493588
1006.041775	2679.907632
1006.335974	2681.152797
1006.630138	2679.315296
1006.924266	2680.275636
1007.218359	2679.799247
1007.512416	2676.512414
1007.806438	2677.170285
1008.100425	2675.504184
1008.394376	2673.465037
1008.688292	2679.249761
1008.982172	2679.123732
1009.276017	2681.737570
1009.569827	2678.236489
1009.863602	2682.760925
1010.157341	2676.671211
1010.451045	2677.382013
1010.744714	2678.806139
1011.038347	2678.450738
1011.331945	2680.268074
1011.625508	2679.622806
1011.919036	2680.996521
1012.212528	2680.852848
1012.505986	2681.987107
1012.799408	2681.160358
1013.092795	2680.552899
1013.386147	2679.353105
1013.679464	2679.411078
1013.972745	2678.475944
1014.265992	2681.409895
1014.559204	2678.239010
1014.852380	2678.962415
1015.145521	2679.763959
1015.438628	2678.808660
1015.731699	2678.153310
1016.024736	2677.382013
1016.317737	2675.186591
1016.610703	2678.823783
1016.903635	2679.501819
1017.196531	2678.150789
1017.489393	2679.080882
1017.782219	2679.854699
1018.075011	2677.155162
1018.367768	2677.583660
1018.660490	2676.096519
1018.953177	2676.096519
1019.245829	2676.096519
