Dividing Wavelength (nm)	Counts (n)	Blue Motor Position (mm): 0.000000	Red Motor Position (mm): 14.000000	
326.493990	2084.111303
326.888308	2084.111303
327.282561	2084.111303
327.676750	2062.608261
328.070874	2061.799156
328.464933	2067.019270
328.858929	2076.514284
329.252859	2089.782601
329.646726	2104.659046
330.040528	2120.281581
330.434265	2141.056176
330.827938	2158.760709
331.221547	2181.876920
331.615091	2199.710001
332.008571	2221.316387
332.401986	2240.583677
332.795338	2260.261821
333.188625	2280.945675
333.581847	2300.941412
333.975006	2319.321459
334.368100	2337.220075
334.761129	2354.276819
335.154095	2367.419107
335.546996	2383.923845
335.939833	2400.718449
336.332606	2414.216139
336.725315	2426.771132
337.117960	2433.924530
337.510540	2442.738987
337.903056	2450.187292
338.295508	2455.936728
338.687896	2463.460650
339.080220	2470.296455
339.472480	2476.708802
339.864676	2477.890953
340.256807	2482.899339
340.648875	2483.645430
341.040879	2483.552169
341.432818	2487.237252
341.824694	2486.476038
342.216506	2487.905205
342.608253	2488.694146
342.999937	2486.080307
343.391557	2485.021665
343.783113	2482.642240
344.174605	2484.177272
344.566033	2481.792806
344.957397	2478.503453
345.348697	2476.489512
345.739934	2475.297279
346.131106	2475.962712
346.522215	2473.280818
346.913260	2470.455251
347.304241	2470.157823
347.695159	2467.170939
348.086012	2465.398974
348.476802	2464.637759
348.867528	2467.044910
349.258191	2463.581638
349.648789	2463.989971
350.039324	2463.206072
350.429796	2461.527368
350.820203	2460.856894
351.210548	2460.869497
351.600828	2461.965948
351.991045	2457.602829
352.381198	2456.521502
352.771288	2459.072326
353.161314	2458.890844
353.551276	2458.515278
353.941175	2460.173818
354.331010	2461.507203
354.720782	2459.185752
355.110490	2456.375308
355.500135	2457.847325
355.889717	2459.672223
356.279235	2460.753550
356.668689	2462.351596
357.058080	2455.414968
357.447408	2461.731534
357.836672	2455.961934
358.225873	2462.293623
358.615010	2458.190124
359.004084	2464.501648
359.393095	2464.995681
359.782043	2463.634570
360.170927	2464.720938
360.559748	2467.748151
360.948505	2465.872842
361.337199	2470.709829
361.725830	2466.255970
362.114398	2470.298975
362.502903	2470.455251
362.891344	2471.445838
363.279722	2470.649335
363.668037	2474.841055
364.056289	2468.320322
364.444478	2475.687969
364.832603	2472.275108
365.220665	2477.003710
365.608665	2474.432721
365.996601	2478.705099
366.384474	2476.227372
366.772284	2478.611838
367.160031	2477.976652
367.547715	2479.622589
367.935336	2480.247692
368.322893	2479.874647
368.710388	2480.587970
369.097820	2484.336068
369.485189	2482.738022
369.872495	2482.853969
370.259738	2486.337406
370.646918	2486.468476
371.034035	2489.238590
371.421090	2491.421410
371.808081	2494.491473
372.195010	2495.678664
372.581875	2501.153357
372.968678	2508.400016
373.355418	2513.408402
373.742096	2522.616070
374.128710	2531.370033
374.515262	2543.229348
374.901751	2553.929197
375.288177	2569.188770
375.674540	2584.612180
376.060841	2604.771754
376.447079	2628.127420
376.833254	2651.977119
377.219367	2672.741631
377.605417	2704.468133
377.991404	2728.277503
378.377329	2761.102976
378.763191	2794.316618
379.148991	2838.371262
379.534727	2884.107130
379.920402	2929.921136
380.306013	2972.539051
380.691563	3031.555839
381.077049	3083.867892
381.462474	3139.111377
381.847835	3206.224258
382.233134	3271.671037
382.618371	3324.799758
383.003545	3409.470978
383.388657	3482.865137
383.773706	3569.615833
384.158693	3641.164929
384.543618	3730.199268
384.928480	3801.259373
385.313280	3901.348962
385.698017	3999.364116
386.082692	4112.016260
386.467305	4171.098583
386.851856	4291.806492
387.236344	4435.963327
387.620770	4494.748222
388.005133	4608.582517
388.389435	4742.871294
388.773674	4828.228111
389.157851	4951.824600
389.541965	5078.433179
389.926018	5101.347744
390.310008	5267.937714
390.693936	5390.586466
391.077802	5496.952292
391.461606	5627.573629
391.845348	5729.699844
392.229027	5849.848184
392.612645	6059.741666
392.996200	6172.887843
393.379694	6343.835891
393.763125	6550.127468
394.146494	6639.539893
394.529801	6770.698113
394.913047	7001.701427
395.296230	6995.190777
395.679351	7048.962244
396.062410	7292.893596
396.445408	7198.233330
396.828343	7336.459248
397.211217	7462.896428
397.594028	7352.991712
397.976778	7544.598408
398.359466	7699.666821
398.742092	7671.630444
399.124656	7808.112122
399.507158	7986.916808
399.889598	7997.795618
400.271977	8186.974998
400.654294	8200.515538
401.036549	8372.454172
401.418742	8382.884319
401.800874	8644.293352
402.182944	8704.583031
402.564952	9011.730453
402.946898	8825.943769
403.328783	8845.029577
403.710606	8986.232297
404.092367	9182.479375
404.474067	9461.938259
404.855705	9227.287671
405.237282	9135.145461
405.618797	9453.645561
406.000250	9603.423283
406.381642	9845.438997
406.762972	9728.229649
407.144240	9489.586467
407.525447	9618.493812
407.906593	9496.303805
408.287677	9620.495150
408.668700	9647.558585
409.049661	9537.752172
409.430560	9562.665554
409.811399	9436.919012
410.192176	9448.548954
410.572891	9401.446933
410.953545	9638.048448
411.334138	9139.432962
411.714669	9435.078991
412.095139	8838.029935
412.475547	9048.850989
412.855894	8831.252104
413.236180	8899.519409
413.616405	8576.023526
413.996568	8618.381821
414.376670	8458.678067
414.756711	8258.549301
415.136691	8275.086806
415.516609	8230.391936
415.896466	8132.946432
416.276262	8137.004561
416.655997	8221.199392
417.035670	8089.506809
417.415283	8243.027588
417.794834	8119.249617
418.174324	7838.530445
418.553753	7623.983978
418.933121	7678.970364
419.312428	7441.678211
419.691674	7243.505412
420.070859	7264.869822
420.449983	6970.466437
420.829045	7020.026021
421.208047	6774.718434
421.586988	6772.379338
421.965867	6694.881680
422.344686	6542.684204
422.723444	6551.622170
423.102141	6015.218195
423.480777	6204.730292
423.859352	5923.217138
424.237866	6052.396705
424.616319	5837.343602
424.994712	5843.264438
425.373044	5652.187063
425.751314	5647.889479
426.129524	5334.924566
426.507673	5396.991252
426.885762	5214.413263
427.263789	5107.046768
427.641756	5011.907592
428.019662	4892.230600
428.397508	4775.575779
428.775292	4690.360115
429.153016	4573.647321
429.530679	4467.450374
429.908282	4361.258468
430.285824	4230.006987
430.663305	4199.432388
431.040726	4067.192841
431.418086	3954.704534
431.795385	3924.820574
432.172624	3870.214795
432.549802	3756.400665
432.926920	3687.142773
433.303977	3605.644959
433.680974	3550.023388
434.057910	3498.104545
434.434786	3435.657252
434.811601	3369.489587
435.188355	3357.915098
435.565050	3286.799540
435.941683	3236.546798
436.318257	3216.682131
436.694770	3159.028975
437.071222	3134.223978
437.447614	3061.394428
437.823946	3021.869262
438.200218	2995.801455
438.576429	2956.087245
438.952580	2935.695778
439.328670	2903.724780
439.704700	2886.801627
440.080670	2856.327852
440.456580	2843.432580
440.832429	2827.981443
441.208218	2792.595064
441.583947	2784.390586
441.959616	2768.861312
442.335224	2761.927205
442.710773	2749.001686
443.086261	2742.080182
443.461689	2726.765157
443.837057	2717.340719
444.212365	2717.799464
444.587612	2709.226982
444.962800	2696.122503
445.337927	2694.937832
445.712995	2676.827487
446.088002	2688.028930
446.462949	2683.958199
446.837837	2685.132787
447.212664	2679.443845
447.587431	2694.658048
447.962139	2713.249823
448.336786	2727.914540
448.711374	2712.332333
449.085901	2682.080369
449.460369	2679.597601
449.834776	2675.088288
450.209124	2687.008097
450.583412	2681.528362
450.957640	2683.602797
451.331808	2672.988648
451.705917	2663.942297
452.079965	2661.318377
452.453954	2660.794097
452.827883	2658.134888
453.201752	2654.137253
453.575562	2652.508960
453.949311	2657.746719
454.323001	2656.947696
454.696632	2655.886533
455.070202	2665.386588
455.443713	2662.394663
455.817164	2663.828871
456.190556	2661.888027
456.563888	2659.148160
456.937160	2660.282420
457.310373	2655.412665
457.683526	2656.872079
458.056619	2652.377890
458.429653	2652.385452
458.802628	2655.347130
459.175542	2656.471307
459.548398	2660.443737
459.921194	2669.994202
460.293930	2672.676096
460.666607	2683.900225
461.039224	2689.485824
461.411782	2692.543284
461.784280	2686.998014
462.156719	2682.881912
462.529099	2681.911490
462.901419	2674.135510
463.273680	2669.555622
463.645882	2669.943791
464.018024	2668.703667
464.390106	2675.330264
464.762130	2689.576565
465.134094	2709.869729
465.505999	2738.125397
465.877845	2764.021804
466.249631	2769.524223
466.621358	2758.582399
466.993026	2749.951944
467.364634	2740.552712
467.736184	2730.699777
468.107674	2727.937225
468.479105	2718.782489
468.850477	2720.488920
469.221790	2711.679504
469.593043	2705.647763
469.964238	2701.466126
470.335373	2698.247349
470.706449	2712.836448
471.077467	2727.201216
471.448425	2754.821698
471.819324	2771.389450
472.190164	2761.753285
472.560945	2744.013464
472.931667	2728.900085
473.302330	2723.064950
473.672934	2717.426419
474.043479	2721.711400
474.413965	2718.913559
474.784393	2713.305276
475.154761	2717.560010
475.525070	2720.987994
475.895321	2719.954558
476.265513	2720.226780
476.635645	2729.147102
477.005719	2731.329921
477.375734	2734.977196
477.745691	2736.345869
478.115588	2746.498753
478.485427	2757.004518
478.855207	2778.043773
479.224928	2791.680095
479.594591	2803.267187
479.964194	2797.890796
480.333739	2797.910961
480.703226	2798.616722
481.072653	2798.926753
481.442022	2801.704429
481.811333	2801.888431
482.180584	2794.387194
482.549777	2790.502985
482.918912	2787.846297
483.287988	2785.411420
483.657005	2773.433638
484.025964	2768.500869
484.394864	2767.805190
484.763706	2766.441558
485.132489	2757.816144
485.501213	2754.269692
485.869879	2757.632142
486.238487	2748.694176
486.607036	2750.133425
486.975527	2743.020357
487.343959	2746.750811
487.712333	2742.483474
488.080648	2742.004565
488.448905	2740.416601
488.817104	2739.960377
489.185244	2743.237127
489.553326	2747.713671
489.921350	2761.841505
490.289315	2777.965636
490.657222	2776.586880
491.025070	2775.616458
491.392861	2771.281066
491.760593	2766.207144
492.128267	2756.041657
492.495883	2746.024885
492.863440	2738.783267
493.230939	2728.224571
493.598380	2721.870196
493.965763	2716.977756
494.333088	2713.690924
494.700354	2710.459544
495.067563	2709.461396
495.434713	2706.371169
495.801805	2710.610779
496.168839	2705.993082
496.535815	2704.601724
496.902733	2700.659541
497.269593	2701.748431
497.636395	2700.709953
498.003139	2701.188862
498.369825	2697.097966
498.736453	2699.822710
499.103023	2696.177956
499.469535	2693.962368
499.835989	2698.454037
500.202385	2694.789118
500.568723	2693.644776
500.935003	2696.387163
501.301226	2690.922553
501.667390	2695.688964
502.033497	2695.709128
502.399546	2691.456915
502.765537	2689.528674
503.131470	2686.874506
503.497345	2691.295598
503.863163	2685.508353
504.228923	2689.223684
504.594625	2688.089424
504.960269	2680.719257
505.325856	2685.992304
505.691385	2684.258147
506.056856	2682.564320
506.422270	2683.897705
506.787625	2680.053825
507.152924	2681.460307
507.518164	2683.416275
507.883347	2680.036181
508.248472	2676.910666
508.613540	2678.612055
508.978550	2680.270595
509.343503	2676.953515
509.708398	2678.856551
510.073236	2676.915707
510.438016	2679.227076
510.802738	2676.162054
511.167403	2677.656756
511.532010	2677.991993
511.896561	2677.288752
512.261053	2682.922242
512.625488	2674.100222
512.989866	2669.810200
513.354186	2671.065448
513.718449	2670.132834
514.082655	2671.151147
514.446803	2671.950170
514.810894	2673.404543
515.174927	2671.912362
515.538904	2669.590910
515.902822	2674.148113
516.266684	2669.782474
516.630488	2668.428924
516.994235	2668.224757
517.357925	2667.786177
517.721558	2670.145437
518.085133	2670.372289
518.448651	2668.474295
518.812112	2663.682678
519.175516	2667.758451
519.538863	2665.605878
519.902152	2663.370126
520.265385	2662.956752
520.628560	2665.167298
520.991678	2661.777122
521.354739	2664.058244
521.717743	2659.874086
522.080690	2661.341062
522.443580	2660.627739
522.806413	2660.005156
523.169189	2657.161945
523.531908	2657.963489
523.894569	2658.157573
524.257174	2655.102634
524.619722	2656.957779
524.982213	2658.407110
525.344647	2653.396203
525.707025	2652.818991
526.069345	2652.302273
526.431608	2653.701193
526.793815	2654.359064
527.155964	2651.689773
527.518057	2650.905873
527.880093	2647.830770
528.242072	2648.206336
528.603995	2649.101140
528.965860	2645.123670
529.327669	2644.173412
529.689421	2644.493526
530.051117	2645.796664
530.412755	2642.298103
530.774337	2642.845068
531.135862	2639.583442
531.497331	2640.231230
531.858743	2637.191414
532.220098	2639.041518
532.581396	2635.558081
532.942638	2634.449027
533.303824	2637.166209
533.664953	2638.701240
534.026025	2635.605972
534.387040	2635.966414
534.747999	2635.472381
535.108902	2634.081022
535.469748	2632.432565
535.830537	2633.029942
536.191270	2633.755868
536.551947	2631.709160
536.912567	2631.583131
537.273131	2630.821917
537.633638	2629.294447
537.994089	2628.959210
538.354483	2628.049282
538.714821	2629.894344
539.075103	2629.735548
539.435328	2628.150105
539.795497	2624.739764
540.155609	2625.939559
540.515665	2630.726135
540.875665	2626.426030
541.235609	2627.232615
541.595496	2624.412089
541.955328	2625.879065
542.315102	2624.822943
542.674821	2624.593571
543.034483	2622.183899
543.394090	2619.806995
543.753640	2622.869496
544.113134	2623.393776
544.472571	2622.435957
544.831953	2622.181379
545.191278	2617.563682
545.550548	2618.249279
545.909761	2619.728858
546.268918	2620.941255
546.628019	2622.176338
546.987064	2616.631068
547.346053	2615.063270
547.704986	2618.997890
548.063863	2616.626027
548.422684	2617.306583
548.781449	2617.314145
549.140158	2616.326079
549.498811	2617.737602
549.857408	2612.761983
550.215949	2609.018926
550.574434	2609.331478
550.932864	2611.025305
551.291237	2614.165944
551.649555	2614.538990
552.007817	2614.342385
552.366022	2614.334823
552.724173	2610.659822
553.082267	2613.422374
553.440305	2614.289452
553.798288	2611.657970
554.156215	2610.727877
554.514086	2614.332302
554.871902	2613.639144
555.229661	2612.225100
555.587365	2611.673094
555.945014	2610.087651
556.302606	2610.934565
556.660143	2610.269132
557.017625	2612.041098
557.375050	2610.947167
557.732421	2609.825511
558.089735	2607.781323
558.446994	2605.749738
558.804197	2611.849534
559.161345	2608.787033
559.518437	2608.741663
559.875474	2609.487753
560.232455	2609.817949
560.589381	2610.352311
560.946251	2609.434821
561.303065	2607.078082
561.659825	2606.921806
562.016528	2604.862495
562.373177	2605.124635
562.729770	2606.820983
563.086307	2605.434666
563.442789	2603.995416
563.799216	2608.466920
564.155587	2603.065323
564.511904	2603.415684
564.868164	2604.433997
565.224370	2605.154882
565.580520	2605.177567
565.936615	2606.710078
566.292654	2604.749069
566.648638	2603.803852
567.004567	2605.260746
567.360441	2605.089347
567.716260	2602.392329
568.072023	2603.173708
568.427732	2600.270004
568.783385	2597.935949
569.138982	2598.697164
569.494525	2600.461567
569.850013	2597.504931
570.205445	2599.871752
570.560823	2599.778491
570.916145	2602.362082
571.271412	2600.272524
571.626625	2600.829572
571.981782	2598.019128
572.336884	2599.370158
572.691931	2599.607092
573.046923	2599.987699
573.401860	2598.172884
573.756743	2598.818151
574.111570	2597.320929
574.466342	2601.051382
574.821059	2597.835126
575.175722	2600.411156
575.530330	2597.101638
575.884882	2595.841350
576.239380	2596.521906
576.593823	2598.437544
576.948211	2594.283633
577.302544	2596.799169
577.656823	2593.847574
578.011047	2597.893100
578.365216	2594.230701
578.719330	2595.889241
579.073389	2591.911771
579.427394	2592.093252
579.781344	2591.574013
580.135239	2591.183324
580.489080	2592.819178
580.842866	2592.693149
581.196597	2590.439754
581.550273	2590.248190
581.903895	2589.035792
582.257463	2593.552666
582.610975	2588.990422
582.964434	2590.578385
583.317837	2590.338931
583.671186	2588.105699
584.024481	2589.996132
584.377721	2588.924887
584.730906	2587.105030
585.084037	2591.475711
585.437113	2583.850966
585.790135	2589.882706
586.143103	2587.843559
586.496016	2584.735688
586.848874	2582.918352
587.201679	2584.680235
587.554428	2583.878692
587.907124	2582.963722
588.259765	2580.531366
588.612352	2585.128898
588.964884	2584.057653
589.317362	2584.861717
589.669786	2586.815164
590.022155	2583.417426
590.374470	2584.627303
590.726731	2586.439598
591.078937	2582.378949
591.431090	2587.228539
591.783188	2583.175451
592.135232	2578.038515
592.487222	2581.753846
592.839157	2582.827611
593.191038	2580.049936
593.542866	2581.060687
593.894639	2580.554051
594.246358	2579.218145
594.598022	2580.629668
594.949633	2577.514235
595.301190	2579.013978
595.652692	2577.819225
596.004141	2579.281160
596.355535	2578.484657
596.706876	2576.982393
597.058162	2574.537434
597.409395	2577.650346
597.760573	2574.945767
598.111698	2576.359811
598.462768	2577.342836
598.813785	2577.506673
599.164748	2574.330747
599.515657	2576.450552
599.866511	2573.705643
600.217312	2574.774368
600.568060	2575.021385
600.918753	2576.417784
601.269392	2575.255798
601.619978	2572.309244
601.970510	2574.250088
602.320988	2575.220510
602.671412	2576.362332
603.021783	2571.132134
603.372100	2575.119687
603.722363	2574.560119
604.072572	2573.665314
604.422728	2573.433421
604.772830	2568.800601
605.122878	2568.677092
605.472872	2567.116855
605.822813	2569.282031
606.172701	2570.207083
606.522534	2574.602969
606.872314	2575.008782
607.222041	2571.618606
607.571714	2574.376117
607.921333	2569.455951
608.270899	2571.646332
608.620411	2572.178174
608.969870	2572.261353
609.319276	2571.371589
609.668627	2573.952660
610.017926	2571.079202
610.367171	2569.995354
610.716362	2572.629357
611.065500	2572.571384
611.414585	2571.963925
611.763616	2574.323185
612.112594	2573.486353
612.461518	2573.521641
612.810389	2571.167422
613.159207	2571.820252
613.507971	2571.742114
613.856682	2573.607341
614.205340	2574.164388
614.553945	2574.799574
614.902496	2572.536096
615.250994	2572.672207
615.599439	2572.281517
615.947830	2574.585325
616.296169	2574.194635
616.644454	2572.931826
616.992686	2573.299831
617.340864	2573.110787
617.688990	2574.388720
618.037063	2572.677248
618.385082	2573.138514
618.733048	2573.982907
619.080961	2571.792526
619.428821	2576.316961
619.776628	2572.624316
620.124382	2573.181363
620.472083	2572.662125
620.819731	2573.652711
621.167326	2574.184553
621.514868	2573.251940
621.862357	2570.348235
622.209793	2569.065261
622.557176	2569.685323
622.904506	2568.397308
623.251783	2566.050651
623.599007	2566.232133
623.946179	2564.535785
624.293297	2564.097204
624.640363	2565.665003
624.987376	2566.874880
625.334336	2564.651731
625.681243	2565.884293
626.028097	2562.915054
626.374899	2564.845816
626.721647	2565.339849
627.068343	2566.579973
627.414987	2563.887996
627.761577	2564.351782
628.108115	2562.080743
628.454600	2563.159550
628.801032	2562.166442
629.147412	2562.867163
629.493739	2565.057544
629.840014	2560.071843
630.186236	2563.913202
630.532405	2560.891030
630.878521	2560.114693
631.224585	2561.445557
631.570597	2560.220557
631.916556	2563.076371
632.262462	2562.365568
632.608316	2561.783315
632.954117	2558.935063
633.299866	2561.024621
633.645562	2557.858776
633.991206	2559.144271
634.336797	2558.803993
634.682336	2559.923129
635.027823	2557.911708
635.373257	2557.614280
635.718639	2558.771225
636.063968	2556.905998
636.409245	2558.020093
636.754470	2556.298539
637.099642	2554.884496
637.444762	2557.722665
637.789829	2554.087993
638.134845	2554.113199
638.479808	2558.544373
638.824719	2558.640155
639.169577	2554.534135
639.514383	2554.193858
639.859137	2552.167314
640.203839	2554.080432
640.548489	2555.827191
640.893086	2550.753270
641.237632	2549.011551
641.582125	2549.152704
641.926566	2547.297559
642.270955	2550.448280
642.615292	2552.681511
642.959576	2552.447098
643.303809	2552.283260
643.647990	2550.604556
643.992118	2552.283260
644.336195	2548.956099
644.680219	2551.907694
645.024192	2553.173024
645.368112	2550.297046
645.711981	2550.692776
646.055797	2552.391645
646.399562	2552.013558
646.743274	2553.835936
647.086935	2555.602860
647.430544	2553.662016
647.774101	2555.023127
648.117606	2554.735782
648.461059	2555.796944
648.804460	2558.030176
649.147810	2553.097407
649.491108	2552.958775
649.834354	2549.815615
650.177548	2551.842159
650.520690	2548.250337
650.863781	2549.709751
651.206820	2552.936090
651.549807	2549.404761
651.892742	2554.251831
652.235626	2546.591797
652.578458	2549.702189
652.921238	2548.686397
653.263967	2548.852755
653.606644	2545.979297
653.949269	2551.149001
654.291843	2549.107333
654.634365	2547.244627
654.976836	2546.715306
655.319255	2547.700851
655.661622	2548.641027
656.003938	2545.830583
656.346203	2545.639019
656.688416	2548.187323
657.030577	2544.693803
657.372687	2545.996941
657.714746	2548.192364
658.056753	2544.648433
658.398708	2541.608617
658.740612	2545.722198
659.082465	2541.467465
659.424266	2541.149872
659.766016	2542.326981
660.107715	2547.955430
660.449362	2546.039791
660.790958	2548.542724
661.132503	2545.669266
661.473996	2547.448794
661.815438	2545.795295
662.156829	2545.339071
662.498168	2543.632640
662.839456	2545.202960
663.180693	2543.655325
663.521879	2546.007024
663.863013	2544.441745
664.204097	2545.606252
664.545129	2546.485933
664.886110	2548.096582
665.227040	2548.318393
665.567918	2547.607590
665.908746	2544.414019
666.249522	2547.506767
666.590248	2547.058104
666.930922	2547.642878
667.271545	2546.410316
667.612118	2546.508618
667.952639	2545.399565
668.293109	2547.078269
668.633528	2544.958464
668.973896	2545.351674
669.314213	2545.253371
669.654480	2548.174720
669.994695	2546.019627
670.334859	2545.195398
670.674973	2547.174051
671.015035	2547.577343
671.355047	2542.803370
671.695008	2543.292362
672.034918	2545.011396
672.374777	2545.671787
672.714585	2546.619524
673.054342	2544.691282
673.394049	2547.050542
673.733705	2545.132383
674.073310	2543.035263
674.412864	2544.343443
674.752368	2545.588608
675.091820	2544.285470
675.431223	2543.373021
675.770574	2540.860006
676.109875	2541.167516
676.449125	2541.641384
676.788324	2540.222300
677.127473	2539.748431
677.466571	2539.730787
677.805619	2542.221117
678.144616	2541.490150
678.483562	2541.774975
678.822458	2540.446631
679.161303	2539.516538
679.500098	2541.260777
679.838842	2542.576518
680.177535	2540.645757
680.516179	2541.228010
680.854771	2542.170706
681.193314	2542.682383
681.531805	2545.170192
681.870247	2547.088351
682.208638	2544.025850
682.546978	2547.733619
682.885268	2543.678011
683.223508	2544.890408
683.561697	2544.363608
683.899836	2544.081303
684.237925	2544.247661
684.575963	2544.716488
684.913951	2541.517876
685.251889	2542.725232
685.589776	2542.992414
685.927614	2546.395192
686.265401	2543.408309
686.603137	2544.434184
686.940824	2544.381252
687.278460	2545.346633
687.616046	2546.085162
687.953582	2545.729760
688.291068	2545.301262
688.628504	2547.153886
688.965889	2544.638350
689.303224	2544.015768
689.640510	2542.321940
689.977745	2543.420912
690.314930	2543.410829
690.652065	2543.814122
690.989150	2541.782537
691.326185	2540.711292
691.663170	2538.425128
692.000105	2537.182484
692.336990	2539.030067
692.673825	2536.890097
693.010610	2537.520241
693.347345	2532.632843
693.684030	2531.659900
694.020665	2533.704088
694.357251	2528.867101
694.693786	2535.405477
695.030272	2535.067720
695.366707	2534.064530
695.703093	2533.784746
696.039429	2536.789274
696.375716	2531.841381
696.711952	2532.947915
697.048139	2534.125024
697.384276	2531.916999
697.720363	2533.583100
698.056400	2533.638553
698.392388	2533.089067
698.728326	2533.439427
699.064214	2533.749458
699.400053	2533.081505
699.735842	2531.866587
700.071581	2530.767616
700.407270	2529.464477
700.742910	2531.299457
701.078501	2529.527492
701.414042	2531.465815
701.749533	2532.216947
702.084974	2529.393901
702.420366	2530.424817
702.755709	2531.773326
703.091002	2528.993129
703.426246	2529.794673
703.761440	2528.299971
704.096584	2529.711494
704.431679	2526.175124
704.766725	2527.841226
705.101721	2529.887934
705.436668	2527.329549
705.771565	2529.598068
706.106413	2530.157636
706.441212	2530.855836
706.775961	2532.153933
707.110661	2529.136802
707.445311	2530.334076
707.779913	2528.952800
708.114465	2532.678213
708.448967	2530.805424
708.783421	2533.704088
709.117825	2531.107893
709.452180	2532.249715
709.786485	2531.175949
710.120742	2532.201824
710.454949	2533.242822
710.789107	2531.410363
711.123216	2527.417769
711.457275	2534.699716
711.791286	2531.768285
712.125247	2531.521268
712.459159	2533.678882
712.793023	2534.727442
713.126837	2533.872966
713.460602	2534.931609
713.794318	2535.576876
714.127985	2535.786084
714.461602	2531.690147
714.795171	2533.383974
715.128691	2530.286185
715.462162	2531.039838
715.795584	2529.361134
716.128957	2531.301978
716.462281	2530.208047
716.795556	2532.032945
717.128782	2531.599406
717.461960	2530.644107
717.795088	2531.848943
718.128167	2526.810310
718.461198	2526.701925
718.794180	2529.343490
719.127113	2528.022707
719.459997	2529.378778
719.792833	2528.705784
720.125619	2526.470032
720.458357	2523.175638
720.791046	2526.946421
721.123686	2525.166894
721.456278	2527.445495
721.788821	2528.184024
722.121315	2527.105217
722.453761	2524.090607
722.786158	2525.950793
723.118506	2524.892151
723.450805	2524.693025
723.783056	2525.386184
724.115259	2525.305525
724.447412	2526.414579
724.779518	2526.674199
725.111574	2524.062881
725.443582	2527.080012
725.775542	2525.582789
726.107453	2525.345855
726.439315	2526.104548
726.771129	2529.101514
727.102895	2526.437264
727.434612	2529.903058
727.766281	2528.090763
728.097901	2526.817872
728.429473	2524.435926
728.760996	2526.656555
729.092471	2523.649506
729.423897	2529.431710
729.755276	2527.914323
730.086606	2532.322812
730.417887	2534.127545
730.749120	2529.804755
731.080305	2530.684437
731.411442	2530.326515
731.742530	2531.049920
732.073570	2527.178314
732.404562	2534.437576
732.735506	2531.662420
733.066401	2532.859694
733.397249	2528.171421
733.728048	2525.126564
734.058798	2526.873324
734.389501	2527.082532
734.720156	2526.044054
735.050762	2527.647141
735.381320	2523.634383
735.711831	2527.284178
736.042293	2525.499610
736.372707	2524.677902
736.703073	2526.545649
737.033391	2528.357944
737.363661	2523.029444
737.693883	2527.500948
738.024056	2525.950793
738.354182	2527.780732
738.684260	2525.003056
739.014290	2526.061698
739.344272	2526.543129
739.674207	2526.265865
740.004093	2530.278624
740.333931	2525.456760
740.663722	2526.858201
740.993464	2526.371729
741.323159	2528.761236
741.652806	2524.987933
741.982405	2528.662934
742.311956	2524.002387
742.641460	2525.744106
742.970915	2524.967768
743.300323	2528.370547
743.629683	2524.564476
743.958996	2524.788807
744.288260	2523.682274
744.617477	2519.825791
744.946647	2522.232942
745.275768	2519.959382
745.604842	2521.315452
745.933869	2520.811337
746.262847	2518.046264
746.591778	2524.098169
746.920662	2521.864938
747.249498	2522.006090
747.578286	2521.532222
747.907027	2522.127078
748.235720	2523.329393
748.564365	2524.879548
748.892963	2522.653878
749.221514	2521.612880
749.550017	2522.265710
749.878473	2526.333921
750.206881	2523.732685
750.535242	2522.222860
750.863555	2521.675895
751.191821	2521.320493
751.520039	2520.934845
751.848210	2523.702438
752.176334	2519.256141
752.504411	2525.076153
752.832440	2519.465349
753.160421	2520.652540
753.488356	2520.418127
753.816243	2523.006759
754.144082	2521.131450
754.471875	2520.377798
754.799620	2522.371574
755.127318	2518.389062
755.454969	2522.021214
755.782572	2522.114475
756.110129	2520.876872
756.437638	2521.567510
756.765100	2518.537776
757.092515	2523.591533
757.419882	2521.597757
757.747203	2521.315452
758.074477	2522.885772
758.401703	2520.241686
758.728882	2521.300329
759.056014	2521.333096
759.383099	2520.120699
759.710138	2523.024403
760.037129	2523.130268
760.364073	2524.766122
760.690970	2522.840401
761.017820	2520.382839
761.344623	2524.070443
761.671379	2524.554393
761.998088	2518.671367
762.324751	2523.813344
762.651366	2528.703263
762.977935	2534.954294
763.304456	2536.403626
763.630931	2540.877650
763.957359	2540.184491
764.283740	2539.403112
764.610074	2531.485980
764.936362	2533.880528
765.262602	2530.160157
765.588796	2524.463653
765.914943	2525.008097
766.241044	2523.359640
766.567097	2523.445340
766.893104	2520.592047
767.219064	2522.187572
767.544978	2520.095493
767.870845	2520.155987
768.196665	2519.059536
768.522438	2520.874351
768.848165	2520.098013
769.173846	2518.472241
769.499479	2517.300173
769.825066	2520.007273
770.150607	2517.521984
770.476101	2519.117509
770.801548	2518.116840
771.126949	2518.593229
771.452303	2516.937210
771.777611	2517.138856
772.102872	2516.168434
772.428087	2516.062570
772.753256	2516.947292
773.078378	2515.011489
773.403453	2515.989473
773.728482	2513.720954
774.053465	2516.312107
774.378401	2515.760101
774.703291	2517.257323
775.028135	2514.782117
775.352932	2517.378311
775.677683	2512.886643
776.002388	2517.514422
776.327046	2511.727178
776.651658	2515.843280
776.976224	2513.559637
777.300743	2518.699093
777.625216	2512.629544
777.949643	2517.113650
778.274024	2515.865965
778.598359	2512.316992
778.922647	2512.707682
779.246889	2509.899759
779.571086	2510.789523
779.895236	2514.537621
780.219339	2512.311951
780.543397	2513.975532
780.867409	2516.125584
781.191374	2514.159534
781.515294	2514.560306
781.839167	2515.291273
782.162995	2514.651047
782.486776	2514.381345
782.810511	2514.456962
783.134201	2513.337826
783.457844	2516.191119
783.781441	2514.842611
784.104993	2513.214318
784.428498	2514.693897
784.751958	2514.429236
785.075372	2513.151303
785.398739	2512.127949
785.722061	2514.139370
786.045337	2512.274143
786.368568	2512.251457
786.691752	2509.864471
787.014891	2511.638957
787.337983	2514.595594
787.661030	2514.169617
787.984031	2515.934020
788.306987	2518.003414
788.629897	2520.677746
788.952760	2517.378311
789.275579	2518.678929
789.598351	2517.761439
789.921078	2517.055677
790.243759	2517.257323
790.566395	2515.384535
790.888984	2519.349402
791.211529	2512.498474
791.534027	2516.362518
791.856480	2514.860255
792.178888	2515.608866
792.501249	2515.999555
792.823566	2514.348578
793.145836	2514.497292
793.468062	2514.635923
793.790241	2512.702641
794.112375	2515.626510
794.434464	2514.119205
794.756507	2513.983094
795.078505	2513.151303
795.400457	2514.391427
795.722364	2510.151817
796.044226	2515.301356
796.366042	2513.640295
796.687812	2514.151972
797.009538	2516.468383
797.331218	2515.218177
797.652852	2515.261026
797.974442	2517.098527
798.295986	2514.184740
798.617484	2514.698938
798.938938	2513.234483
799.260346	2515.273629
799.581709	2515.369411
799.903026	2516.450739
800.224299	2512.311951
800.545526	2514.852693
800.866708	2514.293125
801.187845	2512.072497
801.508936	2511.525531
801.829983	2511.664163
802.150984	2513.917559
802.471940	2516.105420
802.792851	2514.320851
803.113717	2511.207939
803.434538	2514.265398
803.755314	2512.881602
804.076045	2512.175840
804.396731	2516.453259
804.717372	2511.729698
805.037967	2514.134328
805.358518	2512.884122
805.679024	2512.498474
805.999485	2512.211128
806.319901	2514.275481
806.640272	2513.105933
806.960598	2513.292456
807.280879	2512.427898
807.601115	2514.822446
807.921306	2508.881446
808.241453	2515.366891
808.561554	2511.230624
808.881611	2513.829339
809.201623	2511.623834
809.521590	2514.101561
809.841513	2513.685666
810.161390	2511.449914
810.481223	2515.127436
810.801011	2513.128618
811.120755	2511.306241
811.440453	2511.402023
811.760107	2514.333454
812.079716	2511.152486
812.399281	2511.245747
812.718801	2510.376148
813.038276	2510.502177
813.357707	2514.532580
813.677093	2513.476458
813.996434	2510.910511
814.315731	2515.014010
814.634983	2514.424195
814.954191	2513.322703
815.273354	2515.913856
815.592473	2511.475120
815.911547	2516.370080
816.230577	2512.241375
816.549562	2516.773372
816.868502	2511.868330
817.187399	2515.064421
817.506250	2514.182219
817.825058	2515.744977
818.143821	2515.961747
818.462539	2517.718589
818.781213	2515.334123
819.099843	2517.781603
819.418429	2518.676408
819.736970	2520.662623
820.055466	2522.890813
820.373919	2525.355937
820.692327	2529.746782
821.010691	2536.446475
821.329011	2557.400031
821.647286	2583.818198
821.965517	2612.888012
822.283704	2631.036166
822.601847	2633.902062
822.919945	2620.142232
823.237999	2608.905500
823.556010	2591.989908
823.873976	2577.330233
824.191897	2569.960066
824.509775	2557.694939
824.827609	2552.184958
825.145398	2544.739173
825.463144	2542.573998
825.780845	2545.724719
826.098502	2545.586087
826.416116	2550.476007
826.733685	2561.616957
827.051210	2563.661144
827.368692	2556.323745
827.686129	2549.881150
828.003522	2543.105840
828.320872	2533.615868
828.638177	2529.272913
828.955439	2523.689836
829.272656	2521.887623
829.589830	2520.410565
829.906960	2521.020545
830.224046	2517.496778
830.541088	2518.631038
830.858086	2516.087776
831.175041	2517.771521
831.491952	2516.407889
831.808819	2518.096675
832.125642	2515.858403
832.442421	2518.905781
832.759157	2521.849814
833.075849	2528.294930
833.392497	2532.264838
833.709101	2537.220293
834.025662	2535.849099
834.342179	2534.636701
834.658653	2529.862728
834.975083	2527.843746
835.291469	2527.763088
835.607811	2518.878054
835.924110	2520.428209
836.240366	2516.314628
836.556578	2515.303876
836.872746	2515.936541
837.188871	2511.039060
837.504952	2513.045439
837.820990	2512.821108
838.136984	2511.575943
838.452935	2513.796571
838.768842	2514.313289
839.084706	2511.893536
839.400526	2515.991994
839.716303	2517.781603
840.032037	2520.692870
840.347727	2516.554082
840.663373	2516.866634
840.978977	2514.283043
841.294537	2514.424195
841.610054	2512.473268
841.925527	2511.613752
842.240957	2511.112157
842.556344	2511.084430
842.871687	2510.635768
843.186987	2511.729698
843.502244	2509.844307
843.817458	2511.321365
844.132629	2509.730881
844.447756	2507.968997
844.762840	2503.431959
845.077881	2505.753410
845.392879	2506.653256
845.707833	2508.231137
846.022745	2502.690909
846.337613	2506.650736
846.652438	2507.888339
846.967221	2507.008658
847.281960	2506.065962
847.596656	2508.858761
847.911309	2508.364728
848.225919	2508.954543
848.540485	2507.043946
848.855009	2509.226765
849.169490	2508.478154
849.483928	2508.304234
849.798323	2507.006137
850.112675	2506.439007
850.426984	2505.377844
850.741251	2506.466733
851.055474	2506.565036
851.369654	2506.708709
851.683792	2503.976403
851.997887	2507.606034
852.311938	2505.050169
852.625947	2507.968997
852.939914	2505.566888
853.253837	2511.112157
853.567718	2506.769203
853.881555	2509.947650
854.195350	2506.189470
854.509103	2509.836745
854.822812	2505.226610
855.136479	2509.919924
855.450103	2507.943792
855.763685	2508.795747
856.077224	2506.418843
856.390720	2504.979593
856.704173	2507.437156
857.017584	2507.936230
857.330953	2505.360200
857.644278	2505.463544
857.957561	2510.807167
858.270802	2507.112001
858.584000	2508.210973
858.897155	2508.289111
859.210268	2507.359018
859.523339	2505.292145
859.836367	2505.803822
860.149352	2510.209790
860.462295	2508.427742
860.775195	2503.976403
861.088054	2501.453306
861.400869	2506.842299
861.713642	2501.337359
862.026373	2506.300375
862.339062	2506.711229
862.651708	2507.137207
862.964312	2503.973883
863.276873	2504.717453
863.589392	2509.050325
863.901869	2507.217865
864.214303	2507.951353
864.526696	2506.227279
864.839045	2509.322547
865.151353	2507.094357
865.463619	2508.210973
865.775842	2507.018740
866.088023	2508.236178
866.400162	2507.742145
866.712258	2507.797598
867.024313	2510.950840
867.336325	2509.350273
867.648296	2509.640140
867.960224	2507.918586
868.272110	2507.205262
868.583954	2507.406909
868.895755	2508.929337
869.207515	2508.498318
869.519233	2506.812053
869.830909	2508.389934
870.142542	2506.358349
870.454134	2508.072341
870.765684	2507.064110
871.077191	2505.667711
871.388657	2508.720129
871.700081	2509.564523
872.011463	2507.182577
872.322803	2508.682321
872.634101	2509.753566
872.945357	2507.986641
873.256571	2508.044615
873.567744	2509.705675
873.878874	2509.922444
874.189963	2510.993690
874.501010	2510.532424
874.812015	2508.284069
875.122979	2509.912362
875.433900	2509.158710
875.744780	2509.080572
876.055618	2505.244254
876.366415	2511.129801
876.677169	2508.442866
876.987882	2506.756600
877.298554	2507.943792
877.609183	2506.940602
877.919771	2505.166116
878.230317	2506.736435
878.540822	2513.226921
878.851285	2512.684997
879.161707	2513.194153
879.472087	2514.121726
879.782425	2520.171110
880.092722	2525.494569
880.402977	2536.423790
880.713191	2548.020965
881.023363	2561.632080
881.333494	2567.585683
881.643583	2570.378482
881.953631	2565.168449
882.263637	2562.794066
882.573602	2558.803993
882.883526	2553.324258
883.193408	2550.536500
883.503248	2546.410316
883.813048	2540.292876
884.122806	2535.438245
884.432522	2532.453882
884.742197	2527.707635
885.051831	2525.444157
885.361424	2521.605318
885.670975	2520.881913
885.980485	2517.199350
886.289954	2515.936541
886.599382	2514.204905
886.908768	2516.796058
887.218113	2514.204905
887.527417	2514.444359
887.836680	2513.668022
888.145901	2511.833042
888.455082	2510.212311
888.764221	2513.204236
889.073319	2511.772548
889.382376	2511.336488
889.691392	2511.283556
890.000366	2510.068638
890.309300	2508.924296
890.618193	2509.435973
890.927044	2511.245747
891.235855	2507.845489
891.544625	2510.028309
891.853353	2508.576456
892.162041	2510.827332
892.470687	2508.251302
892.779293	2514.489730
893.087858	2513.723474
893.396381	2509.957733
893.704864	2515.379493
894.013306	2515.876047
894.321707	2525.192099
894.630068	2523.452901
894.938387	2525.620597
895.246665	2526.598581
895.554903	2526.555732
895.863100	2521.161697
896.171256	2519.810668
896.479371	2517.718589
896.787446	2519.104906
897.095480	2515.679442
897.403473	2515.477796
897.711425	2514.010820
898.019336	2512.410254
898.327207	2511.333968
898.635038	2512.412774
898.942827	2510.764317
899.250576	2511.122239
899.558284	2511.951509
899.865952	2511.031498
900.173579	2509.710716
900.481165	2511.550737
900.788711	2505.856754
901.096216	2507.606034
901.403681	2508.868843
901.711105	2509.067969
902.018489	2510.171982
902.325832	2512.054853
902.633135	2511.686848
902.940397	2509.317506
903.247619	2513.635254
903.554800	2518.873013
903.861941	2524.425844
904.169041	2529.976154
904.476101	2527.964734
904.783121	2528.115969
905.090100	2526.389373
905.397039	2520.279495
905.703938	2521.527181
906.010796	2517.017868
906.317614	2518.275636
906.624391	2516.846469
906.931129	2513.962929
907.237826	2513.844462
907.544483	2509.584687
907.851099	2509.907321
908.157675	2509.864471
908.464211	2506.582680
908.770707	2504.919099
909.077163	2504.495642
909.383578	2503.777278
909.689954	2505.188801
909.996289	2500.495487
910.302584	2502.577483
910.608839	2504.818276
910.915054	2506.867505
911.221229	2506.247443
911.527363	2506.048318
911.833458	2507.442197
912.139513	2506.615448
912.445527	2505.493791
912.751502	2507.238030
913.057436	2504.180570
913.363331	2507.442197
913.669186	2507.071672
913.975000	2507.802639
914.280775	2513.224400
914.586510	2512.397651
914.892205	2515.215656
915.197859	2517.322858
915.503475	2523.674712
915.809050	2526.409538
916.114585	2530.515558
916.420081	2529.053623
916.725536	2529.023376
917.030952	2527.498427
917.336328	2525.953314
917.641665	2525.607995
917.946961	2521.827129
918.252218	2520.370236
918.557435	2518.540297
918.862612	2518.303363
919.167750	2516.090296
919.472848	2515.210615
919.777906	2513.292456
920.082925	2512.765655
920.387904	2511.160048
920.692843	2512.443021
920.997743	2508.664677
921.302603	2509.660304
921.607423	2507.724501
921.912204	2507.631240
922.216946	2509.047804
922.521647	2507.411950
922.826310	2506.723832
923.130932	2507.535458
923.435516	2507.457320
923.740059	2507.376662
924.044564	2505.211486
924.349028	2505.047649
924.653454	2501.375168
924.957840	2502.350631
925.262186	2503.406753
925.566493	2504.687206
925.870761	2500.074550
926.174989	2503.474809
926.479178	2503.794922
926.783328	2503.051352
927.087438	2502.774088
927.391509	2502.481701
927.695541	2504.205776
927.999533	2505.773575
928.303486	2502.559839
928.607400	2503.270642
928.911275	2500.016577
929.215110	2503.149654
929.518906	2504.808194
929.822663	2503.966321
930.126381	2503.084119
930.430060	2505.375324
930.733699	2503.749552
931.037299	2503.316012
931.340861	2503.076558
931.644383	2504.069665
931.947866	2505.617299
932.251309	2500.659324
932.554714	2501.418018
932.858080	2502.088491
933.161407	2504.803153
933.464694	2503.343739
933.767943	2504.258708
934.071153	2502.022956
934.374323	2503.431959
934.677455	2499.162102
934.980548	2503.696619
935.283602	2503.994047
935.586617	2504.097391
935.889593	2501.299551
936.192530	2502.907679
936.495428	2502.325426
936.798287	2505.574449
937.101108	2503.837772
937.403890	2503.810045
937.706632	2503.179901
938.009336	2504.102432
938.312002	2506.741476
938.614628	2505.042607
938.917216	2505.556805
939.219765	2504.651918
939.522275	2503.573111
939.824747	2505.524038
940.127179	2501.244098
940.429573	2502.148985
940.731929	2503.464726
941.034246	2500.349293
941.336524	2502.368275
941.638763	2504.278873
941.940964	2505.944974
942.243126	2504.883811
942.545250	2500.298882
942.847335	2504.054541
943.149381	2503.192504
943.451389	2503.527741
943.753359	2502.532113
944.055290	2502.900117
944.357182	2507.046466
944.659036	2505.007319
944.960851	2505.476147
945.262628	2504.397340
945.564367	2507.527896
945.866067	2502.421208
946.167729	2503.031187
946.469352	2501.135713
946.770937	2502.942967
947.072484	2502.048162
947.373992	2503.348780
947.675462	2502.073368
947.976893	2504.210817
948.278286	2505.823986
948.579641	2503.305930
948.880958	2502.297699
949.182236	2502.995899
949.483476	2500.669407
949.784678	2503.247957
950.085841	2502.698471
950.386967	2503.714263
950.688054	2503.623523
950.989103	2504.919099
951.290114	2501.143275
951.591087	2503.421877
951.892021	2506.091168
952.192917	2505.534120
952.493776	2503.699140
952.794596	2504.611589
953.095378	2502.670745
953.396122	2504.291476
953.696828	2504.046980
953.997496	2502.353152
954.298126	2503.323574
954.598718	2504.041938
954.899272	2501.294510
955.199788	2506.670900
955.500266	2503.172339
955.800706	2503.205107
956.101108	2499.555312
956.401472	2504.079747
956.701798	2495.547594
957.002087	2500.825682
957.302337	2501.967504
957.602550	2499.910713
957.902724	2499.646052
958.202861	2502.035559
958.502960	2507.018740
958.803022	2501.733090
959.103045	2503.557988
959.403031	2501.922133
959.702979	2502.827020
960.002889	2501.861639
960.302762	2500.003974
960.602596	2504.551095
960.902393	2501.818790
961.202153	2502.327946
961.501875	2503.043790
961.801559	2501.128152
962.101205	2502.975734
962.400814	2502.902638
962.700385	2505.859274
962.999918	2501.087822
963.299414	2498.264776
963.598873	2503.512617
963.898293	2500.503048
964.197677	2501.685199
964.497022	2500.558501
964.796331	2502.103615
965.095601	2501.481032
965.394835	2502.459016
965.694030	2501.571773
965.993189	2502.524551
966.292309	2502.625374
966.591393	2501.291989
966.890439	2500.011536
967.189447	2502.065806
967.488419	2500.969355
967.787353	2502.796773
968.086249	2500.397184
968.385108	2504.062103
968.683930	2502.905158
968.982714	2500.326608
969.281462	2503.217710
969.580172	2500.384581
969.878844	2502.217041
970.177480	2501.181084
970.476078	2500.800477
970.774639	2501.937257
971.073162	2501.884325
971.371649	2499.522544
971.670098	2499.769561
971.968510	2500.049345
972.266885	2494.496514
972.565223	2501.516320
972.863524	2499.066320
973.161788	2501.544047
973.460014	2501.478512
973.758204	2501.178563
974.056356	2500.739983
974.354471	2500.530775
974.652550	2500.976917
974.950591	2502.184273
975.248595	2500.954232
975.546563	2502.806856
975.844493	2498.605054
976.142386	2500.588748
976.440243	2500.724859
976.738062	2503.361383
977.035845	2498.685713
977.333590	2501.594458
977.631299	2498.373161
977.928971	2502.269973
978.226606	2499.126813
978.524204	2503.169819
978.821765	2501.954901
979.119290	2503.005981
979.416777	2500.860970
979.714228	2501.738131
980.011642	2499.008346
980.309020	2502.821979
980.606360	2501.609582
980.903664	2504.359531
981.200931	2499.121772
981.498162	2500.772750
981.795356	2499.605723
982.092513	2500.946670
982.389633	2503.386588
982.686717	2505.491270
982.983764	2507.112001
983.280775	2502.975734
983.577749	2503.389109
983.874686	2504.210817
984.171587	2505.839110
984.468451	2504.798112
984.765279	2501.539006
985.062070	2504.467916
985.358824	2504.064624
985.655543	2502.879952
985.952224	2501.047493
986.248869	2500.175373
986.545478	2498.325270
986.842050	2501.395333
987.138586	2497.218737
987.435086	2496.906185
987.731549	2494.831750
988.027975	2502.600168
988.324366	2501.954901
988.620719	2501.516320
988.917037	2498.988182
989.213318	2500.379540
989.509563	2501.042452
989.805772	2498.433655
990.101944	2500.835765
990.398080	2500.450116
990.694180	2499.852740
990.990244	2502.910199
991.286271	2500.916423
991.582262	2500.906341
991.878217	2502.128821
992.174136	2499.298213
992.470019	2499.875425
992.765865	2499.376351
993.061676	2499.819972
993.357450	2500.624036
993.653188	2500.495487
993.948890	2499.880466
994.244556	2501.143275
994.540186	2499.492297
994.835780	2499.356186
995.131337	2501.218892
995.426859	2499.083964
995.722345	2501.811228
996.017795	2500.719818
996.313208	2501.566732
996.608586	2503.928513
996.903928	2500.727380
997.199234	2502.063286
997.494504	2503.318533
997.789738	2500.576145
998.084936	2498.516834
998.380099	2500.392143
998.675225	2503.038749
998.970316	2497.052379
999.265371	2500.432472
999.560390	2499.880466
999.855373	2499.265445
1000.150320	2499.988851
1000.445232	2502.443893
1000.740108	2500.371978
1001.034948	2501.249139
1001.329752	2499.131855
1001.624521	2501.279386
1001.919254	2497.780825
1002.213951	2497.584220
1002.508613	2498.284941
1002.803239	2497.143119
1003.097829	2494.791421
1003.392384	2496.583551
1003.686903	2496.240753
1003.981386	2499.817452
1004.275834	2499.388953
1004.570246	2503.852895
1004.864623	2498.731083
1005.158964	2502.305261
1005.453270	2498.690754
1005.747540	2499.893069
1006.041775	2500.485404
1006.335974	2499.333501
1006.630138	2500.114880
1006.924266	2500.853409
1007.218359	2500.016577
1007.512416	2502.010353
1007.806438	2501.107987
1008.100425	2497.226298
1008.394376	2498.531957
1008.688292	2500.361896
1008.982172	2498.168994
1009.276017	2497.627070
1009.569827	2498.985661
1009.863602	2502.285096
1010.157341	2498.652945
1010.451045	2499.731752
1010.744714	2497.425424
1011.038347	2499.610764
1011.331945	2500.646721
1011.625508	2499.225116
1011.919036	2500.124962
1012.212528	2499.875425
1012.505986	2498.274858
1012.799408	2498.897441
1013.092795	2498.597492
1013.386147	2498.128665
1013.679464	2500.470281
1013.972745	2495.300578
1014.265992	2498.484066
1014.559204	2498.484066
1014.852380	2499.933398
1015.145521	2501.833913
1015.438628	2499.449447
1015.731699	2499.900631
1016.024736	2498.416011
1016.317737	2498.317708
1016.610703	2499.850219
1016.903635	2495.522388
1017.196531	2495.441730
1017.489393	2496.984323
1017.782219	2494.809065
1018.075011	2498.789056
1018.367768	2498.703357
1018.660490	2499.918275
1018.953177	2499.918275
1019.245829	2499.918275
