Dividing Wavelength (nm)	Counts (n)	Blue Motor Position (mm): 0.000000	Red Motor Position (mm): 8.500000	
326.493990	2146.815695
326.888308	2146.815695
327.282561	2146.815695
327.676750	2120.770573
328.070874	2121.816613
328.464933	2129.141409
328.858929	2139.170785
329.252859	2147.909625
329.646726	2163.529640
330.040528	2178.758966
330.434265	2197.028108
330.827938	2216.116437
331.221547	2234.045300
331.615091	2253.902405
332.008571	2274.850920
332.401986	2297.006791
332.795338	2314.686118
333.188625	2334.767554
333.581847	2355.574917
333.975006	2376.304141
334.368100	2392.498848
334.761129	2411.390572
335.154095	2425.931780
335.546996	2443.611107
335.939833	2454.265585
336.332606	2469.507514
336.725315	2480.920686
337.117960	2491.491986
337.510540	2497.871566
337.903056	2507.308606
338.295508	2514.756911
338.687896	2519.830832
339.080220	2529.860208
339.472480	2537.331198
339.864676	2536.945550
340.256807	2541.931251
340.648875	2540.413863
341.040879	2546.203629
341.432818	2545.472661
341.824694	2548.280584
342.216506	2543.620037
342.608253	2546.715306
342.999937	2544.461910
343.391557	2544.295552
343.783113	2543.632640
344.174605	2539.919830
344.566033	2540.217258
344.957397	2539.219110
345.348697	2537.747093
345.739934	2535.859181
346.131106	2536.736342
346.522215	2533.615867
346.913260	2530.049251
347.304241	2531.279293
347.695159	2526.643952
348.086012	2525.698735
348.476802	2523.793179
348.867528	2524.294774
349.258191	2521.602798
349.648789	2522.001049
350.039324	2519.268744
350.429796	2519.752694
350.820203	2519.661954
351.210548	2518.467200
351.600828	2516.465862
351.991045	2515.520646
352.381198	2516.450739
352.771288	2515.218177
353.161314	2514.179699
353.551276	2515.331603
353.941175	2515.601304
354.331010	2514.625841
354.720782	2516.632220
355.110490	2514.741788
355.500135	2517.388393
355.889717	2513.657939
356.279235	2516.281860
356.668689	2516.075173
357.058080	2516.891840
357.447408	2512.390089
357.836672	2514.207425
358.225873	2513.184071
358.615010	2514.673732
359.004084	2517.743795
359.393095	2518.318486
359.782043	2518.424350
360.170927	2517.607683
360.559748	2520.372756
360.948505	2521.655730
361.337199	2521.270082
361.725830	2522.180010
362.114398	2520.682787
362.502903	2522.311080
362.891344	2524.239321
363.279722	2522.638755
363.668037	2524.788807
364.056289	2527.105217
364.444478	2525.103879
364.832603	2525.328211
365.220665	2526.018849
365.608665	2526.472552
365.996601	2526.923736
366.384474	2525.182017
366.772284	2529.008253
367.160031	2525.905423
367.547715	2526.744775
367.935336	2525.459281
368.322893	2525.900382
368.710388	2527.871473
369.097820	2531.745599
369.485189	2528.068078
369.872495	2530.686957
370.259738	2527.400125
370.646918	2531.087729
371.034035	2530.394570
371.421090	2528.730989
371.808081	2531.395239
372.195010	2530.994468
372.581875	2532.400949
372.968678	2533.799870
373.355418	2530.094622
373.742096	2534.563604
374.128710	2534.523275
374.515262	2535.138296
374.901751	2534.777853
375.288177	2538.911600
375.674540	2541.482588
376.060841	2541.336395
376.447079	2540.650798
376.833254	2541.381765
377.219367	2545.044163
377.605417	2545.712116
377.991404	2548.116747
378.377329	2550.675132
378.763191	2554.216543
379.148991	2558.592264
379.534727	2563.099056
379.920402	2565.352452
380.306013	2568.452761
380.691563	2575.838052
381.077049	2577.047928
381.462474	2583.525811
381.847835	2588.020000
382.233134	2592.514188
382.618371	2596.484097
383.003545	2600.879983
383.388657	2609.631426
383.773706	2613.966819
384.158693	2619.648199
384.543618	2627.514920
384.928480	2634.496918
385.313280	2641.297434
385.698017	2647.409833
386.082692	2651.334372
386.467305	2656.970382
386.851856	2666.281393
387.236344	2676.449400
387.620770	2679.116170
388.005133	2688.187727
388.389435	2695.021011
388.773674	2695.313398
389.157851	2703.974100
389.541965	2714.762169
389.926018	2711.550954
390.310008	2721.272819
390.693936	2728.161556
391.077802	2728.854715
391.461606	2732.930488
391.845348	2737.888462
392.229027	2742.720408
392.612645	2749.712489
392.996200	2752.265833
393.379694	2756.051740
393.763125	2762.761516
394.146494	2767.535488
394.529801	2768.445417
394.913047	2773.022784
395.296230	2768.145468
395.679351	2764.820827
396.062410	2772.180912
396.445408	2759.157091
396.828343	2760.868562
397.211217	2760.939138
397.594028	2751.081162
397.976778	2748.245513
398.359466	2749.546131
398.742092	2741.205542
399.124656	2744.394072
399.507158	2741.301324
399.889598	2735.156157
400.271977	2733.200189
400.654294	2731.803790
401.036549	2726.800445
401.418742	2719.344578
401.800874	2718.278374
402.182944	2715.283929
402.564952	2713.441387
402.946898	2703.618699
403.328783	2698.310364
403.710606	2693.574200
404.092367	2691.996318
404.474067	2689.435412
404.855705	2677.568536
405.237282	2671.428411
405.618797	2671.004954
406.000250	2667.345076
406.381642	2664.169149
406.762972	2657.424085
407.144240	2649.272540
407.525447	2646.091572
407.906593	2639.283493
408.287677	2630.111114
408.668700	2628.525671
409.049661	2620.190123
409.430560	2618.710544
409.811399	2610.584204
410.192176	2607.834255
410.572891	2603.975252
410.953545	2600.448965
411.334138	2594.636514
411.714669	2593.270362
412.095139	2586.772314
412.475547	2584.939855
412.855894	2580.317117
413.236180	2579.603793
413.616405	2575.238154
413.996568	2575.636405
414.376670	2573.761096
414.756711	2571.845458
415.136691	2568.175498
415.516609	2568.034345
415.896466	2567.731876
416.276262	2566.156516
416.655997	2560.230639
417.035670	2557.707542
417.415283	2558.912377
417.794834	2558.690567
418.174324	2558.738458
418.553753	2559.413972
418.933121	2558.884651
419.312428	2558.277192
419.691674	2559.071174
420.070859	2558.337686
420.449983	2557.342058
420.829045	2558.292316
421.208047	2560.817934
421.586988	2559.348437
421.965867	2557.783159
422.344686	2560.863304
422.723444	2559.086297
423.102141	2558.637635
423.480777	2560.225598
423.859352	2558.824157
424.237866	2559.756771
424.616319	2557.354661
424.994712	2558.435988
425.373044	2557.147974
425.751314	2559.328273
426.129524	2557.919270
426.507673	2559.401369
426.885762	2558.947666
427.263789	2559.613098
427.641756	2560.268448
428.019662	2560.270968
428.397508	2562.320197
428.775292	2556.996739
429.153016	2558.080587
429.530679	2562.599982
429.908282	2559.897923
430.285824	2560.820454
430.663305	2561.153170
431.040726	2560.109652
431.418086	2559.441699
431.795385	2561.679971
432.172624	2560.472615
432.549802	2563.703994
432.926920	2560.510423
433.303977	2561.833726
433.680974	2561.392625
434.057910	2561.730382
434.434786	2560.686864
434.811601	2564.697102
435.188355	2563.590568
435.565050	2561.506051
435.941683	2563.794735
436.318257	2559.189641
436.694770	2557.019424
437.071222	2558.536812
437.447614	2559.724003
437.823946	2558.897254
438.200218	2562.007646
438.576429	2565.304561
438.952580	2561.385063
439.328670	2562.726010
439.704700	2563.303222
440.080670	2564.543346
440.456580	2563.209961
440.832429	2564.719787
441.208218	2564.475291
441.583947	2566.174160
441.959616	2562.738613
442.335224	2565.019735
442.710773	2565.309602
443.086261	2566.181721
443.461689	2563.220043
443.837057	2563.832544
444.212365	2563.381360
444.587612	2563.940928
444.962800	2566.325394
445.337927	2564.424879
445.712995	2564.283727
446.088002	2564.986968
446.462949	2566.272462
446.837837	2565.286917
447.212664	2564.497976
447.587431	2566.675754
447.962139	2564.853377
448.336786	2567.835220
448.711374	2568.241033
449.085901	2566.779098
449.460369	2564.684499
449.834776	2566.027966
450.209124	2566.446382
450.583412	2568.266238
450.957640	2568.606516
451.331808	2565.246587
451.705917	2567.071485
452.079965	2566.315312
452.453954	2567.734397
452.827883	2567.994016
453.201752	2565.002091
453.575562	2566.511917
453.949311	2566.108625
454.323001	2569.372772
454.696632	2567.295816
455.070202	2568.094839
455.443713	2570.252453
455.817164	2564.979406
456.190556	2564.505538
456.563888	2564.631567
456.937160	2565.123079
457.310373	2569.445868
457.683526	2566.854715
458.056619	2569.864284
458.429653	2571.124573
458.802628	2567.179870
459.175542	2566.544684
459.548398	2568.533420
459.921194	2568.785477
460.293930	2569.660117
460.666607	2569.463512
461.039224	2570.559963
461.411782	2568.974521
461.784280	2570.794377
462.156719	2570.368400
462.529099	2572.011816
462.901419	2568.697257
463.273680	2571.946281
463.645882	2571.313616
464.018024	2572.397464
464.390106	2570.630540
464.762130	2570.645663
465.134094	2571.157340
465.505999	2575.273442
465.877845	2576.800912
466.249631	2574.645819
466.621358	2575.585994
466.993026	2577.161354
467.364634	2576.511046
467.736184	2578.827456
468.107674	2572.634398
468.479105	2571.099367
468.850477	2573.929975
469.221790	2573.937537
469.593043	2570.675910
469.964238	2571.961404
470.335373	2572.712536
470.706449	2573.587176
471.077467	2570.761610
471.448425	2576.074986
471.819324	2576.289235
472.190164	2575.409553
472.560945	2574.315623
472.931667	2572.699933
473.302330	2572.359655
473.672934	2572.384861
474.043479	2575.071796
474.413965	2572.848647
474.784393	2571.633729
475.154761	2569.876887
475.525070	2571.416960
475.895321	2569.531568
476.265513	2567.757082
476.635645	2573.435942
477.005719	2571.263204
477.375734	2570.794377
477.745691	2571.437124
478.115588	2572.241188
478.485427	2572.309244
478.855207	2576.536251
479.224928	2576.286714
479.594591	2577.667990
479.964194	2573.725808
480.333739	2576.190932
480.703226	2577.219328
481.072653	2576.881570
481.442022	2574.572722
481.811333	2577.415933
482.180584	2573.466189
482.549777	2574.219841
482.918912	2578.197312
483.287988	2577.373083
483.657005	2575.515418
484.025964	2574.295458
484.394864	2575.507856
484.763706	2577.746128
485.132489	2573.849316
485.501213	2575.175140
485.869879	2575.603638
486.238487	2572.132803
486.607036	2573.577094
486.975527	2575.502815
487.343959	2578.164544
487.712333	2577.557085
488.080648	2575.109605
488.448905	2578.434246
488.817104	2574.925603
489.185244	2577.027764
489.553326	2577.864595
489.921350	2579.981880
490.289315	2580.700244
490.657222	2578.363670
491.025070	2577.985583
491.392861	2580.112950
491.760593	2576.700089
492.128267	2576.921900
492.495883	2574.159347
492.863440	2578.129256
493.230939	2575.487691
493.598380	2576.211097
493.965763	2576.080027
494.333088	2572.301682
494.700354	2573.004923
495.067563	2574.970973
495.434713	2570.532237
495.801805	2575.941395
496.168839	2576.574060
496.535815	2575.593556
496.902733	2574.915520
497.269593	2575.729667
497.636395	2575.984245
498.003139	2575.762434
498.369825	2575.008782
498.736453	2577.335274
499.103023	2577.683114
499.469535	2575.775037
499.835989	2575.263360
500.202385	2574.592887
500.568723	2576.069945
500.935003	2576.460634
501.301226	2574.973494
501.667390	2576.906776
502.033497	2577.796540
502.399546	2575.550706
502.765537	2578.378793
503.131470	2575.742270
503.497345	2573.690520
503.863163	2578.320820
504.228923	2577.315110
504.594625	2576.024574
504.960269	2575.205387
505.325856	2573.052814
505.691385	2579.102199
506.056856	2577.476427
506.422270	2576.735377
506.787625	2577.184040
507.152924	2574.935685
507.518164	2575.822928
507.883347	2577.884760
508.248472	2574.587845
508.613540	2575.200346
508.978550	2573.057855
509.343503	2575.366704
509.708398	2576.327043
510.073236	2576.412743
510.438016	2576.566498
510.802738	2578.030953
511.167403	2576.758062
511.532010	2577.249575
511.896561	2575.689337
512.261053	2577.446180
512.625488	2575.611200
512.989866	2573.322516
513.354186	2573.940057
513.718449	2575.084399
514.082655	2571.716908
514.446803	2573.042732
514.810894	2576.349729
515.174927	2580.208732
515.538904	2574.693710
515.902822	2579.548341
516.266684	2576.105233
516.630488	2578.829976
516.994235	2579.011458
517.357925	2577.680593
517.721558	2576.697568
518.085133	2578.910635
518.448651	2576.427867
518.812112	2577.592373
519.175516	2576.052301
519.538863	2575.689338
519.902152	2577.821746
520.265385	2576.253947
520.628560	2575.510377
520.991678	2578.537589
521.354739	2579.989442
521.717743	2578.144379
522.080690	2576.420305
522.443580	2576.624472
522.806413	2576.251426
523.169189	2575.855696
523.531908	2576.581622
523.894569	2577.574729
524.257174	2575.580953
524.619722	2577.559606
524.982213	2577.791499
525.344647	2578.083886
525.707025	2577.264698
526.069345	2577.794019
526.431608	2577.332754
526.793815	2577.302507
527.155964	2578.817373
527.518057	2579.455079
527.880093	2578.386355
528.242072	2577.400809
528.603995	2578.003227
528.965860	2579.341653
529.327669	2579.674370
529.689421	2574.756724
530.051117	2578.545151
530.412755	2577.186560
530.774337	2578.638412
531.135862	2578.414081
531.497331	2575.613720
531.858743	2572.851168
532.220098	2574.373596
532.581396	2574.023236
532.942638	2574.678586
533.303824	2578.330902
533.664953	2576.369893
534.026025	2576.516087
534.387040	2576.947105
534.747999	2577.332754
535.108902	2577.315110
535.469748	2579.029102
535.830537	2578.651015
536.191270	2577.773855
536.551947	2577.778896
536.912567	2577.418453
537.273131	2576.962229
537.633638	2576.407702
537.994089	2576.493402
538.354483	2578.542631
538.714821	2578.892991
539.075103	2577.234451
539.435328	2577.688155
539.795497	2575.817887
540.155609	2578.724112
540.515665	2576.037177
540.875665	2578.104050
541.235609	2578.968608
541.595496	2579.313927
541.955328	2577.988104
542.315102	2577.105902
542.674821	2576.730336
543.034483	2580.901891
543.394090	2576.226220
543.753640	2581.768969
544.113134	2577.733525
544.472571	2578.782085
544.831953	2577.045408
545.191278	2575.117167
545.550548	2577.773855
545.909761	2578.391396
546.268918	2579.147569
546.628019	2581.292580
546.987064	2576.690007
547.346053	2577.347877
547.704986	2577.889801
548.063863	2574.963411
548.422684	2577.534400
548.781449	2573.743452
549.140158	2579.525656
549.498811	2579.200501
549.857408	2577.405850
550.215949	2574.640778
550.574434	2575.144893
550.932864	2575.323854
551.291237	2575.018864
551.649555	2577.443659
552.007817	2575.149934
552.366022	2576.584142
552.724173	2579.729822
553.082267	2578.373752
553.440305	2578.736715
553.798288	2579.719740
554.156215	2577.680593
554.514086	2578.666139
554.871902	2577.105902
555.229661	2577.909966
555.587365	2578.625810
555.945014	2579.792837
556.302606	2577.486509
556.660143	2577.070614
557.017625	2577.284863
557.375050	2576.506004
557.732421	2578.139338
558.089735	2576.921900
558.446994	2575.160016
558.804197	2578.303176
559.161345	2580.581777
559.518437	2579.487847
559.875474	2579.535738
560.232455	2578.240161
560.589381	2575.729667
560.946251	2580.170923
561.303065	2578.272929
561.659825	2579.523135
562.016528	2578.134297
562.373177	2578.383834
562.729770	2577.176478
563.086307	2580.927096
563.442789	2578.020871
563.799216	2577.284863
564.155587	2579.049267
564.511904	2575.830490
564.868164	2579.742425
565.224370	2578.174626
565.580520	2577.899883
565.936615	2579.255954
566.292654	2578.807291
566.648638	2577.529359
567.004567	2578.918197
567.360441	2577.070614
567.716260	2579.666808
568.072023	2578.986252
568.427732	2577.604976
568.783385	2576.407702
569.138982	2574.600448
569.494525	2572.911662
569.850013	2573.715726
570.205445	2577.299986
570.560823	2578.013309
570.916145	2576.160685
571.271412	2579.220666
571.626625	2579.510532
571.981782	2578.779565
572.336884	2576.989955
572.691931	2578.582960
573.046923	2578.819894
573.401860	2580.271746
573.756743	2576.233782
574.111570	2575.517938
574.466342	2578.386355
574.821059	2579.140007
575.175722	2579.364339
575.530330	2578.787127
575.884882	2577.942733
576.239380	2578.802250
576.593823	2578.356108
576.948211	2577.799060
577.302544	2579.876016
577.656823	2577.088258
578.011047	2579.863413
578.365216	2578.661098
578.719330	2578.035995
579.073389	2577.294945
579.427394	2579.311407
579.781344	2578.814853
580.135239	2578.467013
580.489080	2578.434246
580.842866	2577.471385
581.196597	2581.559761
581.550273	2580.203691
581.903895	2577.733525
582.257463	2575.807805
582.610975	2576.319482
582.964434	2579.145048
583.317837	2577.453741
583.671186	2580.120512
584.024481	2579.853331
584.377721	2581.723599
584.730906	2578.058680
585.084037	2578.353587
585.437113	2576.662280
585.790135	2578.285532
586.143103	2578.207394
586.496016	2578.368711
586.848874	2576.153124
587.201679	2574.608010
587.554428	2575.149934
587.907124	2576.117836
588.259765	2573.650191
588.612352	2577.413412
588.964884	2575.769996
589.317362	2576.226220
589.669786	2578.030953
590.022155	2577.501632
590.374470	2579.727302
590.726731	2578.242682
591.078937	2580.044894
591.431090	2578.817373
591.783188	2577.604976
592.135232	2579.472723
592.487222	2577.859554
592.839157	2578.829976
593.191038	2580.430543
593.542866	2577.637743
593.894639	2576.624472
594.246358	2577.483988
594.598022	2578.066242
594.949633	2577.804102
595.301190	2578.351067
595.652692	2579.170254
596.004141	2579.008937
596.355535	2579.442477
596.706876	2577.920048
597.058162	2578.802250
597.409395	2579.601273
597.760573	2577.035326
598.111698	2576.072465
598.462768	2578.711509
598.813785	2578.134297
599.164748	2575.664132
599.515657	2575.396951
599.866511	2578.613207
600.217312	2579.593711
600.568060	2576.942064
600.918753	2579.694534
601.269392	2578.948443
601.619978	2578.532548
601.970510	2579.324009
602.320988	2576.574060
602.671412	2577.466344
603.021783	2578.338464
603.372100	2577.612538
603.722363	2579.634040
604.072572	2575.286045
604.422728	2579.039184
604.772830	2573.554409
605.122878	2575.936354
605.472872	2573.506518
605.822813	2575.336457
606.172701	2574.781930
606.522534	2577.698237
606.872314	2576.483319
607.222041	2578.527507
607.571714	2576.619430
607.921333	2579.807960
608.270899	2576.747980
608.620411	2577.635223
608.969870	2578.731674
609.319276	2577.408371
609.668627	2578.930799
610.017926	2578.338464
610.367171	2577.514235
610.716362	2579.737384
611.065500	2577.415933
611.414585	2578.429205
611.763616	2578.340984
612.112594	2577.743608
612.461518	2579.175295
612.810389	2576.160685
613.159207	2581.839545
613.507971	2578.663618
613.856682	2579.417271
614.205340	2578.109091
614.553945	2577.962898
614.902496	2577.199163
615.250994	2578.207394
615.599439	2579.732343
615.947830	2578.363670
616.296169	2577.534400
616.644454	2579.011458
616.992686	2577.168916
617.340864	2580.380131
617.688990	2577.279822
618.037063	2579.906263
618.385082	2578.167065
618.733048	2580.380131
619.080961	2577.831828
619.428821	2578.963567
619.776628	2576.624472
620.124382	2579.336612
620.472083	2576.657239
620.819731	2581.516911
621.167326	2579.016499
621.514868	2581.106057
621.862357	2579.034143
622.209793	2577.839390
622.557176	2579.780234
622.904506	2577.458783
623.251783	2574.900397
623.599007	2575.500294
623.946179	2572.906621
624.293297	2573.599779
624.640363	2575.303689
624.987376	2577.136149
625.334336	2576.758062
625.681243	2577.920048
626.028097	2579.618917
626.374899	2577.330233
626.721647	2577.257136
627.068343	2577.869637
627.414987	2577.688155
627.761577	2576.541292
628.108115	2578.845100
628.454600	2577.872157
628.801032	2579.601273
629.147412	2577.095819
629.493739	2579.671849
629.840014	2577.020202
630.186236	2576.619430
630.532405	2580.523804
630.878521	2576.700089
631.224585	2578.862744
631.570597	2577.864595
631.916556	2577.224369
632.262462	2577.173957
632.608316	2578.212435
632.954117	2576.939544
633.299866	2577.521797
633.645562	2578.411561
633.991206	2577.831828
634.336797	2576.783268
634.682336	2578.640933
635.027823	2577.143710
635.373257	2576.367373
635.718639	2576.884091
636.063968	2577.378124
636.409245	2576.518607
636.754470	2576.906776
637.099642	2575.727146
637.444762	2578.706468
637.789829	2576.929461
638.134845	2575.792681
638.479808	2577.090778
638.824719	2576.271591
639.169577	2578.381314
639.514383	2576.503484
639.859137	2576.316961
640.203839	2577.068093
640.548489	2577.564647
640.893086	2574.633216
641.237632	2573.294789
641.582125	2573.534244
641.926566	2574.645819
642.270955	2578.381314
642.615292	2576.863926
642.959576	2576.092630
643.303809	2576.183371
643.647990	2577.892322
643.992118	2578.353587
644.336195	2575.371745
644.680219	2576.027095
645.024192	2575.752352
645.368112	2578.114132
645.711981	2576.357290
646.055797	2576.773186
646.399562	2577.635223
646.743274	2578.265367
647.086935	2575.023905
647.430544	2575.969122
647.774101	2576.521128
648.117606	2576.808474
648.461059	2576.992476
648.804460	2577.332754
649.147810	2577.327713
649.491108	2576.506004
649.834354	2577.365521
650.177548	2577.302507
650.520690	2577.249575
650.863781	2572.813359
651.206820	2579.719740
651.549807	2576.974832
651.892742	2575.782599
652.235626	2577.042887
652.578458	2573.025088
652.921238	2575.943916
653.263967	2576.470716
653.606644	2577.025243
653.949269	2577.345357
654.291843	2575.270922
654.634365	2576.654718
654.976836	2574.963411
655.319255	2577.471385
655.661622	2577.804102
656.003938	2574.401323
656.346203	2573.231775
656.688416	2576.614389
657.030577	2575.931313
657.372687	2576.611869
657.714746	2575.621282
658.056753	2574.444172
658.398708	2570.580128
658.740612	2570.895200
659.082465	2573.698082
659.424266	2572.606672
659.766016	2572.178174
660.107715	2574.015674
660.449362	2574.476940
660.790958	2575.422156
661.132503	2576.455593
661.473996	2576.992476
661.815438	2574.295458
662.156829	2575.835531
662.498168	2574.776889
662.839456	2576.122877
663.180693	2576.871488
663.521879	2578.643454
663.863013	2574.562640
664.204097	2575.162537
664.545129	2578.255285
664.886110	2575.588514
665.227040	2575.318813
665.567918	2575.943916
665.908746	2576.385017
666.249522	2575.936354
666.590248	2573.080540
666.930922	2573.453586
667.271545	2577.448700
667.612118	2574.996179
667.952639	2575.278483
668.293109	2576.410223
668.633528	2572.193297
668.973896	2573.836713
669.314213	2573.481312
669.654480	2579.286201
669.994695	2576.082547
670.334859	2575.033987
670.674973	2576.662280
671.015035	2575.091961
671.355047	2573.612382
671.695008	2574.698751
672.034918	2576.367373
672.374777	2575.316292
672.714585	2576.306879
673.054342	2576.258988
673.394049	2575.933833
673.733705	2576.571539
674.073310	2579.094637
674.412864	2576.959708
674.752368	2577.189081
675.091820	2576.574060
675.431223	2574.436611
675.770574	2577.753690
676.109875	2570.559963
676.449125	2571.371589
676.788324	2569.526527
677.127473	2573.241857
677.466571	2571.490056
677.805619	2575.505335
678.144616	2572.674727
678.483562	2574.504666
678.822458	2575.187743
679.161303	2577.554564
679.500098	2575.853175
679.838842	2574.532393
680.177535	2572.894018
680.516179	2573.577094
680.854771	2575.643967
681.193314	2573.849316
681.531805	2574.227403
681.870247	2573.950139
682.208638	2575.482650
682.546978	2575.076837
682.885268	2577.670511
683.223508	2575.071796
683.561697	2576.125397
683.899836	2576.342167
684.237925	2575.908628
684.575963	2575.767475
684.913951	2573.919892
685.251889	2576.377455
685.589776	2574.116497
685.927614	2578.348546
686.265401	2574.618092
686.603137	2574.668504
686.940824	2574.907959
687.278460	2575.772517
687.616046	2574.474419
687.953582	2577.196643
688.291068	2577.161354
688.628504	2576.747980
688.965889	2575.535582
689.303224	2574.018195
689.640510	2574.512228
689.977745	2574.650860
690.314930	2577.219328
690.652065	2577.045408
690.989150	2574.008113
691.326185	2574.963411
691.663170	2576.967270
692.000105	2575.686817
692.336990	2574.086251
692.673825	2573.872002
693.010610	2576.168247
693.347345	2571.555591
693.684030	2571.033832
694.020665	2572.362176
694.357251	2569.287072
694.693786	2573.065417
695.030272	2575.885943
695.366707	2576.579101
695.703093	2573.687999
696.039429	2574.265212
696.375716	2575.563309
696.711952	2572.614234
697.048139	2571.691702
697.384276	2571.535427
697.720363	2572.556260
698.056400	2573.824111
698.392388	2577.110943
698.728326	2573.657752
699.064214	2576.198494
699.400053	2574.194635
699.735842	2573.992989
700.071581	2573.740932
700.407270	2574.837382
700.742910	2572.853688
701.078501	2570.635581
701.414042	2572.722618
701.749533	2573.181363
702.084974	2573.705643
702.420366	2573.292269
702.755709	2573.133473
703.091002	2575.210428
703.426246	2570.743966
703.761440	2570.975859
704.096584	2574.461817
704.431679	2573.793864
704.766725	2575.026426
705.101721	2570.567525
705.436668	2574.345870
705.771565	2572.571384
706.106413	2572.291600
706.441212	2571.719429
706.775961	2575.896025
707.110661	2572.704974
707.445311	2576.410222
707.779913	2574.570201
708.114465	2574.149265
708.448967	2572.384861
708.783421	2573.556929
709.117825	2572.828483
709.452180	2573.796384
709.786485	2575.303689
710.120742	2573.526683
710.454949	2573.622464
710.789107	2570.159192
711.123216	2570.292782
711.457275	2568.949315
711.791286	2570.938050
712.125247	2570.779254
712.459159	2574.418967
712.793023	2573.420818
713.126837	2571.926116
713.460602	2573.887125
713.794318	2574.839903
714.127985	2575.281004
714.461602	2575.031467
714.795171	2574.166909
715.128691	2572.783112
715.462162	2573.975345
715.795584	2571.742114
716.128957	2573.715726
716.462281	2573.544327
716.795556	2571.578277
717.128782	2572.331929
717.461960	2572.412587
717.795088	2572.765468
718.128167	2575.361663
718.461198	2573.385530
718.794180	2573.690520
719.127113	2572.125242
719.459997	2572.639439
719.792833	2570.862433
720.125619	2573.693041
720.458357	2572.856209
720.791046	2572.967114
721.123686	2571.994172
721.456278	2574.615572
721.788821	2574.930644
722.121315	2574.645819
722.453761	2573.178843
722.786158	2572.704974
723.118506	2571.331260
723.450805	2572.304203
723.783056	2572.261353
724.115259	2572.215982
724.447412	2572.150447
724.779518	2571.157340
725.111574	2571.984089
725.443582	2572.954512
725.775542	2571.487536
726.107453	2572.034501
726.439315	2572.198338
726.771129	2576.795871
727.102895	2573.433421
727.434612	2572.838565
727.766281	2574.950808
728.097901	2571.963925
728.429473	2569.551733
728.760996	2569.314798
729.092471	2569.024932
729.423897	2571.880746
729.755276	2574.310582
730.086606	2573.768658
730.417887	2574.237485
730.749120	2573.284707
731.080305	2570.328070
731.411442	2571.711867
731.742530	2571.979048
732.073570	2571.553071
732.404562	2571.301013
732.735506	2574.333267
733.066401	2571.908472
733.397249	2570.711198
733.728048	2572.636919
734.058798	2572.374779
734.389501	2574.792012
734.720156	2573.020047
735.050762	2573.675397
735.381320	2573.617423
735.711831	2573.191446
736.042293	2570.519634
736.372707	2572.783112
736.703073	2570.065930
737.033391	2573.337639
737.363661	2571.532906
737.693883	2573.057855
738.024056	2573.027608
738.354182	2571.555591
738.684260	2567.389078
739.014290	2571.553071
739.344272	2570.474264
739.674207	2570.910324
740.004093	2571.190108
740.333931	2573.501477
740.663722	2569.607185
740.993464	2571.641291
741.323159	2572.407546
741.652806	2572.140365
741.982405	2573.836713
742.311956	2570.035683
742.641460	2571.553071
742.970915	2572.808318
743.300323	2570.373441
743.629683	2569.650035
743.958996	2570.857392
744.288260	2572.541137
744.617477	2572.037022
744.946647	2569.574418
745.275768	2567.089129
745.604842	2570.335632
745.933869	2568.757751
746.262847	2564.871021
746.591778	2571.197669
746.920662	2570.325550
747.249498	2569.904613
747.578286	2570.527196
747.907027	2575.689338
748.235720	2571.903431
748.564365	2573.877043
748.892963	2568.772874
749.221514	2574.348391
749.550017	2568.893862
749.878473	2571.313616
750.206881	2573.388051
750.535242	2571.003585
750.863555	2571.858061
751.191821	2569.728173
751.520039	2572.465520
751.848210	2572.105077
752.176334	2571.217834
752.504411	2572.049624
752.832440	2571.268246
753.160421	2570.373441
753.488356	2573.660273
753.816243	2573.256981
754.144082	2570.892680
754.471875	2573.083061
754.799620	2571.628688
755.127318	2571.185067
755.454969	2570.693554
755.782572	2571.041394
756.110129	2569.818914
756.437638	2572.142886
756.765100	2568.954356
757.092515	2573.529203
757.419882	2570.920406
757.747203	2570.048286
758.074477	2570.978379
758.401703	2569.077864
758.728882	2571.714388
759.056014	2571.492577
759.383099	2572.241188
759.710138	2572.790674
760.037129	2571.064079
760.364073	2572.291600
760.690970	2568.324212
761.017820	2572.306723
761.344623	2570.696075
761.671379	2571.974007
761.998088	2568.977041
762.324751	2567.555436
762.651366	2571.462330
762.977935	2569.730694
763.304456	2570.892680
763.630931	2573.829152
763.957359	2575.838052
764.283740	2570.388564
764.610074	2571.016188
764.936362	2572.576425
765.262602	2572.364697
765.588796	2572.347053
765.914943	2572.906621
766.241044	2572.168092
766.567097	2570.749007
766.893104	2572.468040
767.219064	2568.024263
767.544978	2568.634243
767.870845	2569.133317
768.196665	2570.007957
768.522438	2571.076682
768.848165	2567.520148
769.173846	2572.296641
769.499479	2568.896383
769.825066	2571.111970
770.150607	2569.211455
770.476101	2568.603996
770.801548	2569.952504
771.126949	2569.009809
771.452303	2571.336301
771.777611	2572.173133
772.102872	2569.148440
772.428087	2568.271280
772.753256	2570.312947
773.078378	2571.394274
773.403453	2570.378482
773.728482	2569.324881
774.053465	2571.396795
774.378401	2570.630540
774.703291	2570.360838
775.028135	2570.270097
775.352932	2570.708678
775.677683	2573.309913
776.002388	2572.001733
776.327046	2568.246074
776.651658	2570.965776
776.976224	2569.690364
777.300743	2572.092474
777.625216	2570.176836
777.949643	2570.232288
778.274024	2569.970148
778.598359	2566.159036
778.922647	2567.522668
779.246889	2566.776578
779.571086	2564.767678
779.895236	2565.604509
780.219339	2569.070303
780.543397	2569.239181
780.867409	2570.045766
781.191374	2567.633574
781.515294	2568.961918
781.839167	2569.191290
782.162995	2569.282031
782.486776	2570.118862
782.810511	2569.345045
783.134201	2571.757237
783.457844	2569.942422
783.781441	2568.069633
784.104993	2568.198183
784.428498	2568.175498
784.751958	2569.161043
785.075372	2570.935529
785.398739	2571.260684
785.722061	2570.262535
786.045337	2569.781105
786.368568	2569.876887
786.691752	2569.440827
787.014891	2570.199521
787.337983	2569.718091
787.661030	2570.917885
787.984031	2569.208934
788.306987	2569.183728
788.629897	2567.555436
788.952760	2569.423183
789.275579	2570.680951
789.598351	2571.540468
789.921078	2569.735735
790.243759	2569.677762
790.566395	2567.061403
790.888984	2571.890828
791.211529	2570.413770
791.534027	2570.743966
791.856480	2570.980900
792.178888	2570.801939
792.501249	2569.350087
792.823566	2570.557443
793.145836	2568.503173
793.468062	2568.606516
793.790241	2571.946281
794.112375	2567.983934
794.434464	2567.411763
794.756507	2568.483008
795.078505	2570.406208
795.400457	2568.034345
795.722364	2564.636608
796.044226	2566.116186
796.366042	2567.641135
796.687812	2564.371947
797.009538	2570.212124
797.331218	2570.126424
797.652852	2568.440158
797.974442	2567.764644
798.295986	2571.689182
798.617484	2568.273800
798.938938	2569.665159
799.260346	2569.052658
799.581709	2567.557956
799.903026	2568.094839
800.224299	2569.617268
800.545526	2568.278841
800.866708	2571.641291
801.187845	2568.135168
801.508936	2567.600806
801.829983	2568.331773
802.150984	2568.142730
802.471940	2570.149109
802.792851	2566.385888
803.113717	2572.460478
803.434538	2569.738255
803.755314	2566.524520
804.076045	2568.419994
804.396731	2569.486198
804.717372	2570.454099
805.037967	2570.254974
805.358518	2569.813873
805.679024	2570.277659
805.999485	2568.619119
806.319901	2569.889490
806.640272	2569.203893
806.960598	2568.853533
807.280879	2566.542164
807.601115	2572.309244
807.921306	2567.961249
808.241453	2569.939902
808.561554	2566.857236
808.881611	2567.366392
809.201623	2571.086764
809.521590	2567.129458
809.841513	2566.547205
810.161390	2570.012998
810.481223	2567.658779
810.801011	2567.714232
811.120755	2570.002916
811.440453	2566.053172
811.760107	2569.488718
812.079716	2565.367575
812.399281	2567.005950
812.718801	2566.784139
813.038276	2562.899930
813.357707	2569.057700
813.677093	2569.536609
813.996434	2570.411249
814.315731	2567.308419
814.634983	2566.713563
814.954191	2571.205231
815.273354	2569.864284
815.592473	2568.798080
815.911547	2568.351938
816.230577	2573.168761
816.549562	2569.415622
816.868502	2568.772874
817.187399	2570.736404
817.506250	2569.380333
817.825058	2568.127607
818.143821	2567.762123
818.462539	2568.707339
818.781213	2568.417473
819.099843	2570.028122
819.418429	2568.770354
819.736970	2572.437793
820.055466	2570.254974
820.373919	2568.840930
820.692327	2569.082905
821.010691	2569.713050
821.329011	2572.808318
821.647286	2575.076837
821.965517	2576.954667
822.283704	2578.923238
822.601847	2576.884091
822.919945	2576.483319
823.237999	2576.213617
823.556010	2578.003227
823.873976	2572.931826
824.191897	2575.044070
824.509775	2572.994841
824.827609	2571.704305
825.145398	2571.739593
825.463144	2569.549212
825.780845	2571.732032
826.098502	2570.794377
826.416116	2569.478636
826.733685	2572.962073
827.051210	2574.476940
827.368692	2571.734552
827.686129	2571.167423
828.003522	2572.820921
828.320872	2565.740620
828.638177	2568.911506
828.955439	2566.549726
829.272656	2567.852864
829.589830	2564.250959
829.906960	2567.885631
830.224046	2567.169788
830.541088	2567.610888
830.858086	2566.096022
831.175041	2568.130127
831.491952	2568.425035
831.808819	2571.111970
832.125642	2566.942936
832.442421	2570.164233
832.759157	2571.414439
833.075849	2570.083574
833.392497	2568.215827
833.709101	2569.581980
834.025662	2570.128945
834.342179	2574.792012
834.658653	2570.323029
834.975083	2568.601475
835.291469	2573.030129
835.607811	2572.256312
835.924110	2569.012329
836.240366	2570.267577
836.556578	2566.070816
836.872746	2570.751527
837.188871	2569.886969
837.504952	2568.399829
837.820990	2568.755230
838.136984	2568.127607
838.452935	2567.457133
838.768842	2566.078378
839.084706	2568.445199
839.400526	2568.518296
839.716303	2566.869839
840.032037	2567.923440
840.347727	2565.843964
840.663373	2569.634912
840.978977	2568.271280
841.294537	2568.777916
841.610054	2567.399160
841.925527	2568.034345
842.240957	2566.514437
842.556344	2564.724828
842.871687	2567.895714
843.186987	2569.914696
843.502244	2565.044941
843.817458	2567.449572
844.132629	2568.672051
844.447756	2567.479818
844.762840	2560.729713
845.077881	2562.458829
845.392879	2564.056875
845.707833	2561.959755
846.022745	2564.233315
846.337613	2567.426886
846.652438	2570.302865
846.967221	2565.818758
847.281960	2566.832030
847.596656	2567.436969
847.911309	2567.494942
848.225919	2567.338666
848.540485	2567.346228
848.855009	2568.578790
849.169490	2566.229612
849.483928	2567.401681
849.798323	2566.922771
850.112675	2567.890672
850.426984	2565.506207
850.741251	2567.870508
851.055474	2567.835220
851.369654	2566.547205
851.683792	2567.308419
851.997887	2568.979562
852.311938	2568.946794
852.625947	2565.382698
852.939914	2564.848336
853.253837	2567.976372
853.567718	2565.241546
853.881555	2568.964438
854.195350	2565.019735
854.509103	2566.937894
854.822812	2567.144582
855.136479	2565.475960
855.450103	2567.252967
855.763685	2567.338666
856.077224	2566.673234
856.390720	2566.617781
856.704173	2565.405384
857.017584	2562.910012
857.330953	2565.312122
857.644278	2567.898234
857.957561	2568.019222
858.270802	2568.273800
858.584000	2568.853533
858.897155	2567.162226
859.210268	2566.199365
859.523339	2566.466547
859.836367	2567.865467
860.149352	2567.704150
860.462295	2565.957390
860.775195	2561.039744
861.088054	2562.713408
861.400869	2566.332956
861.713642	2562.620146
862.026373	2564.346741
862.339062	2565.349931
862.651708	2566.353121
862.964312	2567.865467
863.276873	2564.359344
863.589392	2567.956208
863.901869	2567.255487
864.214303	2568.004098
864.526696	2566.479149
864.839045	2567.331104
865.151353	2566.549726
865.463619	2565.390260
865.775842	2567.061403
866.088023	2568.596434
866.400162	2568.304047
866.712258	2566.660631
867.024313	2567.169787
867.336325	2566.426217
867.648296	2566.688357
867.960224	2565.528892
868.272110	2569.518965
868.583954	2564.608881
868.895755	2567.157185
869.207515	2566.758933
869.519233	2569.327401
869.830909	2565.922102
870.142542	2566.695919
870.454134	2564.455126
870.765684	2564.964283
871.077191	2565.448233
871.388657	2569.667679
871.700081	2566.068295
872.011463	2567.159705
872.322803	2567.283213
872.634101	2567.905796
872.945357	2564.445044
873.256571	2566.406053
873.567744	2566.453944
873.878874	2569.193811
874.189963	2567.804973
874.501010	2567.573080
874.812015	2568.132648
875.122979	2567.099211
875.433900	2564.240877
875.744780	2567.273131
876.055618	2564.714746
876.366415	2567.414283
876.677169	2564.944118
876.987882	2566.353121
877.298554	2561.069991
877.609183	2565.322205
877.919771	2560.742316
878.230317	2563.315825
878.540822	2570.197000
878.851285	2566.343038
879.161707	2567.736917
879.472087	2567.396639
879.782425	2563.938408
880.092722	2567.580642
880.402977	2568.271280
880.713191	2570.922927
881.023363	2568.546022
881.333494	2571.311095
881.643583	2570.416291
881.953631	2570.449058
882.263637	2571.991651
882.573602	2571.061558
882.883526	2572.445355
883.193408	2570.320509
883.503248	2567.212637
883.813048	2569.763461
884.122806	2568.384706
884.432522	2568.503173
884.742197	2568.165415
885.051831	2567.961249
885.361424	2565.503686
885.670975	2568.452761
885.980485	2562.428582
886.289954	2568.253636
886.599382	2568.624160
886.908768	2566.779098
887.218113	2564.891186
887.527417	2568.939232
887.836680	2568.389747
888.145901	2567.605847
888.455082	2563.953531
888.764221	2567.749520
889.073319	2565.639797
889.382376	2566.027966
889.691392	2565.654921
890.000366	2563.928326
890.309300	2567.502504
890.618193	2565.967472
890.927044	2568.130127
891.235855	2565.912020
891.544625	2566.209448
891.853353	2566.733728
892.162041	2565.417987
892.470687	2569.526527
892.779293	2563.787173
893.087858	2565.415466
893.396381	2561.712738
893.704864	2562.625187
894.013306	2562.176525
894.321707	2568.067113
894.630068	2565.768347
894.938387	2567.336146
895.246665	2568.483008
895.554903	2567.323543
895.863100	2566.582493
896.171256	2567.260528
896.479371	2566.343038
896.787446	2566.564849
897.095480	2567.023594
897.403473	2567.384037
897.711425	2568.505693
898.019336	2562.713408
898.327207	2566.431258
898.635038	2565.307081
898.942827	2568.251115
899.250576	2566.179201
899.558284	2566.035528
899.865952	2563.036041
900.173579	2567.126938
900.481165	2566.574931
900.788711	2566.217009
901.096216	2564.921433
901.403681	2563.504869
901.711105	2564.497976
902.018489	2566.464026
902.325832	2568.324212
902.633135	2568.344376
902.940397	2563.746844
903.247619	2566.605178
903.554800	2565.662482
903.861941	2567.701629
904.169041	2566.998388
904.476101	2566.280024
904.783121	2567.439489
905.090100	2567.278172
905.397039	2568.919068
905.703938	2566.816907
906.010796	2567.933522
906.317614	2566.932853
906.624391	2568.616599
906.931129	2566.950497
907.237826	2565.690209
907.544483	2569.576938
907.851099	2565.924622
908.157675	2566.804304
908.464211	2563.830023
908.770707	2562.151319
909.077163	2561.405228
909.383578	2563.139385
909.689954	2559.928170
909.996289	2560.991853
910.302584	2566.617781
910.608839	2568.288924
910.915054	2565.760785
911.221229	2565.990158
911.527363	2566.300188
911.833458	2563.051165
912.139513	2563.903120
912.445527	2565.087791
912.751502	2565.791032
913.057436	2564.898748
913.363331	2565.533933
913.669186	2566.607699
913.975000	2563.968655
914.280775	2564.417317
914.586510	2563.862791
914.892205	2567.540312
915.197859	2565.901937
915.503475	2567.996537
915.809050	2568.084757
916.114585	2567.782288
916.420081	2566.330435
916.725536	2566.300188
917.030952	2568.160374
917.336328	2566.539643
917.641665	2565.614592
917.946961	2565.339849
918.252218	2565.627194
918.557435	2566.141392
918.862612	2566.108625
919.167750	2565.591906
919.472848	2566.443861
919.777906	2564.639128
920.082925	2568.117524
920.387904	2563.588048
920.692843	2566.554767
920.997743	2566.655590
921.302603	2564.835733
921.607423	2565.591906
921.912204	2564.331618
922.216946	2566.098542
922.521647	2565.302040
922.826310	2563.406566
923.130932	2565.032338
923.435516	2563.351113
923.740059	2565.811197
924.044564	2565.455795
924.349028	2564.364385
924.653454	2558.559497
924.957840	2563.320867
925.262186	2561.155691
925.566493	2564.492935
925.870761	2560.054199
926.174989	2564.969324
926.479178	2567.608368
926.783328	2563.940928
927.087438	2566.373285
927.391509	2565.453275
927.695541	2563.159550
927.999533	2564.014025
928.303486	2563.416648
928.607400	2564.671896
928.911275	2563.887996
929.215110	2565.390260
929.518906	2563.585527
929.822663	2564.624005
930.126381	2565.634756
930.430060	2565.034859
930.733699	2564.026628
931.037299	2565.755744
931.340861	2564.452606
931.644383	2566.585014
931.947866	2562.758778
932.251309	2563.255332
932.554714	2562.065619
932.858080	2565.087791
933.161407	2564.253480
933.464694	2561.657286
933.767943	2563.948490
934.071153	2564.250959
934.374323	2564.409756
934.677455	2564.162739
934.980548	2564.722307
935.283602	2563.507389
935.586617	2563.996381
935.889593	2563.807338
936.192530	2564.936556
936.495428	2564.928995
936.798287	2567.305899
937.101108	2564.356824
937.403890	2564.997050
937.706632	2567.031156
938.009336	2564.346741
938.312002	2565.909499
938.614628	2564.790363
938.917216	2564.442523
939.219765	2563.151988
939.522275	2567.258008
939.824747	2564.535785
940.127179	2558.728375
940.429573	2560.739796
940.731929	2559.471946
941.034246	2556.227963
941.336524	2562.199210
941.638763	2565.879252
941.940964	2563.986299
942.243126	2562.932698
942.545250	2566.353121
942.847335	2561.170814
943.149381	2561.601833
943.451389	2562.978068
943.753359	2562.045455
944.055290	2563.656103
944.357182	2565.425548
944.659036	2565.901937
944.960851	2565.221382
945.262628	2562.673078
945.564367	2565.639797
945.866067	2566.466547
946.167729	2563.993861
946.469352	2563.167111
946.770937	2564.568552
947.072484	2562.761298
947.373992	2563.756926
947.675462	2564.394632
947.976893	2565.138203
948.278286	2564.258521
948.579641	2564.722307
948.880958	2565.228943
949.182236	2565.039900
949.483476	2563.025959
949.784678	2562.978068
950.085841	2564.906309
950.386967	2566.206927
950.688054	2563.913202
950.989103	2563.419169
951.290114	2568.099880
951.591087	2564.170301
951.892021	2564.026628
952.192917	2566.098542
952.493776	2563.230126
952.794596	2565.942267
953.095378	2563.787173
953.396122	2565.314643
953.696828	2564.992009
953.997496	2564.671896
954.298126	2566.907648
954.598718	2566.196845
954.899272	2563.857749
955.199788	2563.603171
955.500266	2566.723645
955.800706	2564.566032
956.101108	2560.036555
956.401472	2562.390774
956.701798	2561.730382
957.002087	2559.655948
957.302337	2561.821123
957.602550	2563.749365
957.902724	2564.986968
958.202861	2567.111814
958.502960	2563.701474
958.803022	2567.126938
959.103045	2564.104766
959.403031	2565.634756
959.702979	2561.891699
960.002889	2563.842626
960.302762	2561.473284
960.602596	2565.849005
960.902393	2565.624674
961.202153	2564.999571
961.501875	2565.420507
961.801559	2565.748182
962.101205	2564.482852
962.400814	2564.135013
962.700385	2565.591906
962.999918	2563.893037
963.299414	2565.657441
963.598873	2562.078222
963.898293	2565.206258
964.197677	2565.712894
964.497022	2563.777091
964.796331	2562.118551
965.095601	2563.202399
965.394835	2565.697771
965.694030	2564.624005
965.993189	2563.298181
966.292309	2561.362378
966.591393	2561.445557
966.890439	2566.146433
967.189447	2563.542677
967.488419	2562.168963
967.787353	2563.827503
968.086249	2561.485887
968.385108	2564.432441
968.683930	2564.986968
968.982714	2563.865311
969.281462	2565.750703
969.580172	2564.621484
969.878844	2561.601833
970.177480	2562.378171
970.476078	2561.755588
970.774639	2564.984447
971.073162	2563.245249
971.371649	2560.041596
971.670098	2563.199879
971.968510	2561.813562
972.266885	2558.330124
972.565223	2560.165104
972.863524	2562.554611
973.161788	2563.157029
973.460014	2565.100394
973.758204	2563.777091
974.056356	2562.935218
974.354471	2562.297512
974.652550	2560.785166
974.950591	2563.794735
975.248595	2563.593089
975.546563	2564.051834
975.844493	2563.615774
976.142386	2562.910012
976.440243	2562.287430
976.738062	2565.362534
977.035845	2562.491597
977.333590	2563.991340
977.631299	2562.680640
977.928971	2564.379509
978.226606	2561.778273
978.524204	2561.233829
978.821765	2564.654252
979.119290	2562.504200
979.416777	2560.719631
979.714228	2564.482852
980.011642	2562.307595
980.309020	2567.189952
980.606360	2563.860270
980.903664	2563.930846
981.200931	2564.760116
981.498162	2561.488407
981.795356	2563.235167
982.092513	2565.105435
982.389633	2563.086453
982.686717	2563.182235
982.983764	2560.165104
983.280775	2560.964127
983.577749	2562.040413
983.874686	2562.499158
984.171587	2563.446895
984.468451	2562.370609
984.765279	2563.290620
985.062070	2565.140723
985.358824	2562.481514
985.655543	2564.727348
985.952224	2562.100907
986.248869	2564.157698
986.545478	2558.960268
986.842050	2561.765671
987.138586	2560.268448
987.435086	2559.600495
987.731549	2559.872717
988.027975	2562.713407
988.324366	2561.611915
988.620719	2566.892524
988.917037	2561.037224
989.213318	2563.106617
989.509563	2562.867163
989.805772	2563.593089
990.101944	2564.387071
990.398080	2560.951524
990.694180	2563.071329
990.990244	2561.044786
991.286271	2564.066957
991.582262	2563.850188
991.878217	2563.532595
992.174136	2562.660475
992.470019	2562.751216
992.765865	2564.170301
993.061676	2561.369940
993.357450	2562.415979
993.653188	2563.101576
993.948890	2562.836916
994.244556	2563.409087
994.540186	2564.863460
994.835780	2564.087122
995.131337	2563.318346
995.426859	2561.644683
995.722345	2563.595609
996.017795	2562.753737
996.313208	2564.560990
996.608586	2560.462532
996.903928	2561.390105
997.199234	2564.669375
997.494504	2563.411607
997.789738	2564.278686
998.084936	2562.168963
998.380099	2562.804148
998.675225	2561.173335
998.970316	2561.863973
999.265371	2561.695094
999.560390	2562.176525
999.855373	2560.611246
1000.150320	2562.630228
1000.445232	2563.497307
1000.740108	2562.544529
1001.034948	2562.163922
1001.329752	2561.294323
1001.624521	2561.289282
1001.919254	2557.006821
1002.213951	2561.422872
1002.508613	2558.430947
1002.803239	2560.333983
1003.097829	2556.895916
1003.392384	2562.113510
1003.686903	2562.925136
1003.981386	2562.237018
1004.275834	2559.963458
1004.570246	2564.510579
1004.864623	2564.351783
1005.158964	2562.529405
1005.453270	2560.248283
1005.747540	2561.884138
1006.041775	2561.420352
1006.335974	2561.664847
1006.630138	2562.027811
1006.924266	2563.572924
1007.218359	2562.783984
1007.512416	2561.992523
1007.806438	2561.163253
1008.100425	2560.951524
1008.394376	2560.321380
1008.688292	2564.114848
1008.982172	2559.177038
1009.276017	2560.472615
1009.569827	2562.509241
1009.863602	2563.252811
1010.157341	2560.064281
1010.451045	2561.478325
1010.744714	2561.926987
1011.038347	2559.850032
1011.331945	2564.175342
1011.625508	2562.176525
1011.919036	2562.602502
1012.212528	2560.661658
1012.505986	2562.010167
1012.799408	2561.017059
1013.092795	2560.646534
1013.386147	2562.720969
1013.679464	2563.169632
1013.972745	2561.057388
1014.265992	2561.984961
1014.559204	2563.721638
1014.852380	2564.039231
1015.145521	2563.852708
1015.438628	2560.729713
1015.731699	2561.349775
1016.024736	2560.802810
1016.317737	2561.806000
1016.610703	2562.741134
1016.903635	2557.163097
1017.196531	2556.827860
1017.489393	2558.539332
1017.782219	2558.955227
1018.075011	2560.001267
1018.367768	2563.104097
1018.660490	2562.947821
1018.953177	2562.947821
1019.245829	2562.947821
