Dividing Wavelength (nm)	Counts (n)	Blue Motor Position (mm): 0.000000	Red Motor Position (mm): 26.500000	
326.493990	2129.466564
326.888308	2129.466564
327.282561	2129.466564
327.676750	2094.233939
328.070874	2093.535740
328.464933	2096.580597
328.858929	2101.778026
329.252859	2111.756990
329.646726	2125.085801
330.040528	2137.565177
330.434265	2153.217960
330.827938	2169.253870
331.221547	2188.122909
331.615091	2208.612679
332.008571	2227.574979
332.401986	2247.757239
332.795338	2268.214241
333.188625	2287.690739
333.581847	2302.962914
333.975006	2322.870431
334.368100	2342.659480
334.761129	2359.542305
335.154095	2375.966384
335.546996	2394.903478
335.939833	2412.174471
336.332606	2426.635021
336.725315	2436.077102
337.117960	2448.049843
337.510540	2454.106789
337.903056	2466.876032
338.295508	2470.752679
338.687896	2482.586788
339.080220	2489.672129
339.472480	2496.190341
339.864676	2500.548419
340.256807	2505.123266
340.648875	2507.989162
341.040879	2512.841273
341.432818	2512.581653
341.824694	2512.606859
342.216506	2515.258506
342.608253	2512.435460
342.999937	2514.809843
343.391557	2514.540141
343.783113	2514.091479
344.174605	2511.701972
344.566033	2509.226765
344.957397	2510.807167
345.348697	2510.829852
345.739934	2506.106291
346.131106	2506.449089
346.522215	2503.212669
346.913260	2503.500014
347.304241	2499.315857
347.695159	2496.767553
348.086012	2497.226298
348.476802	2493.611791
348.867528	2492.069198
349.258191	2491.965854
349.648789	2491.708756
350.039324	2489.183137
350.429796	2491.348313
350.820203	2486.299597
351.210548	2486.534011
351.600828	2483.721047
351.991045	2482.483444
352.381198	2486.894454
352.771288	2485.397231
353.161314	2481.926397
353.551276	2485.109885
353.941175	2482.909422
354.331010	2483.418578
354.720782	2481.666777
355.110490	2484.094093
355.500135	2484.441932
355.889717	2483.625265
356.279235	2480.154431
356.668689	2485.966881
357.058080	2485.019144
357.447408	2480.650985
357.836672	2480.648464
358.225873	2482.554020
358.615010	2483.148876
359.004084	2485.235914
359.393095	2486.866727
359.782043	2487.922849
360.170927	2489.014259
360.559748	2489.377222
360.948505	2490.645072
361.337199	2490.125833
361.725830	2491.718838
362.114398	2492.774960
362.502903	2491.118941
362.891344	2492.593478
363.279722	2494.927532
363.668037	2492.064157
364.056289	2493.510968
364.444478	2494.783859
364.832603	2494.168839
365.220665	2496.729745
365.608665	2496.160094
365.996601	2497.934581
366.384474	2500.150168
366.772284	2498.063130
367.160031	2502.481701
367.547715	2502.811897
367.935336	2505.924809
368.322893	2506.895232
368.710388	2510.648371
369.097820	2520.788652
369.485189	2523.430216
369.872495	2526.603623
370.259738	2534.855991
370.646918	2544.146838
371.034035	2548.378887
371.421090	2558.771225
371.808081	2567.913358
372.195010	2573.960222
372.581875	2591.057295
372.968678	2604.065992
373.355418	2616.416819
373.742096	2631.746968
374.128710	2648.344967
374.515262	2666.296516
374.901751	2676.890501
375.288177	2693.848942
375.674540	2714.711758
376.060841	2731.574417
376.447079	2751.812129
376.833254	2771.916251
377.219367	2783.430246
377.605417	2822.211843
377.991404	2835.795232
378.377329	2853.787110
378.763191	2870.390150
379.148991	2909.781726
379.534727	2933.722166
379.920402	2964.505972
380.306013	2972.518886
380.691563	3022.900177
381.077049	3046.855741
381.462474	3062.684964
381.847835	3101.403546
382.233134	3121.343830
382.618371	3122.014303
383.003545	3195.600026
383.388657	3199.448947
383.773706	3231.316601
384.158693	3248.494333
384.543618	3275.083899
384.928480	3309.704023
385.313280	3357.300077
385.698017	3353.393183
386.082692	3407.961152
386.467305	3410.660690
386.851856	3443.125721
387.236344	3467.890389
387.620770	3500.302488
388.005133	3526.440871
388.389435	3551.918862
388.773674	3565.915626
389.157851	3607.510186
389.541965	3621.380921
389.926018	3586.070159
390.310008	3658.251920
390.693936	3675.238088
391.077802	3715.758883
391.461606	3705.427038
391.845348	3769.328704
392.229027	3772.371040
392.612645	3782.884367
392.996200	3861.662478
393.379694	3901.442223
393.763125	3961.920946
394.146494	3928.732509
394.529801	3992.170389
394.913047	4037.893655
395.296230	4006.552801
395.679351	4061.733271
396.062410	4087.725460
396.445408	4066.814754
396.828343	4099.801544
397.211217	4123.706696
397.594028	4043.542267
397.976778	4110.551805
398.359466	4138.273110
398.742092	4162.982326
399.124656	4088.332919
399.507158	4167.930218
399.889598	4188.992159
400.271977	4255.537910
400.654294	4226.447932
401.036549	4232.416658
401.418742	4200.884241
401.800874	4307.562618
402.182944	4329.806709
402.564952	4388.009351
402.946898	4377.246488
403.328783	4371.373543
403.710606	4284.522024
404.092367	4479.292044
404.474067	4444.513124
404.855705	4452.518476
405.237282	4378.915109
405.618797	4487.325123
406.000250	4522.961039
406.381642	4604.663020
406.762972	4563.885126
407.144240	4579.545471
407.525447	4576.896344
407.906593	4635.966065
408.287677	4679.115821
408.668700	4607.044965
409.049661	4658.636133
409.430560	4700.220612
409.811399	4622.876709
410.192176	4787.823262
410.572891	4726.989138
410.953545	4833.541487
411.334138	4714.401377
411.714669	4778.229947
412.095139	4673.762116
412.475547	4814.637160
412.855894	4794.351557
413.236180	4806.372188
413.616405	4753.205659
413.996568	4844.143033
414.376670	4787.329229
414.756711	4744.194597
415.136691	4772.142753
415.516609	4850.081512
415.896466	4890.030136
416.276262	4923.107667
416.655997	4903.714348
417.035670	5085.458027
417.415283	5175.782901
417.794834	5121.910610
418.174324	5077.150205
418.553753	4982.557994
418.933121	5164.369728
419.312428	5231.311210
419.691674	5176.168549
420.070859	5302.358712
420.449983	5211.958221
420.829045	5321.822607
421.208047	5230.131580
421.586988	5300.644720
421.965867	5315.795908
422.344686	5448.968069
422.723444	5300.569103
423.102141	5120.201659
423.480777	5416.127472
423.859352	5186.817987
424.237866	5443.619405
424.616319	5435.762766
424.994712	5543.560280
425.373044	5423.356487
425.751314	5565.401079
426.129524	5367.664340
426.507673	5561.804215
426.885762	5647.254294
427.263789	5579.254169
427.641756	5456.925530
428.019662	5580.133851
428.397508	5587.294810
428.775292	5532.278177
429.153016	5637.023272
429.530679	5555.495211
429.908282	5645.066433
430.285824	5515.332339
430.663305	5789.467764
431.040726	5524.827352
431.418086	5520.413822
431.795385	5628.536489
432.172624	5642.490403
432.549802	5635.735257
432.926920	5646.485518
433.303977	5654.803422
433.680974	5697.076017
434.057910	5710.533377
434.434786	5718.085026
434.811601	5685.188976
435.188355	5917.190438
435.565050	5796.512777
435.941683	5773.424292
436.318257	5987.738866
436.694770	5971.745805
437.071222	6004.162945
437.447614	5934.254744
437.823946	5847.476322
438.200218	6002.085989
438.576429	5862.975349
438.952580	5965.386389
439.328670	6006.018089
439.704700	5910.475621
440.080670	5896.559516
440.456580	6162.974414
440.832429	6043.083173
441.208218	5885.589965
441.583947	6040.096289
441.959616	6037.845414
442.335224	5965.610721
442.710773	6095.254074
443.086261	6121.452951
443.461689	5917.261014
443.837057	6051.373351
444.212365	6205.519232
444.587612	6087.468012
444.962800	6236.499643
445.337927	6206.865220
445.712995	5819.495397
446.088002	6373.671960
446.462949	6203.563265
446.837837	6120.437158
447.212664	6284.113341
447.587431	6405.153966
447.962139	6914.968375
448.336786	7777.149355
448.711374	7522.041765
449.085901	6628.673686
449.460369	6536.959974
449.834776	6463.142358
450.209124	6811.672612
450.583412	6927.944305
450.957640	7046.557614
451.331808	6812.222098
451.705917	6377.876282
452.079965	6280.846674
452.453954	6456.462830
452.827883	6323.872922
453.201752	6385.019597
453.575562	6182.098032
453.949311	6331.346432
454.323001	6212.992743
454.696632	6250.365337
455.070202	6339.281208
455.443713	6444.724503
455.817164	6498.102760
456.190556	6535.351846
456.563888	6557.328756
456.937160	6560.229940
457.310373	6246.123206
457.683526	6227.821297
458.056619	6093.288024
458.429653	6042.503440
458.802628	5955.823321
459.175542	6004.299056
459.548398	6237.586012
459.921194	6305.639068
460.293930	6263.633654
460.666607	6581.856490
461.039224	6751.579538
461.411782	6788.289220
461.784280	6749.520226
462.156719	6619.738241
462.529099	6475.898998
462.901419	6140.528677
463.273680	6011.817937
463.645882	5972.234797
464.018024	5816.261497
464.390106	5869.712851
464.762130	6049.843360
465.134094	6261.561740
465.505999	6792.740559
465.877845	7429.917199
466.249631	7742.647698
466.621358	7425.959893
466.993026	6967.850079
467.364634	6745.837663
467.736184	6460.112625
468.107674	6200.412543
468.479105	6117.064626
468.850477	5936.014107
469.221790	5742.206947
469.593043	5500.652499
469.964238	5357.052711
470.335373	5289.163492
470.706449	5244.816462
471.077467	5165.801416
471.448425	5640.973016
471.819324	5988.525286
472.190164	5924.217807
472.560945	5352.929047
472.931667	4964.619048
473.302330	4846.071275
473.672934	4650.653466
474.043479	4703.716652
474.413965	4619.778920
474.784393	4506.962938
475.154761	4498.256865
475.525070	4454.779434
475.895321	4344.534440
476.265513	4328.770752
476.635645	4320.057118
477.005719	4253.206377
477.375734	4223.750915
477.745691	4220.998445
478.115588	4186.088454
478.485427	4178.183925
478.855207	4240.948811
479.224928	4358.642109
479.594591	4430.097944
479.964194	4310.037824
480.333739	4217.489802
480.703226	4114.249491
481.072653	4074.494952
481.442022	4058.945513
481.811333	4035.214281
482.180584	3935.429682
482.549777	3823.831139
482.918912	3744.264087
483.287988	3696.514278
483.657005	3647.141217
484.025964	3556.304666
484.394864	3514.654653
484.763706	3462.811427
485.132489	3393.611508
485.501213	3347.248016
485.869879	3316.509580
486.238487	3254.568923
486.607036	3231.006570
486.975527	3175.667304
487.343959	3156.463028
487.712333	3127.499079
488.080648	3095.898606
488.448905	3065.979358
488.817104	3032.117927
489.185244	3019.520084
489.553326	3002.667507
489.921350	3012.144876
490.289315	3038.510110
490.657222	3029.254552
491.025070	2997.999398
491.392861	2970.908237
491.760593	2926.936773
492.128267	2889.236504
492.495883	2855.440608
492.863440	2828.480518
493.230939	2800.547484
493.598380	2787.183385
493.965763	2767.989192
494.333088	2756.076946
494.700354	2741.291241
495.067563	2734.223544
495.434713	2716.642520
495.801805	2715.994731
496.168839	2705.045345
496.535815	2699.210210
496.902733	2691.585464
497.269593	2684.535411
497.636395	2679.433763
498.003139	2672.229954
498.369825	2667.692916
498.736453	2663.125630
499.103023	2659.183448
499.469535	2655.246307
499.835989	2649.002838
500.202385	2646.046201
500.568723	2639.200314
500.935003	2641.788947
501.301226	2636.770478
501.667390	2637.032618
502.033497	2639.207876
502.399546	2634.232257
502.765537	2629.846453
503.131470	2627.696401
503.497345	2632.528347
503.863163	2623.976030
504.228923	2623.915536
504.594625	2622.388066
504.960269	2621.652058
505.325856	2621.644496
505.691385	2616.862962
506.056856	2618.715586
506.422270	2616.258023
506.787625	2614.962447
507.152924	2614.181068
507.518164	2613.510594
507.883347	2613.986983
508.248472	2609.215531
508.613540	2611.947837
508.978550	2609.528083
509.343503	2607.042794
509.708398	2611.680655
510.073236	2610.274173
510.438016	2609.444904
510.802738	2607.801487
511.167403	2608.098916
511.532010	2605.711929
511.896561	2605.916096
512.261053	2607.884667
512.625488	2601.283276
512.989866	2601.789912
513.354186	2602.523399
513.718449	2599.728080
514.082655	2605.931219
514.446803	2602.795622
514.810894	2600.070878
515.174927	2605.089347
515.538904	2605.081785
515.902822	2603.103132
516.266684	2602.334356
516.630488	2602.142792
516.994235	2602.503235
517.357925	2602.309150
517.721558	2602.016763
518.085133	2603.357710
518.448651	2605.028853
518.812112	2600.295209
519.175516	2600.416197
519.538863	2600.859819
519.902152	2600.756475
520.265385	2599.781012
520.628560	2602.165477
520.991678	2600.441403
521.354739	2601.767226
521.717743	2602.104984
522.080690	2600.330497
522.443580	2600.645570
522.806413	2600.438882
523.169189	2599.455857
523.531908	2600.592637
523.894569	2603.435848
524.257174	2598.006526
524.619722	2599.934767
524.982213	2603.090529
525.344647	2599.657503
525.707025	2599.208841
526.069345	2601.147164
526.431608	2600.703543
526.793815	2600.900148
527.155964	2599.418049
527.518057	2598.286310
527.880093	2601.797473
528.242072	2598.886207
528.603995	2599.193717
528.965860	2599.307143
529.327669	2597.469643
529.689421	2599.833944
530.051117	2597.015939
530.412755	2597.386464
530.774337	2599.246649
531.135862	2600.713625
531.497331	2596.000146
531.858743	2591.256421
532.220098	2595.541401
532.581396	2594.760022
532.942638	2595.934611
533.303824	2597.265476
533.664953	2598.104828
534.026025	2596.458891
534.387040	2599.231526
534.747999	2595.193562
535.108902	2597.651124
535.469748	2594.301277
535.830537	2597.530137
536.191270	2596.388315
536.551947	2598.659355
536.912567	2595.538881
537.273131	2596.456371
537.633638	2595.377564
537.994089	2596.020311
538.354483	2594.235742
538.714821	2600.869901
539.075103	2598.243460
539.435328	2594.858325
539.795497	2596.663058
540.155609	2597.777153
540.515665	2597.540219
540.875665	2594.807913
541.235609	2597.136927
541.595496	2596.715990
541.955328	2596.375712
542.315102	2597.540219
542.674821	2598.878645
543.034483	2595.964858
543.394090	2595.957297
543.753640	2595.122986
544.113134	2597.895620
544.472571	2598.949221
544.831953	2596.899992
545.191278	2596.181628
545.550548	2598.825713
545.909761	2598.404777
546.268918	2595.264138
546.628019	2600.340580
546.987064	2594.631473
547.346053	2599.584407
547.704986	2595.349837
548.063863	2597.210023
548.422684	2598.130034
548.781449	2595.100300
549.140158	2598.230857
549.498811	2596.857142
549.857408	2594.747420
550.215949	2595.296905
550.574434	2593.345979
550.932864	2597.699015
551.291237	2595.140630
551.649555	2595.927050
552.007817	2597.545260
552.366022	2597.446957
552.724173	2596.862184
553.082267	2596.204313
553.440305	2596.307657
553.798288	2594.301277
554.156215	2597.020980
554.514086	2598.752616
554.871902	2595.243973
555.229661	2598.074581
555.587365	2596.234560
555.945014	2595.934611
556.302606	2596.499221
556.660143	2597.159612
557.017625	2597.089036
557.375050	2596.292533
557.732421	2598.377050
558.089735	2598.069540
558.446994	2596.680702
558.804197	2602.225971
559.161345	2596.174066
559.518437	2596.284972
559.875474	2598.152719
560.232455	2596.978130
560.589381	2599.307143
560.946251	2598.180445
561.303065	2599.924685
561.659825	2601.149685
562.016528	2596.501741
562.373177	2594.339086
562.729770	2597.827565
563.086307	2597.136927
563.442789	2596.852101
563.799216	2595.765733
564.155587	2598.147678
564.511904	2594.840681
564.868164	2599.712956
565.224370	2597.429313
565.580520	2595.783377
565.936615	2597.764550
566.292654	2595.352358
566.648638	2597.462081
567.004567	2597.756988
567.360441	2598.182966
567.716260	2592.635176
568.072023	2597.245311
568.427732	2590.767429
568.783385	2592.239446
569.138982	2592.778849
569.494525	2594.487800
569.850013	2593.088880
570.205445	2592.977975
570.560823	2597.419231
570.916145	2595.397728
571.271412	2594.886051
571.626625	2592.851946
571.981782	2593.151894
572.336884	2595.125506
572.691931	2594.848243
573.046923	2594.351689
573.401860	2594.344127
573.756743	2595.526278
574.111570	2594.455033
574.466342	2596.814293
574.821059	2592.602409
575.175722	2591.664754
575.530330	2594.407142
575.884882	2592.844384
576.239380	2593.673654
576.593823	2591.367326
576.948211	2593.789600
577.302544	2594.011411
577.656823	2593.182141
578.011047	2593.257759
578.365216	2590.878334
578.719330	2591.405135
579.073389	2591.896647
579.427394	2587.331882
579.781344	2592.269692
580.135239	2591.337079
580.489080	2590.472521
580.842866	2591.692480
581.196597	2596.058120
581.550273	2590.570824
581.903895	2592.163828
582.257463	2591.329517
582.610975	2589.217274
582.964434	2590.958992
583.317837	2589.834815
583.671186	2590.255752
584.024481	2590.157449
584.377721	2588.980340
584.730906	2589.507140
585.084037	2591.107707
585.437113	2588.536718
585.790135	2588.655185
586.143103	2586.608477
586.496016	2586.674012
586.848874	2585.229721
587.201679	2588.186358
587.554428	2584.229052
587.907124	2586.474886
588.259765	2583.616552
588.612352	2587.485637
588.964884	2590.011256
589.317362	2588.035123
589.669786	2588.735844
590.022155	2588.733323
590.374470	2587.783066
590.726731	2589.343303
591.078937	2586.285843
591.431090	2585.275092
591.783188	2587.331882
592.135232	2584.027406
592.487222	2588.766091
592.839157	2589.083683
593.191038	2583.183013
593.542866	2585.799372
593.894639	2585.408682
594.246358	2586.366501
594.598022	2584.627303
594.949633	2584.362643
595.301190	2584.019844
595.652692	2585.769125
596.004141	2584.939855
596.355535	2585.612849
596.706876	2585.716193
597.058162	2583.956830
597.409395	2582.915832
597.760573	2584.319793
598.111698	2583.102354
598.462768	2584.229052
598.813785	2583.724937
599.164748	2585.015472
599.515657	2584.115626
599.866511	2583.384659
600.217312	2581.617734
600.568060	2583.059504
600.918753	2586.174937
601.269392	2582.852817
601.619978	2583.571182
601.970510	2584.294587
602.320988	2583.624114
602.671412	2583.513208
603.021783	2585.393559
603.372100	2583.709813
603.722363	2582.459607
604.072572	2579.825604
604.422728	2584.803744
604.772830	2579.739905
605.122878	2578.444328
605.472872	2580.773341
605.822813	2578.577919
606.172701	2581.794175
606.522534	2584.256778
606.872314	2583.987077
607.222041	2582.757035
607.571714	2584.254258
607.921333	2583.117478
608.270899	2582.308372
608.620411	2582.343661
608.969870	2583.188054
609.319276	2583.145204
609.668627	2586.399269
610.017926	2588.052767
610.367171	2590.626276
610.716362	2587.830957
611.065500	2589.101327
611.414585	2585.975812
611.763616	2587.440267
612.112594	2588.067891
612.461518	2584.773497
612.810389	2587.614187
613.159207	2588.529156
613.507971	2585.005390
613.856682	2584.425657
614.205340	2585.819536
614.553945	2586.802561
614.902496	2585.537232
615.250994	2583.800554
615.599439	2580.564133
615.947830	2585.633013
616.296169	2581.988259
616.644454	2585.199474
616.992686	2583.556058
617.340864	2586.981522
617.688990	2585.774166
618.037063	2583.757704
618.385082	2582.089082
618.733048	2586.066553
619.080961	2585.368353
619.428821	2585.292736
619.776628	2581.504308
620.124382	2583.740060
620.472083	2583.659402
620.819731	2583.810636
621.167326	2581.655543
621.514868	2582.827611
621.862357	2580.715368
622.209793	2584.173599
622.557176	2581.164031
622.904506	2580.861561
623.251783	2576.954667
623.599007	2578.847620
623.946179	2578.436766
624.293297	2578.119174
624.640363	2578.933320
624.987376	2580.669997
625.334336	2577.138669
625.681243	2579.588670
626.028097	2576.485840
626.374899	2580.032292
626.721647	2579.470203
627.068343	2578.280491
627.414987	2580.329720
627.761577	2575.878381
628.108115	2577.133628
628.454600	2577.549523
628.801032	2578.840059
629.147412	2577.178998
629.493739	2577.693196
629.840014	2581.627817
630.186236	2576.690007
630.532405	2576.659760
630.878521	2578.000707
631.224585	2577.080696
631.570597	2572.974676
631.916556	2574.849985
632.262462	2577.058011
632.608316	2574.391240
632.954117	2572.790674
633.299866	2575.344018
633.645562	2577.219328
633.991206	2574.426528
634.336797	2571.898390
634.682336	2573.751014
635.027823	2573.352763
635.373257	2573.103226
635.718639	2571.081723
636.063968	2572.084912
636.409245	2571.958884
636.754470	2573.196487
637.099642	2572.684810
637.444762	2571.331260
637.789829	2570.504511
638.134845	2573.443503
638.479808	2568.939232
638.824719	2569.322360
639.169577	2569.203893
639.514383	2567.837740
639.859137	2568.687175
640.203839	2570.343194
640.548489	2567.401681
640.893086	2566.108625
641.237632	2561.359858
641.582125	2569.433266
641.926566	2563.671227
642.270955	2569.960066
642.615292	2568.815724
642.959576	2567.389078
643.303809	2567.799932
643.647990	2569.468554
643.992118	2568.750189
644.336195	2569.297154
644.680219	2567.419325
645.024192	2567.220199
645.368112	2570.262535
645.711981	2569.544171
646.055797	2569.040056
646.399562	2570.970818
646.743274	2570.963256
647.086935	2573.032649
647.430544	2570.060889
647.774101	2573.161199
648.117606	2570.693554
648.461059	2570.290262
648.804460	2574.053483
649.147810	2569.682803
649.491108	2571.550550
649.834354	2567.116855
650.177548	2567.971331
650.520690	2568.087278
650.863781	2565.964952
651.206820	2569.670200
651.549807	2567.933522
651.892742	2569.234140
652.235626	2567.053841
652.578458	2564.487894
652.921238	2566.312791
653.263967	2565.420507
653.606644	2566.501835
653.949269	2563.822461
654.291843	2563.681309
654.634365	2564.203068
654.976836	2567.537792
655.319255	2567.222720
655.661622	2563.003274
656.003938	2565.133161
656.346203	2565.498645
656.688416	2565.894376
657.030577	2564.566032
657.372687	2567.318502
657.714746	2561.705177
658.056753	2562.912533
658.398708	2560.873386
658.740612	2561.521175
659.082465	2560.913716
659.424266	2559.361040
659.766016	2559.600495
660.107715	2562.975547
660.449362	2562.375650
660.790958	2561.536298
661.132503	2567.043759
661.473996	2565.019735
661.815438	2563.789694
662.156829	2564.460167
662.498168	2564.369427
662.839456	2565.354972
663.180693	2563.910682
663.521879	2566.501835
663.863013	2565.503686
664.204097	2564.669375
664.545129	2561.317008
664.886110	2563.048644
665.227040	2563.341031
665.567918	2563.285578
665.908746	2566.378326
666.249522	2566.418656
666.590248	2565.304561
666.930922	2565.614592
667.271545	2567.439489
667.612118	2565.337328
667.952639	2564.631567
668.293109	2567.893193
668.633528	2567.691547
668.973896	2564.805486
669.314213	2563.905640
669.654480	2562.073181
669.994695	2563.325908
670.334859	2565.934705
670.674973	2565.710373
671.015035	2566.088460
671.355047	2565.133161
671.695008	2565.279355
672.034918	2563.131823
672.374777	2565.947308
672.714585	2564.054354
673.054342	2564.321536
673.394049	2565.143244
673.733705	2565.334808
674.073310	2564.503017
674.412864	2562.622667
674.752368	2565.511248
675.091820	2564.593758
675.431223	2562.579817
675.770574	2564.495455
676.109875	2559.524878
676.449125	2561.362378
676.788324	2557.946997
677.127473	2560.802810
677.466571	2558.730896
677.805619	2563.983778
678.144616	2562.622667
678.483562	2564.732390
678.822458	2559.645865
679.161303	2562.385733
679.500098	2561.548901
679.838842	2562.451268
680.177535	2562.620146
680.516179	2562.221895
680.854771	2561.639642
681.193314	2559.958417
681.531805	2563.386402
681.870247	2564.122410
682.208638	2565.483522
682.546978	2562.610064
682.885268	2564.578634
683.223508	2560.419682
683.561697	2563.136864
683.899836	2562.678119
684.237925	2563.063768
684.575963	2561.690053
684.913951	2561.112841
685.251889	2563.847667
685.589776	2561.415310
685.927614	2562.405897
686.265401	2560.762481
686.603137	2564.596278
686.940824	2562.128634
687.278460	2561.427913
687.616046	2563.439334
687.953582	2565.481001
688.291068	2564.505538
688.628504	2565.286917
688.965889	2565.846485
689.303224	2565.934705
689.640510	2562.660475
689.977745	2564.923953
690.314930	2561.730383
690.652065	2563.731721
690.989150	2563.005794
691.326185	2558.960268
691.663170	2559.718962
692.000105	2557.639486
692.336990	2558.665361
692.673825	2559.406411
693.010610	2557.153015
693.347345	2554.849207
693.684030	2552.507592
694.020665	2554.075390
694.357251	2550.355019
694.693786	2554.085473
695.030272	2555.519681
695.366707	2554.271995
695.703093	2554.975236
696.039429	2555.917932
696.375716	2556.643858
696.711952	2554.521532
697.048139	2556.817778
697.384276	2558.425906
697.720363	2555.623025
698.056400	2555.091183
698.392388	2555.403734
698.728326	2555.862479
699.064214	2555.411296
699.400053	2554.007335
699.735842	2554.244269
700.071581	2554.266954
700.407270	2555.504558
700.742910	2554.685370
701.078501	2555.146636
701.414042	2553.296532
701.749533	2551.723692
702.084974	2554.408107
702.420366	2552.086655
702.755709	2555.481872
703.091002	2549.581202
703.426246	2552.094217
703.761440	2551.471634
704.096584	2550.949875
704.431679	2552.434495
704.766725	2551.401058
705.101721	2549.692107
705.436668	2552.484906
705.771565	2550.775955
706.106413	2554.390463
706.441212	2550.256716
706.775961	2553.903991
707.110661	2549.351829
707.445311	2553.278888
707.779913	2553.919115
708.114465	2553.205791
708.448967	2553.881306
708.783421	2551.685883
709.117825	2555.267623
709.452180	2554.778631
709.786485	2554.115720
710.120742	2553.679660
710.454949	2555.479352
710.789107	2552.479865
711.123216	2552.752088
711.457275	2553.548590
711.791286	2553.230997
712.125247	2553.067160
712.459159	2555.403734
712.793023	2557.372305
713.126837	2555.033210
713.460602	2557.584033
713.794318	2555.910370
714.127985	2556.694270
714.461602	2555.202088
714.795171	2554.788714
715.128691	2552.966337
715.462162	2553.614125
715.795584	2551.703528
716.128957	2551.378373
716.462281	2555.335679
716.795556	2550.203784
717.128782	2551.499361
717.461960	2553.057077
717.795088	2552.840308
718.128167	2548.532642
718.461198	2552.351316
718.794180	2552.880637
719.127113	2551.534649
719.459997	2549.213197
719.792833	2547.975594
720.125619	2549.046839
720.458357	2547.295038
720.791046	2548.835111
721.123686	2548.172199
721.456278	2550.050029
721.788821	2549.364432
722.121315	2549.258568
722.453761	2549.379556
722.786158	2547.083310
723.118506	2547.491643
723.450805	2550.602035
723.783056	2549.555996
724.115259	2549.535831
724.447412	2549.931562
724.779518	2548.167158
725.111574	2549.281253
725.443582	2549.147662
725.775542	2549.220759
726.107453	2548.762014
726.439315	2548.946016
726.771129	2553.175544
727.102895	2548.106664
727.434612	2548.895605
727.766281	2550.135729
728.097901	2547.277394
728.429473	2550.614638
728.760996	2550.070194
729.092471	2544.900490
729.423897	2550.670091
729.755276	2549.109854
730.086606	2552.348795
730.417887	2551.189330
730.749120	2550.962478
731.080305	2552.626059
731.411442	2554.203940
731.742530	2553.858621
732.073570	2551.975750
732.404562	2553.115051
732.735506	2552.736964
733.066401	2551.257385
733.397249	2554.750905
733.728048	2548.520039
734.058798	2549.505584
734.389501	2549.084648
734.720156	2550.818805
735.050762	2548.928372
735.381320	2550.412992
735.711831	2548.767055
736.042293	2546.906870
736.372707	2549.636654
736.703073	2544.915614
737.033391	2547.312683
737.363661	2547.811757
737.693883	2545.283618
738.024056	2548.719164
738.354182	2548.242775
738.684260	2546.866540
739.014290	2545.301262
739.344272	2550.203784
739.674207	2547.471479
740.004093	2548.552806
740.333931	2549.208156
740.663722	2551.471634
740.993464	2548.204967
741.323159	2550.286963
741.652806	2548.807385
741.982405	2549.407282
742.311956	2547.574823
742.641460	2547.302600
742.970915	2548.751932
743.300323	2547.602549
743.629683	2546.967363
743.958996	2548.535162
744.288260	2547.968033
744.617477	2546.105326
744.946647	2543.317568
745.275768	2547.269833
745.604842	2543.713299
745.933869	2539.758513
746.262847	2542.158103
746.591778	2544.477033
746.920662	2544.562733
747.249498	2543.983000
747.578286	2545.397044
747.907027	2543.869574
748.235720	2547.723537
748.564365	2547.426108
748.892963	2546.556509
749.221514	2547.549617
749.550017	2548.903167
749.878473	2547.131201
750.206881	2548.363763
750.535242	2545.674307
750.863555	2545.911242
751.191821	2543.504091
751.520039	2545.956612
751.848210	2545.429812
752.176334	2546.039791
752.504411	2545.205480
752.832440	2546.551468
753.160421	2549.019113
753.488356	2545.399565
753.816243	2545.603731
754.144082	2545.817980
754.471875	2544.976108
754.799620	2546.344781
755.127318	2544.464431
755.454969	2543.262115
755.782572	2546.047353
756.110129	2545.041643
756.437638	2546.894267
756.765100	2544.865202
757.092515	2543.907383
757.419882	2546.596839
757.747203	2546.390151
758.074477	2546.064997
758.401703	2543.393185
758.728882	2545.843186
759.056014	2547.368135
759.383099	2544.083823
759.710138	2545.097095
760.037129	2547.105995
760.364073	2545.913762
760.690970	2544.807229
761.017820	2544.285470
761.344623	2544.698844
761.671379	2547.259750
761.998088	2540.257588
762.324751	2546.269164
762.651366	2549.034237
762.977935	2557.337017
763.304456	2557.178221
763.630931	2564.119889
763.957359	2558.821637
764.283740	2558.713252
764.610074	2551.070863
764.936362	2551.007848
765.262602	2549.024154
765.588796	2548.245296
765.914943	2547.080789
766.241044	2548.512477
766.567097	2545.323947
766.893104	2544.713968
767.219064	2543.100798
767.544978	2544.285470
767.870845	2544.499719
768.196665	2542.200952
768.522438	2543.292362
768.848165	2543.088196
769.173846	2542.667259
769.499479	2544.262784
769.825066	2542.294214
770.150607	2542.057280
770.476101	2540.091230
770.801548	2541.863195
771.126949	2540.814635
771.452303	2545.265974
771.777611	2540.547454
772.102872	2540.146682
772.428087	2538.941847
772.753256	2541.706919
773.078378	2539.819007
773.403453	2540.880170
773.728482	2539.801363
774.053465	2540.209697
774.378401	2539.085519
774.703291	2537.984027
775.028135	2537.134593
775.352932	2539.579552
775.677683	2542.475695
776.002388	2540.761703
776.327046	2538.530993
776.651658	2538.137782
776.976224	2536.887576
777.300743	2539.103163
777.625216	2538.959491
777.949643	2540.658359
778.274024	2540.633154
778.598359	2535.949922
778.922647	2532.554705
779.246889	2537.568132
779.571086	2535.707946
779.895236	2537.832793
780.219339	2538.341949
780.543397	2539.508976
780.867409	2540.010571
781.191374	2537.295910
781.515294	2540.227341
781.839167	2538.515869
782.162995	2539.052752
782.486776	2537.842875
782.810511	2538.714995
783.134201	2540.290355
783.457844	2539.612320
783.781441	2541.253216
784.104993	2538.314223
784.428498	2540.557536
784.751958	2538.800694
785.075372	2539.647608
785.398739	2538.263811
785.722061	2538.896476
786.045337	2537.653832
786.368568	2538.508307
786.691752	2542.319420
787.014891	2539.188863
787.337983	2539.080478
787.661030	2541.104502
787.984031	2540.030736
788.306987	2544.383772
788.629897	2543.582229
788.952760	2541.943854
789.275579	2538.364634
789.598351	2540.938143
789.921078	2541.893442
790.243759	2539.387989
790.566395	2539.012423
790.888984	2537.714326
791.211529	2539.571991
791.534027	2538.001671
791.856480	2540.673483
792.178888	2539.080478
792.501249	2536.194418
792.823566	2540.187012
793.145836	2539.791281
793.468062	2539.564429
793.790241	2538.624254
794.112375	2537.185004
794.434464	2535.541588
794.756507	2537.984027
795.078505	2539.975283
795.400457	2536.149047
795.722364	2534.709798
796.044226	2538.606610
796.366042	2533.895652
796.687812	2538.057124
797.009538	2539.939995
797.331218	2539.259439
797.652852	2537.661393
797.974442	2537.822710
798.295986	2539.745911
798.617484	2539.181301
798.938938	2537.852957
799.260346	2537.442103
799.581709	2539.246836
799.903026	2540.406302
800.224299	2537.782381
800.545526	2535.274407
800.866708	2536.965714
801.187845	2540.499563
801.508936	2540.030736
801.829983	2537.298430
802.150984	2536.514531
802.471940	2537.305992
802.792851	2535.944881
803.113717	2538.697351
803.434538	2538.074768
803.755314	2537.545447
804.076045	2537.023687
804.396731	2537.394212
804.717372	2538.848585
805.037967	2535.997813
805.358518	2535.037473
805.679024	2539.070396
805.999485	2535.453368
806.319901	2537.978986
806.640272	2535.372710
806.960598	2538.364634
807.280879	2538.228523
807.601115	2536.743903
807.921306	2539.478729
808.241453	2537.701723
808.561554	2538.919161
808.881611	2534.671989
809.201623	2539.030067
809.521590	2540.910417
809.841513	2537.910931
810.161390	2537.721887
810.481223	2536.383461
810.801011	2536.806918
811.120755	2536.466640
811.440453	2540.504604
811.760107	2536.378420
812.079716	2533.605785
812.399281	2534.311547
812.718801	2534.188038
813.038276	2529.217461
813.357707	2538.233564
813.677093	2538.339429
813.996434	2537.058976
814.315731	2536.443955
814.634983	2535.871784
814.954191	2534.666948
815.273354	2536.126362
815.592473	2534.598893
815.911547	2539.503935
816.230577	2537.739531
816.549562	2538.780530
816.868502	2538.999820
817.187399	2539.075437
817.506250	2537.737011
817.825058	2540.686086
818.143821	2537.142155
818.462539	2539.806404
818.781213	2539.007382
819.099843	2539.544264
819.418429	2541.893442
819.736970	2542.085006
820.055466	2545.795295
820.373919	2544.839997
820.692327	2550.881819
821.010691	2555.318035
821.329011	2569.602144
821.647286	2591.175762
821.965517	2615.892539
822.283704	2628.931484
822.601847	2635.558081
822.919945	2625.117851
823.237999	2609.003803
823.556010	2594.659199
823.873976	2583.853486
824.191897	2569.985272
824.509775	2565.019735
824.827609	2560.369271
825.145398	2555.015566
825.463144	2558.458674
825.780845	2558.299877
826.098502	2560.001267
826.416116	2568.346897
826.733685	2576.611869
827.051210	2576.765624
827.368692	2573.728329
827.686129	2571.285890
828.003522	2557.710062
828.320872	2548.716644
828.638177	2547.980635
828.955439	2542.097609
829.272656	2542.248843
829.589830	2538.931764
829.906960	2540.358411
830.224046	2539.254398
830.541088	2539.637526
830.858086	2538.460416
831.175041	2539.234233
831.491952	2541.495191
831.808819	2537.376568
832.125642	2539.347659
832.442421	2540.865047
832.759157	2544.177085
833.075849	2547.859648
833.392497	2554.198899
833.709101	2554.934907
834.025662	2558.982954
834.342179	2552.646223
834.658653	2548.956099
834.975083	2545.722198
835.291469	2551.123795
835.607811	2541.371683
835.924110	2538.830941
836.240366	2540.459234
836.556578	2537.948739
836.872746	2538.281455
837.188871	2532.242153
837.504952	2539.672814
837.820990	2534.896321
838.136984	2533.522606
838.452935	2534.230888
838.768842	2533.542771
839.084706	2536.035621
839.400526	2536.501928
839.716303	2540.897814
840.032037	2545.563402
840.347727	2544.204811
840.663373	2546.806047
840.978977	2538.551157
841.294537	2538.962011
841.610054	2535.251722
841.925527	2535.758358
842.240957	2537.232895
842.556344	2536.902700
842.871687	2536.345652
843.186987	2535.481094
843.502244	2535.211393
843.817458	2533.885569
844.132629	2533.487318
844.447756	2532.413552
844.762840	2529.673685
845.077881	2533.144520
845.392879	2528.418438
845.707833	2530.545805
846.022745	2530.223171
846.337613	2535.274407
846.652438	2532.307688
846.967221	2535.700385
847.281960	2531.828778
847.596656	2534.908923
847.911309	2530.185362
848.225919	2535.791125
848.540485	2531.617050
848.855009	2533.794828
849.169490	2532.716022
849.483928	2530.807945
849.798323	2532.199303
850.112675	2533.515044
850.426984	2533.565456
850.741251	2532.196783
851.055474	2534.472864
851.369654	2531.798532
851.683792	2532.032945
851.997887	2533.668800
852.311938	2531.256608
852.625947	2533.129396
852.939914	2533.383974
853.253837	2534.354397
853.567718	2530.792821
853.881555	2532.753830
854.195350	2530.752492
854.509103	2530.104704
854.822812	2531.138140
855.136479	2535.261804
855.450103	2533.694005
855.763685	2532.216947
856.077224	2534.062010
856.390720	2532.905065
856.704173	2531.312060
857.017584	2532.143851
857.330953	2532.428676
857.644278	2533.968748
857.957561	2534.389685
858.270802	2532.915147
858.584000	2533.636032
858.897155	2530.192924
859.210268	2533.116793
859.523339	2531.014632
859.836367	2532.395908
860.149352	2533.620909
860.462295	2532.017822
860.775195	2527.916843
861.088054	2526.739734
861.400869	2529.174611
861.713642	2527.047244
862.026373	2532.290044
862.339062	2533.507483
862.651708	2531.521268
862.964312	2530.744930
863.276873	2532.048069
863.589392	2531.049920
863.901869	2534.901362
864.214303	2531.327184
864.526696	2534.949253
864.839045	2534.573687
865.151353	2535.445806
865.463619	2535.241640
865.775842	2533.268028
866.088023	2531.077647
866.400162	2533.567977
866.712258	2533.930940
867.024313	2531.516227
867.336325	2532.227030
867.648296	2533.207534
867.960224	2533.991433
868.272110	2534.646783
868.583954	2533.520086
868.895755	2533.063861
869.207515	2532.622760
869.519233	2532.602596
869.830909	2531.337266
870.142542	2533.197452
870.454134	2532.330373
870.765684	2532.285003
871.077191	2533.996475
871.388657	2535.889428
871.700081	2532.191742
872.011463	2532.751310
872.322803	2533.033614
872.634101	2534.248532
872.945357	2532.935312
873.256571	2531.682585
873.567744	2535.541588
873.878874	2533.426824
874.189963	2531.349869
874.501010	2534.634181
874.812015	2533.421783
875.122979	2533.769623
875.433900	2536.280117
875.744780	2535.251722
876.055618	2533.973789
876.366415	2535.407998
876.677169	2533.676361
876.987882	2534.908923
877.298554	2530.961700
877.609183	2534.087215
877.919771	2532.688295
878.230317	2531.743079
878.540822	2536.186856
878.851285	2540.751621
879.161707	2539.135931
879.472087	2540.973432
879.782425	2543.395706
880.092722	2549.760163
880.402977	2551.310317
880.713191	2564.109807
881.023363	2580.299473
881.333494	2590.296081
881.643583	2591.813468
881.953631	2589.096286
882.263637	2588.035123
882.573602	2582.018506
882.883526	2575.286045
883.193408	2569.823955
883.503248	2563.313305
883.813048	2556.396842
884.122806	2552.956254
884.432522	2551.194371
884.742197	2547.413506
885.051831	2548.338557
885.361424	2543.153731
885.670975	2540.547454
885.980485	2538.107536
886.289954	2539.216589
886.599382	2538.228523
886.908768	2538.848585
887.218113	2537.613502
887.527417	2539.476209
887.836680	2537.605941
888.145901	2535.183666
888.455082	2533.373892
888.764221	2534.475384
889.073319	2538.218441
889.382376	2535.201310
889.691392	2533.746937
890.000366	2535.440765
890.309300	2536.393543
890.618193	2534.127545
890.927044	2534.505631
891.235855	2533.043697
891.544625	2533.356248
891.853353	2536.229706
892.162041	2534.324150
892.470687	2537.021167
892.779293	2535.808769
893.087858	2535.186187
893.396381	2537.540406
893.704864	2537.071578
894.013306	2538.936805
894.321707	2547.111036
894.630068	2550.266799
894.938387	2553.702345
895.246665	2552.323589
895.554903	2552.225287
895.863100	2546.690100
896.171256	2545.699513
896.479371	2542.886549
896.787446	2540.943185
897.095480	2542.241282
897.403473	2537.321116
897.711425	2539.423277
898.019336	2538.722556
898.327207	2536.693492
898.635038	2537.207690
898.942827	2533.890610
899.250576	2536.774150
899.558284	2535.355066
899.865952	2533.467153
900.173579	2534.757689
900.481165	2537.547968
900.788711	2533.361289
901.096216	2533.671320
901.403681	2534.624098
901.711105	2537.348842
902.018489	2535.216434
902.325832	2536.186856
902.633135	2535.710467
902.940397	2537.323636
903.247619	2538.329346
903.554800	2538.987217
903.861941	2548.676315
904.169041	2557.281564
904.476101	2560.969168
904.783121	2559.978582
905.090100	2558.297357
905.397039	2553.931717
905.703938	2544.741694
906.010796	2545.470141
906.317614	2539.398071
906.624391	2536.975797
906.931129	2538.740200
907.237826	2537.177443
907.544483	2536.017977
907.851099	2534.805580
908.157675	2532.494211
908.464211	2532.282482
908.770707	2528.529343
909.077163	2532.186700
909.383578	2526.434744
909.689954	2529.247708
909.996289	2526.671678
910.302584	2530.971782
910.608839	2530.891124
910.915054	2533.237781
911.221229	2531.266690
911.527363	2532.232071
911.833458	2532.022863
912.139513	2532.544622
912.445527	2532.093439
912.751502	2530.505476
913.057436	2532.257277
913.363331	2534.493028
913.669186	2533.507483
913.975000	2534.800539
914.280775	2537.469830
914.586510	2541.621220
914.892205	2539.703061
915.197859	2545.959133
915.503475	2549.729916
915.809050	2551.373332
916.114585	2556.837943
916.420081	2560.182748
916.725536	2557.689898
917.030952	2554.957592
917.336328	2550.702858
917.641665	2550.735626
917.946961	2548.502395
918.252218	2542.752959
918.557435	2541.159954
918.862612	2538.178112
919.167750	2536.065868
919.472848	2536.743903
919.777906	2535.569315
920.082925	2538.291538
920.387904	2535.748276
920.692843	2533.772143
920.997743	2534.624098
921.302603	2532.148892
921.607423	2534.724921
921.912204	2534.248532
922.216946	2532.012781
922.521647	2529.837523
922.826310	2531.783408
923.130932	2532.526978
923.435516	2530.079498
923.740059	2531.914478
924.044564	2529.371216
924.349028	2531.186031
924.653454	2526.800227
924.957840	2529.943387
925.262186	2525.892820
925.566493	2528.052954
925.870761	2524.693025
926.174989	2527.256452
926.479178	2530.565969
926.783328	2530.313912
927.087438	2528.695701
927.391509	2533.026052
927.695541	2528.171421
927.999533	2528.894827
928.303486	2527.120341
928.607400	2530.439941
928.911275	2531.329704
929.215110	2528.171421
929.518906	2528.128572
929.822663	2530.326515
930.126381	2530.029087
930.430060	2530.215609
930.733699	2529.308202
931.037299	2528.720907
931.340861	2529.340969
931.644383	2528.141174
931.947866	2529.177132
932.251309	2529.436751
932.554714	2529.557739
932.858080	2529.945907
933.161407	2529.159488
933.464694	2529.227543
933.767943	2532.032945
934.071153	2527.236287
934.374323	2528.184024
934.677455	2527.243849
934.980548	2529.708973
935.283602	2529.207378
935.586617	2527.523633
935.889593	2528.080681
936.192530	2527.299302
936.495428	2529.393901
936.798287	2527.823582
937.101108	2528.955321
937.403890	2530.134951
937.706632	2530.944056
938.009336	2529.829961
938.312002	2530.323994
938.614628	2531.105373
938.917216	2532.277441
939.219765	2532.837009
939.522275	2533.535209
939.824747	2533.441948
940.127179	2528.438602
940.429573	2526.752337
940.731929	2528.186545
941.034246	2526.475073
941.336524	2529.968593
941.638763	2529.930784
941.940964	2532.620240
942.243126	2531.508665
942.545250	2530.447502
942.847335	2532.461443
943.149381	2529.570342
943.451389	2530.225692
943.753359	2530.051772
944.055290	2531.682585
944.357182	2528.007584
944.659036	2530.142513
944.960851	2528.887265
945.262628	2529.766947
945.564367	2531.579241
945.866067	2529.976154
946.167729	2528.431041
946.469352	2527.669827
946.770937	2531.049920
947.072484	2528.736031
947.373992	2531.100332
947.675462	2530.737369
947.976893	2529.282996
948.278286	2529.686288
948.579641	2530.608819
948.880958	2529.275434
949.182236	2528.660413
949.483476	2527.848787
949.784678	2532.138809
950.085841	2528.415917
950.386967	2529.540095
950.688054	2528.390712
950.989103	2527.150588
951.290114	2528.335259
951.591087	2528.736031
951.892021	2527.982378
952.192917	2531.218799
952.493776	2530.336597
952.794596	2527.629497
953.095378	2528.151257
953.396122	2529.091432
953.696828	2529.961031
953.997496	2531.135620
954.298126	2528.168901
954.598718	2526.664116
954.899272	2530.253418
955.199788	2525.484486
955.500266	2529.169570
955.800706	2523.543642
956.101108	2525.343334
956.401472	2524.287212
956.701798	2524.748478
957.002087	2524.017511
957.302337	2527.959693
957.602550	2527.493386
957.902724	2527.054806
958.202861	2529.119158
958.502960	2525.481966
958.803022	2528.365506
959.103045	2526.376771
959.403031	2527.135464
959.702979	2526.810310
960.002889	2527.432892
960.302762	2526.860721
960.602596	2528.577234
960.902393	2524.635052
961.202153	2526.046575
961.501875	2525.945752
961.801559	2527.006915
962.101205	2527.453057
962.400814	2525.471883
962.700385	2528.017666
962.999918	2529.729138
963.299414	2526.374250
963.598873	2528.914992
963.898293	2528.156298
964.197677	2528.806607
964.497022	2525.756709
964.796331	2525.058509
965.095601	2527.851308
965.394835	2527.206040
965.694030	2526.772501
965.993189	2527.740403
966.292309	2527.853829
966.591393	2526.139836
966.890439	2523.533560
967.189447	2526.351565
967.488419	2525.784435
967.787353	2526.265865
968.086249	2525.487007
968.385108	2527.793335
968.683930	2526.651513
968.982714	2529.444313
969.281462	2526.291071
969.580172	2527.717718
969.878844	2528.113448
970.177480	2527.513551
970.476078	2526.838036
970.774639	2529.527492
971.073162	2529.729138
971.371649	2523.528519
971.670098	2524.839219
971.968510	2523.089938
972.266885	2521.070956
972.565223	2524.020031
972.863524	2526.533046
973.161788	2524.829136
973.460014	2526.775022
973.758204	2526.873324
974.056356	2525.756709
974.354471	2525.870135
974.652550	2525.842408
974.950591	2527.173273
975.248595	2526.714528
975.546563	2526.545649
975.844493	2525.542460
976.142386	2527.778211
976.440243	2525.315608
976.738062	2525.862573
977.035845	2523.810823
977.333590	2530.389529
977.631299	2526.341482
977.928971	2526.144878
978.226606	2524.781245
978.524204	2526.676719
978.821765	2526.129754
979.119290	2525.807120
979.416777	2526.157480
979.714228	2529.335928
980.011642	2525.383663
980.309020	2528.599919
980.606360	2524.952645
980.903664	2525.590351
981.200931	2528.806607
981.498162	2525.481966
981.795356	2526.659075
982.092513	2530.122348
982.389633	2527.032121
982.686717	2526.066740
982.983764	2526.888448
983.280775	2529.386339
983.577749	2525.935670
983.874686	2528.257121
984.171587	2529.988757
984.468451	2529.217461
984.765279	2528.418438
985.062070	2527.516071
985.358824	2527.296781
985.655543	2526.638911
985.952224	2524.831657
986.248869	2526.273427
986.545478	2522.074146
986.842050	2522.016172
987.138586	2521.512057
987.435086	2523.692356
987.731549	2519.770338
988.027975	2522.759743
988.324366	2523.122706
988.620719	2527.513551
988.917037	2523.745288
989.213318	2528.851977
989.509563	2525.076153
989.805772	2526.157480
990.101944	2523.954496
990.398080	2524.143539
990.694180	2523.533560
990.990244	2525.119003
991.286271	2526.596061
991.582262	2526.548170
991.878217	2526.691843
992.174136	2524.902233
992.470019	2524.531708
992.765865	2526.570855
993.061676	2525.948272
993.357450	2526.391894
993.653188	2526.109589
993.948890	2525.401307
994.244556	2525.746626
994.540186	2527.763088
994.835780	2524.241842
995.131337	2526.772501
995.426859	2525.575227
995.722345	2523.160514
996.017795	2525.610515
996.313208	2525.771832
996.608586	2525.358458
996.903928	2527.437933
997.199234	2524.183869
997.494504	2525.950793
997.789738	2528.841895
998.084936	2525.754188
998.380099	2525.809641
998.675225	2526.515402
998.970316	2525.366019
999.265371	2527.952131
999.560390	2524.355268
999.855373	2524.408200
1000.150320	2527.667306
1000.445232	2526.961544
1000.740108	2525.159332
1001.034948	2522.311080
1001.329752	2525.003056
1001.624521	2527.223684
1001.919254	2520.687828
1002.213951	2522.575741
1002.508613	2520.665143
1002.803239	2524.947603
1003.097829	2518.822602
1003.392384	2523.473066
1003.686903	2525.476925
1003.981386	2527.213602
1004.275834	2524.970289
1004.570246	2525.696215
1004.864623	2524.851822
1005.158964	2527.511030
1005.453270	2523.813344
1005.747540	2524.211595
1006.041775	2524.209074
1006.335974	2523.551204
1006.630138	2523.447860
1006.924266	2528.118489
1007.218359	2522.981553
1007.512416	2526.245701
1007.806438	2526.245701
1008.100425	2524.335103
1008.394376	2521.171779
1008.688292	2525.837367
1008.982172	2523.450381
1009.276017	2524.201513
1009.569827	2524.955165
1009.863602	2525.562624
1010.157341	2524.488858
1010.451045	2525.529857
1010.744714	2522.764784
1011.038347	2525.484486
1011.331945	2525.928108
1011.625508	2526.717048
1011.919036	2524.123375
1012.212528	2524.317459
1012.505986	2525.023221
1012.799408	2522.810154
1013.092795	2521.743950
1013.386147	2522.913498
1013.679464	2525.366019
1013.972745	2526.323838
1014.265992	2525.918026
1014.559204	2522.888292
1014.852380	2525.101359
1015.145521	2524.226718
1015.438628	2523.578930
1015.731699	2525.330731
1016.024736	2523.561286
1016.317737	2521.731347
1016.610703	2525.471883
1016.903635	2521.630524
1017.196531	2522.779907
1017.489393	2523.034486
1017.782219	2520.390400
1018.075011	2522.376615
1018.367768	2526.081863
1018.660490	2525.484486
1018.953177	2525.484486
1019.245829	2525.484486
