Dividing Wavelength (nm)	Counts (n)	Blue Motor Position (mm): 0.000000	Red Motor Position (mm): 36.000000	
326.493990	2076.053018
326.888308	2076.053018
327.282561	2076.053018
327.676750	2052.493186
328.070874	2054.441592
328.464933	2061.126162
328.858929	2072.859447
329.252859	2083.445870
329.646726	2097.992120
330.040528	2115.356374
330.434265	2135.636936
330.827938	2151.307363
331.221547	2172.691937
331.615091	2195.568693
332.008571	2214.024358
332.401986	2235.116545
332.795338	2254.898033
333.188625	2276.781682
333.581847	2293.273817
333.975006	2311.951292
334.368100	2331.329487
334.761129	2345.457321
335.154095	2362.093128
335.546996	2390.094218
335.939833	2432.611309
336.332606	2446.897939
336.725315	2456.372788
337.117960	2465.567852
337.510540	2471.037504
337.903056	2481.838176
338.295508	2488.469814
338.687896	2493.813437
339.080220	2503.825169
339.472480	2508.800788
339.864676	2511.767507
340.256807	2513.839421
340.648875	2515.772703
341.040879	2520.163548
341.432818	2517.774042
341.824694	2520.440812
342.216506	2519.228414
342.608253	2518.033661
342.999937	2518.230266
343.391557	2517.030471
343.783113	2516.909484
344.174605	2514.310769
344.566033	2514.136849
344.957397	2512.952178
345.348697	2509.836745
345.739934	2505.082937
346.131106	2507.472444
346.522215	2506.348266
346.913260	2506.118894
347.304241	2503.421877
347.695159	2502.930364
348.086012	2499.555312
348.476802	2498.574807
348.867528	2498.060609
349.258191	2498.794097
349.648789	2495.635814
350.039324	2493.241266
350.429796	2496.308808
350.820203	2494.632625
351.210548	2493.069867
351.600828	2493.412666
351.991045	2491.232367
352.381198	2491.156749
352.771288	2491.794455
353.161314	2493.344610
353.551276	2492.855618
353.941175	2493.780670
354.331010	2494.322594
354.720782	2492.890906
355.110490	2494.166318
355.500135	2494.073057
355.889717	2495.045999
356.279235	2494.312512
356.668689	2496.727224
357.058080	2493.296719
357.447408	2495.713952
357.836672	2491.953252
358.225873	2494.791421
358.615010	2493.400063
359.004084	2499.882987
359.393095	2498.224447
359.782043	2502.050683
360.170927	2501.962463
360.559748	2503.348780
360.948505	2501.992709
361.337199	2507.474964
361.725830	2505.660149
362.114398	2508.236178
362.502903	2506.224758
362.891344	2506.290293
363.279722	2507.449758
363.668037	2508.722650
364.056289	2510.371107
364.444478	2513.365553
364.832603	2510.202228
365.220665	2511.777589
365.608665	2512.914369
365.996601	2514.230110
366.384474	2515.066942
366.772284	2515.059380
367.160031	2516.745646
367.547715	2519.079700
367.935336	2517.819412
368.322893	2521.040709
368.710388	2519.193126
369.097820	2523.039527
369.485189	2522.444671
369.872495	2524.198992
370.259738	2523.997346
370.646918	2531.261649
371.034035	2530.931453
371.421090	2534.162833
371.808081	2534.319108
372.195010	2537.800025
372.581875	2542.619368
372.968678	2549.913918
373.355418	2555.015566
373.742096	2564.334138
374.128710	2573.153637
374.515262	2584.256778
374.901751	2598.384612
375.288177	2612.086468
375.674540	2630.126237
376.060841	2647.235913
376.447079	2669.737104
376.833254	2692.399611
377.219367	2713.917776
377.605417	2747.330544
377.991404	2765.594644
378.377329	2807.584935
378.763191	2839.868484
379.148991	2886.358005
379.534727	2932.461878
379.920402	2975.044504
380.306013	3020.515712
380.691563	3079.376224
381.077049	3129.933956
381.462474	3184.106195
381.847835	3254.437853
382.233134	3317.837924
382.618371	3378.430073
383.003545	3459.388483
383.388657	3531.492107
383.773706	3622.230355
384.158693	3686.767207
384.543618	3778.085188
384.928480	3853.074872
385.313280	3951.074903
385.698017	4053.211201
386.082692	4165.339065
386.467305	4223.985328
386.851856	4342.371785
387.236344	4489.482737
387.620770	4551.993044
388.005133	4663.019417
388.389435	4803.687774
388.773674	4885.132655
389.157851	5010.175956
389.541965	5137.288650
389.926018	5164.641951
390.310008	5331.602446
390.693936	5450.465292
391.077802	5562.482251
391.461606	5690.144431
391.845348	5798.325072
392.229027	5912.250107
392.612645	6126.547037
392.996200	6244.194965
393.379694	6414.137302
393.763125	6626.344673
394.146494	6710.153856
394.529801	6845.695359
394.913047	7071.733136
395.296230	7072.632982
395.679351	7129.287989
396.062410	7379.019189
396.445408	7281.472862
396.828343	7434.078672
397.211217	7566.484577
397.594028	7455.193544
397.976778	7654.172928
398.359466	7816.891292
398.742092	7794.886655
399.124656	7935.491998
399.507158	8121.523177
399.889598	8148.974781
400.271977	8355.667130
400.654294	8390.665340
401.036549	8585.866379
401.418742	8608.733053
401.800874	8906.357735
402.182944	8988.888985
402.564952	9347.756124
402.946898	9185.471300
403.328783	9239.424249
403.710606	9425.384852
404.092367	9687.149286
404.474067	10032.443119
404.855705	9839.087143
405.237282	9794.914032
405.618797	10217.571932
406.000250	10456.913314
406.381642	10816.342542
406.762972	10766.117526
407.144240	10579.844371
407.525447	10830.175468
407.906593	10775.118507
408.287677	11035.975533
408.668700	11188.588904
409.049661	11166.896819
409.430560	11332.256747
409.811399	11305.609208
410.192176	11466.555606
410.572891	11545.530323
410.953545	12017.435255
411.334138	11506.882317
411.714669	12082.587127
412.095139	11433.977150
412.475547	11908.765622
412.855894	11778.030858
413.236180	12098.980959
413.616405	11802.107409
413.996568	12069.417112
414.376670	12049.847353
414.756711	11942.443050
415.136691	12214.748537
415.516609	12376.357847
415.896466	12468.976446
416.276262	12751.606216
416.655997	13205.602449
417.035670	13257.813679
417.415283	13871.430487
417.794834	13956.028610
418.174324	13708.298748
418.553753	13619.627373
418.933121	14106.991003
419.312428	13928.662707
419.691674	13837.117873
420.070859	14308.072548
420.449983	13958.486173
420.829045	14512.451007
421.208047	14279.804278
421.586988	14721.575713
421.965867	14966.729545
422.344686	14971.770699
422.723444	15548.045159
423.102141	14238.718874
423.480777	15428.985708
423.859352	14935.829792
424.237866	16027.854621
424.616319	15751.891777
424.994712	16394.986732
425.373044	16185.599886
425.751314	16881.117800
426.129524	16009.167063
426.507673	17084.241012
426.885762	16818.945250
427.263789	16979.926936
427.641756	17172.544383
428.019662	17235.135350
428.397508	17288.506045
428.775292	17575.428358
429.153016	17556.055203
429.530679	17630.177809
429.908282	17663.794743
430.285824	17394.269453
430.663305	18097.109643
431.040726	17713.245942
431.418086	17567.596925
431.795385	18197.332823
432.172624	18632.439852
432.549802	18193.105815
432.926920	18401.461745
433.303977	18281.058826
433.680974	18539.702786
434.057910	18844.949692
434.434786	18890.902330
434.811601	18807.995514
435.188355	19854.357571
435.565050	19516.610346
435.941683	19494.381378
436.318257	20375.277642
436.694770	20178.811274
437.071222	20776.112387
437.447614	19851.519402
437.823946	19888.947448
438.200218	20063.484797
438.576429	19833.225054
438.952580	20145.398506
439.328670	20110.294431
439.704700	20531.744975
440.080670	20100.824624
440.456580	20718.058460
440.832429	20885.981815
441.208218	19898.651669
441.583947	20328.909109
441.959616	20457.387956
442.335224	20710.337932
442.710773	20845.801298
443.086261	21401.611195
443.461689	20730.956252
443.837057	20900.291130
444.212365	21548.923793
444.587612	21552.286242
444.962800	21155.681025
445.337927	21589.459711
445.712995	20305.518155
446.088002	22197.765663
446.462949	22399.308473
446.837837	22576.913364
447.212664	22605.690791
447.587431	25557.225874
447.962139	28528.633186
448.336786	30835.886122
448.711374	29165.033488
449.085901	25450.764267
449.460369	25470.225641
449.834776	25445.655057
450.209124	28013.097067
450.583412	27494.619435
450.957640	27974.312950
451.331808	26631.710008
451.705917	25247.106692
452.079965	25306.395703
452.453954	25686.584402
452.827883	25606.606497
453.201752	25397.927933
453.575562	25555.247221
453.949311	26684.420312
454.323001	26756.707938
454.696632	26552.374849
455.070202	28147.597572
455.443713	28329.414347
455.817164	28910.006556
456.190556	29473.017741
456.563888	28881.241732
456.937160	29317.435131
457.310373	27617.817673
457.683526	28063.919459
458.056619	28066.366940
458.429653	28034.320325
458.802628	28656.244954
459.175542	28779.367575
459.548398	30154.579221
459.921194	31788.064302
460.293930	32537.262942
460.666607	34631.854803
461.039224	36414.840343
461.411782	36758.248784
461.784280	35480.956510
462.156719	34930.694403
462.529099	34358.178123
462.901419	33029.183776
463.273680	31980.407006
463.645882	32113.710237
464.018024	32113.072531
464.390106	33049.396282
464.762130	35959.329243
465.134094	40288.062186
465.505999	45789.561599
465.877845	50319.149235
466.249631	51321.144097
466.621358	49469.823197
466.993026	47244.736027
467.364634	45102.114572
467.736184	43122.569403
468.107674	41856.274407
468.479105	41073.116034
468.850477	40336.021203
469.221790	38898.369826
469.593043	37112.024358
469.964238	36219.500672
470.335373	36160.766189
470.706449	38013.685135
471.077467	40786.768413
471.448425	45483.671945
471.819324	48226.203310
472.190164	46236.114568
472.560945	42591.173815
472.931667	39441.619688
473.302330	38333.732869
473.672934	37492.210537
474.043479	38023.923718
474.413965	37239.757114
474.784393	36859.815431
475.154761	37787.223901
475.525070	37833.083278
475.895321	37351.433795
476.265513	37984.189344
476.635645	38978.592228
477.005719	38838.047379
477.375734	39334.013739
477.745691	40066.884082
478.115588	41428.792123
478.485427	43563.393102
478.855207	47024.669497
479.224928	49687.596002
479.594591	51234.988257
479.964194	50134.398508
480.333739	50265.052613
480.703226	50334.469302
481.072653	50982.741522
481.442022	51470.069864
481.811333	51664.141684
482.180584	50398.363406
482.549777	49858.947342
482.918912	49329.865642
483.287988	49017.782931
483.657005	48181.274027
484.025964	47495.215838
484.394864	47484.329466
484.763706	47054.223261
485.132489	46156.424008
485.501213	45993.541807
485.869879	46141.603016
486.238487	45732.329379
486.607036	45923.840293
486.975527	45366.891096
487.343959	45582.725577
487.712333	45638.027035
488.080648	45539.669082
488.448905	46008.148550
488.817104	45787.275436
489.185244	46803.209088
489.553326	48585.728320
489.921350	51352.789940
490.289315	54178.840622
490.657222	54688.781060
491.025070	54920.860659
491.392861	53997.956460
491.760593	52715.978434
492.128267	51023.184178
492.495883	49447.190937
492.863440	48036.091317
493.230939	46656.088054
493.598380	45549.232151
493.965763	45217.930041
494.333088	44392.907405
494.700354	43907.046039
495.067563	43580.545627
495.434713	43454.955362
495.801805	43524.062019
496.168839	43114.954741
496.535815	42776.786579
496.902733	42786.006849
497.269593	42352.996940
497.636395	42294.547281
498.003139	42681.957434
498.369825	42135.919814
498.736453	42431.023919
499.103023	41942.659619
499.469535	41814.200937
499.835989	41909.811461
500.202385	41562.879253
500.568723	41563.461507
500.935003	41764.580860
501.301226	41550.243601
501.667390	42156.212979
502.033497	42398.689958
502.399546	41837.831346
502.765537	41108.139450
503.131470	41484.706081
503.497345	41845.907274
503.863163	40477.518830
504.228923	41129.952523
504.594625	41532.687783
504.960269	40778.891610
505.325856	41469.335602
505.691385	40850.256704
506.056856	40968.539818
506.422270	41404.599625
506.787625	40964.806843
507.152924	41167.466269
507.518164	41237.160221
507.883347	40447.897010
508.248472	40678.542402
508.613540	41153.310709
508.978550	41480.625267
509.343503	41209.837167
509.708398	41407.672209
510.073236	41939.997890
510.438016	41922.497525
510.802738	41369.394727
511.167403	41994.820438
511.532010	42213.341855
511.896561	42493.183866
512.261053	43338.328268
512.625488	42874.224521
512.989866	42752.546191
513.354186	42577.290477
513.718449	42556.251222
514.082655	43236.277670
514.446803	42879.290881
514.810894	43413.575050
515.174927	43309.669308
515.538904	43202.398595
515.902822	43863.795459
516.266684	43297.888131
516.630488	43709.258888
516.994235	43558.122575
517.357925	44133.792098
517.721558	44275.088078
518.085133	44576.556640
518.448651	44679.491960
518.812112	44436.218478
519.175516	44531.118200
519.538863	44844.945150
519.902152	44795.924970
520.265385	45236.950314
520.628560	45242.765285
520.991678	45027.117327
521.354739	45243.372744
521.717743	45542.870215
522.080690	45408.634370
522.443580	45921.176043
522.806413	45938.749506
523.169189	45875.898920
523.531908	46032.015893
523.894569	45869.287447
524.257174	46022.740170
524.619722	46265.847294
524.982213	46228.023516
525.344647	46139.342058
525.707025	46157.127249
526.069345	46522.862961
526.431608	46394.253044
526.793815	46685.717436
527.155964	46196.304576
527.518057	46313.844119
527.880093	46085.371465
528.242072	46560.595997
528.603995	46232.495020
528.965860	46193.826849
529.327669	46236.258241
529.689421	46119.187525
530.051117	46039.877573
530.412755	46139.936915
530.774337	46163.572364
531.135862	45936.959896
531.497331	46071.583910
531.858743	45923.177382
532.220098	46231.380925
532.581396	45895.740902
532.942638	45498.694584
533.303824	45770.732889
533.664953	45668.878896
534.026025	45358.237955
534.387040	45743.626605
534.747999	45652.164951
535.108902	45759.110509
535.469748	45204.407146
535.830537	45261.868738
536.191270	45386.866668
536.551947	44999.360733
536.912567	45226.288274
537.273131	45279.971521
537.633638	44738.216361
537.994089	44991.735988
538.354483	44509.970559
538.714821	45019.391758
539.075103	45266.937618
539.435328	44966.835209
539.795497	44773.489315
540.155609	44695.522829
540.515665	45071.411425
540.875665	44451.253720
541.235609	44676.366445
541.595496	44583.737763
541.955328	45150.650802
542.315102	44442.988748
542.674821	44150.901774
543.034483	44082.969705
543.394090	43996.284544
543.753640	43866.668917
544.113134	44723.050050
544.472571	43677.239999
544.831953	44770.930929
545.191278	43924.085139
545.550548	43556.363213
545.909761	43918.882668
546.268918	43981.138397
546.628019	44171.532696
546.987064	43650.166483
547.346053	42854.697612
547.704986	43566.826127
548.063863	43055.995926
548.422684	43099.654839
548.781449	42854.052344
549.140158	43129.697595
549.498811	42844.779141
549.857408	42209.351781
550.215949	42862.458468
550.574434	42674.201619
550.932864	42350.778832
551.291237	42873.301990
551.649555	42390.424986
552.007817	42479.655930
552.366022	42034.375852
552.724173	42054.066599
553.082267	42274.755711
553.440305	42394.016808
553.798288	41643.285657
554.156215	41794.792495
554.514086	41834.617610
554.871902	41452.735083
555.229661	41343.057219
555.587365	41032.391072
555.945014	40973.298667
556.302606	40779.912444
556.660143	40810.262710
557.017625	40739.968861
557.375050	40397.145194
557.732421	40539.479652
558.089735	40355.180109
558.446994	40125.507660
558.804197	40361.254699
559.161345	40145.889045
559.518437	39336.365437
559.875474	39446.403743
560.232455	39432.008728
560.589381	39402.412114
560.946251	38983.371242
561.303065	39388.117922
561.659825	39024.617963
562.016528	38582.980118
562.373177	38172.340329
562.729770	38396.210409
563.086307	37809.261305
563.442789	38016.578757
563.799216	37858.442802
564.155587	37518.411934
564.511904	37349.122426
564.868164	37210.964564
565.224370	37222.536533
565.580520	36813.522515
565.936615	36793.292365
566.292654	36371.451132
566.648638	36389.397639
567.004567	36151.820661
567.360441	36001.284246
567.716260	35676.273496
568.072023	35699.840890
568.427732	35469.157690
568.783385	34908.152884
569.138982	35005.648799
569.494525	34766.095689
569.850013	34383.383892
570.205445	34155.024664
570.560823	33905.880759
570.916145	33611.915954
571.271412	33424.679939
571.626625	33027.182438
571.981782	32845.032946
572.336884	32411.758376
572.691931	32425.843360
573.046923	31933.904882
573.401860	31602.406167
573.756743	31383.826778
574.111570	31253.593609
574.466342	30933.747521
574.821059	30783.957196
575.175722	30245.965258
575.530330	30056.864015
575.884882	29643.663320
576.239380	29396.104857
576.593823	29172.330558
576.948211	28908.703418
577.302544	28380.655156
577.656823	28172.609257
578.011047	28110.688764
578.365216	27717.808960
578.719330	27359.687911
579.073389	27055.209781
579.427394	26891.868834
579.781344	26646.896484
580.135239	26228.097587
580.489080	26051.851287
580.842866	25546.737753
581.196597	25585.186634
581.550273	25346.573699
581.903895	25052.203082
582.257463	25058.733897
582.610975	24495.160623
582.964434	24442.757829
583.317837	24035.893863
583.671186	23721.789650
584.024481	23634.186999
584.377721	23168.560824
584.730906	23112.228450
585.084037	22903.791862
585.437113	22553.971073
585.790135	22358.878419
586.143103	21944.868618
586.496016	21794.390176
586.848874	21600.454467
587.201679	21392.481665
587.554428	20954.652412
587.907124	20833.873928
588.259765	20521.997904
588.612352	20422.518295
588.964884	19953.650658
589.317362	19881.428567
589.669786	19652.875255
590.022155	19368.390340
590.374470	19326.127827
590.726731	18943.955433
591.078937	18538.823105
591.431090	18391.966731
591.783188	18051.530050
592.135232	17733.879385
592.487222	17644.159449
592.839157	17483.500397
593.191038	17159.339081
593.542866	16884.170219
593.894639	16486.851678
594.246358	16408.002991
594.598022	16220.020885
594.949633	15902.705456
595.301190	15708.222782
595.652692	15488.317569
596.004141	15425.318269
596.355535	14930.970120
596.706876	14735.718670
597.058162	14520.988201
597.409395	14505.723587
597.760573	14372.080078
598.111698	14085.823198
598.462768	13933.908027
598.813785	13788.216160
599.164748	13469.015340
599.515657	13420.322835
599.866511	13129.541519
600.217312	13148.037513
600.568060	12696.133359
600.918753	12761.040735
601.269392	12590.831217
601.619978	12350.864732
601.970510	12264.726536
602.320988	12162.648212
602.671412	12107.457659
603.021783	11910.338462
603.372100	11682.964779
603.722363	11575.562997
604.072572	11455.233175
604.422728	11329.075779
604.772830	11151.906948
605.122878	11047.607995
605.472872	10908.356203
605.822813	10834.097486
606.172701	10678.184680
606.522534	10608.833526
606.872314	10538.620336
607.222041	10368.965344
607.571714	10329.135188
607.921333	10100.105486
608.270899	10035.523264
608.620411	9995.259568
608.969870	9840.228964
609.319276	9730.243590
609.668627	9628.248445
610.017926	9611.915106
610.367171	9533.285709
610.716362	9438.638046
611.065500	9328.350203
611.414585	9256.710365
611.763616	9200.962765
612.112594	9091.786497
612.461518	9023.299901
612.810389	8981.549065
613.159207	8858.628090
613.507971	8772.147096
613.856682	8750.770083
614.205340	8647.340729
614.553945	8653.059918
614.902496	8483.031882
615.250994	8459.933315
615.599439	8376.870223
615.947830	8320.494999
616.296169	8254.249197
616.644454	8182.382507
616.992686	8123.847149
617.340864	8118.546376
617.688990	7998.128334
618.037063	8003.537492
618.385082	7920.325686
618.733048	7878.864717
619.080961	7802.503839
619.428821	7728.461892
619.776628	7661.064185
620.124382	7562.638177
620.472083	7495.058989
620.819731	7433.408198
621.167326	7315.866134
621.514868	7231.641057
621.862357	7106.320492
622.209793	7024.051382
622.557176	6923.311484
622.904506	6813.923487
623.251783	6704.376693
623.599007	6616.373271
623.946179	6524.205855
624.293297	6452.545853
624.640363	6343.029306
624.987376	6277.572444
625.334336	6197.065217
625.681243	6106.866372
626.028097	6044.955962
626.374899	5978.879038
626.721647	5926.589669
627.068343	5864.301173
627.414987	5797.626872
627.761577	5732.681687
628.108115	5711.211413
628.454600	5616.987206
628.801032	5583.483697
629.147412	5540.033992
629.493739	5492.944574
629.840014	5429.879740
630.186236	5410.814096
630.532405	5344.898489
630.878521	5323.171116
631.224585	5274.672695
631.570597	5216.275969
631.916556	5186.419735
632.262462	5153.080064
632.608316	5114.220330
632.954117	5066.551179
633.299866	5033.597157
633.645562	4986.555629
633.991206	4918.426956
634.336797	4849.736193
634.682336	4811.872087
635.027823	4755.842182
635.373257	4705.075243
635.718639	4655.974404
636.063968	4609.399184
636.409245	4545.618505
636.754470	4512.099873
637.099642	4467.011793
637.444762	4417.003547
637.789829	4389.594794
638.134845	4340.768698
638.479808	4304.941218
638.824719	4275.664717
639.169577	4229.611256
639.514383	4210.089388
639.859137	4166.443078
640.203839	4154.135101
640.548489	4110.007360
640.893086	4087.672528
641.237632	4048.638874
641.582125	4032.993653
641.926566	4005.090867
642.270955	3984.056652
642.615292	3962.873724
642.959576	3939.248356
643.303809	3919.325716
643.647990	3901.351482
643.992118	3878.381465
644.336195	3858.675594
644.680219	3842.962318
645.024192	3834.210875
645.368112	3836.549970
645.711981	3821.061025
646.055797	3834.828416
646.399562	3819.137825
646.743274	3841.202955
647.086935	3839.446113
647.430544	3826.886078
647.774101	3806.000578
648.117606	3794.521870
648.461059	3786.362763
648.804460	3754.358998
649.147810	3717.064542
649.491108	3687.112526
649.834354	3655.270078
650.177548	3612.160651
650.520690	3583.252154
650.863781	3565.126685
651.206820	3550.494736
651.549807	3525.263761
651.892742	3496.509020
652.235626	3473.382726
652.578458	3461.452836
652.921238	3431.624328
653.263967	3427.351951
653.606644	3406.400915
653.949269	3392.777197
654.291843	3372.952859
654.634365	3372.148795
654.976836	3349.196422
655.319255	3342.169053
655.661622	3328.822599
656.003938	3312.287614
656.346203	3297.201961
656.688416	3292.397742
657.030577	3277.465844
657.372687	3267.015532
657.714746	3258.720313
658.056753	3252.025661
658.398708	3229.073287
658.740612	3225.675550
659.082465	3218.847307
659.424266	3208.349104
659.766016	3203.514637
660.107715	3198.163453
660.449362	3194.357382
660.790958	3185.767255
661.132503	3181.227696
661.473996	3175.241326
661.815438	3169.539781
662.156829	3169.678413
662.498168	3150.549755
662.839456	3149.690238
663.180693	3141.498363
663.521879	3141.367293
663.863013	3135.330511
664.204097	3126.863893
664.545129	3127.937659
664.886110	3120.580095
665.227040	3116.307717
665.567918	3115.228910
665.908746	3112.723457
666.249522	3107.397478
666.590248	3106.059051
666.930922	3100.717949
667.271545	3098.489759
667.612118	3096.332145
667.952639	3086.595156
668.293109	3084.150197
668.633528	3072.933629
668.973896	3068.817527
669.314213	3061.286043
669.654480	3055.917215
669.994695	3052.373283
670.334859	3046.291131
670.674973	3040.410625
671.015035	3040.221582
671.355047	3034.111704
671.695008	3029.783873
672.034918	3024.510826
672.374777	3025.140970
672.714585	3019.832635
673.054342	3018.920187
673.394049	3014.637726
673.733705	3013.316944
674.073310	3007.774195
674.412864	3005.488032
674.752368	2993.996722
675.091820	2997.235663
675.431223	2988.030516
675.770574	2980.614979
676.109875	2971.263639
676.449125	2964.750468
676.788324	2961.292236
677.127473	2949.611883
677.466571	2947.527366
677.805619	2945.150462
678.144616	2942.849175
678.483562	2940.492436
678.822458	2933.407094
679.161303	2932.615633
679.500098	2928.549942
679.838842	2926.019283
680.177535	2923.677667
680.516179	2923.768408
680.854771	2927.894592
681.193314	2934.806014
681.531805	2945.238682
681.870247	2954.232100
682.208638	2959.568162
682.546978	2961.221660
682.885268	2965.559573
683.223508	2953.332254
683.561697	2948.903601
683.899836	2947.754218
684.237925	2934.435489
684.575963	2933.891045
684.913951	2925.631114
685.251889	2927.040117
685.589776	2923.806216
685.927614	2922.258582
686.265401	2922.772780
686.603137	2923.617173
686.940824	2926.263779
687.278460	2931.942639
687.616046	2927.881989
687.953582	2938.455809
688.291068	2933.880962
688.628504	2938.249122
688.965889	2933.921292
689.303224	2927.657658
689.640510	2922.135074
689.977745	2913.986049
690.314930	2900.795870
690.652065	2897.851836
690.989150	2883.764331
691.326185	2873.669421
691.663170	2865.762371
692.000105	2854.296267
692.336990	2844.781089
692.673825	2838.260356
693.010610	2836.866477
693.347345	2821.266627
693.684030	2811.978301
694.020665	2812.240441
694.357251	2799.652679
694.693786	2801.651497
695.030272	2801.001188
695.366707	2794.077163
695.703093	2787.589198
696.039429	2788.526853
696.375716	2783.147942
696.711952	2782.815226
697.048139	2780.385389
697.384276	2773.766354
697.720363	2779.926644
698.056400	2777.852210
698.392388	2774.136879
698.728326	2772.448093
699.064214	2769.385592
699.400053	2767.858122
699.735842	2764.687236
700.071581	2759.782194
700.407270	2757.513674
700.742910	2753.168200
701.078501	2749.659557
701.414042	2746.849113
701.749533	2743.524472
702.084974	2739.894842
702.420366	2742.188567
702.755709	2736.625653
703.091002	2731.213975
703.426246	2733.729511
703.761440	2728.816906
704.096584	2727.869169
704.431679	2728.403532
704.766725	2725.872872
705.101721	2724.042933
705.436668	2724.463870
705.771565	2720.546893
706.106413	2725.225084
706.441212	2722.976729
706.775961	2726.802965
707.110661	2725.154508
707.445311	2728.287585
707.779913	2724.239538
708.114465	2731.216495
708.448967	2729.260528
708.783421	2736.542474
709.117825	2739.680593
709.452180	2741.555902
709.786485	2743.484143
710.120742	2751.176944
710.454949	2753.352202
710.789107	2754.123498
711.123216	2759.764550
711.457275	2763.875611
711.791286	2766.865015
712.125247	2768.652104
712.459159	2771.817948
712.793023	2777.673249
713.126837	2765.771084
713.460602	2768.407608
713.794318	2761.292019
714.127985	2758.418562
714.461602	2747.267529
714.795171	2748.858013
715.128691	2737.631364
715.462162	2730.830847
715.795584	2729.396639
716.128957	2726.198027
716.462281	2721.179558
716.795556	2719.944475
717.128782	2714.323589
717.461960	2706.401416
717.795088	2707.109698
718.128167	2703.961497
718.461198	2698.159129
718.794180	2697.886907
719.127113	2694.287523
719.459997	2692.994467
719.792833	2686.624969
720.125619	2687.534897
720.458357	2685.132787
720.791046	2683.660771
721.123686	2681.009124
721.456278	2679.088444
721.788821	2680.358815
722.121315	2675.811694
722.453761	2676.527538
722.786158	2675.957887
723.118506	2674.591735
723.450805	2671.645180
723.783056	2677.434946
724.115259	2673.137362
724.447412	2672.338339
724.779518	2678.680111
725.111574	2679.721109
725.443582	2680.207580
725.775542	2680.275636
726.107453	2684.598425
726.439315	2683.098682
726.771129	2691.162007
727.102895	2688.230577
727.434612	2693.057481
727.766281	2693.259127
728.097901	2696.845908
728.429473	2691.832481
728.760996	2696.835826
729.092471	2694.375743
729.423897	2696.119982
729.755276	2696.160312
730.086606	2693.695187
730.417887	2700.606609
730.749120	2705.282279
731.080305	2709.232023
731.411442	2713.050697
731.742530	2713.257385
732.073570	2713.829556
732.404562	2715.795606
732.735506	2715.820812
733.066401	2712.859134
733.397249	2705.756148
733.728048	2700.659541
734.058798	2694.463963
734.389501	2683.519618
734.720156	2680.661284
735.050762	2677.094668
735.381320	2673.903617
735.711831	2670.016888
736.042293	2666.793070
736.372707	2665.757113
736.703073	2664.030517
737.033391	2665.787360
737.363661	2666.659479
737.693883	2667.960097
738.024056	2674.314471
738.354182	2672.139213
738.684260	2676.381344
739.014290	2677.689524
739.344272	2677.780265
739.674207	2683.131449
740.004093	2686.635051
740.333931	2683.917869
740.663722	2684.452232
740.993464	2683.454083
741.323159	2682.140863
741.652806	2680.356294
741.982405	2675.733556
742.311956	2670.831034
742.641460	2673.482681
742.970915	2671.642660
743.300323	2665.028666
743.629683	2664.562359
743.958996	2660.642862
744.288260	2660.063129
744.617477	2654.711945
744.946647	2651.760349
745.275768	2648.816315
745.604842	2646.993938
745.933869	2646.729277
746.262847	2642.787095
746.591778	2644.402785
746.920662	2647.170378
747.249498	2648.110554
747.578286	2649.285142
747.907027	2648.138280
748.235720	2652.670277
748.564365	2650.999135
748.892963	2652.103147
749.221514	2651.856131
749.550017	2648.791109
749.878473	2650.908394
750.206881	2646.305821
750.535242	2646.923362
750.863555	2645.842034
751.191821	2645.163999
751.520039	2648.148362
751.848210	2647.069555
752.176334	2646.515028
752.504411	2645.990748
752.832440	2642.719040
753.160421	2645.925213
753.488356	2639.255767
753.816243	2642.088895
754.144082	2639.984214
754.471875	2639.654018
754.799620	2639.722074
755.127318	2637.461116
755.454969	2638.139151
755.782572	2638.837351
756.110129	2637.529172
756.437638	2637.161167
756.765100	2636.694861
757.092515	2638.096302
757.419882	2638.464306
757.747203	2638.250057
758.074477	2638.660911
758.401703	2637.811476
758.728882	2641.983031
759.056014	2643.003865
759.383099	2643.762558
759.710138	2644.856489
760.037129	2645.794143
760.364073	2649.121305
760.690970	2645.683238
761.017820	2644.881695
761.344623	2649.698517
761.671379	2652.629948
761.998088	2657.875269
762.324751	2678.796057
762.651366	2711.860985
762.977935	2751.166862
763.304456	2775.485388
763.630931	2788.357974
763.957359	2774.414143
764.283740	2755.613159
764.610074	2729.893192
764.936362	2711.407281
765.262602	2688.906091
765.588796	2673.638957
765.914943	2660.123623
766.241044	2647.994607
766.567097	2639.318781
766.893104	2633.377782
767.219064	2629.911988
767.544978	2624.102058
767.870845	2621.455453
768.196665	2618.849176
768.522438	2617.314145
768.848165	2616.293311
769.173846	2613.820625
769.499479	2610.974894
769.825066	2606.001796
770.150607	2606.755448
770.476101	2608.222424
770.801548	2607.569594
771.126949	2602.432659
771.452303	2601.048862
771.777611	2600.643049
772.102872	2599.715477
772.428087	2596.963007
772.753256	2597.313367
773.078378	2594.112234
773.403453	2593.832450
773.728482	2588.204002
774.053465	2591.362285
774.378401	2590.507809
774.703291	2590.041502
775.028135	2589.413879
775.352932	2587.808271
775.677683	2588.992943
776.002388	2585.224680
776.327046	2586.154773
776.651658	2581.794175
776.976224	2584.355081
777.300743	2584.471027
777.625216	2583.465317
777.949643	2580.667477
778.274024	2583.291397
778.598359	2577.088258
778.922647	2576.226220
779.246889	2577.360480
779.571086	2574.993658
779.895236	2580.206211
780.219339	2578.598083
780.543397	2580.475913
780.867409	2582.144535
781.191374	2580.443146
781.515294	2582.928434
781.839167	2584.788620
782.162995	2577.882239
782.486776	2583.276274
782.810511	2581.862230
783.134201	2580.904411
783.457844	2579.482806
783.781441	2581.206880
784.104993	2580.135635
784.428498	2578.514904
784.751958	2575.921231
785.075372	2575.674214
785.398739	2577.254616
785.722061	2577.168916
786.045337	2577.622620
786.368568	2579.863413
786.691752	2581.879874
787.014891	2584.718044
787.337983	2591.059816
787.661030	2595.213726
787.984031	2601.787391
788.306987	2605.848040
788.629897	2606.778133
788.952760	2604.590272
789.275579	2603.624892
789.598351	2598.855960
789.921078	2593.741709
790.243759	2595.228850
790.566395	2588.967737
790.888984	2587.740216
791.211529	2583.311562
791.534027	2579.623958
791.856480	2579.535738
792.178888	2577.239492
792.501249	2577.335274
792.823566	2576.626992
793.145836	2575.457444
793.468062	2576.581622
793.790241	2573.022567
794.112375	2576.122877
794.434464	2577.849472
794.756507	2578.348546
795.078505	2579.528176
795.400457	2583.871130
795.722364	2583.258630
796.044226	2588.622418
796.366042	2590.820361
796.687812	2591.770618
797.009538	2591.077460
797.331218	2592.002511
797.652852	2588.932449
797.974442	2590.374219
798.295986	2589.817171
798.617484	2585.600246
798.938938	2582.666294
799.260346	2587.183168
799.581709	2581.025399
799.903026	2581.348033
800.224299	2577.549523
800.545526	2576.833679
800.866708	2574.487022
801.187845	2575.651529
801.508936	2575.517938
801.829983	2573.617423
802.150984	2573.380489
802.471940	2572.377299
802.792851	2570.459140
803.113717	2570.373441
803.434538	2570.421332
803.755314	2571.943760
804.076045	2571.366548
804.396731	2570.779254
804.717372	2568.966959
805.037967	2569.755899
805.358518	2570.718760
805.679024	2572.263873
805.999485	2571.956363
806.319901	2573.642629
806.640272	2573.027608
806.960598	2575.356621
807.280879	2572.026939
807.601115	2573.113308
807.921306	2574.658422
808.241453	2573.304872
808.561554	2574.895356
808.881611	2571.459809
809.201623	2573.148596
809.521590	2572.147927
809.841513	2574.262691
810.161390	2576.148082
810.481223	2570.333112
810.801011	2571.091805
811.120755	2571.356466
811.440453	2570.393605
811.760107	2569.448389
812.079716	2569.231619
812.399281	2563.497307
812.718801	2565.559139
813.038276	2565.909499
813.357707	2567.807493
813.677093	2568.208265
813.996434	2565.516289
814.315731	2568.772874
814.634983	2567.777247
814.954191	2568.626681
815.273354	2569.554253
815.592473	2567.734397
815.911547	2570.708677
816.230577	2574.471899
816.549562	2573.836713
816.868502	2575.117167
817.187399	2577.602455
817.506250	2583.273753
817.825058	2582.562951
818.143821	2586.583271
818.462539	2587.866245
818.781213	2595.448140
819.099843	2603.813935
819.418429	2614.483537
819.736970	2629.801083
820.055466	2642.351035
820.373919	2662.787873
820.692327	2693.082687
821.010691	2750.972777
821.329011	2868.973586
821.647286	3053.076524
821.965517	3250.803181
822.283704	3363.049513
822.601847	3398.713156
822.919945	3311.322233
823.237999	3214.141390
823.556010	3121.772328
823.873976	3030.507279
824.191897	2949.145576
824.509775	2888.440002
824.827609	2833.768688
825.145398	2799.687967
825.463144	2784.975360
825.780845	2792.108593
826.098502	2812.984011
826.416116	2853.610670
826.733685	2900.082546
827.051210	2910.356418
827.368692	2885.208622
827.686129	2838.008298
828.003522	2791.231432
828.320872	2742.349884
828.638177	2710.356201
828.955439	2683.864937
829.272656	2659.095228
829.589830	2642.537558
829.906960	2628.361833
830.224046	2614.975049
830.541088	2605.767382
830.858086	2598.147678
831.175041	2595.470825
831.491952	2596.998295
831.808819	2596.705908
832.125642	2603.012391
832.442421	2615.290122
832.759157	2639.790129
833.075849	2678.105419
833.392497	2716.788713
833.709101	2737.449882
834.025662	2734.762947
834.342179	2711.878629
834.658653	2685.415092
834.975083	2663.823830
835.291469	2644.188536
835.607811	2629.375105
835.924110	2614.927158
836.240366	2600.030549
836.556578	2594.298757
836.872746	2585.612849
837.188871	2577.915007
837.504952	2574.340829
837.820990	2568.838409
838.136984	2563.134344
838.452935	2564.472770
838.768842	2565.145764
839.084706	2570.449058
839.400526	2587.379773
839.716303	2612.580501
840.032037	2624.167593
840.347727	2619.600308
840.663373	2609.384410
840.978977	2594.046699
841.294537	2585.592684
841.610054	2576.236303
841.925527	2569.017370
842.240957	2566.151474
842.556344	2559.597974
842.871687	2553.750236
843.186987	2552.409289
843.502244	2546.422919
843.817458	2544.960984
844.132629	2540.242464
844.447756	2540.549975
844.762840	2534.684592
845.077881	2538.105015
845.392879	2536.433873
845.707833	2536.050745
846.022745	2534.465302
846.337613	2537.343801
846.652438	2534.205682
846.967221	2536.890097
847.281960	2533.494880
847.596656	2537.852957
847.911309	2533.754499
848.225919	2532.579910
848.540485	2535.773481
848.855009	2535.241640
849.169490	2533.444468
849.483928	2534.205682
849.798323	2532.864736
850.112675	2531.853984
850.426984	2534.039324
850.741251	2531.301978
851.055474	2534.130065
851.369654	2532.615198
851.683792	2530.782739
851.997887	2532.171577
852.311938	2531.291896
852.625947	2536.048224
852.939914	2532.519417
853.253837	2534.099818
853.567718	2532.806762
853.881555	2530.447502
854.195350	2535.692823
854.509103	2531.407842
854.822812	2532.111083
855.136479	2532.506814
855.450103	2532.320291
855.763685	2534.046886
856.077224	2534.240971
856.390720	2534.092257
856.704173	2536.595189
857.017584	2531.332225
857.330953	2532.867256
857.644278	2534.752648
857.957561	2538.500746
858.270802	2534.533357
858.584000	2533.794828
858.897155	2533.857843
859.210268	2534.886238
859.523339	2533.580579
859.836367	2536.209541
860.149352	2532.584952
860.462295	2533.956145
860.775195	2531.334745
861.088054	2530.084539
861.400869	2530.661751
861.713642	2530.513037
862.026373	2533.804911
862.339062	2532.877338
862.651708	2533.517565
862.964312	2534.717360
863.276873	2534.548481
863.589392	2538.213400
863.901869	2536.632998
864.214303	2535.473533
864.526696	2539.166178
864.839045	2536.416228
865.151353	2541.222969
865.463619	2538.019315
865.775842	2539.909748
866.088023	2538.669624
866.400162	2540.870088
866.712258	2539.065355
867.024313	2541.686755
867.336325	2538.813297
867.648296	2542.848741
867.960224	2539.183822
868.272110	2540.492001
868.583954	2542.389996
868.895755	2540.010571
869.207515	2541.308668
869.519233	2544.184647
869.830909	2542.828576
870.142542	2543.884698
870.454134	2544.504760
870.765684	2543.534338
871.077191	2542.478216
871.388657	2546.916952
871.700081	2544.925696
872.011463	2547.438711
872.322803	2545.502908
872.634101	2545.530635
872.945357	2547.473999
873.256571	2551.824515
873.567744	2547.690769
873.878874	2550.075235
874.189963	2549.407282
874.501010	2551.073383
874.812015	2550.211346
875.122979	2550.042467
875.433900	2552.129505
875.744780	2552.653785
876.055618	2553.218394
876.366415	2552.356357
876.677169	2553.490617
876.987882	2553.440205
877.298554	2552.000956
877.609183	2552.618497
877.919771	2557.871379
878.230317	2560.212995
878.540822	2570.912844
878.851285	2573.932495
879.161707	2582.489854
879.472087	2598.024170
879.782425	2623.199692
880.092722	2663.438182
880.402977	2725.603171
880.713191	2800.381126
881.023363	2873.223279
881.333494	2911.790626
881.643583	2927.151022
881.953631	2919.085176
882.263637	2898.444171
882.573602	2870.914430
882.883526	2840.780933
883.193408	2814.214052
883.503248	2782.595935
883.813048	2754.864548
884.122806	2728.547204
884.432522	2704.488298
884.742197	2682.176151
885.051831	2662.026659
885.361424	2643.122332
885.670975	2628.261010
885.980485	2615.829525
886.289954	2603.347628
886.599382	2594.802872
886.908768	2591.921853
887.218113	2579.485326
887.527417	2580.294432
887.836680	2575.568350
888.145901	2568.979562
888.455082	2565.186093
888.764221	2561.231308
889.073319	2559.361040
889.382376	2560.273489
889.691392	2559.242573
890.000366	2557.047151
890.309300	2556.719476
890.618193	2556.772408
890.927044	2559.119065
891.235855	2556.253169
891.544625	2556.837943
891.853353	2558.367933
892.162041	2561.395146
892.470687	2565.796073
892.779293	2569.340004
893.087858	2576.412743
893.396381	2588.899681
893.704864	2602.548605
894.013306	2623.872686
894.321707	2650.134577
894.630068	2662.097235
894.938387	2665.857936
895.246665	2661.421720
895.554903	2654.076759
895.863100	2640.490850
896.171256	2628.883593
896.479371	2618.277005
896.787446	2610.052363
897.095480	2602.374685
897.403473	2595.120465
897.711425	2591.788262
898.019336	2582.767117
898.327207	2578.303176
898.635038	2574.300500
898.942827	2571.109449
899.250576	2563.078891
899.558284	2562.461350
899.865952	2559.010680
900.173579	2554.166131
900.481165	2555.549928
900.788711	2552.439536
901.096216	2550.723023
901.403681	2551.668239
901.711105	2551.375853
902.018489	2551.882488
902.325832	2555.683518
902.633135	2554.050185
902.940397	2561.826164
903.247619	2582.026068
903.554800	2612.204935
903.861941	2650.621048
904.169041	2680.505008
904.476101	2690.665454
904.783121	2680.888136
905.090100	2664.733758
905.397039	2651.641882
905.703938	2635.477422
906.010796	2623.164404
906.317614	2608.250150
906.624391	2602.173039
906.931129	2591.853797
907.237826	2582.613362
907.544483	2576.445511
907.851099	2566.900086
908.157675	2557.004301
908.464211	2549.568599
908.770707	2545.833104
909.077163	2540.713812
909.383578	2538.410005
909.689954	2534.089736
909.996289	2530.954138
910.302584	2535.216434
910.608839	2533.436907
910.915054	2534.646783
911.221229	2537.318595
911.527363	2534.278779
911.833458	2535.521424
912.139513	2536.310364
912.445527	2541.114584
912.751502	2538.397402
913.057436	2540.522248
913.363331	2545.523073
913.669186	2547.239586
913.975000	2555.071018
914.280775	2563.852708
914.586510	2575.928792
914.892205	2597.918305
915.197859	2619.048302
915.503475	2643.641571
915.809050	2664.156546
916.114585	2679.370749
916.420081	2681.538445
916.725536	2684.772345
917.030952	2670.972186
917.336328	2666.767864
917.641665	2657.194713
917.946961	2644.765748
918.252218	2633.765950
918.557435	2622.138529
918.862612	2616.948661
919.167750	2607.854420
919.472848	2596.237081
919.777906	2589.683581
920.082925	2583.689649
920.387904	2572.394943
920.692843	2568.074675
920.997743	2560.250804
921.302603	2557.563869
921.607423	2552.656306
921.912204	2550.450801
922.216946	2547.945347
922.521647	2547.705892
922.826310	2542.798329
923.130932	2543.002496
923.435516	2540.063503
923.740059	2537.374048
924.044564	2538.316743
924.349028	2535.067720
924.653454	2529.613191
924.957840	2529.759385
925.262186	2527.054806
925.566493	2526.177645
925.870761	2524.075484
926.174989	2526.409538
926.479178	2528.478932
926.783328	2523.694877
927.087438	2524.395597
927.391509	2525.106400
927.695541	2522.328724
927.999533	2522.598426
928.303486	2521.375946
928.607400	2522.174969
928.911275	2518.031140
929.215110	2518.636079
929.518906	2517.789165
929.822663	2521.254958
930.126381	2520.647499
930.430060	2519.740092
930.733699	2519.455266
931.037299	2522.573220
931.340861	2518.109278
931.644383	2519.712365
931.947866	2521.809485
932.251309	2520.085411
932.554714	2519.364526
932.858080	2522.154804
933.161407	2520.997859
933.464694	2521.678415
933.767943	2518.421830
934.071153	2520.692870
934.374323	2518.298322
934.677455	2521.658251
934.980548	2516.912004
935.283602	2518.366377
935.586617	2518.333610
935.889593	2519.999711
936.192530	2520.082890
936.495428	2519.147756
936.798287	2520.965092
937.101108	2523.052130
937.403890	2522.300998
937.706632	2525.643283
938.009336	2528.398273
938.312002	2530.719725
938.614628	2525.766791
938.917216	2531.102852
939.219765	2532.242153
939.522275	2532.789118
939.824747	2533.583100
940.127179	2526.459950
940.429573	2531.170908
940.731929	2529.340969
941.034246	2526.008766
941.336524	2530.507996
941.638763	2529.056144
941.940964	2526.528005
942.243126	2526.593540
942.545250	2528.080681
942.847335	2528.549508
943.149381	2524.198992
943.451389	2526.613705
943.753359	2526.268386
944.055290	2522.096831
944.357182	2524.756040
944.659036	2524.148581
944.960851	2523.037006
945.262628	2524.133457
945.564367	2523.578930
945.866067	2521.227232
946.167729	2522.134640
946.469352	2522.850483
946.770937	2521.272602
947.072484	2521.630524
947.373992	2523.402490
947.675462	2520.589526
947.976893	2521.723786
948.278286	2521.653209
948.579641	2520.405524
948.880958	2519.404855
949.182236	2520.604649
949.483476	2522.613549
949.784678	2522.492562
950.085841	2521.615401
950.386967	2519.188085
950.688054	2522.835360
950.989103	2520.090452
951.290114	2521.300329
951.591087	2522.409383
951.892021	2523.019362
952.192917	2524.967768
952.493776	2524.569517
952.794596	2525.570186
953.095378	2525.257634
953.396122	2524.796369
953.696828	2523.979702
953.997496	2525.459281
954.298126	2524.486338
954.598718	2524.425844
954.899272	2522.069105
955.199788	2520.024917
955.500266	2522.623632
955.800706	2518.177334
956.101108	2514.986283
956.401472	2515.855883
956.701798	2512.684997
957.002087	2512.674914
957.302337	2515.576098
957.602550	2515.271109
957.902724	2514.366222
958.202861	2514.288084
958.502960	2512.248937
958.803022	2511.838083
959.103045	2510.855058
959.403031	2509.551920
959.702979	2509.130983
960.002889	2510.807167
960.302762	2509.872033
960.602596	2509.834224
960.902393	2511.787671
961.202153	2509.302383
961.501875	2507.537979
961.801559	2508.483195
962.101205	2506.565036
962.400814	2510.308093
962.700385	2507.598472
962.999918	2510.149296
963.299414	2507.996724
963.598873	2505.662669
963.898293	2506.801970
964.197677	2509.466220
964.497022	2508.929337
964.796331	2505.702999
965.095601	2506.847341
965.394835	2507.240551
965.694030	2505.740807
965.993189	2507.661487
966.292309	2506.829697
966.591393	2507.260715
966.890439	2506.554954
967.189447	2508.586539
967.488419	2507.033863
967.787353	2505.231651
968.086249	2505.067813
968.385108	2507.795078
968.683930	2507.923627
968.982714	2509.877074
969.281462	2506.096209
969.580172	2507.313647
969.878844	2505.602176
970.177480	2506.446569
970.476078	2505.171157
970.774639	2510.315654
971.073162	2507.278359
971.371649	2506.421363
971.670098	2506.191991
971.968510	2507.419512
972.266885	2505.571929
972.565223	2510.623165
972.863524	2509.095695
973.161788	2507.648884
973.460014	2509.388082
973.758204	2509.927486
974.056356	2509.007475
974.354471	2509.201559
974.652550	2508.074862
974.950591	2510.126611
975.248595	2511.976715
975.546563	2509.783813
975.844493	2510.565192
976.142386	2506.885149
976.440243	2508.457989
976.738062	2508.465551
977.035845	2506.980931
977.333590	2510.776920
977.631299	2506.466733
977.928971	2504.833400
978.226606	2506.996055
978.524204	2508.836076
978.821765	2505.259377
979.119290	2507.253153
979.416777	2507.618637
979.714228	2507.979080
980.011642	2507.394306
980.309020	2509.067969
980.606360	2507.522855
980.903664	2510.030829
981.200931	2508.122752
981.498162	2511.311282
981.795356	2514.222549
982.092513	2517.834535
982.389633	2518.595750
982.686717	2521.202026
982.983764	2525.315608
983.280775	2526.139836
983.577749	2525.028262
983.874686	2524.201513
984.171587	2523.231091
984.468451	2522.830319
984.765279	2519.336799
985.062070	2520.813857
985.358824	2520.962571
985.655543	2517.743795
985.952224	2513.173989
986.248869	2513.587363
986.545478	2506.265087
986.842050	2509.317506
987.138586	2504.578821
987.435086	2503.235354
987.731549	2501.972545
988.027975	2504.956908
988.324366	2503.247957
988.620719	2502.900117
988.917037	2504.828358
989.213318	2500.540857
989.509563	2505.120745
989.805772	2502.733759
990.101944	2507.323730
990.398080	2504.293996
990.694180	2501.733090
990.990244	2505.392968
991.286271	2504.435148
991.582262	2506.439007
991.878217	2504.659480
992.174136	2505.408091
992.470019	2504.155364
992.765865	2502.887514
993.061676	2502.529592
993.357450	2504.258708
993.653188	2503.532782
993.948890	2502.322905
994.244556	2502.297699
994.540186	2506.199552
994.835780	2507.512773
995.131337	2507.666528
995.426859	2508.919255
995.722345	2510.328257
996.017795	2511.263391
996.313208	2513.426046
996.608586	2512.942096
996.903928	2516.055008
997.199234	2514.439318
997.494504	2511.008813
997.789738	2512.662312
998.084936	2513.436129
998.380099	2512.952178
998.675225	2511.341529
998.970316	2508.241220
999.265371	2508.505880
999.560390	2506.466733
999.855373	2505.521517
1000.150320	2507.656446
1000.445232	2506.426404
1000.740108	2504.782988
1001.034948	2502.680827
1001.329752	2503.207628
1001.624521	2504.712412
1001.919254	2497.632111
1002.213951	2500.339211
1002.508613	2497.546412
1002.803239	2497.432986
1003.097829	2499.633449
1003.392384	2502.290137
1003.686903	2500.049345
1003.981386	2501.942298
1004.275834	2501.107987
1004.570246	2502.252329
1004.864623	2502.748882
1005.158964	2499.963645
1005.453270	2501.448265
1005.747540	2501.975065
1006.041775	2496.470125
1006.335974	2500.591269
1006.630138	2498.297544
1006.924266	2501.954901
1007.218359	2500.787874
1007.512416	2500.064468
1007.806438	2499.673779
1008.100425	2501.702843
1008.394376	2498.912564
1008.688292	2500.165291
1008.982172	2499.416680
1009.276017	2500.601351
1009.569827	2499.847698
1009.863602	2502.368275
1010.157341	2500.084633
1010.451045	2498.511793
1010.744714	2498.484066
1011.038347	2502.106135
1011.331945	2500.674448
1011.625508	2501.481032
1011.919036	2498.645383
1012.212528	2498.569766
1012.505986	2499.459530
1012.799408	2499.903151
1013.092795	2498.922647
1013.386147	2500.397184
1013.679464	2500.301402
1013.972745	2499.411639
1014.265992	2498.700836
1014.559204	2500.923985
1014.852380	2499.477174
1015.145521	2496.452481
1015.438628	2498.569766
1015.731699	2498.668068
1016.024736	2498.042965
1016.317737	2498.549601
1016.610703	2498.620177
1016.903635	2495.960969
1017.196531	2495.892913
1017.489393	2497.407780
1017.782219	2496.575990
1018.075011	2496.906185
1018.367768	2499.381392
1018.660490	2498.705877
1018.953177	2498.705877
1019.245829	2498.705877
