Dividing Wavelength (nm)	Counts (n)	Blue Motor Position (mm): 0.000000	Red Motor Position (mm): 9.500000	
326.493990	2104.681731
326.888308	2104.681731
327.282561	2104.681731
327.676750	2074.434808
328.070874	2024.023269
328.464933	2084.517115
328.858929	2104.681731
329.252859	2109.722885
329.646726	2114.764038
330.040528	2180.299038
330.434265	2139.969808
330.827938	2160.134423
331.221547	2147.531538
331.615091	2220.628269
332.008571	2202.984231
332.401986	2208.025385
332.795338	2187.860769
333.188625	2238.272308
333.581847	2308.848462
333.975006	2286.163269
334.368100	2263.478077
334.761129	2334.054231
335.154095	2339.095385
335.546996	2354.218846
335.939833	2286.163269
336.332606	2346.657115
336.725315	2457.562500
337.117960	2404.630385
337.510540	2346.657115
337.903056	2442.439038
338.295508	2356.739423
338.687896	2502.932885
339.080220	2407.150962
339.472480	2573.509038
339.864676	2505.453462
340.256807	2578.550192
340.648875	2369.342308
341.040879	2518.056346
341.432818	2485.288846
341.824694	2472.685962
342.216506	2427.315577
342.608253	2510.494615
342.999937	2432.356731
343.391557	2482.768269
343.783113	2500.412308
344.174605	2528.138654
344.566033	2505.453462
344.957397	2439.918462
345.348697	2444.959615
345.739934	2505.453462
346.131106	2548.303269
346.522215	2472.685962
346.913260	2444.959615
347.304241	2442.439038
347.695159	2422.274423
348.086012	2432.356731
348.476802	2470.165385
348.867528	2457.562500
349.258191	2424.795000
349.648789	2455.041923
350.039324	2404.630385
350.429796	2414.712692
350.820203	2467.644808
351.210548	2381.945192
351.600828	2407.150962
351.991045	2432.356731
352.381198	2467.644808
352.771288	2432.356731
353.161314	2419.753846
353.551276	2427.315577
353.941175	2576.029615
354.331010	2457.562500
354.720782	2339.095385
355.110490	2530.659231
355.500135	2437.397885
355.889717	2482.768269
356.279235	2427.315577
356.668689	2409.671538
357.058080	2394.548077
357.447408	2462.603654
357.836672	2520.576923
358.225873	2371.862885
358.615010	2444.959615
359.004084	2487.809423
359.393095	2495.371154
359.782043	2450.000769
360.170927	2505.453462
360.559748	2482.768269
360.948505	2462.603654
361.337199	2442.439038
361.725830	2455.041923
362.114398	2447.480192
362.502903	2399.589231
362.891344	2399.589231
363.279722	2429.836154
363.668037	2482.768269
364.056289	2568.467885
364.444478	2434.877308
364.832603	2480.247692
365.220665	2530.659231
365.608665	2500.412308
365.996601	2331.533654
366.384474	2437.397885
366.772284	2439.918462
367.160031	2450.000769
367.547715	2399.589231
367.935336	2500.412308
368.322893	2381.945192
368.710388	2495.371154
369.097820	2500.412308
369.485189	2455.041923
369.872495	2429.836154
370.259738	2429.836154
370.646918	2523.097500
371.034035	2424.795000
371.421090	2452.521346
371.808081	2490.330000
372.195010	2455.041923
372.581875	2520.576923
372.968678	2422.274423
373.355418	2485.288846
373.742096	2419.753846
374.128710	2432.356731
374.515262	2384.465769
374.901751	2399.589231
375.288177	2397.068654
375.674540	2414.712692
376.060841	2510.494615
376.447079	2397.068654
376.833254	2394.548077
377.219367	2563.426731
377.605417	2437.397885
377.991404	2530.659231
378.377329	2422.274423
378.763191	2588.632500
379.148991	2429.836154
379.534727	2452.521346
379.920402	2444.959615
380.306013	2465.124231
380.691563	2477.727115
381.077049	2485.288846
381.462474	2495.371154
381.847835	2477.727115
382.233134	2437.397885
382.618371	2477.727115
383.003545	2366.821731
383.388657	2497.891731
383.773706	2462.603654
384.158693	2457.562500
384.543618	2386.986346
384.928480	2477.727115
385.313280	2437.397885
385.698017	2444.959615
386.082692	2457.562500
386.467305	2492.850577
386.851856	2487.809423
387.236344	2507.974038
387.620770	2376.904038
388.005133	2437.397885
388.389435	2455.041923
388.773674	2442.439038
389.157851	2482.768269
389.541965	2386.986346
389.926018	2497.891731
390.310008	2518.056346
390.693936	2525.618077
391.077802	2455.041923
391.461606	2558.385577
391.845348	2497.891731
392.229027	2533.179808
392.612645	2467.644808
392.996200	2457.562500
393.379694	2402.109808
393.763125	2467.644808
394.146494	2364.301154
394.529801	2427.315577
394.913047	2452.521346
395.296230	2465.124231
395.679351	2437.397885
396.062410	2432.356731
396.445408	2427.315577
396.828343	2404.630385
397.211217	2462.603654
397.594028	2412.192115
397.976778	2555.865000
398.359466	2442.439038
398.742092	2533.179808
399.124656	2455.041923
399.507158	2555.865000
399.889598	2467.644808
400.271977	2364.301154
400.654294	2480.247692
401.036549	2507.974038
401.418742	2437.397885
401.800874	2497.891731
402.182944	2538.220962
402.564952	2485.288846
402.946898	2351.698269
403.328783	2351.698269
403.710606	2447.480192
404.092367	2427.315577
404.474067	2518.056346
404.855705	2444.959615
405.237282	2555.865000
405.618797	2538.220962
406.000250	2492.850577
406.381642	2528.138654
406.762972	2427.315577
407.144240	2376.904038
407.525447	2417.233269
407.906593	2480.247692
408.287677	2442.439038
408.668700	2457.562500
409.049661	2462.603654
409.430560	2467.644808
409.811399	2434.877308
410.192176	2450.000769
410.572891	2497.891731
410.953545	2475.206538
411.334138	2432.356731
411.714669	2533.179808
412.095139	2495.371154
412.475547	2402.109808
412.855894	2472.685962
413.236180	2465.124231
413.616405	2424.795000
413.996568	2457.562500
414.376670	2530.659231
414.756711	2555.865000
415.136691	2427.315577
415.516609	2502.932885
415.896466	2518.056346
416.276262	2439.918462
416.655997	2412.192115
417.035670	2497.891731
417.415283	2515.535769
417.794834	2573.509038
418.174324	2404.630385
418.553753	2485.288846
418.933121	2437.397885
419.312428	2507.974038
419.691674	2485.288846
420.070859	2412.192115
420.449983	2437.397885
420.829045	2467.644808
421.208047	2497.891731
421.586988	2518.056346
421.965867	2540.741538
422.344686	2412.192115
422.723444	2563.426731
423.102141	2558.385577
423.480777	2397.068654
423.859352	2424.795000
424.237866	2485.288846
424.616319	2450.000769
424.994712	2487.809423
425.373044	2467.644808
425.751314	2513.015192
426.129524	2447.480192
426.507673	2434.877308
426.885762	2467.644808
427.263789	2432.356731
427.641756	2424.795000
428.019662	2497.891731
428.397508	2402.109808
428.775292	2487.809423
429.153016	2505.453462
429.530679	2523.097500
429.908282	2447.480192
430.285824	2439.918462
430.663305	2482.768269
431.040726	2523.097500
431.418086	2450.000769
431.795385	2412.192115
432.172624	2540.741538
432.549802	2535.700385
432.926920	2429.836154
433.303977	2485.288846
433.680974	2424.795000
434.057910	2505.453462
434.434786	2447.480192
434.811601	2414.712692
435.188355	2412.192115
435.565050	2482.768269
435.941683	2366.821731
436.318257	2477.727115
436.694770	2538.220962
437.071222	2424.795000
437.447614	2475.206538
437.823946	2507.974038
438.200218	2497.891731
438.576429	2462.603654
438.952580	2477.727115
439.328670	2442.439038
439.704700	2487.809423
440.080670	2477.727115
440.456580	2555.865000
440.832429	2502.932885
441.208218	2535.700385
441.583947	2412.192115
441.959616	2457.562500
442.335224	2452.521346
442.710773	2475.206538
443.086261	2538.220962
443.461689	2510.494615
443.837057	2472.685962
444.212365	2444.959615
444.587612	2533.179808
444.962800	2452.521346
445.337927	2525.618077
445.712995	2475.206538
446.088002	2538.220962
446.462949	2515.535769
446.837837	2419.753846
447.212664	2568.467885
447.587431	2462.603654
447.962139	2452.521346
448.336786	2518.056346
448.711374	2399.589231
449.085901	2482.768269
449.460369	2475.206538
449.834776	2470.165385
450.209124	2472.685962
450.583412	2530.659231
450.957640	2439.918462
451.331808	2437.397885
451.705917	2455.041923
452.079965	2540.741538
452.453954	2434.877308
452.827883	2515.535769
453.201752	2467.644808
453.575562	2437.397885
453.949311	2480.247692
454.323001	2533.179808
454.696632	2457.562500
455.070202	2502.932885
455.443713	2497.891731
455.817164	2490.330000
456.190556	2515.535769
456.563888	2487.809423
456.937160	2455.041923
457.310373	2487.809423
457.683526	2465.124231
458.056619	2538.220962
458.429653	2477.727115
458.802628	2533.179808
459.175542	2427.315577
459.548398	2472.685962
459.921194	2472.685962
460.293930	2467.644808
460.666607	2545.782692
461.039224	2528.138654
461.411782	2540.741538
461.784280	2485.288846
462.156719	2492.850577
462.529099	2422.274423
462.901419	2518.056346
463.273680	2465.124231
463.645882	2502.932885
464.018024	2500.412308
464.390106	2429.836154
464.762130	2518.056346
465.134094	2442.439038
465.505999	2505.453462
465.877845	2555.865000
466.249631	2505.453462
466.621358	2477.727115
466.993026	2450.000769
467.364634	2497.891731
467.736184	2513.015192
468.107674	2386.986346
468.479105	2548.303269
468.850477	2570.988462
469.221790	2452.521346
469.593043	2460.083077
469.964238	2467.644808
470.335373	2513.015192
470.706449	2495.371154
471.077467	2515.535769
471.448425	2450.000769
471.819324	2417.233269
472.190164	2550.823846
472.560945	2553.344423
472.931667	2412.192115
473.302330	2576.029615
473.672934	2462.603654
474.043479	2444.959615
474.413965	2540.741538
474.784393	2475.206538
475.154761	2472.685962
475.525070	2475.206538
475.895321	2412.192115
476.265513	2470.165385
476.635645	2477.727115
477.005719	2596.194231
477.375734	2452.521346
477.745691	2560.906154
478.115588	2450.000769
478.485427	2538.220962
478.855207	2492.850577
479.224928	2555.865000
479.594591	2465.124231
479.964194	2475.206538
480.333739	2482.768269
480.703226	2485.288846
481.072653	2492.850577
481.442022	2422.274423
481.811333	2477.727115
482.180584	2560.906154
482.549777	2482.768269
482.918912	2510.494615
483.287988	2450.000769
483.657005	2533.179808
484.025964	2409.671538
484.394864	2535.700385
484.763706	2586.111923
485.132489	2480.247692
485.501213	2586.111923
485.869879	2520.576923
486.238487	2502.932885
486.607036	2523.097500
486.975527	2485.288846
487.343959	2603.755962
487.712333	2616.358846
488.080648	2480.247692
488.448905	2500.412308
488.817104	2457.562500
489.185244	2389.506923
489.553326	2487.809423
489.921350	2515.535769
490.289315	2576.029615
490.657222	2497.891731
491.025070	2550.823846
491.392861	2568.467885
491.760593	2467.644808
492.128267	2487.809423
492.495883	2543.262115
492.863440	2429.836154
493.230939	2487.809423
493.598380	2457.562500
493.965763	2422.274423
494.333088	2465.124231
494.700354	2520.576923
495.067563	2462.603654
495.434713	2447.480192
495.801805	2490.330000
496.168839	2502.932885
496.535815	2444.959615
496.902733	2545.782692
497.269593	2578.550192
497.636395	2500.412308
498.003139	2586.111923
498.369825	2482.768269
498.736453	2437.397885
499.103023	2523.097500
499.469535	2505.453462
499.835989	2497.891731
500.202385	2570.988462
500.568723	2513.015192
500.935003	2470.165385
501.301226	2528.138654
501.667390	2523.097500
502.033497	2515.535769
502.399546	2515.535769
502.765537	2500.412308
503.131470	2487.809423
503.497345	2485.288846
503.863163	2558.385577
504.228923	2447.480192
504.594625	2525.618077
504.960269	2482.768269
505.325856	2502.932885
505.691385	2502.932885
506.056856	2538.220962
506.422270	2543.262115
506.787625	2490.330000
507.152924	2490.330000
507.518164	2480.247692
507.883347	2457.562500
508.248472	2525.618077
508.613540	2460.083077
508.978550	2560.906154
509.343503	2429.836154
509.708398	2497.891731
510.073236	2533.179808
510.438016	2515.535769
510.802738	2424.795000
511.167403	2515.535769
511.532010	2477.727115
511.896561	2520.576923
512.261053	2457.562500
512.625488	2507.974038
512.989866	2543.262115
513.354186	2492.850577
513.718449	2419.753846
514.082655	2533.179808
514.446803	2457.562500
514.810894	2495.371154
515.174927	2389.506923
515.538904	2535.700385
515.902822	2419.753846
516.266684	2513.015192
516.630488	2477.727115
516.994235	2490.330000
517.357925	2492.850577
517.721558	2460.083077
518.085133	2596.194231
518.448651	2472.685962
518.812112	2525.618077
519.175516	2550.823846
519.538863	2545.782692
519.902152	2583.591346
520.265385	2475.206538
520.628560	2497.891731
520.991678	2485.288846
521.354739	2502.932885
521.717743	2560.906154
522.080690	2427.315577
522.443580	2462.603654
522.806413	2563.426731
523.169189	2475.206538
523.531908	2525.618077
523.894569	2492.850577
524.257174	2525.618077
524.619722	2434.877308
524.982213	2487.809423
525.344647	2507.974038
525.707025	2460.083077
526.069345	2452.521346
526.431608	2437.397885
526.793815	2432.356731
527.155964	2472.685962
527.518057	2470.165385
527.880093	2470.165385
528.242072	2442.439038
528.603995	2525.618077
528.965860	2510.494615
529.327669	2520.576923
529.689421	2510.494615
530.051117	2535.700385
530.412755	2507.974038
530.774337	2475.206538
531.135862	2505.453462
531.497331	2560.906154
531.858743	2528.138654
532.220098	2548.303269
532.581396	2467.644808
532.942638	2442.439038
533.303824	2455.041923
533.664953	2523.097500
534.026025	2472.685962
534.387040	2487.809423
534.747999	2495.371154
535.108902	2487.809423
535.469748	2510.494615
535.830537	2475.206538
536.191270	2487.809423
536.551947	2502.932885
536.912567	2528.138654
537.273131	2455.041923
537.633638	2513.015192
537.994089	2442.439038
538.354483	2570.988462
538.714821	2492.850577
539.075103	2548.303269
539.435328	2480.247692
539.795497	2495.371154
540.155609	2505.453462
540.515665	2550.823846
540.875665	2492.850577
541.235609	2505.453462
541.595496	2502.932885
541.955328	2457.562500
542.315102	2535.700385
542.674821	2470.165385
543.034483	2573.509038
543.394090	2550.823846
543.753640	2497.891731
544.113134	2548.303269
544.472571	2495.371154
544.831953	2475.206538
545.191278	2434.877308
545.550548	2558.385577
545.909761	2492.850577
546.268918	2402.109808
546.628019	2558.385577
546.987064	2422.274423
547.346053	2497.891731
547.704986	2560.906154
548.063863	2505.453462
548.422684	2558.385577
548.781449	2480.247692
549.140158	2518.056346
549.498811	2505.453462
549.857408	2583.591346
550.215949	2477.727115
550.574434	2455.041923
550.932864	2462.603654
551.291237	2482.768269
551.649555	2530.659231
552.007817	2553.344423
552.366022	2482.768269
552.724173	2596.194231
553.082267	2485.288846
553.440305	2555.865000
553.798288	2550.823846
554.156215	2480.247692
554.514086	2588.632500
554.871902	2467.644808
555.229661	2553.344423
555.587365	2470.165385
555.945014	2601.235385
556.302606	2518.056346
556.660143	2386.986346
557.017625	2485.288846
557.375050	2535.700385
557.732421	2424.795000
558.089735	2538.220962
558.446994	2427.315577
558.804197	2528.138654
559.161345	2543.262115
559.518437	2502.932885
559.875474	2376.904038
560.232455	2518.056346
560.589381	2533.179808
560.946251	2510.494615
561.303065	2480.247692
561.659825	2482.768269
562.016528	2482.768269
562.373177	2475.206538
562.729770	2500.412308
563.086307	2505.453462
563.442789	2500.412308
563.799216	2560.906154
564.155587	2502.932885
564.511904	2470.165385
564.868164	2543.262115
565.224370	2485.288846
565.580520	2505.453462
565.936615	2576.029615
566.292654	2485.288846
566.648638	2505.453462
567.004567	2513.015192
567.360441	2412.192115
567.716260	2477.727115
568.072023	2492.850577
568.427732	2528.138654
568.783385	2490.330000
569.138982	2510.494615
569.494525	2558.385577
569.850013	2525.618077
570.205445	2482.768269
570.560823	2525.618077
570.916145	2490.330000
571.271412	2452.521346
571.626625	2457.562500
571.981782	2439.918462
572.336884	2578.550192
572.691931	2515.535769
573.046923	2530.659231
573.401860	2502.932885
573.756743	2470.165385
574.111570	2588.632500
574.466342	2528.138654
574.821059	2530.659231
575.175722	2429.836154
575.530330	2475.206538
575.884882	2538.220962
576.239380	2543.262115
576.593823	2520.576923
576.948211	2586.111923
577.302544	2608.797115
577.656823	2482.768269
578.011047	2485.288846
578.365216	2475.206538
578.719330	2482.768269
579.073389	2538.220962
579.427394	2596.194231
579.781344	2518.056346
580.135239	2462.603654
580.489080	2525.618077
580.842866	2507.974038
581.196597	2543.262115
581.550273	2482.768269
581.903895	2560.906154
582.257463	2492.850577
582.610975	2528.138654
582.964434	2470.165385
583.317837	2465.124231
583.671186	2530.659231
584.024481	2475.206538
584.377721	2533.179808
584.730906	2495.371154
585.084037	2553.344423
585.437113	2555.865000
585.790135	2518.056346
586.143103	2485.288846
586.496016	2487.809423
586.848874	2545.782692
587.201679	2437.397885
587.554428	2452.521346
587.907124	2482.768269
588.259765	2507.974038
588.612352	2518.056346
588.964884	2487.809423
589.317362	2470.165385
589.669786	2510.494615
590.022155	2497.891731
590.374470	2502.932885
590.726731	2487.809423
591.078937	2510.494615
591.431090	2550.823846
591.783188	2563.426731
592.135232	2560.906154
592.487222	2543.262115
592.839157	2490.330000
593.191038	2510.494615
593.542866	2505.453462
593.894639	2480.247692
594.246358	2515.535769
594.598022	2505.453462
594.949633	2505.453462
595.301190	2492.850577
595.652692	2530.659231
596.004141	2427.315577
596.355535	2513.015192
596.706876	2523.097500
597.058162	2520.576923
597.409395	2520.576923
597.760573	2558.385577
598.111698	2475.206538
598.462768	2480.247692
598.813785	2480.247692
599.164748	2485.288846
599.515657	2442.439038
599.866511	2558.385577
600.217312	2495.371154
600.568060	2545.782692
600.918753	2447.480192
601.269392	2550.823846
601.619978	2487.809423
601.970510	2573.509038
602.320988	2497.891731
602.671412	2523.097500
603.021783	2510.494615
603.372100	2502.932885
603.722363	2485.288846
604.072572	2467.644808
604.422728	2545.782692
604.772830	2419.753846
605.122878	2505.453462
605.472872	2523.097500
605.822813	2452.521346
606.172701	2397.068654
606.522534	2500.412308
606.872314	2487.809423
607.222041	2444.959615
607.571714	2500.412308
607.921333	2487.809423
608.270899	2500.412308
608.620411	2477.727115
608.969870	2502.932885
609.319276	2505.453462
609.668627	2573.509038
610.017926	2500.412308
610.367171	2482.768269
610.716362	2424.795000
611.065500	2482.768269
611.414585	2530.659231
611.763616	2450.000769
612.112594	2540.741538
612.461518	2502.932885
612.810389	2505.453462
613.159207	2460.083077
613.507971	2434.877308
613.856682	2475.206538
614.205340	2525.618077
614.553945	2482.768269
614.902496	2535.700385
615.250994	2427.315577
615.599439	2507.974038
615.947830	2462.603654
616.296169	2540.741538
616.644454	2553.344423
616.992686	2492.850577
617.340864	2533.179808
617.688990	2495.371154
618.037063	2540.741538
618.385082	2460.083077
618.733048	2485.288846
619.080961	2505.453462
619.428821	2492.850577
619.776628	2505.453462
620.124382	2495.371154
620.472083	2543.262115
620.819731	2487.809423
621.167326	2540.741538
621.514868	2457.562500
621.862357	2482.768269
622.209793	2570.988462
622.557176	2548.303269
622.904506	2475.206538
623.251783	2533.179808
623.599007	2450.000769
623.946179	2530.659231
624.293297	2543.262115
624.640363	2518.056346
624.987376	2414.712692
625.334336	2591.153077
625.681243	2444.959615
626.028097	2515.535769
626.374899	2538.220962
626.721647	2513.015192
627.068343	2475.206538
627.414987	2487.809423
627.761577	2548.303269
628.108115	2417.233269
628.454600	2495.371154
628.801032	2472.685962
629.147412	2462.603654
629.493739	2462.603654
629.840014	2487.809423
630.186236	2548.303269
630.532405	2530.659231
630.878521	2475.206538
631.224585	2500.412308
631.570597	2502.932885
631.916556	2538.220962
632.262462	2470.165385
632.608316	2553.344423
632.954117	2475.206538
633.299866	2455.041923
633.645562	2507.974038
633.991206	2470.165385
634.336797	2550.823846
634.682336	2568.467885
635.027823	2487.809423
635.373257	2533.179808
635.718639	2495.371154
636.063968	2485.288846
636.409245	2573.509038
636.754470	2482.768269
637.099642	2510.494615
637.444762	2492.850577
637.789829	2432.356731
638.134845	2535.700385
638.479808	2465.124231
638.824719	2601.235385
639.169577	2555.865000
639.514383	2515.535769
639.859137	2427.315577
640.203839	2497.891731
640.548489	2475.206538
640.893086	2543.262115
641.237632	2502.932885
641.582125	2452.521346
641.926566	2523.097500
642.270955	2518.056346
642.615292	2560.906154
642.959576	2535.700385
643.303809	2455.041923
643.647990	2434.877308
643.992118	2477.727115
644.336195	2520.576923
644.680219	2452.521346
645.024192	2568.467885
645.368112	2457.562500
645.711981	2472.685962
646.055797	2510.494615
646.399562	2596.194231
646.743274	2447.480192
647.086935	2477.727115
647.430544	2510.494615
647.774101	2434.877308
648.117606	2578.550192
648.461059	2452.521346
648.804460	2462.603654
649.147810	2550.823846
649.491108	2568.467885
649.834354	2533.179808
650.177548	2586.111923
650.520690	2520.576923
650.863781	2535.700385
651.206820	2502.932885
651.549807	2495.371154
651.892742	2452.521346
652.235626	2530.659231
652.578458	2487.809423
652.921238	2450.000769
653.263967	2477.727115
653.606644	2550.823846
653.949269	2495.371154
654.291843	2432.356731
654.634365	2591.153077
654.976836	2452.521346
655.319255	2465.124231
655.661622	2538.220962
656.003938	2485.288846
656.346203	2450.000769
656.688416	2500.412308
657.030577	2462.603654
657.372687	2518.056346
657.714746	2563.426731
658.056753	2530.659231
658.398708	2480.247692
658.740612	2500.412308
659.082465	2583.591346
659.424266	2530.659231
659.766016	2475.206538
660.107715	2475.206538
660.449362	2535.700385
660.790958	2460.083077
661.132503	2520.576923
661.473996	2482.768269
661.815438	2452.521346
662.156829	2518.056346
662.498168	2490.330000
662.839456	2450.000769
663.180693	2581.070769
663.521879	2510.494615
663.863013	2452.521346
664.204097	2560.906154
664.545129	2460.083077
664.886110	2520.576923
665.227040	2495.371154
665.567918	2586.111923
665.908746	2510.494615
666.249522	2586.111923
666.590248	2515.535769
666.930922	2598.714808
667.271545	2472.685962
667.612118	2520.576923
667.952639	2533.179808
668.293109	2523.097500
668.633528	2492.850577
668.973896	2490.330000
669.314213	2515.535769
669.654480	2439.918462
669.994695	2465.124231
670.334859	2485.288846
670.674973	2581.070769
671.015035	2467.644808
671.355047	2465.124231
671.695008	2558.385577
672.034918	2578.550192
672.374777	2455.041923
672.714585	2543.262115
673.054342	2432.356731
673.394049	2497.891731
673.733705	2487.809423
674.073310	2477.727115
674.412864	2530.659231
674.752368	2490.330000
675.091820	2482.768269
675.431223	2502.932885
675.770574	2477.727115
676.109875	2535.700385
676.449125	2525.618077
676.788324	2490.330000
677.127473	2525.618077
677.466571	2492.850577
677.805619	2528.138654
678.144616	2528.138654
678.483562	2565.947308
678.822458	2477.727115
679.161303	2530.659231
679.500098	2598.714808
679.838842	2538.220962
680.177535	2513.015192
680.516179	2502.932885
680.854771	2545.782692
681.193314	2543.262115
681.531805	2573.509038
681.870247	2450.000769
682.208638	2429.836154
682.546978	2553.344423
682.885268	2485.288846
683.223508	2520.576923
683.561697	2450.000769
683.899836	2480.247692
684.237925	2510.494615
684.575963	2518.056346
684.913951	2439.918462
685.251889	2520.576923
685.589776	2465.124231
685.927614	2540.741538
686.265401	2457.562500
686.603137	2460.083077
686.940824	2414.712692
687.278460	2487.809423
687.616046	2465.124231
687.953582	2543.262115
688.291068	2475.206538
688.628504	2497.891731
688.965889	2487.809423
689.303224	2593.673654
689.640510	2455.041923
689.977745	2457.562500
690.314930	2543.262115
690.652065	2528.138654
690.989150	2515.535769
691.326185	2563.426731
691.663170	2548.303269
692.000105	2500.412308
692.336990	2487.809423
692.673825	2518.056346
693.010610	2515.535769
693.347345	2558.385577
693.684030	2540.741538
694.020665	2422.274423
694.357251	2502.932885
694.693786	2427.315577
695.030272	2502.932885
695.366707	2490.330000
695.703093	2535.700385
696.039429	2465.124231
696.375716	2502.932885
696.711952	2480.247692
697.048139	2404.630385
697.384276	2518.056346
697.720363	2528.138654
698.056400	2606.276538
698.392388	2485.288846
698.728326	2548.303269
699.064214	2487.809423
699.400053	2482.768269
699.735842	2492.850577
700.071581	2507.974038
700.407270	2502.932885
700.742910	2437.397885
701.078501	2480.247692
701.414042	2520.576923
701.749533	2502.932885
702.084974	2530.659231
702.420366	2497.891731
702.755709	2525.618077
703.091002	2414.712692
703.426246	2510.494615
703.761440	2455.041923
704.096584	2533.179808
704.431679	2558.385577
704.766725	2523.097500
705.101721	2490.330000
705.436668	2417.233269
705.771565	2485.288846
706.106413	2467.644808
706.441212	2535.700385
706.775961	2520.576923
707.110661	2472.685962
707.445311	2497.891731
707.779913	2558.385577
708.114465	2482.768269
708.448967	2439.918462
708.783421	2475.206538
709.117825	2543.262115
709.452180	2538.220962
709.786485	2439.918462
710.120742	2460.083077
710.454949	2452.521346
710.789107	2530.659231
711.123216	2427.315577
711.457275	2540.741538
711.791286	2429.836154
712.125247	2490.330000
712.459159	2505.453462
712.793023	2538.220962
713.126837	2419.753846
713.460602	2470.165385
713.794318	2505.453462
714.127985	2492.850577
714.461602	2543.262115
714.795171	2545.782692
715.128691	2530.659231
715.462162	2518.056346
715.795584	2530.659231
716.128957	2475.206538
716.462281	2528.138654
716.795556	2409.671538
717.128782	2533.179808
717.461960	2485.288846
717.795088	2492.850577
718.128167	2477.727115
718.461198	2530.659231
718.794180	2555.865000
719.127113	2497.891731
719.459997	2450.000769
719.792833	2543.262115
720.125619	2560.906154
720.458357	2598.714808
720.791046	2533.179808
721.123686	2465.124231
721.456278	2626.441154
721.788821	2505.453462
722.121315	2497.891731
722.453761	2434.877308
722.786158	2502.932885
723.118506	2573.509038
723.450805	2432.356731
723.783056	2538.220962
724.115259	2528.138654
724.447412	2490.330000
724.779518	2565.947308
725.111574	2596.194231
725.443582	2573.509038
725.775542	2502.932885
726.107453	2500.412308
726.439315	2457.562500
726.771129	2548.303269
727.102895	2490.330000
727.434612	2520.576923
727.766281	2470.165385
728.097901	2548.303269
728.429473	2492.850577
728.760996	2465.124231
729.092471	2490.330000
729.423897	2505.453462
729.755276	2497.891731
730.086606	2460.083077
730.417887	2553.344423
730.749120	2550.823846
731.080305	2452.521346
731.411442	2492.850577
731.742530	2495.371154
732.073570	2495.371154
732.404562	2555.865000
732.735506	2555.865000
733.066401	2460.083077
733.397249	2482.768269
733.728048	2543.262115
734.058798	2513.015192
734.389501	2558.385577
734.720156	2560.906154
735.050762	2439.918462
735.381320	2490.330000
735.711831	2545.782692
736.042293	2513.015192
736.372707	2460.083077
736.703073	2560.906154
737.033391	2545.782692
737.363661	2457.562500
737.693883	2540.741538
738.024056	2480.247692
738.354182	2515.535769
738.684260	2507.974038
739.014290	2492.850577
739.344272	2560.906154
739.674207	2460.083077
740.004093	2518.056346
740.333931	2432.356731
740.663722	2429.836154
740.993464	2540.741538
741.323159	2545.782692
741.652806	2553.344423
741.982405	2495.371154
742.311956	2576.029615
742.641460	2490.330000
742.970915	2472.685962
743.300323	2444.959615
743.629683	2518.056346
743.958996	2442.439038
744.288260	2460.083077
744.617477	2450.000769
744.946647	2417.233269
745.275768	2452.521346
745.604842	2515.535769
745.933869	2490.330000
746.262847	2404.630385
746.591778	2482.768269
746.920662	2470.165385
747.249498	2432.356731
747.578286	2545.782692
747.907027	2477.727115
748.235720	2409.671538
748.564365	2570.988462
748.892963	2535.700385
749.221514	2613.838269
749.550017	2538.220962
749.878473	2525.618077
750.206881	2460.083077
750.535242	2477.727115
750.863555	2510.494615
751.191821	2487.809423
751.520039	2452.521346
751.848210	2550.823846
752.176334	2513.015192
752.504411	2475.206538
752.832440	2462.603654
753.160421	2520.576923
753.488356	2460.083077
753.816243	2560.906154
754.144082	2467.644808
754.471875	2540.741538
754.799620	2490.330000
755.127318	2530.659231
755.454969	2434.877308
755.782572	2523.097500
756.110129	2465.124231
756.437638	2525.618077
756.765100	2419.753846
757.092515	2578.550192
757.419882	2495.371154
757.747203	2528.138654
758.074477	2573.509038
758.401703	2500.412308
758.728882	2513.015192
759.056014	2507.974038
759.383099	2452.521346
759.710138	2500.412308
760.037129	2515.535769
760.364073	2434.877308
760.690970	2543.262115
761.017820	2444.959615
761.344623	2550.823846
761.671379	2548.303269
761.998088	2548.303269
762.324751	2581.070769
762.651366	2452.521346
762.977935	2555.865000
763.304456	2452.521346
763.630931	2538.220962
763.957359	2525.618077
764.283740	2465.124231
764.610074	2467.644808
764.936362	2540.741538
765.262602	2553.344423
765.588796	2442.439038
765.914943	2533.179808
766.241044	2462.603654
766.567097	2555.865000
766.893104	2515.535769
767.219064	2444.959615
767.544978	2490.330000
767.870845	2505.453462
768.196665	2467.644808
768.522438	2533.179808
768.848165	2482.768269
769.173846	2525.618077
769.499479	2487.809423
769.825066	2623.920577
770.150607	2586.111923
770.476101	2525.618077
770.801548	2563.426731
771.126949	2548.303269
771.452303	2591.153077
771.777611	2518.056346
772.102872	2452.521346
772.428087	2480.247692
772.753256	2482.768269
773.078378	2424.795000
773.403453	2548.303269
773.728482	2419.753846
774.053465	2510.494615
774.378401	2460.083077
774.703291	2533.179808
775.028135	2497.891731
775.352932	2455.041923
775.677683	2434.877308
776.002388	2510.494615
776.327046	2495.371154
776.651658	2482.768269
776.976224	2487.809423
777.300743	2518.056346
777.625216	2515.535769
777.949643	2397.068654
778.274024	2485.288846
778.598359	2462.603654
778.922647	2472.685962
779.246889	2482.768269
779.571086	2518.056346
779.895236	2543.262115
780.219339	2450.000769
780.543397	2470.165385
780.867409	2535.700385
781.191374	2513.015192
781.515294	2530.659231
781.839167	2475.206538
782.162995	2530.659231
782.486776	2422.274423
782.810511	2520.576923
783.134201	2500.412308
783.457844	2528.138654
783.781441	2530.659231
784.104993	2480.247692
784.428498	2525.618077
784.751958	2480.247692
785.075372	2487.809423
785.398739	2555.865000
785.722061	2570.988462
786.045337	2543.262115
786.368568	2460.083077
786.691752	2392.027500
787.014891	2457.562500
787.337983	2545.782692
787.661030	2439.918462
787.984031	2560.906154
788.306987	2444.959615
788.629897	2548.303269
788.952760	2497.891731
789.275579	2525.618077
789.598351	2535.700385
789.921078	2502.932885
790.243759	2598.714808
790.566395	2502.932885
790.888984	2528.138654
791.211529	2477.727115
791.534027	2505.453462
791.856480	2477.727115
792.178888	2450.000769
792.501249	2528.138654
792.823566	2588.632500
793.145836	2432.356731
793.468062	2533.179808
793.790241	2535.700385
794.112375	2573.509038
794.434464	2533.179808
794.756507	2455.041923
795.078505	2550.823846
795.400457	2447.480192
795.722364	2460.083077
796.044226	2439.918462
796.366042	2427.315577
796.687812	2535.700385
797.009538	2442.439038
797.331218	2525.618077
797.652852	2500.412308
797.974442	2573.509038
798.295986	2568.467885
798.617484	2490.330000
798.938938	2528.138654
799.260346	2450.000769
799.581709	2495.371154
799.903026	2467.644808
800.224299	2515.535769
800.545526	2462.603654
800.866708	2505.453462
801.187845	2588.632500
801.508936	2497.891731
801.829983	2518.056346
802.150984	2485.288846
802.471940	2543.262115
802.792851	2543.262115
803.113717	2548.303269
803.434538	2397.068654
803.755314	2422.274423
804.076045	2485.288846
804.396731	2505.453462
804.717372	2472.685962
805.037967	2397.068654
805.358518	2505.453462
805.679024	2568.467885
805.999485	2523.097500
806.319901	2530.659231
806.640272	2482.768269
806.960598	2548.303269
807.280879	2523.097500
807.601115	2439.918462
807.921306	2505.453462
808.241453	2444.959615
808.561554	2502.932885
808.881611	2475.206538
809.201623	2535.700385
809.521590	2472.685962
809.841513	2513.015192
810.161390	2505.453462
810.481223	2543.262115
810.801011	2507.974038
811.120755	2535.700385
811.440453	2475.206538
811.760107	2507.974038
812.079716	2424.795000
812.399281	2578.550192
812.718801	2482.768269
813.038276	2513.015192
813.357707	2482.768269
813.677093	2432.356731
813.996434	2513.015192
814.315731	2414.712692
814.634983	2545.782692
814.954191	2475.206538
815.273354	2480.247692
815.592473	2505.453462
815.911547	2548.303269
816.230577	2447.480192
816.549562	2487.809423
816.868502	2490.330000
817.187399	2548.303269
817.506250	2427.315577
817.825058	2583.591346
818.143821	2477.727115
818.462539	2500.412308
818.781213	2407.150962
819.099843	2457.562500
819.418429	2424.795000
819.736970	2563.426731
820.055466	2409.671538
820.373919	2492.850577
820.692327	2518.056346
821.010691	2487.809423
821.329011	2550.823846
821.647286	2399.589231
821.965517	2520.576923
822.283704	2482.768269
822.601847	2518.056346
822.919945	2515.535769
823.237999	2500.412308
823.556010	2515.535769
823.873976	2490.330000
824.191897	2518.056346
824.509775	2497.891731
824.827609	2475.206538
825.145398	2477.727115
825.463144	2520.576923
825.780845	2442.439038
826.098502	2507.974038
826.416116	2482.768269
826.733685	2543.262115
827.051210	2450.000769
827.368692	2550.823846
827.686129	2351.698269
828.003522	2540.741538
828.320872	2485.288846
828.638177	2510.494615
828.955439	2480.247692
829.272656	2455.041923
829.589830	2500.412308
829.906960	2533.179808
830.224046	2545.782692
830.541088	2455.041923
830.858086	2442.439038
831.175041	2439.918462
831.491952	2485.288846
831.808819	2573.509038
832.125642	2518.056346
832.442421	2439.918462
832.759157	2550.823846
833.075849	2477.727115
833.392497	2535.700385
833.709101	2518.056346
834.025662	2490.330000
834.342179	2465.124231
834.658653	2538.220962
834.975083	2507.974038
835.291469	2502.932885
835.607811	2505.453462
835.924110	2497.891731
836.240366	2457.562500
836.556578	2558.385577
836.872746	2545.782692
837.188871	2528.138654
837.504952	2513.015192
837.820990	2457.562500
838.136984	2523.097500
838.452935	2477.727115
838.768842	2497.891731
839.084706	2460.083077
839.400526	2432.356731
839.716303	2495.371154
840.032037	2558.385577
840.347727	2482.768269
840.663373	2601.235385
840.978977	2399.589231
841.294537	2457.562500
841.610054	2578.550192
841.925527	2480.247692
842.240957	2520.576923
842.556344	2495.371154
842.871687	2457.562500
843.186987	2492.850577
843.502244	2555.865000
843.817458	2404.630385
844.132629	2528.138654
844.447756	2472.685962
844.762840	2525.618077
845.077881	2452.521346
845.392879	2412.192115
845.707833	2578.550192
846.022745	2505.453462
846.337613	2412.192115
846.652438	2515.535769
846.967221	2439.918462
847.281960	2497.891731
847.596656	2523.097500
847.911309	2399.589231
848.225919	2472.685962
848.540485	2419.753846
848.855009	2497.891731
849.169490	2439.918462
849.483928	2535.700385
849.798323	2500.412308
850.112675	2475.206538
850.426984	2507.974038
850.741251	2485.288846
851.055474	2442.439038
851.369654	2520.576923
851.683792	2497.891731
851.997887	2502.932885
852.311938	2427.315577
852.625947	2485.288846
852.939914	2460.083077
853.253837	2457.562500
853.567718	2525.618077
853.881555	2482.768269
854.195350	2513.015192
854.509103	2560.906154
854.822812	2598.714808
855.136479	2462.603654
855.450103	2434.877308
855.763685	2470.165385
856.077224	2475.206538
856.390720	2462.603654
856.704173	2530.659231
857.017584	2462.603654
857.330953	2465.124231
857.644278	2533.179808
857.957561	2450.000769
858.270802	2450.000769
858.584000	2545.782692
858.897155	2578.550192
859.210268	2409.671538
859.523339	2535.700385
859.836367	2485.288846
860.149352	2487.809423
860.462295	2386.986346
860.775195	2515.535769
861.088054	2482.768269
861.400869	2533.179808
861.713642	2402.109808
862.026373	2497.891731
862.339062	2452.521346
862.651708	2530.659231
862.964312	2419.753846
863.276873	2439.918462
863.589392	2528.138654
863.901869	2419.753846
864.214303	2540.741538
864.526696	2535.700385
864.839045	2485.288846
865.151353	2553.344423
865.463619	2480.247692
865.775842	2520.576923
866.088023	2598.714808
866.400162	2528.138654
866.712258	2555.865000
867.024313	2470.165385
867.336325	2525.618077
867.648296	2507.974038
867.960224	2553.344423
868.272110	2513.015192
868.583954	2450.000769
868.895755	2523.097500
869.207515	2558.385577
869.519233	2444.959615
869.830909	2500.412308
870.142542	2475.206538
870.454134	2540.741538
870.765684	2487.809423
871.077191	2487.809423
871.388657	2485.288846
871.700081	2442.439038
872.011463	2545.782692
872.322803	2502.932885
872.634101	2472.685962
872.945357	2513.015192
873.256571	2510.494615
873.567744	2472.685962
873.878874	2450.000769
874.189963	2384.465769
874.501010	2525.618077
874.812015	2455.041923
875.122979	2570.988462
875.433900	2510.494615
875.744780	2518.056346
876.055618	2432.356731
876.366415	2422.274423
876.677169	2525.618077
876.987882	2495.371154
877.298554	2492.850577
877.609183	2510.494615
877.919771	2414.712692
878.230317	2502.932885
878.540822	2492.850577
878.851285	2515.535769
879.161707	2439.918462
879.472087	2518.056346
879.782425	2470.165385
880.092722	2485.288846
880.402977	2568.467885
880.713191	2525.618077
881.023363	2432.356731
881.333494	2550.823846
881.643583	2492.850577
881.953631	2492.850577
882.263637	2492.850577
882.573602	2616.358846
882.883526	2465.124231
883.193408	2515.535769
883.503248	2465.124231
883.813048	2510.494615
884.122806	2457.562500
884.432522	2502.932885
884.742197	2457.562500
885.051831	2497.891731
885.361424	2444.959615
885.670975	2497.891731
885.980485	2495.371154
886.289954	2513.015192
886.599382	2502.932885
886.908768	2492.850577
887.218113	2397.068654
887.527417	2472.685962
887.836680	2470.165385
888.145901	2460.083077
888.455082	2510.494615
888.764221	2447.480192
889.073319	2515.535769
889.382376	2470.165385
889.691392	2520.576923
890.000366	2520.576923
890.309300	2487.809423
890.618193	2442.439038
890.927044	2455.041923
891.235855	2480.247692
891.544625	2510.494615
891.853353	2447.480192
892.162041	2520.576923
892.470687	2447.480192
892.779293	2525.618077
893.087858	2470.165385
893.396381	2523.097500
893.704864	2510.494615
894.013306	2442.439038
894.321707	2467.644808
894.630068	2455.041923
894.938387	2460.083077
895.246665	2465.124231
895.554903	2510.494615
895.863100	2513.015192
896.171256	2528.138654
896.479371	2570.988462
896.787446	2523.097500
897.095480	2530.659231
897.403473	2535.700385
897.711425	2452.521346
898.019336	2460.083077
898.327207	2485.288846
898.635038	2525.618077
898.942827	2528.138654
899.250576	2419.753846
899.558284	2485.288846
899.865952	2538.220962
900.173579	2523.097500
900.481165	2442.439038
900.788711	2545.782692
901.096216	2533.179808
901.403681	2381.945192
901.711105	2465.124231
902.018489	2455.041923
902.325832	2563.426731
902.633135	2465.124231
902.940397	2555.865000
903.247619	2457.562500
903.554800	2507.974038
903.861941	2480.247692
904.169041	2513.015192
904.476101	2518.056346
904.783121	2417.233269
905.090100	2568.467885
905.397039	2490.330000
905.703938	2510.494615
906.010796	2462.603654
906.317614	2558.385577
906.624391	2437.397885
906.931129	2565.947308
907.237826	2480.247692
907.544483	2434.877308
907.851099	2467.644808
908.157675	2507.974038
908.464211	2447.480192
908.770707	2510.494615
909.077163	2507.974038
909.383578	2507.974038
909.689954	2538.220962
909.996289	2563.426731
910.302584	2505.453462
910.608839	2442.439038
910.915054	2553.344423
911.221229	2528.138654
911.527363	2540.741538
911.833458	2502.932885
912.139513	2500.412308
912.445527	2460.083077
912.751502	2452.521346
913.057436	2500.412308
913.363331	2520.576923
913.669186	2500.412308
913.975000	2460.083077
914.280775	2444.959615
914.586510	2485.288846
914.892205	2450.000769
915.197859	2515.535769
915.503475	2490.330000
915.809050	2528.138654
916.114585	2477.727115
916.420081	2470.165385
916.725536	2502.932885
917.030952	2515.535769
917.336328	2422.274423
917.641665	2528.138654
917.946961	2404.630385
918.252218	2525.618077
918.557435	2457.562500
918.862612	2450.000769
919.167750	2397.068654
919.472848	2518.056346
919.777906	2518.056346
920.082925	2528.138654
920.387904	2505.453462
920.692843	2427.315577
920.997743	2492.850577
921.302603	2563.426731
921.607423	2558.385577
921.912204	2518.056346
922.216946	2462.603654
922.521647	2480.247692
922.826310	2424.795000
923.130932	2528.138654
923.435516	2462.603654
923.740059	2505.453462
924.044564	2434.877308
924.349028	2482.768269
924.653454	2518.056346
924.957840	2439.918462
925.262186	2467.644808
925.566493	2452.521346
925.870761	2495.371154
926.174989	2467.644808
926.479178	2500.412308
926.783328	2518.056346
927.087438	2475.206538
927.391509	2447.480192
927.695541	2533.179808
927.999533	2500.412308
928.303486	2487.809423
928.607400	2543.262115
928.911275	2568.467885
929.215110	2490.330000
929.518906	2434.877308
929.822663	2432.356731
930.126381	2485.288846
930.430060	2457.562500
930.733699	2404.630385
931.037299	2538.220962
931.340861	2465.124231
931.644383	2543.262115
931.947866	2533.179808
932.251309	2412.192115
932.554714	2442.439038
932.858080	2457.562500
933.161407	2505.453462
933.464694	2444.959615
933.767943	2465.124231
934.071153	2520.576923
934.374323	2523.097500
934.677455	2472.685962
934.980548	2457.562500
935.283602	2558.385577
935.586617	2500.412308
935.889593	2540.741538
936.192530	2480.247692
936.495428	2422.274423
936.798287	2523.097500
937.101108	2495.371154
937.403890	2530.659231
937.706632	2475.206538
938.009336	2444.959615
938.312002	2429.836154
938.614628	2583.591346
938.917216	2419.753846
939.219765	2497.891731
939.522275	2452.521346
939.824747	2520.576923
940.127179	2470.165385
940.429573	2586.111923
940.731929	2442.439038
941.034246	2480.247692
941.336524	2540.741538
941.638763	2450.000769
941.940964	2502.932885
942.243126	2434.877308
942.545250	2500.412308
942.847335	2560.906154
943.149381	2485.288846
943.451389	2535.700385
943.753359	2452.521346
944.055290	2465.124231
944.357182	2550.823846
944.659036	2518.056346
944.960851	2538.220962
945.262628	2591.153077
945.564367	2502.932885
945.866067	2490.330000
946.167729	2548.303269
946.469352	2437.397885
946.770937	2480.247692
947.072484	2510.494615
947.373992	2535.700385
947.675462	2447.480192
947.976893	2492.850577
948.278286	2394.548077
948.579641	2555.865000
948.880958	2502.932885
949.182236	2538.220962
949.483476	2545.782692
949.784678	2507.974038
950.085841	2513.015192
950.386967	2555.865000
950.688054	2467.644808
950.989103	2442.439038
951.290114	2573.509038
951.591087	2434.877308
951.892021	2467.644808
952.192917	2533.179808
952.493776	2490.330000
952.794596	2500.412308
953.095378	2553.344423
953.396122	2507.974038
953.696828	2460.083077
953.997496	2444.959615
954.298126	2490.330000
954.598718	2465.124231
954.899272	2518.056346
955.199788	2525.618077
955.500266	2507.974038
955.800706	2535.700385
956.101108	2507.974038
956.401472	2452.521346
956.701798	2513.015192
957.002087	2528.138654
957.302337	2518.056346
957.602550	2548.303269
957.902724	2419.753846
958.202861	2414.712692
958.502960	2442.439038
958.803022	2477.727115
959.103045	2442.439038
959.403031	2601.235385
959.702979	2467.644808
960.002889	2621.400000
960.302762	2518.056346
960.602596	2460.083077
960.902393	2429.836154
961.202153	2412.192115
961.501875	2485.288846
961.801559	2533.179808
962.101205	2565.947308
962.400814	2444.959615
962.700385	2515.535769
962.999918	2553.344423
963.299414	2450.000769
963.598873	2457.562500
963.898293	2482.768269
964.197677	2502.932885
964.497022	2439.918462
964.796331	2475.206538
965.095601	2442.439038
965.394835	2429.836154
965.694030	2530.659231
965.993189	2404.630385
966.292309	2477.727115
966.591393	2525.618077
966.890439	2429.836154
967.189447	2520.576923
967.488419	2518.056346
967.787353	2583.591346
968.086249	2563.426731
968.385108	2434.877308
968.683930	2540.741538
968.982714	2427.315577
969.281462	2581.070769
969.580172	2500.412308
969.878844	2502.932885
970.177480	2525.618077
970.476078	2558.385577
970.774639	2525.618077
971.073162	2419.753846
971.371649	2470.165385
971.670098	2528.138654
971.968510	2497.891731
972.266885	2432.356731
972.565223	2399.589231
972.863524	2540.741538
973.161788	2502.932885
973.460014	2523.097500
973.758204	2550.823846
974.056356	2455.041923
974.354471	2505.453462
974.652550	2424.795000
974.950591	2545.782692
975.248595	2515.535769
975.546563	2472.685962
975.844493	2513.015192
976.142386	2477.727115
976.440243	2492.850577
976.738062	2452.521346
977.035845	2490.330000
977.333590	2560.906154
977.631299	2543.262115
977.928971	2520.576923
978.226606	2495.371154
978.524204	2450.000769
978.821765	2485.288846
979.119290	2429.836154
979.416777	2500.412308
979.714228	2477.727115
980.011642	2495.371154
980.309020	2467.644808
980.606360	2480.247692
980.903664	2510.494615
981.200931	2492.850577
981.498162	2548.303269
981.795356	2487.809423
982.092513	2510.494615
982.389633	2570.988462
982.686717	2444.959615
982.983764	2507.974038
983.280775	2487.809423
983.577749	2581.070769
983.874686	2535.700385
984.171587	2407.150962
984.468451	2528.138654
984.765279	2502.932885
985.062070	2455.041923
985.358824	2513.015192
985.655543	2452.521346
985.952224	2497.891731
986.248869	2455.041923
986.545478	2523.097500
986.842050	2460.083077
987.138586	2409.671538
987.435086	2472.685962
987.731549	2482.768269
988.027975	2560.906154
988.324366	2429.836154
988.620719	2535.700385
988.917037	2450.000769
989.213318	2434.877308
989.509563	2530.659231
989.805772	2480.247692
990.101944	2593.673654
990.398080	2394.548077
990.694180	2386.986346
990.990244	2540.741538
991.286271	2510.494615
991.582262	2505.453462
991.878217	2543.262115
992.174136	2477.727115
992.470019	2495.371154
992.765865	2550.823846
993.061676	2457.562500
993.357450	2500.412308
993.653188	2462.603654
993.948890	2487.809423
994.244556	2576.029615
994.540186	2507.974038
994.835780	2515.535769
995.131337	2409.671538
995.426859	2437.397885
995.722345	2482.768269
996.017795	2472.685962
996.313208	2518.056346
996.608586	2540.741538
996.903928	2563.426731
997.199234	2530.659231
997.494504	2545.782692
997.789738	2513.015192
998.084936	2535.700385
998.380099	2485.288846
998.675225	2500.412308
998.970316	2457.562500
999.265371	2465.124231
999.560390	2558.385577
999.855373	2482.768269
1000.150320	2475.206538
1000.445232	2528.138654
1000.740108	2513.015192
1001.034948	2472.685962
1001.329752	2455.041923
1001.624521	2553.344423
1001.919254	2467.644808
1002.213951	2520.576923
1002.508613	2444.959615
1002.803239	2497.891731
1003.097829	2495.371154
1003.392384	2588.632500
1003.686903	2429.836154
1003.981386	2533.179808
1004.275834	2477.727115
1004.570246	2492.850577
1004.864623	2477.727115
1005.158964	2495.371154
1005.453270	2495.371154
1005.747540	2518.056346
1006.041775	2460.083077
1006.335974	2513.015192
1006.630138	2497.891731
1006.924266	2457.562500
1007.218359	2578.550192
1007.512416	2530.659231
1007.806438	2525.618077
1008.100425	2507.974038
1008.394376	2482.768269
1008.688292	2583.591346
1008.982172	2570.988462
1009.276017	2578.550192
1009.569827	2462.603654
1009.863602	2485.288846
1010.157341	2480.247692
1010.451045	2480.247692
1010.744714	2467.644808
1011.038347	2535.700385
1011.331945	2452.521346
1011.625508	2576.029615
1011.919036	2419.753846
1012.212528	2487.809423
1012.505986	2513.015192
1012.799408	2530.659231
1013.092795	2487.809423
1013.386147	2520.576923
1013.679464	2472.685962
1013.972745	2490.330000
1014.265992	2444.959615
1014.559204	2477.727115
1014.852380	2545.782692
1015.145521	2439.918462
1015.438628	2550.823846
1015.731699	2432.356731
1016.024736	2497.891731
1016.317737	2543.262115
1016.610703	2439.918462
1016.903635	2545.782692
1017.196531	2444.959615
1017.489393	2553.344423
1017.782219	2525.618077
1018.075011	2495.371154
1018.367768	2442.439038
1018.660490	2492.850577
1018.953177	2492.850577
1019.245829	2492.850577
