Dividing Wavelength (nm)	Counts (n)	Blue Motor Position (mm): 0.000000	Red Motor Position (mm): 2.400000	
326.493990	2150.052115
326.888308	2150.052115
327.282561	2150.052115
327.676750	1996.296923
328.070874	2054.270192
328.464933	2046.708462
328.858929	2084.517115
329.252859	2069.393654
329.646726	2097.120000
330.040528	2114.764038
330.434265	2097.120000
330.827938	2155.093269
331.221547	2157.613846
331.615091	2213.066538
332.008571	2165.175577
332.401986	2182.819615
332.795338	2190.381346
333.188625	2238.272308
333.581847	2250.875192
333.975006	2271.039808
334.368100	2240.792885
334.761129	2243.313462
335.154095	2313.889615
335.546996	2288.683846
335.939833	2404.630385
336.332606	2404.630385
336.725315	2467.644808
337.117960	2331.533654
337.510540	2379.424615
337.903056	2472.685962
338.295508	2437.397885
338.687896	2477.727115
339.080220	2485.288846
339.472480	2520.576923
339.864676	2419.753846
340.256807	2482.768269
340.648875	2477.727115
341.040879	2452.521346
341.432818	2530.659231
341.824694	2470.165385
342.216506	2510.494615
342.608253	2467.644808
342.999937	2444.959615
343.391557	2480.247692
343.783113	2480.247692
344.174605	2444.959615
344.566033	2497.891731
344.957397	2467.644808
345.348697	2530.659231
345.739934	2419.753846
346.131106	2412.192115
346.522215	2502.932885
346.913260	2432.356731
347.304241	2429.836154
347.695159	2450.000769
348.086012	2419.753846
348.476802	2389.506923
348.867528	2450.000769
349.258191	2480.247692
349.648789	2394.548077
350.039324	2394.548077
350.429796	2460.083077
350.820203	2475.206538
351.210548	2399.589231
351.600828	2462.603654
351.991045	2467.644808
352.381198	2429.836154
352.771288	2437.397885
353.161314	2540.741538
353.551276	2439.918462
353.941175	2442.439038
354.331010	2460.083077
354.720782	2452.521346
355.110490	2434.877308
355.500135	2404.630385
355.889717	2455.041923
356.279235	2455.041923
356.668689	2465.124231
357.058080	2417.233269
357.447408	2356.739423
357.836672	2437.397885
358.225873	2492.850577
358.615010	2513.015192
359.004084	2457.562500
359.393095	2507.974038
359.782043	2381.945192
360.170927	2434.877308
360.559748	2394.548077
360.948505	2457.562500
361.337199	2412.192115
361.725830	2439.918462
362.114398	2417.233269
362.502903	2402.109808
362.891344	2397.068654
363.279722	2434.877308
363.668037	2429.836154
364.056289	2442.439038
364.444478	2480.247692
364.832603	2427.315577
365.220665	2407.150962
365.608665	2434.877308
365.996601	2485.288846
366.384474	2434.877308
366.772284	2412.192115
367.160031	2371.862885
367.547715	2407.150962
367.935336	2432.356731
368.322893	2407.150962
368.710388	2434.877308
369.097820	2434.877308
369.485189	2462.603654
369.872495	2379.424615
370.259738	2331.533654
370.646918	2497.891731
371.034035	2427.315577
371.421090	2460.083077
371.808081	2495.371154
372.195010	2424.795000
372.581875	2432.356731
372.968678	2513.015192
373.355418	2419.753846
373.742096	2482.768269
374.128710	2502.932885
374.515262	2444.959615
374.901751	2444.959615
375.288177	2450.000769
375.674540	2500.412308
376.060841	2424.795000
376.447079	2568.467885
376.833254	2482.768269
377.219367	2455.041923
377.605417	2490.330000
377.991404	2482.768269
378.377329	2442.439038
378.763191	2530.659231
379.148991	2452.521346
379.534727	2439.918462
379.920402	2545.782692
380.306013	2434.877308
380.691563	2424.795000
381.077049	2444.959615
381.462474	2480.247692
381.847835	2412.192115
382.233134	2548.303269
382.618371	2437.397885
383.003545	2543.262115
383.388657	2510.494615
383.773706	2505.453462
384.158693	2543.262115
384.543618	2518.056346
384.928480	2570.988462
385.313280	2404.630385
385.698017	2427.315577
386.082692	2460.083077
386.467305	2477.727115
386.851856	2520.576923
387.236344	2528.138654
387.620770	2417.233269
388.005133	2525.618077
388.389435	2462.603654
388.773674	2490.330000
389.157851	2452.521346
389.541965	2457.562500
389.926018	2472.685962
390.310008	2429.836154
390.693936	2414.712692
391.077802	2480.247692
391.461606	2507.974038
391.845348	2439.918462
392.229027	2485.288846
392.612645	2487.809423
392.996200	2510.494615
393.379694	2442.439038
393.763125	2429.836154
394.146494	2487.809423
394.529801	2487.809423
394.913047	2475.206538
395.296230	2399.589231
395.679351	2450.000769
396.062410	2437.397885
396.445408	2502.932885
396.828343	2513.015192
397.211217	2450.000769
397.594028	2419.753846
397.976778	2422.274423
398.359466	2444.959615
398.742092	2485.288846
399.124656	2505.453462
399.507158	2444.959615
399.889598	2460.083077
400.271977	2563.426731
400.654294	2452.521346
401.036549	2447.480192
401.418742	2588.632500
401.800874	2540.741538
402.182944	2419.753846
402.564952	2379.424615
402.946898	2513.015192
403.328783	2472.685962
403.710606	2419.753846
404.092367	2470.165385
404.474067	2394.548077
404.855705	2505.453462
405.237282	2434.877308
405.618797	2560.906154
406.000250	2525.618077
406.381642	2568.467885
406.762972	2502.932885
407.144240	2553.344423
407.525447	2480.247692
407.906593	2417.233269
408.287677	2513.015192
408.668700	2490.330000
409.049661	2460.083077
409.430560	2490.330000
409.811399	2492.850577
410.192176	2475.206538
410.572891	2490.330000
410.953545	2460.083077
411.334138	2465.124231
411.714669	2475.206538
412.095139	2447.480192
412.475547	2475.206538
412.855894	2450.000769
413.236180	2452.521346
413.616405	2502.932885
413.996568	2502.932885
414.376670	2407.150962
414.756711	2525.618077
415.136691	2555.865000
415.516609	2470.165385
415.896466	2460.083077
416.276262	2442.439038
416.655997	2467.644808
417.035670	2457.562500
417.415283	2510.494615
417.794834	2424.795000
418.174324	2485.288846
418.553753	2513.015192
418.933121	2558.385577
419.312428	2475.206538
419.691674	2548.303269
420.070859	2452.521346
420.449983	2510.494615
420.829045	2447.480192
421.208047	2563.426731
421.586988	2452.521346
421.965867	2480.247692
422.344686	2525.618077
422.723444	2422.274423
423.102141	2450.000769
423.480777	2429.836154
423.859352	2480.247692
424.237866	2432.356731
424.616319	2490.330000
424.994712	2460.083077
425.373044	2480.247692
425.751314	2465.124231
426.129524	2485.288846
426.507673	2495.371154
426.885762	2505.453462
427.263789	2485.288846
427.641756	2548.303269
428.019662	2513.015192
428.397508	2513.015192
428.775292	2422.274423
429.153016	2457.562500
429.530679	2477.727115
429.908282	2515.535769
430.285824	2560.906154
430.663305	2439.918462
431.040726	2437.397885
431.418086	2487.809423
431.795385	2392.027500
432.172624	2545.782692
432.549802	2424.795000
432.926920	2457.562500
433.303977	2427.315577
433.680974	2505.453462
434.057910	2513.015192
434.434786	2442.439038
434.811601	2533.179808
435.188355	2457.562500
435.565050	2518.056346
435.941683	2535.700385
436.318257	2490.330000
436.694770	2500.412308
437.071222	2543.262115
437.447614	2563.426731
437.823946	2402.109808
438.200218	2581.070769
438.576429	2429.836154
438.952580	2480.247692
439.328670	2485.288846
439.704700	2429.836154
440.080670	2505.453462
440.456580	2434.877308
440.832429	2455.041923
441.208218	2513.015192
441.583947	2535.700385
441.959616	2477.727115
442.335224	2492.850577
442.710773	2432.356731
443.086261	2490.330000
443.461689	2462.603654
443.837057	2482.768269
444.212365	2460.083077
444.587612	2439.918462
444.962800	2429.836154
445.337927	2581.070769
445.712995	2495.371154
446.088002	2525.618077
446.462949	2394.548077
446.837837	2535.700385
447.212664	2485.288846
447.587431	2502.932885
447.962139	2507.974038
448.336786	2462.603654
448.711374	2407.150962
449.085901	2603.755962
449.460369	2530.659231
449.834776	2457.562500
450.209124	2495.371154
450.583412	2447.480192
450.957640	2550.823846
451.331808	2419.753846
451.705917	2427.315577
452.079965	2437.397885
452.453954	2457.562500
452.827883	2455.041923
453.201752	2465.124231
453.575562	2558.385577
453.949311	2533.179808
454.323001	2472.685962
454.696632	2432.356731
455.070202	2437.397885
455.443713	2528.138654
455.817164	2520.576923
456.190556	2444.959615
456.563888	2530.659231
456.937160	2472.685962
457.310373	2392.027500
457.683526	2505.453462
458.056619	2487.809423
458.429653	2429.836154
458.802628	2480.247692
459.175542	2419.753846
459.548398	2513.015192
459.921194	2497.891731
460.293930	2470.165385
460.666607	2530.659231
461.039224	2596.194231
461.411782	2424.795000
461.784280	2558.385577
462.156719	2510.494615
462.529099	2419.753846
462.901419	2523.097500
463.273680	2442.439038
463.645882	2472.685962
464.018024	2505.453462
464.390106	2475.206538
464.762130	2540.741538
465.134094	2444.959615
465.505999	2490.330000
465.877845	2452.521346
466.249631	2513.015192
466.621358	2434.877308
466.993026	2492.850577
467.364634	2480.247692
467.736184	2515.535769
468.107674	2540.741538
468.479105	2507.974038
468.850477	2455.041923
469.221790	2525.618077
469.593043	2553.344423
469.964238	2460.083077
470.335373	2533.179808
470.706449	2442.439038
471.077467	2392.027500
471.448425	2545.782692
471.819324	2444.959615
472.190164	2581.070769
472.560945	2480.247692
472.931667	2525.618077
473.302330	2427.315577
473.672934	2482.768269
474.043479	2485.288846
474.413965	2500.412308
474.784393	2432.356731
475.154761	2548.303269
475.525070	2485.288846
475.895321	2548.303269
476.265513	2555.865000
476.635645	2510.494615
477.005719	2528.138654
477.375734	2502.932885
477.745691	2492.850577
478.115588	2533.179808
478.485427	2490.330000
478.855207	2467.644808
479.224928	2394.548077
479.594591	2570.988462
479.964194	2490.330000
480.333739	2485.288846
480.703226	2482.768269
481.072653	2548.303269
481.442022	2389.506923
481.811333	2586.111923
482.180584	2497.891731
482.549777	2530.659231
482.918912	2497.891731
483.287988	2485.288846
483.657005	2492.850577
484.025964	2422.274423
484.394864	2495.371154
484.763706	2492.850577
485.132489	2518.056346
485.501213	2500.412308
485.869879	2495.371154
486.238487	2432.356731
486.607036	2475.206538
486.975527	2472.685962
487.343959	2530.659231
487.712333	2417.233269
488.080648	2581.070769
488.448905	2518.056346
488.817104	2545.782692
489.185244	2419.753846
489.553326	2472.685962
489.921350	2520.576923
490.289315	2558.385577
490.657222	2598.714808
491.025070	2545.782692
491.392861	2525.618077
491.760593	2424.795000
492.128267	2492.850577
492.495883	2467.644808
492.863440	2558.385577
493.230939	2462.603654
493.598380	2392.027500
493.965763	2490.330000
494.333088	2462.603654
494.700354	2462.603654
495.067563	2399.589231
495.434713	2505.453462
495.801805	2565.947308
496.168839	2535.700385
496.535815	2510.494615
496.902733	2495.371154
497.269593	2497.891731
497.636395	2492.850577
498.003139	2563.426731
498.369825	2460.083077
498.736453	2442.439038
499.103023	2442.439038
499.469535	2485.288846
499.835989	2525.618077
500.202385	2460.083077
500.568723	2475.206538
500.935003	2505.453462
501.301226	2427.315577
501.667390	2523.097500
502.033497	2480.247692
502.399546	2538.220962
502.765537	2507.974038
503.131470	2528.138654
503.497345	2480.247692
503.863163	2429.836154
504.228923	2472.685962
504.594625	2543.262115
504.960269	2497.891731
505.325856	2505.453462
505.691385	2515.535769
506.056856	2450.000769
506.422270	2520.576923
506.787625	2497.891731
507.152924	2477.727115
507.518164	2422.274423
507.883347	2591.153077
508.248472	2565.947308
508.613540	2467.644808
508.978550	2487.809423
509.343503	2470.165385
509.708398	2560.906154
510.073236	2462.603654
510.438016	2477.727115
510.802738	2553.344423
511.167403	2510.494615
511.532010	2591.153077
511.896561	2581.070769
512.261053	2472.685962
512.625488	2505.453462
512.989866	2470.165385
513.354186	2530.659231
513.718449	2510.494615
514.082655	2520.576923
514.446803	2452.521346
514.810894	2444.959615
515.174927	2409.671538
515.538904	2525.618077
515.902822	2439.918462
516.266684	2374.383462
516.630488	2442.439038
516.994235	2480.247692
517.357925	2462.603654
517.721558	2530.659231
518.085133	2371.862885
518.448651	2520.576923
518.812112	2525.618077
519.175516	2565.947308
519.538863	2490.330000
519.902152	2495.371154
520.265385	2475.206538
520.628560	2462.603654
520.991678	2487.809423
521.354739	2455.041923
521.717743	2523.097500
522.080690	2548.303269
522.443580	2535.700385
522.806413	2543.262115
523.169189	2507.974038
523.531908	2510.494615
523.894569	2613.838269
524.257174	2533.179808
524.619722	2510.494615
524.982213	2507.974038
525.344647	2520.576923
525.707025	2545.782692
526.069345	2505.453462
526.431608	2576.029615
526.793815	2492.850577
527.155964	2510.494615
527.518057	2397.068654
527.880093	2598.714808
528.242072	2477.727115
528.603995	2505.453462
528.965860	2434.877308
529.327669	2497.891731
529.689421	2518.056346
530.051117	2518.056346
530.412755	2447.480192
530.774337	2528.138654
531.135862	2548.303269
531.497331	2482.768269
531.858743	2528.138654
532.220098	2533.179808
532.581396	2568.467885
532.942638	2543.262115
533.303824	2475.206538
533.664953	2563.426731
534.026025	2545.782692
534.387040	2603.755962
534.747999	2450.000769
535.108902	2412.192115
535.469748	2495.371154
535.830537	2492.850577
536.191270	2480.247692
536.551947	2414.712692
536.912567	2505.453462
537.273131	2598.714808
537.633638	2455.041923
537.994089	2555.865000
538.354483	2467.644808
538.714821	2528.138654
539.075103	2457.562500
539.435328	2543.262115
539.795497	2447.480192
540.155609	2502.932885
540.515665	2472.685962
540.875665	2513.015192
541.235609	2510.494615
541.595496	2492.850577
541.955328	2490.330000
542.315102	2530.659231
542.674821	2495.371154
543.034483	2399.589231
543.394090	2450.000769
543.753640	2444.959615
544.113134	2485.288846
544.472571	2518.056346
544.831953	2540.741538
545.191278	2490.330000
545.550548	2477.727115
545.909761	2477.727115
546.268918	2568.467885
546.628019	2444.959615
546.987064	2525.618077
547.346053	2492.850577
547.704986	2548.303269
548.063863	2482.768269
548.422684	2487.809423
548.781449	2533.179808
549.140158	2515.535769
549.498811	2518.056346
549.857408	2596.194231
550.215949	2477.727115
550.574434	2550.823846
550.932864	2477.727115
551.291237	2437.397885
551.649555	2477.727115
552.007817	2533.179808
552.366022	2540.741538
552.724173	2462.603654
553.082267	2452.521346
553.440305	2507.974038
553.798288	2591.153077
554.156215	2560.906154
554.514086	2525.618077
554.871902	2465.124231
555.229661	2502.932885
555.587365	2434.877308
555.945014	2520.576923
556.302606	2472.685962
556.660143	2452.521346
557.017625	2429.836154
557.375050	2407.150962
557.732421	2520.576923
558.089735	2555.865000
558.446994	2540.741538
558.804197	2465.124231
559.161345	2497.891731
559.518437	2601.235385
559.875474	2573.509038
560.232455	2480.247692
560.589381	2462.603654
560.946251	2447.480192
561.303065	2550.823846
561.659825	2475.206538
562.016528	2475.206538
562.373177	2525.618077
562.729770	2543.262115
563.086307	2475.206538
563.442789	2507.974038
563.799216	2523.097500
564.155587	2507.974038
564.511904	2460.083077
564.868164	2467.644808
565.224370	2543.262115
565.580520	2505.453462
565.936615	2492.850577
566.292654	2460.083077
566.648638	2533.179808
567.004567	2565.947308
567.360441	2518.056346
567.716260	2450.000769
568.072023	2530.659231
568.427732	2455.041923
568.783385	2533.179808
569.138982	2487.809423
569.494525	2439.918462
569.850013	2535.700385
570.205445	2492.850577
570.560823	2540.741538
570.916145	2497.891731
571.271412	2455.041923
571.626625	2548.303269
571.981782	2545.782692
572.336884	2470.165385
572.691931	2492.850577
573.046923	2452.521346
573.401860	2502.932885
573.756743	2513.015192
574.111570	2505.453462
574.466342	2530.659231
574.821059	2550.823846
575.175722	2480.247692
575.530330	2525.618077
575.884882	2472.685962
576.239380	2505.453462
576.593823	2505.453462
576.948211	2530.659231
577.302544	2523.097500
577.656823	2530.659231
578.011047	2482.768269
578.365216	2477.727115
578.719330	2485.288846
579.073389	2480.247692
579.427394	2560.906154
579.781344	2475.206538
580.135239	2502.932885
580.489080	2593.673654
580.842866	2560.906154
581.196597	2596.194231
581.550273	2518.056346
581.903895	2419.753846
582.257463	2495.371154
582.610975	2515.535769
582.964434	2573.509038
583.317837	2442.439038
583.671186	2444.959615
584.024481	2573.509038
584.377721	2447.480192
584.730906	2515.535769
585.084037	2520.576923
585.437113	2533.179808
585.790135	2515.535769
586.143103	2513.015192
586.496016	2502.932885
586.848874	2455.041923
587.201679	2439.918462
587.554428	2487.809423
587.907124	2465.124231
588.259765	2505.453462
588.612352	2502.932885
588.964884	2450.000769
589.317362	2492.850577
589.669786	2497.891731
590.022155	2558.385577
590.374470	2586.111923
590.726731	2535.700385
591.078937	2591.153077
591.431090	2497.891731
591.783188	2507.974038
592.135232	2563.426731
592.487222	2558.385577
592.839157	2515.535769
593.191038	2472.685962
593.542866	2518.056346
593.894639	2515.535769
594.246358	2467.644808
594.598022	2538.220962
594.949633	2485.288846
595.301190	2402.109808
595.652692	2507.974038
596.004141	2462.603654
596.355535	2513.015192
596.706876	2603.755962
597.058162	2540.741538
597.409395	2523.097500
597.760573	2490.330000
598.111698	2510.494615
598.462768	2505.453462
598.813785	2550.823846
599.164748	2465.124231
599.515657	2525.618077
599.866511	2455.041923
600.217312	2528.138654
600.568060	2465.124231
600.918753	2507.974038
601.269392	2477.727115
601.619978	2407.150962
601.970510	2502.932885
602.320988	2598.714808
602.671412	2447.480192
603.021783	2563.426731
603.372100	2447.480192
603.722363	2540.741538
604.072572	2487.809423
604.422728	2502.932885
604.772830	2586.111923
605.122878	2437.397885
605.472872	2515.535769
605.822813	2528.138654
606.172701	2439.918462
606.522534	2528.138654
606.872314	2472.685962
607.222041	2477.727115
607.571714	2573.509038
607.921333	2455.041923
608.270899	2467.644808
608.620411	2444.959615
608.969870	2397.068654
609.319276	2545.782692
609.668627	2482.768269
610.017926	2538.220962
610.367171	2467.644808
610.716362	2538.220962
611.065500	2487.809423
611.414585	2530.659231
611.763616	2482.768269
612.112594	2452.521346
612.461518	2513.015192
612.810389	2497.891731
613.159207	2520.576923
613.507971	2384.465769
613.856682	2460.083077
614.205340	2495.371154
614.553945	2533.179808
614.902496	2500.412308
615.250994	2533.179808
615.599439	2460.083077
615.947830	2518.056346
616.296169	2450.000769
616.644454	2545.782692
616.992686	2465.124231
617.340864	2490.330000
617.688990	2588.632500
618.037063	2455.041923
618.385082	2533.179808
618.733048	2447.480192
619.080961	2560.906154
619.428821	2482.768269
619.776628	2513.015192
620.124382	2475.206538
620.472083	2543.262115
620.819731	2364.301154
621.167326	2570.988462
621.514868	2581.070769
621.862357	2452.521346
622.209793	2520.576923
622.557176	2487.809423
622.904506	2429.836154
623.251783	2515.535769
623.599007	2460.083077
623.946179	2455.041923
624.293297	2553.344423
624.640363	2475.206538
624.987376	2507.974038
625.334336	2535.700385
625.681243	2457.562500
626.028097	2444.959615
626.374899	2467.644808
626.721647	2442.439038
627.068343	2507.974038
627.414987	2472.685962
627.761577	2563.426731
628.108115	2497.891731
628.454600	2450.000769
628.801032	2533.179808
629.147412	2525.618077
629.493739	2450.000769
629.840014	2487.809423
630.186236	2490.330000
630.532405	2475.206538
630.878521	2482.768269
631.224585	2560.906154
631.570597	2392.027500
631.916556	2470.165385
632.262462	2472.685962
632.608316	2535.700385
632.954117	2480.247692
633.299866	2434.877308
633.645562	2606.276538
633.991206	2455.041923
634.336797	2593.673654
634.682336	2455.041923
635.027823	2402.109808
635.373257	2578.550192
635.718639	2568.467885
636.063968	2505.453462
636.409245	2497.891731
636.754470	2475.206538
637.099642	2457.562500
637.444762	2513.015192
637.789829	2412.192115
638.134845	2462.603654
638.479808	2553.344423
638.824719	2558.385577
639.169577	2510.494615
639.514383	2495.371154
639.859137	2475.206538
640.203839	2530.659231
640.548489	2507.974038
640.893086	2520.576923
641.237632	2497.891731
641.582125	2593.673654
641.926566	2480.247692
642.270955	2467.644808
642.615292	2520.576923
642.959576	2452.521346
643.303809	2465.124231
643.647990	2570.988462
643.992118	2447.480192
644.336195	2485.288846
644.680219	2465.124231
645.024192	2543.262115
645.368112	2540.741538
645.711981	2502.932885
646.055797	2457.562500
646.399562	2573.509038
646.743274	2485.288846
647.086935	2409.671538
647.430544	2394.548077
647.774101	2497.891731
648.117606	2495.371154
648.461059	2523.097500
648.804460	2560.906154
649.147810	2543.262115
649.491108	2447.480192
649.834354	2467.644808
650.177548	2515.535769
650.520690	2475.206538
650.863781	2465.124231
651.206820	2487.809423
651.549807	2523.097500
651.892742	2518.056346
652.235626	2533.179808
652.578458	2432.356731
652.921238	2482.768269
653.263967	2520.576923
653.606644	2513.015192
653.949269	2475.206538
654.291843	2490.330000
654.634365	2480.247692
654.976836	2439.918462
655.319255	2455.041923
655.661622	2482.768269
656.003938	2560.906154
656.346203	2520.576923
656.688416	2520.576923
657.030577	2533.179808
657.372687	2540.741538
657.714746	2450.000769
658.056753	2465.124231
658.398708	2555.865000
658.740612	2505.453462
659.082465	2480.247692
659.424266	2525.618077
659.766016	2502.932885
660.107715	2427.315577
660.449362	2543.262115
660.790958	2485.288846
661.132503	2558.385577
661.473996	2480.247692
661.815438	2548.303269
662.156829	2535.700385
662.498168	2543.262115
662.839456	2472.685962
663.180693	2525.618077
663.521879	2427.315577
663.863013	2553.344423
664.204097	2475.206538
664.545129	2515.535769
664.886110	2477.727115
665.227040	2548.303269
665.567918	2530.659231
665.908746	2452.521346
666.249522	2543.262115
666.590248	2482.768269
666.930922	2528.138654
667.271545	2470.165385
667.612118	2480.247692
667.952639	2429.836154
668.293109	2500.412308
668.633528	2528.138654
668.973896	2475.206538
669.314213	2545.782692
669.654480	2444.959615
669.994695	2545.782692
670.334859	2472.685962
670.674973	2558.385577
671.015035	2452.521346
671.355047	2477.727115
671.695008	2497.891731
672.034918	2495.371154
672.374777	2523.097500
672.714585	2434.877308
673.054342	2533.179808
673.394049	2603.755962
673.733705	2523.097500
674.073310	2586.111923
674.412864	2452.521346
674.752368	2475.206538
675.091820	2555.865000
675.431223	2490.330000
675.770574	2518.056346
676.109875	2510.494615
676.449125	2422.274423
676.788324	2513.015192
677.127473	2465.124231
677.466571	2507.974038
677.805619	2460.083077
678.144616	2444.959615
678.483562	2550.823846
678.822458	2462.603654
679.161303	2457.562500
679.500098	2560.906154
679.838842	2452.521346
680.177535	2495.371154
680.516179	2500.412308
680.854771	2578.550192
681.193314	2369.342308
681.531805	2480.247692
681.870247	2417.233269
682.208638	2570.988462
682.546978	2447.480192
682.885268	2545.782692
683.223508	2576.029615
683.561697	2432.356731
683.899836	2515.535769
684.237925	2442.439038
684.575963	2492.850577
684.913951	2452.521346
685.251889	2505.453462
685.589776	2477.727115
685.927614	2500.412308
686.265401	2565.947308
686.603137	2495.371154
686.940824	2518.056346
687.278460	2518.056346
687.616046	2515.535769
687.953582	2518.056346
688.291068	2563.426731
688.628504	2513.015192
688.965889	2386.986346
689.303224	2548.303269
689.640510	2447.480192
689.977745	2490.330000
690.314930	2475.206538
690.652065	2462.603654
690.989150	2482.768269
691.326185	2497.891731
691.663170	2500.412308
692.000105	2497.891731
692.336990	2480.247692
692.673825	2560.906154
693.010610	2563.426731
693.347345	2565.947308
693.684030	2477.727115
694.020665	2475.206538
694.357251	2530.659231
694.693786	2545.782692
695.030272	2497.891731
695.366707	2538.220962
695.703093	2432.356731
696.039429	2480.247692
696.375716	2507.974038
696.711952	2472.685962
697.048139	2523.097500
697.384276	2530.659231
697.720363	2485.288846
698.056400	2462.603654
698.392388	2616.358846
698.728326	2505.453462
699.064214	2475.206538
699.400053	2543.262115
699.735842	2530.659231
700.071581	2538.220962
700.407270	2543.262115
700.742910	2422.274423
701.078501	2550.823846
701.414042	2450.000769
701.749533	2492.850577
702.084974	2465.124231
702.420366	2495.371154
702.755709	2530.659231
703.091002	2520.576923
703.426246	2460.083077
703.761440	2427.315577
704.096584	2528.138654
704.431679	2495.371154
704.766725	2570.988462
705.101721	2520.576923
705.436668	2507.974038
705.771565	2472.685962
706.106413	2588.632500
706.441212	2450.000769
706.775961	2510.494615
707.110661	2513.015192
707.445311	2535.700385
707.779913	2467.644808
708.114465	2444.959615
708.448967	2510.494615
708.783421	2485.288846
709.117825	2467.644808
709.452180	2482.768269
709.786485	2502.932885
710.120742	2495.371154
710.454949	2412.192115
710.789107	2573.509038
711.123216	2399.589231
711.457275	2480.247692
711.791286	2513.015192
712.125247	2500.412308
712.459159	2490.330000
712.793023	2576.029615
713.126837	2535.700385
713.460602	2500.412308
713.794318	2520.576923
714.127985	2495.371154
714.461602	2492.850577
714.795171	2492.850577
715.128691	2450.000769
715.462162	2480.247692
715.795584	2533.179808
716.128957	2495.371154
716.462281	2444.959615
716.795556	2485.288846
717.128782	2550.823846
717.461960	2495.371154
717.795088	2467.644808
718.128167	2427.315577
718.461198	2482.768269
718.794180	2555.865000
719.127113	2578.550192
719.459997	2477.727115
719.792833	2427.315577
720.125619	2460.083077
720.458357	2533.179808
720.791046	2437.397885
721.123686	2482.768269
721.456278	2447.480192
721.788821	2525.618077
722.121315	2414.712692
722.453761	2492.850577
722.786158	2424.795000
723.118506	2568.467885
723.450805	2472.685962
723.783056	2482.768269
724.115259	2470.165385
724.447412	2583.591346
724.779518	2407.150962
725.111574	2515.535769
725.443582	2530.659231
725.775542	2480.247692
726.107453	2444.959615
726.439315	2467.644808
726.771129	2553.344423
727.102895	2525.618077
727.434612	2530.659231
727.766281	2603.755962
728.097901	2588.632500
728.429473	2475.206538
728.760996	2502.932885
729.092471	2455.041923
729.423897	2379.424615
729.755276	2533.179808
730.086606	2427.315577
730.417887	2465.124231
730.749120	2568.467885
731.080305	2379.424615
731.411442	2450.000769
731.742530	2477.727115
732.073570	2583.591346
732.404562	2523.097500
732.735506	2465.124231
733.066401	2520.576923
733.397249	2528.138654
733.728048	2460.083077
734.058798	2505.453462
734.389501	2568.467885
734.720156	2470.165385
735.050762	2487.809423
735.381320	2455.041923
735.711831	2492.850577
736.042293	2457.562500
736.372707	2565.947308
736.703073	2523.097500
737.033391	2507.974038
737.363661	2576.029615
737.693883	2543.262115
738.024056	2412.192115
738.354182	2530.659231
738.684260	2502.932885
739.014290	2518.056346
739.344272	2444.959615
739.674207	2455.041923
740.004093	2485.288846
740.333931	2465.124231
740.663722	2533.179808
740.993464	2452.521346
741.323159	2492.850577
741.652806	2407.150962
741.982405	2427.315577
742.311956	2505.453462
742.641460	2535.700385
742.970915	2495.371154
743.300323	2568.467885
743.629683	2568.467885
743.958996	2487.809423
744.288260	2497.891731
744.617477	2507.974038
744.946647	2457.562500
745.275768	2513.015192
745.604842	2472.685962
745.933869	2548.303269
746.262847	2482.768269
746.591778	2523.097500
746.920662	2530.659231
747.249498	2495.371154
747.578286	2528.138654
747.907027	2530.659231
748.235720	2470.165385
748.564365	2530.659231
748.892963	2452.521346
749.221514	2523.097500
749.550017	2581.070769
749.878473	2515.535769
750.206881	2535.700385
750.535242	2565.947308
750.863555	2545.782692
751.191821	2525.618077
751.520039	2518.056346
751.848210	2507.974038
752.176334	2528.138654
752.504411	2492.850577
752.832440	2422.274423
753.160421	2518.056346
753.488356	2528.138654
753.816243	2386.986346
754.144082	2439.918462
754.471875	2500.412308
754.799620	2573.509038
755.127318	2457.562500
755.454969	2492.850577
755.782572	2480.247692
756.110129	2424.795000
756.437638	2444.959615
756.765100	2518.056346
757.092515	2429.836154
757.419882	2510.494615
757.747203	2432.356731
758.074477	2427.315577
758.401703	2497.891731
758.728882	2475.206538
759.056014	2545.782692
759.383099	2535.700385
759.710138	2442.439038
760.037129	2513.015192
760.364073	2477.727115
760.690970	2502.932885
761.017820	2462.603654
761.344623	2490.330000
761.671379	2490.330000
761.998088	2513.015192
762.324751	2560.906154
762.651366	2455.041923
762.977935	2495.371154
763.304456	2475.206538
763.630931	2439.918462
763.957359	2500.412308
764.283740	2502.932885
764.610074	2462.603654
764.936362	2442.439038
765.262602	2490.330000
765.588796	2460.083077
765.914943	2470.165385
766.241044	2475.206538
766.567097	2444.959615
766.893104	2601.235385
767.219064	2429.836154
767.544978	2535.700385
767.870845	2427.315577
768.196665	2578.550192
768.522438	2490.330000
768.848165	2505.453462
769.173846	2477.727115
769.499479	2528.138654
769.825066	2472.685962
770.150607	2550.823846
770.476101	2472.685962
770.801548	2553.344423
771.126949	2502.932885
771.452303	2530.659231
771.777611	2475.206538
772.102872	2495.371154
772.428087	2525.618077
772.753256	2465.124231
773.078378	2515.535769
773.403453	2442.439038
773.728482	2502.932885
774.053465	2568.467885
774.378401	2472.685962
774.703291	2588.632500
775.028135	2550.823846
775.352932	2480.247692
775.677683	2432.356731
776.002388	2565.947308
776.327046	2457.562500
776.651658	2570.988462
776.976224	2540.741538
777.300743	2470.165385
777.625216	2533.179808
777.949643	2467.644808
778.274024	2515.535769
778.598359	2495.371154
778.922647	2550.823846
779.246889	2490.330000
779.571086	2482.768269
779.895236	2497.891731
780.219339	2477.727115
780.543397	2490.330000
780.867409	2450.000769
781.191374	2475.206538
781.515294	2548.303269
781.839167	2482.768269
782.162995	2450.000769
782.486776	2434.877308
782.810511	2502.932885
783.134201	2392.027500
783.457844	2500.412308
783.781441	2525.618077
784.104993	2513.015192
784.428498	2510.494615
784.751958	2505.453462
785.075372	2490.330000
785.398739	2502.932885
785.722061	2530.659231
786.045337	2460.083077
786.368568	2513.015192
786.691752	2530.659231
787.014891	2540.741538
787.337983	2470.165385
787.661030	2515.535769
787.984031	2530.659231
788.306987	2535.700385
788.629897	2490.330000
788.952760	2565.947308
789.275579	2502.932885
789.598351	2475.206538
789.921078	2548.303269
790.243759	2515.535769
790.566395	2482.768269
790.888984	2480.247692
791.211529	2497.891731
791.534027	2457.562500
791.856480	2467.644808
792.178888	2535.700385
792.501249	2525.618077
792.823566	2482.768269
793.145836	2447.480192
793.468062	2578.550192
793.790241	2497.891731
794.112375	2497.891731
794.434464	2505.453462
794.756507	2452.521346
795.078505	2507.974038
795.400457	2573.509038
795.722364	2513.015192
796.044226	2482.768269
796.366042	2450.000769
796.687812	2593.673654
797.009538	2434.877308
797.331218	2540.741538
797.652852	2429.836154
797.974442	2500.412308
798.295986	2505.453462
798.617484	2422.274423
798.938938	2429.836154
799.260346	2424.795000
799.581709	2525.618077
799.903026	2452.521346
800.224299	2455.041923
800.545526	2444.959615
800.866708	2462.603654
801.187845	2477.727115
801.508936	2545.782692
801.829983	2432.356731
802.150984	2447.480192
802.471940	2510.494615
802.792851	2507.974038
803.113717	2553.344423
803.434538	2444.959615
803.755314	2548.303269
804.076045	2520.576923
804.396731	2518.056346
804.717372	2586.111923
805.037967	2543.262115
805.358518	2462.603654
805.679024	2535.700385
805.999485	2518.056346
806.319901	2497.891731
806.640272	2570.988462
806.960598	2475.206538
807.280879	2578.550192
807.601115	2518.056346
807.921306	2518.056346
808.241453	2495.371154
808.561554	2548.303269
808.881611	2477.727115
809.201623	2487.809423
809.521590	2502.932885
809.841513	2462.603654
810.161390	2472.685962
810.481223	2513.015192
810.801011	2477.727115
811.120755	2414.712692
811.440453	2414.712692
811.760107	2515.535769
812.079716	2455.041923
812.399281	2482.768269
812.718801	2477.727115
813.038276	2543.262115
813.357707	2533.179808
813.677093	2513.015192
813.996434	2535.700385
814.315731	2427.315577
814.634983	2550.823846
814.954191	2606.276538
815.273354	2444.959615
815.592473	2548.303269
815.911547	2528.138654
816.230577	2535.700385
816.549562	2533.179808
816.868502	2502.932885
817.187399	2513.015192
817.506250	2477.727115
817.825058	2452.521346
818.143821	2510.494615
818.462539	2540.741538
818.781213	2495.371154
819.099843	2447.480192
819.418429	2510.494615
819.736970	2505.453462
820.055466	2490.330000
820.373919	2507.974038
820.692327	2502.932885
821.010691	2530.659231
821.329011	2492.850577
821.647286	2485.288846
821.965517	2518.056346
822.283704	2485.288846
822.601847	2550.823846
822.919945	2475.206538
823.237999	2457.562500
823.556010	2331.533654
823.873976	2533.179808
824.191897	2530.659231
824.509775	2502.932885
824.827609	2528.138654
825.145398	2555.865000
825.463144	2480.247692
825.780845	2560.906154
826.098502	2409.671538
826.416116	2528.138654
826.733685	2518.056346
827.051210	2450.000769
827.368692	2480.247692
827.686129	2540.741538
828.003522	2497.891731
828.320872	2513.015192
828.638177	2550.823846
828.955439	2500.412308
829.272656	2429.836154
829.589830	2472.685962
829.906960	2374.383462
830.224046	2495.371154
830.541088	2505.453462
830.858086	2530.659231
831.175041	2591.153077
831.491952	2548.303269
831.808819	2543.262115
832.125642	2492.850577
832.442421	2465.124231
832.759157	2510.494615
833.075849	2482.768269
833.392497	2480.247692
833.709101	2480.247692
834.025662	2477.727115
834.342179	2520.576923
834.658653	2560.906154
834.975083	2591.153077
835.291469	2505.453462
835.607811	2497.891731
835.924110	2570.988462
836.240366	2434.877308
836.556578	2505.453462
836.872746	2472.685962
837.188871	2533.179808
837.504952	2429.836154
837.820990	2472.685962
838.136984	2583.591346
838.452935	2475.206538
838.768842	2495.371154
839.084706	2475.206538
839.400526	2535.700385
839.716303	2495.371154
840.032037	2477.727115
840.347727	2492.850577
840.663373	2447.480192
840.978977	2482.768269
841.294537	2447.480192
841.610054	2578.550192
841.925527	2540.741538
842.240957	2492.850577
842.556344	2570.988462
842.871687	2558.385577
843.186987	2467.644808
843.502244	2555.865000
843.817458	2475.206538
844.132629	2500.412308
844.447756	2482.768269
844.762840	2417.233269
845.077881	2467.644808
845.392879	2452.521346
845.707833	2470.165385
846.022745	2439.918462
846.337613	2417.233269
846.652438	2578.550192
846.967221	2475.206538
847.281960	2470.165385
847.596656	2455.041923
847.911309	2533.179808
848.225919	2482.768269
848.540485	2497.891731
848.855009	2465.124231
849.169490	2452.521346
849.483928	2540.741538
849.798323	2520.576923
850.112675	2523.097500
850.426984	2543.262115
850.741251	2515.535769
851.055474	2550.823846
851.369654	2399.589231
851.683792	2475.206538
851.997887	2490.330000
852.311938	2538.220962
852.625947	2530.659231
852.939914	2560.906154
853.253837	2492.850577
853.567718	2530.659231
853.881555	2412.192115
854.195350	2490.330000
854.509103	2455.041923
854.822812	2530.659231
855.136479	2475.206538
855.450103	2495.371154
855.763685	2480.247692
856.077224	2497.891731
856.390720	2520.576923
856.704173	2523.097500
857.017584	2467.644808
857.330953	2424.795000
857.644278	2523.097500
857.957561	2515.535769
858.270802	2565.947308
858.584000	2518.056346
858.897155	2447.480192
859.210268	2560.906154
859.523339	2472.685962
859.836367	2558.385577
860.149352	2462.603654
860.462295	2467.644808
860.775195	2455.041923
861.088054	2414.712692
861.400869	2402.109808
861.713642	2475.206538
862.026373	2452.521346
862.339062	2487.809423
862.651708	2417.233269
862.964312	2565.947308
863.276873	2543.262115
863.589392	2505.453462
863.901869	2558.385577
864.214303	2492.850577
864.526696	2588.632500
864.839045	2455.041923
865.151353	2477.727115
865.463619	2452.521346
865.775842	2475.206538
866.088023	2462.603654
866.400162	2462.603654
866.712258	2548.303269
867.024313	2555.865000
867.336325	2543.262115
867.648296	2465.124231
867.960224	2419.753846
868.272110	2553.344423
868.583954	2477.727115
868.895755	2591.153077
869.207515	2472.685962
869.519233	2465.124231
869.830909	2530.659231
870.142542	2482.768269
870.454134	2495.371154
870.765684	2515.535769
871.077191	2477.727115
871.388657	2565.947308
871.700081	2384.465769
872.011463	2513.015192
872.322803	2381.945192
872.634101	2447.480192
872.945357	2492.850577
873.256571	2417.233269
873.567744	2424.795000
873.878874	2460.083077
874.189963	2467.644808
874.501010	2525.618077
874.812015	2482.768269
875.122979	2467.644808
875.433900	2505.453462
875.744780	2437.397885
876.055618	2427.315577
876.366415	2444.959615
876.677169	2447.480192
876.987882	2457.562500
877.298554	2487.809423
877.609183	2573.509038
877.919771	2472.685962
878.230317	2477.727115
878.540822	2528.138654
878.851285	2573.509038
879.161707	2500.412308
879.472087	2515.535769
879.782425	2467.644808
880.092722	2462.603654
880.402977	2455.041923
880.713191	2364.301154
881.023363	2477.727115
881.333494	2558.385577
881.643583	2434.877308
881.953631	2507.974038
882.263637	2447.480192
882.573602	2523.097500
882.883526	2447.480192
883.193408	2487.809423
883.503248	2518.056346
883.813048	2457.562500
884.122806	2444.959615
884.432522	2593.673654
884.742197	2593.673654
885.051831	2477.727115
885.361424	2563.426731
885.670975	2558.385577
885.980485	2530.659231
886.289954	2414.712692
886.599382	2482.768269
886.908768	2434.877308
887.218113	2487.809423
887.527417	2515.535769
887.836680	2492.850577
888.145901	2505.453462
888.455082	2467.644808
888.764221	2497.891731
889.073319	2518.056346
889.382376	2490.330000
889.691392	2427.315577
890.000366	2447.480192
890.309300	2452.521346
890.618193	2427.315577
890.927044	2455.041923
891.235855	2533.179808
891.544625	2513.015192
891.853353	2505.453462
892.162041	2376.904038
892.470687	2422.274423
892.779293	2480.247692
893.087858	2460.083077
893.396381	2553.344423
893.704864	2442.439038
894.013306	2455.041923
894.321707	2490.330000
894.630068	2510.494615
894.938387	2505.453462
895.246665	2515.535769
895.554903	2442.439038
895.863100	2485.288846
896.171256	2450.000769
896.479371	2477.727115
896.787446	2477.727115
897.095480	2485.288846
897.403473	2447.480192
897.711425	2485.288846
898.019336	2467.644808
898.327207	2462.603654
898.635038	2507.974038
898.942827	2442.439038
899.250576	2457.562500
899.558284	2613.838269
899.865952	2570.988462
900.173579	2427.315577
900.481165	2515.535769
900.788711	2583.591346
901.096216	2495.371154
901.403681	2434.877308
901.711105	2497.891731
902.018489	2563.426731
902.325832	2434.877308
902.633135	2497.891731
902.940397	2583.591346
903.247619	2533.179808
903.554800	2485.288846
903.861941	2492.850577
904.169041	2558.385577
904.476101	2485.288846
904.783121	2495.371154
905.090100	2523.097500
905.397039	2555.865000
905.703938	2442.439038
906.010796	2573.509038
906.317614	2523.097500
906.624391	2545.782692
906.931129	2477.727115
907.237826	2560.906154
907.544483	2455.041923
907.851099	2444.959615
908.157675	2538.220962
908.464211	2523.097500
908.770707	2500.412308
909.077163	2437.397885
909.383578	2518.056346
909.689954	2518.056346
909.996289	2560.906154
910.302584	2495.371154
910.608839	2467.644808
910.915054	2462.603654
911.221229	2507.974038
911.527363	2470.165385
911.833458	2533.179808
912.139513	2528.138654
912.445527	2560.906154
912.751502	2507.974038
913.057436	2480.247692
913.363331	2460.083077
913.669186	2432.356731
913.975000	2505.453462
914.280775	2518.056346
914.586510	2495.371154
914.892205	2490.330000
915.197859	2530.659231
915.503475	2502.932885
915.809050	2507.974038
916.114585	2533.179808
916.420081	2470.165385
916.725536	2490.330000
917.030952	2495.371154
917.336328	2487.809423
917.641665	2495.371154
917.946961	2475.206538
918.252218	2480.247692
918.557435	2487.809423
918.862612	2477.727115
919.167750	2528.138654
919.472848	2492.850577
919.777906	2480.247692
920.082925	2518.056346
920.387904	2502.932885
920.692843	2402.109808
920.997743	2439.918462
921.302603	2520.576923
921.607423	2402.109808
921.912204	2480.247692
922.216946	2480.247692
922.521647	2470.165385
922.826310	2495.371154
923.130932	2465.124231
923.435516	2450.000769
923.740059	2540.741538
924.044564	2480.247692
924.349028	2513.015192
924.653454	2417.233269
924.957840	2550.823846
925.262186	2434.877308
925.566493	2525.618077
925.870761	2480.247692
926.174989	2482.768269
926.479178	2550.823846
926.783328	2518.056346
927.087438	2497.891731
927.391509	2485.288846
927.695541	2470.165385
927.999533	2495.371154
928.303486	2467.644808
928.607400	2528.138654
928.911275	2417.233269
929.215110	2465.124231
929.518906	2543.262115
929.822663	2492.850577
930.126381	2497.891731
930.430060	2462.603654
930.733699	2472.685962
931.037299	2444.959615
931.340861	2530.659231
931.644383	2467.644808
931.947866	2419.753846
932.251309	2465.124231
932.554714	2497.891731
932.858080	2510.494615
933.161407	2563.426731
933.464694	2490.330000
933.767943	2442.439038
934.071153	2523.097500
934.374323	2490.330000
934.677455	2485.288846
934.980548	2565.947308
935.283602	2540.741538
935.586617	2485.288846
935.889593	2414.712692
936.192530	2513.015192
936.495428	2492.850577
936.798287	2485.288846
937.101108	2588.632500
937.403890	2447.480192
937.706632	2555.865000
938.009336	2485.288846
938.312002	2422.274423
938.614628	2482.768269
938.917216	2422.274423
939.219765	2467.644808
939.522275	2507.974038
939.824747	2490.330000
940.127179	2480.247692
940.429573	2495.371154
940.731929	2518.056346
941.034246	2437.397885
941.336524	2510.494615
941.638763	2419.753846
941.940964	2518.056346
942.243126	2538.220962
942.545250	2447.480192
942.847335	2475.206538
943.149381	2510.494615
943.451389	2507.974038
943.753359	2462.603654
944.055290	2513.015192
944.357182	2447.480192
944.659036	2485.288846
944.960851	2482.768269
945.262628	2490.330000
945.564367	2429.836154
945.866067	2432.356731
946.167729	2533.179808
946.469352	2545.782692
946.770937	2500.412308
947.072484	2535.700385
947.373992	2560.906154
947.675462	2520.576923
947.976893	2543.262115
948.278286	2470.165385
948.579641	2467.644808
948.880958	2450.000769
949.182236	2500.412308
949.483476	2515.535769
949.784678	2500.412308
950.085841	2427.315577
950.386967	2500.412308
950.688054	2525.618077
950.989103	2417.233269
951.290114	2530.659231
951.591087	2497.891731
951.892021	2470.165385
952.192917	2462.603654
952.493776	2538.220962
952.794596	2455.041923
953.095378	2513.015192
953.396122	2485.288846
953.696828	2530.659231
953.997496	2422.274423
954.298126	2538.220962
954.598718	2419.753846
954.899272	2457.562500
955.199788	2530.659231
955.500266	2545.782692
955.800706	2467.644808
956.101108	2485.288846
956.401472	2528.138654
956.701798	2439.918462
957.002087	2523.097500
957.302337	2472.685962
957.602550	2507.974038
957.902724	2548.303269
958.202861	2555.865000
958.502960	2500.412308
958.803022	2475.206538
959.103045	2477.727115
959.403031	2543.262115
959.702979	2487.809423
960.002889	2485.288846
960.302762	2583.591346
960.602596	2497.891731
960.902393	2455.041923
961.202153	2407.150962
961.501875	2492.850577
961.801559	2500.412308
962.101205	2523.097500
962.400814	2467.644808
962.700385	2472.685962
962.999918	2505.453462
963.299414	2490.330000
963.598873	2450.000769
963.898293	2502.932885
964.197677	2470.165385
964.497022	2492.850577
964.796331	2480.247692
965.095601	2480.247692
965.394835	2444.959615
965.694030	2545.782692
965.993189	2505.453462
966.292309	2455.041923
966.591393	2525.618077
966.890439	2447.480192
967.189447	2528.138654
967.488419	2548.303269
967.787353	2573.509038
968.086249	2543.262115
968.385108	2472.685962
968.683930	2502.932885
968.982714	2472.685962
969.281462	2465.124231
969.580172	2429.836154
969.878844	2581.070769
970.177480	2455.041923
970.476078	2530.659231
970.774639	2477.727115
971.073162	2515.535769
971.371649	2475.206538
971.670098	2487.809423
971.968510	2450.000769
972.266885	2482.768269
972.565223	2442.439038
972.863524	2578.550192
973.161788	2578.550192
973.460014	2475.206538
973.758204	2485.288846
974.056356	2535.700385
974.354471	2452.521346
974.652550	2502.932885
974.950591	2472.685962
975.248595	2467.644808
975.546563	2477.727115
975.844493	2480.247692
976.142386	2475.206538
976.440243	2525.618077
976.738062	2518.056346
977.035845	2457.562500
977.333590	2470.165385
977.631299	2507.974038
977.928971	2482.768269
978.226606	2528.138654
978.524204	2523.097500
978.821765	2510.494615
979.119290	2371.862885
979.416777	2540.741538
979.714228	2432.356731
980.011642	2570.988462
980.309020	2495.371154
980.606360	2485.288846
980.903664	2570.988462
981.200931	2470.165385
981.498162	2480.247692
981.795356	2472.685962
982.092513	2553.344423
982.389633	2414.712692
982.686717	2545.782692
982.983764	2394.548077
983.280775	2530.659231
983.577749	2475.206538
983.874686	2492.850577
984.171587	2447.480192
984.468451	2462.603654
984.765279	2460.083077
985.062070	2482.768269
985.358824	2444.959615
985.655543	2452.521346
985.952224	2475.206538
986.248869	2535.700385
986.545478	2515.535769
986.842050	2492.850577
987.138586	2490.330000
987.435086	2457.562500
987.731549	2452.521346
988.027975	2462.603654
988.324366	2455.041923
988.620719	2555.865000
988.917037	2573.509038
989.213318	2520.576923
989.509563	2389.506923
989.805772	2492.850577
990.101944	2558.385577
990.398080	2409.671538
990.694180	2560.906154
990.990244	2530.659231
991.286271	2475.206538
991.582262	2523.097500
991.878217	2520.576923
992.174136	2565.947308
992.470019	2550.823846
992.765865	2447.480192
993.061676	2510.494615
993.357450	2450.000769
993.653188	2523.097500
993.948890	2545.782692
994.244556	2477.727115
994.540186	2535.700385
994.835780	2545.782692
995.131337	2460.083077
995.426859	2518.056346
995.722345	2492.850577
996.017795	2472.685962
996.313208	2548.303269
996.608586	2480.247692
996.903928	2457.562500
997.199234	2555.865000
997.494504	2500.412308
997.789738	2502.932885
998.084936	2465.124231
998.380099	2437.397885
998.675225	2518.056346
998.970316	2626.441154
999.265371	2429.836154
999.560390	2502.932885
999.855373	2437.397885
1000.150320	2502.932885
1000.445232	2442.439038
1000.740108	2510.494615
1001.034948	2500.412308
1001.329752	2467.644808
1001.624521	2480.247692
1001.919254	2535.700385
1002.213951	2550.823846
1002.508613	2475.206538
1002.803239	2477.727115
1003.097829	2515.535769
1003.392384	2482.768269
1003.686903	2475.206538
1003.981386	2457.562500
1004.275834	2492.850577
1004.570246	2457.562500
1004.864623	2581.070769
1005.158964	2412.192115
1005.453270	2447.480192
1005.747540	2510.494615
1006.041775	2513.015192
1006.335974	2545.782692
1006.630138	2485.288846
1006.924266	2578.550192
1007.218359	2480.247692
1007.512416	2475.206538
1007.806438	2452.521346
1008.100425	2447.480192
1008.394376	2513.015192
1008.688292	2490.330000
1008.982172	2412.192115
1009.276017	2515.535769
1009.569827	2442.439038
1009.863602	2520.576923
1010.157341	2505.453462
1010.451045	2596.194231
1010.744714	2497.891731
1011.038347	2455.041923
1011.331945	2480.247692
1011.625508	2437.397885
1011.919036	2417.233269
1012.212528	2417.233269
1012.505986	2407.150962
1012.799408	2495.371154
1013.092795	2472.685962
1013.386147	2553.344423
1013.679464	2492.850577
1013.972745	2427.315577
1014.265992	2452.521346
1014.559204	2591.153077
1014.852380	2480.247692
1015.145521	2515.535769
1015.438628	2472.685962
1015.731699	2510.494615
1016.024736	2414.712692
1016.317737	2465.124231
1016.610703	2467.644808
1016.903635	2510.494615
1017.196531	2601.235385
1017.489393	2437.397885
1017.782219	2513.015192
1018.075011	2457.562500
1018.367768	2525.618077
1018.660490	2560.906154
1018.953177	2560.906154
1019.245829	2560.906154
