Dividing Wavelength (nm)	Counts (n)	Blue Motor Position (mm): 0.000000	Red Motor Position (mm): 44.000000	
326.493990	2137.476957
326.888308	2137.476957
327.282561	2137.476957
327.676750	2113.833946
328.070874	2113.685232
328.464933	2118.925511
328.858929	2126.285596
329.252859	2141.789664
329.646726	2155.950265
330.040528	2168.585918
330.434265	2187.943948
330.827938	2206.419777
331.221547	2224.303270
331.615091	2247.666498
332.008571	2264.844230
332.401986	2288.033537
332.795338	2306.920220
333.188625	2326.429486
333.581847	2346.183247
333.975006	2367.219982
334.368100	2384.375028
334.761129	2401.411608
335.154095	2416.368711
335.546996	2439.379058
335.939833	2465.467029
336.332606	2479.562095
336.725315	2488.661378
337.117960	2497.803511
337.510540	2507.822804
337.903056	2512.969822
338.295508	2524.375433
338.687896	2527.957172
339.080220	2537.205169
339.472480	2544.293031
339.864676	2545.361756
340.256807	2548.535162
340.648875	2551.184289
341.040879	2553.999773
341.432818	2553.072201
341.824694	2554.471121
342.216506	2556.222922
342.608253	2555.902809
342.999937	2553.351985
343.391557	2553.155380
343.783113	2551.950544
344.174605	2550.571788
344.566033	2551.758980
344.957397	2551.466593
345.348697	2544.466951
345.739934	2544.257743
346.131106	2541.336395
346.522215	2540.272711
346.913260	2538.830941
347.304241	2535.851619
347.695159	2537.482432
348.086012	2534.435055
348.476802	2534.543440
348.867528	2532.224509
349.258191	2531.833820
349.648789	2528.836854
350.039324	2526.671678
350.429796	2528.405835
350.820203	2528.849457
351.210548	2528.448685
351.600828	2523.314270
351.991045	2524.687984
352.381198	2523.420134
352.771288	2522.263189
353.161314	2523.944414
353.551276	2524.009949
353.941175	2522.043899
354.331010	2523.213447
354.720782	2523.432737
355.110490	2524.438447
355.500135	2524.239321
355.889717	2528.133613
356.279235	2524.632531
356.668689	2527.246370
357.058080	2523.674712
357.447408	2524.771163
357.836672	2522.598426
358.225873	2526.102028
358.615010	2524.420803
359.004084	2527.437933
359.393095	2528.786442
359.782043	2529.628315
360.170927	2529.035979
360.559748	2530.127389
360.948505	2530.944056
361.337199	2530.903727
361.725830	2531.468336
362.114398	2531.007070
362.502903	2532.688295
362.891344	2532.650487
363.279722	2533.464633
363.668037	2536.385982
364.056289	2533.676361
364.444478	2535.082843
364.832603	2535.032432
365.220665	2537.139634
365.608665	2534.326670
365.996601	2536.116280
366.384474	2536.038142
366.772284	2538.505787
367.160031	2535.854140
367.547715	2538.876312
367.935336	2537.779861
368.322893	2538.110056
368.710388	2539.516538
369.097820	2539.239275
369.485189	2539.879501
369.872495	2542.135417
370.259738	2537.978986
370.646918	2539.766075
371.034035	2540.645757
371.421090	2540.219779
371.808081	2539.231713
372.195010	2540.038298
372.581875	2541.233051
372.968678	2545.954092
373.355418	2544.353525
373.742096	2546.306972
374.128710	2550.017262
374.515262	2548.222611
374.901751	2546.909390
375.288177	2547.708413
375.674540	2550.203784
376.060841	2552.537838
376.447079	2554.841646
376.833254	2557.586554
377.219367	2555.819630
377.605417	2557.818447
377.991404	2561.727862
378.377329	2563.066288
378.763191	2564.717266
379.148991	2570.491908
379.534727	2580.080182
379.920402	2580.659915
380.306013	2579.462641
380.691563	2587.541090
381.077049	2591.546287
381.462474	2596.075764
381.847835	2599.919643
382.233134	2608.169492
382.618371	2611.524380
383.003545	2618.997890
383.388657	2621.775566
383.773706	2630.237143
384.158693	2633.463481
384.543618	2643.865902
384.928480	2645.728608
385.313280	2655.586585
385.698017	2662.934067
386.082692	2673.901097
386.467305	2678.049966
386.851856	2687.239990
387.236344	2697.740713
387.620770	2704.662217
388.005133	2713.678321
388.389435	2724.690722
388.773674	2729.479818
389.157851	2739.720922
389.541965	2748.731984
389.926018	2752.517891
390.310008	2763.063985
390.693936	2774.073865
391.077802	2783.742798
391.461606	2790.397121
391.845348	2800.728966
392.229027	2812.928558
392.612645	2823.668736
392.996200	2832.992350
393.379694	2847.899042
393.763125	2863.776156
394.146494	2871.458875
394.529801	2883.406409
394.913047	2897.877042
395.296230	2903.253432
395.679351	2905.272414
396.062410	2929.323759
396.445408	2921.784714
396.828343	2935.121086
397.211217	2939.461520
397.594028	2935.373144
397.976778	2948.853189
398.359466	2960.750312
398.742092	2957.677729
399.124656	2976.342601
399.507158	2985.930876
399.889598	2994.415138
400.271977	3006.218999
400.654294	3013.881553
401.036549	3029.743544
401.418742	3033.584903
401.800874	3055.796227
402.182944	3061.714542
402.564952	3087.563058
402.946898	3079.401430
403.328783	3092.392483
403.710606	3104.730707
404.092367	3131.743730
404.474067	3158.555107
404.855705	3144.172695
405.237282	3145.649753
405.618797	3175.231244
406.000250	3199.229657
406.381642	3229.085890
406.762972	3234.822723
407.144240	3223.860734
407.525447	3247.425608
407.906593	3247.168509
408.287677	3265.006632
408.668700	3287.102009
409.049661	3282.756535
409.430560	3298.865542
409.811399	3303.657159
410.192176	3322.203564
410.572891	3330.408042
410.953545	3372.110987
411.334138	3339.666121
411.714669	3394.145870
412.095139	3337.448013
412.475547	3386.984911
412.855894	3377.994013
413.236180	3408.460227
413.616405	3389.442474
413.996568	3412.740166
414.376670	3415.238058
414.756711	3412.619178
415.136691	3437.461985
415.516609	3458.745736
415.896466	3463.010552
416.276262	3492.546673
416.655997	3523.827032
417.035670	3525.906508
417.415283	3596.472580
417.794834	3617.589973
418.174324	3600.140019
418.553753	3599.802262
418.933121	3643.725835
419.312428	3632.665544
419.691674	3630.976757
420.070859	3669.166018
420.449983	3649.150117
420.829045	3697.315821
421.208047	3683.314017
421.586988	3727.230028
421.965867	3759.090121
422.344686	3765.053806
422.723444	3801.692912
423.102141	3708.088767
423.480777	3811.823110
423.859352	3778.332205
424.237866	3876.354921
424.616319	3856.906149
424.994712	3918.927465
425.373044	3908.681320
425.751314	3974.700271
426.129524	3910.153337
426.507673	4012.745859
426.885762	3986.708299
427.263789	4006.565404
427.641756	4012.874408
428.019662	4041.341804
428.397508	4041.041855
428.775292	4079.089964
429.153016	4086.835697
429.530679	4099.030248
429.908282	4110.856795
430.285824	4088.032971
430.663305	4162.039630
431.040726	4120.326602
431.418086	4108.706743
431.795385	4188.273794
432.172624	4217.973752
432.549802	4181.972352
432.926920	4206.842885
433.303977	4196.127912
433.680974	4239.254983
434.057910	4260.795834
434.434786	4267.026700
434.811601	4259.033950
435.188355	4364.091597
435.565050	4333.259900
435.941683	4333.156556
436.318257	4422.793312
436.694770	4427.146349
437.071222	4481.883197
437.447614	4421.154937
437.823946	4420.431532
438.200218	4442.484059
438.576429	4419.708126
438.952580	4445.077733
439.328670	4454.648364
439.704700	4494.612111
440.080670	4459.581133
440.456580	4521.491543
440.832429	4556.162079
441.208218	4455.318837
441.583947	4508.986961
441.959616	4522.807284
442.335224	4548.575142
442.710773	4572.951642
443.086261	4626.733191
443.461689	4575.807455
443.837057	4589.690793
444.212365	4661.391124
444.587612	4670.520654
444.962800	4637.216271
445.337927	4676.428886
445.712995	4564.487544
446.088002	4757.694807
446.462949	4777.942601
446.837837	4796.310045
447.212664	4784.256646
447.587431	5005.225543
447.962139	5301.597498
448.336786	5639.004445
448.711374	5632.070338
449.085901	5276.714363
449.460369	5212.565680
449.834776	5146.778622
450.209124	5377.406369
450.583412	5390.702413
450.957640	5510.734806
451.331808	5378.369230
451.705917	5227.822732
452.079965	5218.897369
452.453954	5254.193008
452.827883	5220.003902
453.201752	5227.190067
453.575562	5259.254326
453.949311	5390.856168
454.323001	5396.035953
454.696632	5392.663422
455.070202	5543.449374
455.443713	5574.659158
455.817164	5663.300286
456.190556	5736.059260
456.563888	5708.970620
456.937160	5792.011026
457.310373	5633.212160
457.683526	5686.721487
458.056619	5679.036248
458.429653	5656.058669
458.802628	5709.154622
459.175542	5735.996245
459.548398	5873.493717
459.921194	6061.785854
460.293930	6123.918075
460.666607	6369.626434
461.039224	6586.055772
461.411782	6710.249638
461.784280	6633.079655
462.156719	6642.055429
462.529099	6598.762000
462.901419	6457.304702
463.273680	6322.778991
463.645882	6311.201982
464.018024	6312.510161
464.390106	6376.462239
464.762130	6636.981508
465.134094	7019.771443
465.505999	7647.372411
465.877845	8348.486006
466.249631	8714.100730
466.621358	8641.460223
466.993026	8448.252961
467.364634	8227.092501
467.736184	7945.165972
468.107674	7797.931512
468.479105	7707.858696
468.850477	7646.323851
469.221790	7466.442879
469.593043	7253.741475
469.964238	7151.196844
470.335373	7124.327494
470.706449	7282.105527
471.077467	7460.448947
471.448425	8110.843493
471.819324	8693.316052
472.190164	8739.361952
472.560945	8262.637677
472.931667	7794.642159
473.302330	7595.171263
473.672934	7473.298848
474.043479	7552.704583
474.413965	7451.926877
474.784393	7403.919969
475.154761	7560.110038
475.525070	7570.348622
475.895321	7518.860797
476.265513	7620.321580
476.635645	7784.862321
477.005719	7767.684589
477.375734	7855.733382
477.745691	7967.165567
478.115588	8167.470774
478.485427	8403.701764
478.855207	8874.243064
479.224928	9308.866143
479.594591	9685.510911
479.964194	9695.933497
480.333739	9784.100757
480.703226	9784.123442
481.072653	9888.109843
481.442022	9994.773097
481.811333	10146.849585
482.180584	9990.500719
482.549777	9930.866390
482.918912	9869.926401
483.287988	9858.268733
483.657005	9767.099466
484.025964	9684.064100
484.394864	9738.566535
484.763706	9703.538078
485.132489	9610.876629
485.501213	9610.213717
485.869879	9668.953242
486.238487	9606.788253
486.607036	9669.164970
486.975527	9629.791038
487.343959	9670.392491
487.712333	9722.313855
488.080648	9771.064333
488.448905	9867.131082
488.817104	9866.735351
489.185244	10039.823368
489.553326	10241.887938
489.921350	10712.270442
490.289315	11335.372180
490.657222	11622.985131
491.025070	11801.404168
491.392861	11730.036553
491.760593	11571.041082
492.128267	11311.638428
492.495883	11081.827348
492.863440	10846.468477
493.230939	10621.635537
493.598380	10444.207086
493.965763	10417.294886
494.333088	10294.424323
494.700354	10216.518331
495.067563	10185.336274
495.434713	10193.949085
495.801805	10236.814017
496.168839	10195.375732
496.535815	10163.397172
496.902733	10205.657165
497.269593	10170.482514
497.636395	10175.470736
498.003139	10283.174988
498.369825	10217.413136
498.736453	10303.727772
499.103023	10248.023022
499.469535	10261.034240
499.835989	10299.021855
500.202385	10275.572928
500.568723	10294.441967
500.935003	10352.652170
501.301226	10316.509618
501.667390	10494.089303
502.033497	10592.638820
502.399546	10521.684579
502.765537	10424.435680
503.131470	10528.268326
503.497345	10625.557554
503.863163	10393.941741
504.228923	10529.072390
504.594625	10641.389298
504.960269	10546.474453
505.325856	10698.780314
505.691385	10583.267315
506.056856	10644.391305
506.422270	10748.544064
506.787625	10691.556340
507.152924	10739.230532
507.518164	10801.408124
507.883347	10665.607001
508.248472	10745.819320
508.613540	10852.853099
508.978550	10923.139386
509.343503	10901.391849
509.708398	10963.095572
510.073236	11084.118552
510.438016	11098.538773
510.802738	11007.097283
511.167403	11135.455142
511.532010	11195.459997
511.896561	11298.012189
512.261053	11490.375058
512.625488	11407.246431
512.989866	11395.283773
513.354186	11369.830987
513.718449	11376.450022
514.082655	11523.611386
514.446803	11478.946763
514.810894	11586.154461
515.174927	11581.940056
515.538904	11573.196175
515.902822	11723.654453
516.266684	11594.376583
516.630488	11698.103364
516.994235	11692.003568
517.357925	11800.642954
517.721558	11862.145031
518.085133	11932.451483
518.448651	11962.640433
518.812112	11913.902558
519.175516	11929.197418
519.538863	12018.040193
519.902152	12025.496060
520.265385	12125.832665
520.628560	12149.621870
520.991678	12094.254877
521.354739	12155.542705
521.717743	12221.329763
522.080690	12190.094774
522.443580	12314.313846
522.806413	12334.843945
523.169189	12332.368738
523.531908	12385.081563
523.894569	12346.368023
524.257174	12360.722708
524.619722	12477.281747
524.982213	12448.506841
525.344647	12440.355295
525.707025	12443.238835
526.069345	12547.442005
526.431608	12527.393337
526.793815	12609.302004
527.155964	12501.050787
527.518057	12536.525387
527.880093	12500.828976
528.242072	12603.650871
528.603995	12531.222093
528.965860	12551.603478
529.327669	12579.400400
529.689421	12533.364583
530.051117	12540.225594
530.412755	12575.198598
530.774337	12583.181266
531.135862	12545.433106
531.497331	12594.365065
531.858743	12560.433059
532.220098	12639.395172
532.581396	12559.230744
532.942638	12483.888179
533.303824	12550.519630
533.664953	12539.497147
534.026025	12497.164057
534.387040	12602.408226
534.747999	12582.888879
535.108902	12625.925209
535.469748	12496.135662
535.830537	12530.017257
536.191270	12563.324161
536.551947	12488.526040
536.912567	12556.137996
537.273131	12587.078077
537.633638	12466.178605
537.994089	12511.155780
538.354483	12428.120414
538.714821	12560.957339
539.075103	12640.894915
539.435328	12590.649735
539.795497	12563.792988
540.155609	12562.943553
540.515665	12665.508349
540.875665	12528.572967
541.235609	12616.026903
541.595496	12582.399887
541.955328	12746.433992
542.315102	12601.215993
542.674821	12527.239581
543.034483	12543.535111
543.394090	12556.067420
543.753640	12523.153726
544.113134	12765.875202
544.472571	12525.984334
544.831953	12801.952219
545.191278	12625.327832
545.550548	12565.055797
545.909761	12673.057477
546.268918	12718.967265
546.628019	12775.922221
546.987064	12672.376921
547.346053	12522.243798
547.704986	12716.000546
548.063863	12595.408584
548.422684	12657.376968
548.781449	12614.506996
549.140158	12704.751211
549.498811	12658.075168
549.857408	12523.010053
550.215949	12731.580232
550.574434	12691.462730
550.932864	12634.374183
551.291237	12834.268536
551.649555	12725.755179
552.007817	12781.366667
552.366022	12707.617107
552.724173	12749.015062
553.082267	12830.724605
553.440305	12923.438986
553.798288	12743.631110
554.156215	12819.039210
554.514086	12868.487888
554.871902	12815.817913
555.229661	12832.108401
555.587365	12786.727934
555.945014	12801.712764
556.302606	12779.682922
556.660143	12843.251872
557.017625	12870.922765
557.375050	12830.676714
557.732421	12942.234928
558.089735	12933.261674
558.446994	12897.560222
558.804197	13009.468797
559.161345	13013.632790
559.518437	12823.296464
559.875474	12926.085591
560.232455	12952.571814
560.589381	12996.245850
560.946251	12943.379270
561.303065	13109.606277
561.659825	13072.205956
562.016528	12977.074342
562.373177	12918.538984
562.729770	13035.382848
563.086307	12916.618304
563.442789	13036.335626
563.799216	13071.545565
564.155587	13009.183971
564.511904	13033.840255
564.868164	13046.022203
565.224370	13102.888939
565.580520	13054.844222
565.936615	13122.516672
566.292654	13055.179459
566.648638	13121.493317
567.004567	13124.144964
567.360441	13126.612609
567.716260	13092.025252
568.072023	13183.895240
568.427732	13160.337928
568.783385	13059.267835
569.138982	13174.191019
569.494525	13173.306297
569.850013	13121.004325
570.205445	13117.014252
570.560823	13122.257052
570.916145	13077.879775
571.271412	13095.400305
571.626625	13051.912791
571.981782	13039.841748
572.336884	12989.163029
572.691931	13071.096902
573.046923	12963.826190
573.401860	12948.609467
573.756743	12942.365998
574.111570	12965.520017
574.466342	12945.098303
574.821059	13003.782375
575.175722	12871.890667
575.530330	12895.112742
575.884882	12826.744614
576.239380	12826.913492
576.593823	12810.645689
576.948211	12801.732929
577.302544	12684.856297
577.656823	12690.441896
578.011047	12751.573448
578.365216	12692.387781
578.719330	12638.311324
579.073389	12607.656067
579.427394	12625.463943
579.781344	12602.327568
580.135239	12536.830377
580.489080	12554.416442
580.842866	12433.209459
581.196597	12530.168492
581.550273	12523.183973
581.903895	12482.027993
582.257463	12593.581166
582.610975	12447.002056
582.964434	12513.041172
583.317837	12439.125253
583.671186	12396.235116
584.024481	12448.060698
584.377721	12330.790857
584.730906	12404.371539
585.084037	12409.130388
585.437113	12330.019561
585.790135	12363.520548
586.143103	12274.065273
586.496016	12282.852005
586.848874	12295.422122
587.201679	12299.127370
587.554428	12164.657112
587.907124	12212.601005
588.259765	12154.693271
588.612352	12219.441851
588.964884	12085.629463
589.317362	12141.656847
589.669786	12128.295269
590.022155	12082.466139
590.374470	12183.369875
590.726731	12072.887947
591.078937	11950.231633
591.431090	11984.176242
591.783188	11916.632342
592.135232	11834.955568
592.487222	11895.404043
592.839157	11908.059860
593.191038	11853.169257
593.542866	11791.674741
593.894639	11650.068730
594.246358	11712.644573
594.598022	11719.656818
594.949633	11616.983637
595.301190	11606.364447
595.652692	11574.065774
596.004141	11657.012919
596.355535	11443.749426
596.706876	11427.574884
597.058162	11395.412323
597.409395	11481.265693
597.760573	11511.310970
598.111698	11406.782645
598.462768	11398.815102
598.813785	11415.466033
599.164748	11288.083637
599.515657	11356.943278
599.866511	11230.430481
600.217312	11361.649195
600.568060	11127.230500
600.918753	11290.642022
601.269392	11286.052052
601.619978	11196.342198
601.970510	11235.080945
602.320988	11283.327308
602.671412	11350.742658
603.021783	11268.730647
603.372100	11200.387724
603.722363	11223.183822
604.072572	11228.976108
604.422728	11229.770090
604.772830	11174.418220
605.122878	11180.139930
605.472872	11151.256639
605.822813	11200.846469
606.172701	11170.347489
606.522534	11210.333921
606.872314	11256.931827
607.222041	11194.729029
607.571714	11265.456418
607.921333	11143.349589
608.270899	11192.195849
608.620411	11248.795404
608.969870	11195.147445
609.319276	11181.735455
609.668627	11182.718480
610.017926	11275.747933
610.367171	11298.677622
610.716362	11301.299022
611.065500	11267.354412
611.414585	11283.334870
611.763616	11343.795948
612.112594	11306.841770
612.461518	11337.915442
612.810389	11384.031918
613.159207	11332.551655
613.507971	11318.007926
613.856682	11420.237485
614.205340	11378.176618
614.553945	11511.089159
614.902496	11391.891077
615.250994	11452.294182
615.599439	11437.909250
615.947830	11473.598098
616.296169	11438.604929
616.644454	11454.847527
616.992686	11460.342384
617.340864	11560.875595
617.688990	11448.911568
618.037063	11581.090622
618.385082	11553.218082
618.733048	11595.969587
619.080961	11578.106259
619.428821	11558.443238
619.776628	11570.899929
620.124382	11517.740962
620.472083	11539.738037
620.819731	11555.489122
621.167326	11482.094963
621.514868	11464.264402
621.862357	11363.766479
622.209793	11350.228461
622.557176	11270.880699
622.904506	11215.949766
623.251783	11129.877106
623.599007	11076.135885
623.946179	11025.116887
624.293297	10997.216622
624.640363	10865.821467
624.987376	10857.916938
625.334336	10782.198807
625.681243	10698.172855
626.028097	10668.311580
626.374899	10628.337751
626.721647	10606.068453
627.068343	10565.242669
627.414987	10496.488892
627.761577	10435.458163
628.108115	10479.573301
628.454600	10355.109733
628.801032	10377.351303
629.147412	10359.740032
629.493739	10331.650723
629.840014	10253.061655
630.186236	10302.343975
630.532405	10192.996307
630.878521	10225.867151
631.224585	10175.967290
631.570597	10106.051527
631.916556	10102.605898
632.262462	10093.183982
632.608316	10074.141023
632.954117	10046.709584
633.299866	10017.836376
633.645562	10002.861628
633.991206	9910.797556
634.336797	9811.252412
634.682336	9799.819075
635.027823	9741.467719
635.373257	9700.815854
635.718639	9623.960943
636.063968	9601.593344
636.409245	9487.121343
636.754470	9471.627357
637.099642	9421.999717
637.444762	9325.217125
637.789829	9333.356068
638.134845	9256.417978
638.479808	9229.039472
638.824719	9207.975010
639.169577	9116.291545
639.514383	9120.571485
639.859137	9040.344042
640.203839	9077.656142
640.548489	8998.943566
640.893086	9006.245678
641.237632	8937.605327
641.582125	8941.376110
641.926566	8922.255013
642.270955	8910.970390
642.615292	8901.480418
642.959576	8876.912355
643.303809	8866.010860
643.647990	8881.487202
643.992118	8861.733441
644.336195	8831.950304
644.680219	8828.141712
645.024192	8868.612095
645.368112	8933.451416
645.711981	8908.863188
646.055797	9043.766986
646.399562	8995.785283
646.743274	9156.880396
647.086935	9224.265499
647.430544	9200.632570
647.774101	9216.827277
648.117606	9243.565557
648.461059	9298.912385
648.804460	9227.905212
649.147810	9110.884908
649.491108	9074.812932
649.834354	9008.630143
650.177548	8873.514617
650.520690	8783.784599
650.863781	8774.140872
651.206820	8740.377744
651.549807	8660.258686
651.892742	8565.225374
652.235626	8522.736009
652.578458	8487.052202
652.921238	8381.586222
653.263967	8403.641270
653.606644	8344.747990
653.949269	8314.869072
654.291843	8243.957681
654.634365	8308.678535
654.976836	8231.538798
655.319255	8217.920121
655.661622	8207.051394
656.003938	8170.891197
656.346203	8136.954149
656.688416	8163.788211
657.030577	8115.183927
657.372687	8077.798730
657.714746	8105.154551
658.056753	8118.165769
658.398708	8019.986777
658.740612	8013.776076
659.082465	8051.017600
659.424266	8004.520517
659.766016	8014.542331
660.107715	7981.404306
660.449362	8002.236875
660.790958	7996.573138
661.132503	7982.951941
661.473996	7976.216959
661.815438	7994.639856
662.156829	8013.478648
662.498168	7963.092315
662.839456	7955.979247
663.180693	7977.391548
663.521879	7997.036924
663.863013	7976.980694
664.204097	7968.229251
664.545129	8032.506483
664.886110	8020.664812
665.227040	8024.831326
665.567918	8027.898868
665.908746	8027.472891
666.249522	8047.508957
666.590248	8038.150055
666.930922	8048.907877
667.271545	8044.189357
667.612118	8049.749750
667.952639	8014.804471
668.293109	8007.729212
668.633528	7987.945203
668.973896	7970.999365
669.314213	7973.232596
669.654480	7923.163856
669.994695	7923.068074
670.334859	7900.173674
670.674973	7865.845937
671.015035	7888.647076
671.355047	7872.618727
671.695008	7856.590378
672.034918	7836.690423
672.374777	7826.519896
672.714585	7808.570867
673.054342	7826.512334
673.394049	7787.990357
673.733705	7821.105696
674.073310	7771.152903
674.412864	7778.046681
674.752368	7710.558234
675.091820	7764.788446
675.431223	7691.454781
675.770574	7642.260681
676.109875	7607.287677
676.449125	7573.232162
676.788324	7554.290026
677.127473	7473.124929
677.466571	7456.824358
677.805619	7393.227681
678.144616	7392.746251
678.483562	7366.260029
678.822458	7317.290260
679.161303	7296.056920
679.500098	7268.222189
679.838842	7247.135043
680.177535	7259.637104
680.516179	7285.067205
680.854771	7291.736652
681.193314	7391.569142
681.531805	7521.983792
681.870247	7627.323742
682.208638	7758.673527
682.546978	7824.957138
682.885268	7851.944955
683.223508	7780.899974
683.561697	7727.362920
683.899836	7690.670882
684.237925	7605.041843
684.575963	7575.097389
684.913951	7495.789956
685.251889	7501.824218
685.589776	7483.434088
685.927614	7467.536810
686.265401	7473.744991
686.603137	7468.434135
686.940824	7520.506734
687.278460	7558.879997
687.616046	7563.109525
687.953582	7650.901219
688.291068	7622.736292
688.628504	7668.436873
688.965889	7669.039291
689.303224	7618.022814
689.640510	7578.732061
689.977745	7476.283212
690.314930	7375.986935
690.652065	7294.993237
690.989150	7195.044800
691.326185	7068.279946
691.663170	6962.476209
692.000105	6854.630804
692.336990	6753.255721
692.673825	6688.023190
693.010610	6601.637978
693.347345	6515.209916
693.684030	6411.445326
694.020665	6365.890939
694.357251	6261.720536
694.693786	6251.439103
695.030272	6211.218257
695.366707	6115.821982
695.703093	6072.664664
696.039429	6058.466254
696.375716	6010.018245
696.711952	5997.667418
697.048139	5969.938551
697.384276	5936.324138
697.720363	5947.921312
698.056400	5921.568680
698.392388	5885.947887
698.728326	5878.786928
699.064214	5854.097877
699.400053	5842.510785
699.735842	5789.147651
700.071581	5750.103914
700.407270	5701.204722
700.742910	5675.424261
701.078501	5635.037057
701.414042	5594.775882
701.749533	5542.985588
702.084974	5490.038349
702.420366	5520.446589
702.755709	5453.714315
703.091002	5406.430813
703.426246	5408.679167
703.761440	5390.339450
704.096584	5353.826372
704.431679	5337.407334
704.766725	5315.974869
705.101721	5301.897447
705.436668	5312.393129
705.771565	5259.818935
706.106413	5305.723682
706.441212	5292.687258
706.775961	5305.766532
707.110661	5306.850380
707.445311	5353.579356
707.779913	5322.306558
708.114465	5346.189024
708.448967	5378.439806
708.783421	5464.066325
709.117825	5493.317620
709.452180	5509.608108
709.786485	5556.684924
710.120742	5652.108925
710.454949	5648.728831
710.789107	5698.555596
711.123216	5785.553308
711.457275	5801.127953
711.791286	5881.433534
712.125247	5892.597169
712.459159	5860.875708
712.793023	5960.806501
713.126837	5815.119676
713.460602	5856.000913
713.794318	5820.112938
714.127985	5774.019148
714.461602	5659.080841
714.795171	5657.197970
715.128691	5524.948340
715.462162	5450.346824
715.795584	5385.482298
716.128957	5349.538871
716.462281	5295.291014
716.795556	5260.053349
717.128782	5188.337894
717.461960	5111.538436
717.795088	5094.993369
718.128167	5040.990009
718.461198	4971.545594
718.794180	4947.519455
719.127113	4895.146907
719.459997	4871.720665
719.792833	4814.412828
720.125619	4805.721879
720.458357	4757.276391
720.791046	4728.909818
721.123686	4705.413000
721.456278	4665.950848
721.788821	4658.371473
722.121315	4622.228920
722.453761	4621.318992
722.786158	4606.545891
723.118506	4603.705201
723.450805	4580.450358
723.783056	4597.572637
724.115259	4573.284358
724.447412	4561.856062
724.779518	4589.579887
725.111574	4591.288839
725.443582	4613.865646
725.775542	4599.367288
726.107453	4663.606711
726.439315	4637.007063
726.771129	4681.477602
727.102895	4726.585846
727.434612	4753.742542
727.766281	4765.317031
728.097901	4802.787928
728.429473	4813.611285
728.760996	4816.041121
729.092471	4830.365560
729.423897	4815.552129
729.755276	4789.295279
730.086606	4795.485816
730.417887	4858.727091
730.749120	4911.263476
731.080305	4943.310091
731.411442	4985.723839
731.742530	4995.423019
732.073570	5007.718393
732.404562	5049.081061
732.735506	5036.475655
733.066401	5022.171381
733.397249	4971.578361
733.728048	4893.087596
734.058798	4789.524652
734.389501	4703.557855
734.720156	4636.578565
735.050762	4553.936409
735.381320	4504.054192
735.711831	4456.183395
736.042293	4400.750867
736.372707	4394.588057
736.703073	4353.807643
737.033391	4371.156774
737.363661	4356.182026
737.693883	4358.251420
738.024056	4371.297926
738.354182	4383.986510
738.684260	4415.808794
739.014290	4439.298050
739.344272	4458.701451
739.674207	4498.130836
740.004093	4511.643649
740.333931	4511.953680
740.663722	4520.775699
740.993464	4525.799209
741.323159	4511.784801
741.652806	4473.356086
741.982405	4447.905820
742.311956	4412.476591
742.641460	4397.065784
742.970915	4356.497098
743.300323	4311.547650
743.629683	4284.065800
743.958996	4246.607506
744.288260	4209.038307
744.617477	4168.830064
744.946647	4153.237775
745.275768	4115.865181
745.604842	4086.487857
745.933869	4061.478693
746.262847	4049.715160
746.591778	4041.180487
746.920662	4023.380173
747.249498	4019.619472
747.578286	4021.164586
747.907027	4034.591699
748.235720	4060.604053
748.564365	4067.452460
748.892963	4055.136921
749.221514	4063.369126
749.550017	4043.804407
749.878473	4037.548336
750.206881	4009.816948
750.535242	3999.888396
750.863555	3986.486488
751.191821	3967.052840
751.520039	3969.613746
751.848210	3956.549596
752.176334	3951.042136
752.504411	3938.177111
752.832440	3917.399995
753.160421	3927.925925
753.488356	3909.470260
753.816243	3894.626583
754.144082	3870.171946
754.471875	3859.366232
754.799620	3852.437166
755.127318	3842.306968
755.454969	3837.371678
755.782572	3828.751305
756.110129	3830.351871
756.437638	3818.580777
756.765100	3813.189263
757.092515	3811.560970
757.419882	3811.424859
757.747203	3804.440341
758.074477	3810.366217
758.401703	3807.170125
758.728882	3817.733863
759.056014	3823.929441
759.383099	3837.517872
759.710138	3850.014892
760.037129	3862.627859
760.364073	3865.327397
760.690970	3857.770707
761.017820	3859.877909
761.344623	3875.001371
761.671379	3908.134355
761.998088	3948.599697
762.324751	4081.537444
762.651366	4351.685317
762.977935	4760.157410
763.304456	5096.195684
763.630931	5281.105208
763.957359	5233.161314
764.283740	5050.850506
764.610074	4849.290051
764.936362	4610.853557
765.262602	4419.549330
765.588796	4218.175398
765.914943	4067.308787
766.241044	3927.812499
766.567097	3828.030420
766.893104	3738.174373
767.219064	3680.881660
767.544978	3622.096765
767.870845	3573.479877
768.196665	3539.109290
768.522438	3515.317565
768.848165	3490.336127
769.173846	3464.459884
769.499479	3443.254270
769.825066	3421.486568
770.150607	3400.669123
770.476101	3386.415261
770.801548	3369.897920
771.126949	3352.838656
771.452303	3341.337263
771.777611	3317.512770
772.102872	3314.021771
772.428087	3295.142650
772.753256	3281.057666
773.078378	3266.453443
773.403453	3246.964342
773.728482	3234.656365
774.053465	3224.591702
774.378401	3214.259857
774.703291	3199.537167
775.028135	3187.062832
775.352932	3178.371883
775.677683	3166.507527
776.002388	3156.331958
776.327046	3154.043274
776.651658	3140.260760
776.976224	3133.583751
777.300743	3128.610653
777.625216	3119.319807
777.949643	3114.402161
778.274024	3113.063735
778.598359	3097.673092
778.922647	3096.163266
779.246889	3094.179572
779.571086	3092.165631
779.895236	3092.725199
780.219339	3091.522884
780.543397	3091.290991
780.867409	3096.359871
781.191374	3095.318873
781.515294	3090.320569
781.839167	3096.233843
782.162995	3096.027155
782.486776	3089.259406
782.810511	3083.860330
783.134201	3076.706933
783.457844	3073.218455
783.781441	3065.820561
784.104993	3061.913667
784.428498	3060.267730
784.751958	3053.003428
785.075372	3051.486040
785.398739	3043.430277
785.722061	3044.211655
786.045337	3043.596635
786.368568	3053.250444
786.691752	3052.058211
787.014891	3074.433373
787.337983	3098.222578
787.661030	3145.879126
787.984031	3195.380736
788.306987	3235.241139
788.629897	3256.663522
788.952760	3259.998246
789.275579	3244.796646
789.598351	3213.133159
789.921078	3181.711647
790.243759	3148.445073
790.566395	3121.921042
790.888984	3099.329111
791.211529	3078.589804
791.534027	3054.046947
791.856480	3032.513658
792.178888	3022.532173
792.501249	3013.934485
792.823566	2997.863287
793.145836	2993.734582
793.468062	2987.181082
793.790241	2979.823518
794.112375	2981.232520
794.434464	2991.566886
794.756507	2991.062770
795.078505	3001.598782
795.400457	3018.295083
795.722364	3044.987993
796.044226	3073.163002
796.366042	3092.236208
796.687812	3086.370825
797.009538	3101.214503
797.331218	3092.606732
797.652852	3085.299580
797.974442	3076.691810
798.295986	3065.359296
798.617484	3049.686348
798.938938	3037.910213
799.260346	3030.721528
799.581709	3010.768641
799.903026	3004.681448
800.224299	2993.701814
800.545526	2979.029536
800.866708	2968.617033
801.187845	2964.354737
801.508936	2951.656071
801.829983	2948.684311
802.150984	2935.922630
802.471940	2927.912236
802.792851	2928.053388
803.113717	2923.657502
803.434538	2919.511153
803.755314	2918.117274
804.076045	2908.622261
804.396731	2905.325346
804.717372	2906.530182
805.037967	2906.363824
805.358518	2909.093609
805.679024	2914.898498
805.999485	2911.331881
806.319901	2914.487643
806.640272	2917.174578
806.960598	2921.890578
807.280879	2919.344795
807.601115	2924.766556
807.921306	2919.397727
808.241453	2921.658685
808.561554	2922.140115
808.881611	2919.100299
809.201623	2921.126843
809.521590	2914.543096
809.841513	2913.386151
810.161390	2915.536203
810.481223	2904.125552
810.801011	2900.135478
811.120755	2897.597258
811.440453	2892.805641
811.760107	2887.948489
812.079716	2882.042777
812.399281	2876.691593
812.718801	2869.691950
813.038276	2869.916282
813.357707	2869.001312
813.677093	2868.040973
813.996434	2860.958151
814.315731	2861.517719
814.634983	2860.254910
814.954191	2860.988398
815.273354	2864.670961
815.592473	2866.858822
815.911547	2873.629092
816.230577	2879.610421
816.549562	2891.590723
816.868502	2897.183883
817.187399	2901.935170
817.506250	2909.302817
817.825058	2913.865061
818.143821	2927.269489
818.462539	2940.810028
818.781213	2959.684108
819.099843	2992.612925
819.418429	3049.658622
819.736970	3111.286728
820.055466	3180.310206
820.373919	3267.602826
820.692327	3389.634038
821.010691	3589.750201
821.329011	4070.068819
821.647286	4948.847799
821.965517	6086.280820
822.283704	6950.407686
822.601847	7410.128150
822.919945	7105.367714
823.237999	6657.037738
823.556010	6158.923847
823.873976	5677.753274
824.191897	5224.593873
824.509775	4869.701683
824.827609	4518.008106
825.145398	4263.528139
825.463144	4090.583795
825.780845	4028.693549
826.098502	4057.473496
826.416116	4236.963779
826.733685	4458.729178
827.051210	4579.651335
827.368692	4526.971277
827.686129	4317.823887
828.003522	4083.785799
828.320872	3847.484233
828.638177	3670.282634
828.955439	3523.338040
829.272656	3394.985222
829.589830	3284.379786
829.906960	3182.921524
830.224046	3101.660645
830.541088	3038.520193
830.858086	2990.725013
831.175041	2955.139508
831.491952	2936.696447
831.808819	2930.556321
832.125642	2936.346087
832.442421	2972.871767
832.759157	3054.349416
833.075849	3203.867518
833.392497	3393.735016
833.709101	3550.242678
834.025662	3585.586208
834.342179	3524.880633
834.658653	3412.442738
834.975083	3302.890903
835.291469	3209.616954
835.607811	3129.906230
835.924110	3073.110070
836.240366	3011.791995
836.556578	2955.842749
836.872746	2904.866601
837.188871	2865.845550
837.504952	2833.156188
837.820990	2806.538896
838.136984	2785.650875
838.452935	2775.273659
838.768842	2772.601848
839.084706	2782.474948
839.400526	2836.576611
839.716303	2922.838315
840.032037	2998.904285
840.347727	3022.144004
840.663373	2979.891573
840.978977	2924.703542
841.294537	2876.426932
841.610054	2839.313957
841.925527	2814.140956
842.240957	2792.713531
842.556344	2773.955398
842.871687	2751.688621
843.186987	2730.591392
843.502244	2710.459544
843.817458	2696.931608
844.132629	2688.482634
844.447756	2682.675225
844.762840	2671.186435
845.077881	2668.378513
845.392879	2664.375837
845.707833	2659.521205
846.022745	2655.992398
846.337613	2657.280412
846.652438	2656.007521
846.967221	2652.753456
847.281960	2651.896460
847.596656	2649.098620
847.911309	2649.070893
848.225919	2646.920841
848.540485	2643.818011
848.855009	2643.581077
849.169490	2641.423463
849.483928	2642.043525
849.798323	2641.592342
850.112675	2640.016981
850.426984	2639.787609
850.741251	2639.588483
851.055474	2637.491363
851.369654	2639.243164
851.683792	2638.010602
851.997887	2636.992289
852.311938	2636.654532
852.625947	2636.064717
852.939914	2636.266363
853.253837	2639.908596
853.567718	2637.178812
853.881555	2636.586476
854.195350	2636.231075
854.509103	2637.846764
854.822812	2635.306023
855.136479	2634.809469
855.450103	2636.551188
855.763685	2633.891979
856.077224	2635.900879
856.390720	2634.527165
856.704173	2634.317957
857.017584	2634.275107
857.330953	2636.319295
857.644278	2636.480612
857.957561	2638.413894
858.270802	2639.754841
858.584000	2637.340128
858.897155	2639.134779
859.210268	2640.236271
859.523339	2631.653707
859.836367	2633.453399
860.149352	2634.121352
860.462295	2635.444655
860.775195	2628.334107
861.088054	2627.618263
861.400869	2630.264869
861.713642	2628.795373
862.026373	2627.721607
862.339062	2630.020373
862.651708	2630.743779
862.964312	2635.023718
863.276873	2635.069089
863.589392	2638.234933
863.901869	2638.844913
864.214303	2642.066210
864.526696	2646.227683
864.839045	2647.523259
865.151353	2649.123826
865.463619	2648.075266
865.775842	2646.963691
866.088023	2650.061480
866.400162	2647.699700
866.712258	2645.320275
867.024313	2649.670791
867.336325	2647.845893
867.648296	2648.372694
867.960224	2645.804226
868.272110	2646.643578
868.583954	2649.466624
868.895755	2646.729277
869.207515	2646.300779
869.519233	2648.387817
869.830909	2645.267343
870.142542	2651.165493
870.454134	2651.404948
870.765684	2651.798158
871.077191	2654.948879
871.388657	2656.236894
871.700081	2656.246976
872.011463	2658.573468
872.322803	2660.688232
872.634101	2662.087153
872.945357	2662.999602
873.256571	2668.749037
873.567744	2666.815755
873.878874	2668.708708
874.189963	2671.559481
874.501010	2673.049142
874.812015	2672.487053
875.122979	2671.975376
875.433900	2671.090653
875.744780	2671.652742
876.055618	2672.260201
876.366415	2672.562670
876.677169	2673.918741
876.987882	2672.865140
877.298554	2671.340191
877.609183	2673.573422
877.919771	2675.040397
878.230317	2679.088444
878.540822	2693.808613
878.851285	2697.254242
879.161707	2715.372149
879.472087	2739.436097
879.782425	2778.331119
880.092722	2858.435054
880.402977	3010.143538
880.713191	3246.102305
881.023363	3532.505379
881.333494	3756.251951
881.643583	3868.967110
881.953631	3858.557127
882.263637	3783.126342
882.573602	3689.411292
882.883526	3602.839557
883.193408	3514.037112
883.503248	3423.339192
883.813048	3345.571832
884.122806	3270.430914
884.432522	3188.663398
884.742197	3110.586008
885.051831	3033.801673
885.361424	2964.904223
885.670975	2907.684606
885.980485	2858.976978
886.289954	2826.171669
886.599382	2797.129582
886.908768	2771.943977
887.218113	2750.319948
887.527417	2734.188256
887.836680	2716.216542
888.145901	2703.729604
888.455082	2697.813810
888.764221	2687.817202
889.073319	2680.759587
889.382376	2676.489729
889.691392	2671.231806
890.000366	2671.017557
890.309300	2669.205262
890.618193	2667.196362
890.927044	2666.122596
891.235855	2667.697957
891.544625	2667.720642
891.853353	2669.333811
892.162041	2672.620644
892.470687	2682.382838
892.779293	2690.627645
893.087858	2699.240457
893.396381	2719.856255
893.704864	2749.049577
894.013306	2795.897020
894.321707	2851.218642
894.630068	2893.271948
894.938387	2914.331368
895.246665	2906.726787
895.554903	2887.812378
895.863100	2858.034282
896.171256	2839.122393
896.479371	2815.066007
896.787446	2796.597740
897.095480	2777.211983
897.403473	2764.193203
897.711425	2749.163003
898.019336	2737.124728
898.327207	2722.323900
898.635038	2710.235213
898.942827	2699.752134
899.250576	2689.463139
899.558284	2680.562982
899.865952	2672.802125
900.173579	2664.574962
900.481165	2661.078922
900.788711	2655.732778
901.096216	2648.894453
901.403681	2649.166675
901.711105	2645.484112
902.018489	2643.933958
902.325832	2645.330357
902.633135	2646.446973
902.940397	2655.626914
903.247619	2677.949143
903.554800	2727.783470
903.861941	2810.932261
904.169041	2892.278840
904.476101	2936.923299
904.783121	2936.784667
905.090100	2906.288207
905.397039	2875.070862
905.703938	2845.628002
906.010796	2817.402582
906.317614	2792.743778
906.624391	2772.362393
906.931129	2754.335227
907.237826	2737.865777
907.544483	2720.856924
907.851099	2702.938143
908.157675	2683.875020
908.464211	2665.832730
908.770707	2647.372025
909.077163	2635.459778
909.383578	2627.041051
909.689954	2619.547376
909.996289	2614.712909
910.302584	2614.470934
910.608839	2613.427415
910.915054	2612.220059
911.221229	2608.724019
911.527363	2610.702672
911.833458	2609.220572
912.139513	2610.075048
912.445527	2611.501694
912.751502	2615.184257
913.057436	2615.900101
913.363331	2622.567027
913.669186	2628.117337
913.975000	2634.028090
914.280775	2649.317910
914.586510	2669.611075
914.892205	2695.807431
915.197859	2736.973493
915.503475	2790.649179
915.809050	2838.335973
916.114585	2873.598845
916.420081	2893.574417
916.725536	2895.943759
917.030952	2880.573281
917.336328	2869.823020
917.641665	2855.170907
917.946961	2835.265911
918.252218	2821.984991
918.557435	2799.100673
918.862612	2784.098199
919.167750	2770.106477
919.472848	2751.804568
919.777906	2732.111300
920.082925	2716.990359
920.387904	2697.342462
920.692843	2683.985925
920.997743	2672.328257
921.302603	2660.857111
921.607423	2652.206491
921.912204	2644.140645
922.216946	2638.973462
922.521647	2634.133955
922.826310	2630.816875
923.130932	2625.311935
923.435516	2619.229783
923.740059	2620.727006
924.044564	2613.003958
924.349028	2611.226952
924.653454	2605.906014
924.957840	2604.514655
925.262186	2600.728749
925.566493	2597.015939
925.870761	2595.906885
926.174989	2596.869745
926.479178	2596.010229
926.783328	2594.260948
927.087438	2589.270206
927.391509	2592.128540
927.695541	2589.381111
927.999533	2586.800041
928.303486	2584.836511
928.607400	2587.848601
928.911275	2585.426326
929.215110	2586.096800
929.518906	2584.473548
929.822663	2584.241655
930.126381	2584.445822
930.430060	2585.781728
930.733699	2586.497571
931.037299	2585.307859
931.340861	2585.007910
931.644383	2584.221490
931.947866	2583.901377
932.251309	2584.339957
932.554714	2585.116295
932.858080	2585.751481
933.161407	2586.300966
933.464694	2582.494895
933.767943	2583.009093
934.071153	2582.542786
934.374323	2583.999680
934.677455	2584.392890
934.980548	2583.714854
935.283602	2582.663774
935.586617	2581.345512
935.889593	2580.344843
936.192530	2582.147056
936.495428	2582.734350
936.798287	2582.227714
937.101108	2584.692838
937.403890	2587.581419
937.706632	2587.341965
938.009336	2587.631831
938.312002	2590.676688
938.614628	2594.369333
938.917216	2596.347986
939.219765	2599.292020
939.522275	2598.225816
939.824747	2598.553491
940.127179	2595.922008
940.429573	2596.642893
940.731929	2596.161463
941.034246	2595.208685
941.336524	2597.920826
941.638763	2600.643049
941.940964	2601.946187
942.243126	2597.668768
942.545250	2594.659199
942.847335	2596.610126
943.149381	2590.797676
943.451389	2592.168869
943.753359	2590.210381
944.055290	2588.640062
944.357182	2587.808271
944.659036	2587.533528
944.960851	2585.980853
945.262628	2585.703590
945.564367	2586.464804
945.866067	2584.765935
946.167729	2587.851121
946.469352	2586.643765
946.770937	2588.831626
947.072484	2585.391038
947.373992	2585.368353
947.675462	2583.548496
947.976893	2585.741398
948.278286	2582.855338
948.579641	2585.701069
948.880958	2583.092272
949.182236	2580.712847
949.483476	2582.247879
949.784678	2583.465317
950.085841	2584.327355
950.386967	2581.884916
950.688054	2581.015317
950.989103	2584.534042
951.290114	2584.216449
951.591087	2584.435739
951.892021	2586.300966
952.192917	2587.084866
952.493776	2588.909763
952.794596	2589.691142
953.095378	2590.606112
953.396122	2591.463108
953.696828	2589.343303
953.997496	2590.875813
954.298126	2587.175607
954.598718	2590.046544
954.899272	2586.275761
955.199788	2587.896492
955.500266	2588.771132
955.800706	2582.386510
956.101108	2580.042374
956.401472	2581.287539
956.701798	2576.422825
957.002087	2576.357290
957.302337	2575.641447
957.602550	2576.160685
957.902724	2578.603124
958.202861	2575.901066
958.502960	2575.210428
958.803022	2574.653380
959.103045	2571.777402
959.403031	2572.221024
959.702979	2573.219172
960.002889	2570.330591
960.302762	2568.513255
960.602596	2570.693554
960.902393	2571.106929
961.202153	2567.840261
961.501875	2572.654563
961.801559	2566.995868
962.101205	2569.803790
962.400814	2569.534089
962.700385	2566.794222
962.999918	2570.854871
963.299414	2566.980744
963.598873	2566.774057
963.898293	2569.541650
964.197677	2568.624160
964.497022	2566.695919
964.796331	2567.885631
965.095601	2568.863615
965.394835	2568.994685
965.694030	2566.280024
965.993189	2569.592062
966.292309	2567.063923
966.591393	2565.856567
966.890439	2566.262380
967.189447	2565.266752
967.488419	2568.730025
967.787353	2568.329253
968.086249	2564.883624
968.385108	2565.057544
968.683930	2566.559808
968.982714	2567.772205
969.281462	2568.235992
969.580172	2566.363203
969.878844	2564.548387
970.177480	2565.070147
970.476078	2565.178532
970.774639	2569.914696
971.073162	2566.716084
971.371649	2562.683161
971.670098	2565.768347
971.968510	2565.755744
972.266885	2565.627194
972.565223	2570.723801
972.863524	2567.832699
973.161788	2568.861095
973.460014	2567.744479
973.758204	2570.693554
974.056356	2567.681465
974.354471	2567.197514
974.652550	2568.876218
974.950591	2570.925447
975.248595	2567.646177
975.546563	2567.096691
975.844493	2569.307237
976.142386	2569.203893
976.440243	2569.140879
976.738062	2568.624160
977.035845	2567.157185
977.333590	2571.248081
977.631299	2565.591906
977.928971	2567.802452
978.226606	2567.058882
978.524204	2566.832030
978.821765	2566.269942
979.119290	2565.594427
979.416777	2568.578790
979.714228	2566.484191
980.011642	2567.005950
980.309020	2568.924109
980.606360	2567.318502
980.903664	2571.999213
981.200931	2569.725652
981.498162	2568.727504
981.795356	2570.368400
982.092513	2574.224882
982.389633	2580.249061
982.686717	2585.340627
982.983764	2590.560741
983.280775	2592.340269
983.577749	2595.196082
983.874686	2594.984354
984.171587	2591.503437
984.468451	2591.112748
984.765279	2589.807089
985.062070	2586.575709
985.358824	2586.893302
985.655543	2583.427509
985.952224	2582.096644
986.248869	2577.453741
986.545478	2573.705643
986.842050	2571.006106
987.138586	2566.791701
987.435086	2564.770198
987.731549	2562.272307
988.027975	2568.147771
988.324366	2565.213820
988.620719	2565.954869
988.917037	2565.112997
989.213318	2566.274983
989.509563	2562.400856
989.805772	2563.948490
990.101944	2564.414797
990.398080	2564.528223
990.694180	2564.324056
990.990244	2561.828685
991.286271	2562.922615
991.582262	2561.987481
991.878217	2564.016546
992.174136	2561.926988
992.470019	2562.179045
992.765865	2563.217523
993.061676	2562.995712
993.357450	2561.944632
993.653188	2564.586196
993.948890	2563.787173
994.244556	2565.133161
994.540186	2565.659962
994.835780	2562.690722
995.131337	2567.013512
995.426859	2568.528378
995.722345	2570.229768
996.017795	2573.690520
996.313208	2574.905438
996.608586	2576.901735
996.903928	2577.773855
997.199234	2580.271746
997.494504	2574.839903
997.789738	2576.148082
998.084936	2575.790161
998.380099	2571.971487
998.675225	2575.603638
998.970316	2572.778071
999.265371	2573.012485
999.560390	2570.615416
999.855373	2568.742628
1000.150320	2566.277503
1000.445232	2568.472926
1000.740108	2565.511248
1001.034948	2565.387740
1001.329752	2564.124931
1001.624521	2562.912533
1001.919254	2561.117882
1002.213951	2558.685526
1002.508613	2558.463715
1002.803239	2559.227450
1003.097829	2559.376164
1003.392384	2563.759447
1003.686903	2561.160732
1003.981386	2561.052347
1004.275834	2558.952707
1004.570246	2560.714590
1004.864623	2560.684343
1005.158964	2561.208623
1005.453270	2560.303736
1005.747540	2561.075032
1006.041775	2560.510423
1006.335974	2557.687377
1006.630138	2558.814075
1006.924266	2562.090825
1007.218359	2558.567058
1007.512416	2556.860628
1007.806438	2560.359189
1008.100425	2559.043447
1008.394376	2557.911708
1008.688292	2559.227450
1008.982172	2560.742316
1009.276017	2560.689384
1009.569827	2557.185782
1009.863602	2560.308777
1010.157341	2559.824826
1010.451045	2557.999929
1010.744714	2557.974723
1011.038347	2556.669064
1011.331945	2557.422717
1011.625508	2558.917419
1011.919036	2558.625032
1012.212528	2559.159394
1012.505986	2556.870710
1012.799408	2557.170659
1013.092795	2556.391801
1013.386147	2558.443550
1013.679464	2558.191492
1013.972745	2557.344579
1014.265992	2560.223078
1014.559204	2558.539332
1014.852380	2559.855073
1015.145521	2556.815257
1015.438628	2558.062943
1015.731699	2559.837429
1016.024736	2558.289795
1016.317737	2560.588561
1016.610703	2561.513613
1016.903635	2554.612273
1017.196531	2557.221070
1017.489393	2556.792572
1017.782219	2555.116389
1018.075011	2556.071687
1018.367768	2557.558828
1018.660490	2557.147974
1018.953177	2557.147974
1019.245829	2557.147974
