Dividing Wavelength (nm)	Counts (n)	Blue Motor Position (mm): 0.000000	Red Motor Position (mm): 18.300000	
326.493990	2128.997736
326.888308	2128.997736
327.282561	2128.997736
327.676750	2095.186718
328.070874	2095.285020
328.464933	2099.055803
328.858929	2105.841196
329.252859	2113.929728
329.646726	2127.719804
330.040528	2136.267080
330.434265	2157.500420
330.827938	2175.008348
331.221547	2189.395801
331.615091	2211.697865
332.008571	2230.314846
332.401986	2248.626838
332.795338	2267.415218
333.188625	2287.990688
333.581847	2307.401650
333.975006	2322.661223
334.368100	2343.166116
334.761129	2361.291585
335.154095	2379.127187
335.546996	2394.984137
335.939833	2410.180695
336.332606	2424.426996
336.725315	2437.050045
337.117960	2446.129163
337.510540	2454.449588
337.903056	2467.440641
338.295508	2472.696044
338.687896	2482.518732
339.080220	2491.681029
339.472480	2498.569766
339.864676	2502.988337
340.256807	2504.949346
340.648875	2509.430932
341.040879	2511.913700
341.432818	2513.899915
341.824694	2515.087107
342.216506	2515.117353
342.608253	2516.276819
342.999937	2516.624658
343.391557	2514.361180
343.783113	2513.615090
344.174605	2513.725995
344.566033	2510.620644
344.957397	2510.907990
345.348697	2509.045284
345.739934	2503.537823
346.131106	2503.041269
346.522215	2501.604541
346.913260	2498.768892
347.304241	2499.958604
347.695159	2497.072543
348.086012	2495.414004
348.476802	2494.224291
348.867528	2494.216730
349.258191	2492.444764
349.648789	2492.742192
350.039324	2486.778507
350.429796	2487.325472
350.820203	2489.041985
351.210548	2484.862869
351.600828	2486.433188
351.991045	2485.228352
352.381198	2484.658702
352.771288	2482.924545
353.161314	2482.460759
353.551276	2485.283805
353.941175	2483.239617
354.331010	2482.596870
354.720782	2482.246510
355.110490	2481.518063
355.500135	2484.739360
355.889717	2481.807929
356.279235	2483.589977
356.668689	2483.894967
357.058080	2483.869761
357.447408	2482.029740
357.836672	2479.219297
358.225873	2484.391521
358.615010	2480.300624
359.004084	2485.820688
359.393095	2486.206336
359.782043	2488.636172
360.170927	2489.301605
360.559748	2487.247334
360.948505	2490.680360
361.337199	2488.787407
361.725830	2489.513333
362.114398	2493.178252
362.502903	2488.240442
362.891344	2494.957779
363.279722	2490.821512
363.668037	2495.287975
364.056289	2493.168170
364.444478	2495.199755
364.832603	2493.430310
365.220665	2498.554643
365.608665	2494.625063
365.996601	2498.877276
366.384474	2497.213696
366.772284	2502.007833
367.160031	2501.430621
367.547715	2501.670076
367.935336	2504.394819
368.322893	2508.722650
368.710388	2510.976046
369.097820	2517.927797
369.485189	2522.686646
369.872495	2526.747295
370.259738	2532.416073
370.646918	2540.476878
371.034035	2550.044988
371.421090	2559.509754
371.808081	2568.677092
372.195010	2575.767475
372.581875	2591.344641
372.968678	2607.287290
373.355418	2613.815584
373.742096	2632.987092
374.128710	2650.144659
374.515262	2662.719817
374.901751	2677.422343
375.288177	2688.832994
375.674540	2712.954916
376.060841	2730.944273
376.447079	2753.556369
376.833254	2771.452465
377.219367	2785.076183
377.605417	2826.577482
377.991404	2831.394305
378.377329	2852.141173
378.763191	2871.799153
379.148991	2907.369534
379.534727	2931.604881
379.920402	2960.677216
380.306013	2974.371510
380.691563	3024.362112
381.077049	3041.948177
381.462474	3062.838719
381.847835	3103.236005
382.233134	3123.284674
382.618371	3121.096813
383.003545	3187.924869
383.388657	3198.171014
383.773706	3231.402301
384.158693	3247.365114
384.543618	3274.748662
384.928480	3307.516162
385.313280	3354.187164
385.698017	3354.963502
386.082692	3407.532654
386.467305	3413.115732
386.851856	3445.237964
387.236344	3466.677992
387.620770	3498.212930
388.005133	3522.874254
388.389435	3550.376269
388.773674	3565.305646
389.157851	3602.020370
389.541965	3621.083493
389.926018	3583.388265
390.310008	3655.577588
390.693936	3674.948222
391.077802	3713.543296
391.461606	3701.923436
391.845348	3767.309722
392.229027	3765.318466
392.612645	3778.435548
392.996200	3855.976056
393.379694	3897.726892
393.763125	3958.611428
394.146494	3925.793517
394.529801	3987.940861
394.913047	4035.138664
395.296230	4000.495855
395.679351	4055.661201
396.062410	4081.915531
396.445408	4062.456677
396.828343	4095.564455
397.211217	4116.475161
397.594028	4036.769477
397.976778	4103.312708
398.359466	4131.558293
398.742092	4159.899660
399.124656	4079.886466
399.507158	4160.285308
399.889598	4186.262374
400.271977	4247.446858
400.654294	4216.877301
401.036549	4228.224939
401.418742	4199.742419
401.800874	4297.223211
402.182944	4316.901355
402.564952	4379.651118
402.946898	4367.895147
403.328783	4358.810988
403.710606	4276.388123
404.092367	4460.329744
404.474067	4418.581428
404.855705	4429.031740
405.237282	4351.118187
405.618797	4457.289928
406.000250	4481.573166
406.381642	4554.138055
406.762972	4507.446888
407.144240	4510.527033
407.525447	4499.784335
407.906593	4546.946849
408.287677	4576.452723
408.668700	4493.147656
409.049661	4527.878685
409.430560	4548.159247
409.811399	4467.450374
410.192176	4597.275209
410.572891	4523.329044
410.953545	4599.579016
411.334138	4469.028255
411.714669	4510.070809
412.095139	4396.249117
412.475547	4491.809229
412.855894	4453.251964
413.236180	4435.270168
413.616405	4372.359089
413.996568	4409.283020
414.376670	4337.466743
414.756711	4277.033390
415.136691	4268.836474
415.516609	4294.445536
415.896466	4291.292294
416.276262	4280.093371
416.655997	4229.984301
417.035670	4322.176923
417.415283	4347.997713
417.794834	4263.976802
418.174324	4200.922049
418.553753	4097.212912
418.933121	4172.862987
419.312428	4166.680012
419.691674	4083.702620
420.070859	4110.793780
420.449983	4016.327598
420.829045	4031.405690
421.208047	3937.176442
421.586988	3923.421654
421.965867	3883.573853
422.344686	3894.503075
422.723444	3783.068369
423.102141	3659.628155
423.480777	3736.397367
423.859352	3595.849997
424.237866	3649.898728
424.616319	3601.067592
424.994712	3595.713886
425.373044	3504.642921
425.751314	3503.662417
426.129524	3395.373391
426.507673	3411.747059
426.885762	3392.925911
427.263789	3327.877382
427.641756	3262.995212
428.019662	3247.168509
428.397508	3209.009495
428.775292	3160.017042
429.153016	3142.705719
429.530679	3091.946341
429.908282	3071.713670
430.285824	3022.650640
430.663305	3030.429141
431.040726	2957.627318
431.418086	2931.171342
431.795385	2921.585588
432.172624	2890.905126
432.549802	2866.077443
432.926920	2839.429904
433.303977	2819.920638
433.680974	2799.236784
434.057910	2780.004782
434.434786	2765.395518
434.811601	2741.588669
435.188355	2738.019532
435.565050	2716.990359
435.941683	2699.328677
436.318257	2692.538243
436.694770	2674.682476
437.071222	2663.380209
437.447614	2649.711120
437.823946	2635.174953
438.200218	2633.445837
438.576429	2621.798251
438.952580	2613.545882
439.328670	2608.293000
439.704700	2597.159612
440.080670	2589.363467
440.456580	2588.020000
440.832429	2583.240986
441.208218	2574.451734
441.583947	2574.345870
441.959616	2571.427042
442.335224	2567.137020
442.710773	2562.620146
443.086261	2564.538305
443.461689	2560.676781
443.837057	2558.330124
444.212365	2558.002449
444.587612	2558.718293
444.962800	2554.098076
445.337927	2555.154197
445.712995	2549.445091
446.088002	2555.194527
446.462949	2551.222097
446.837837	2551.539690
447.212664	2549.278732
447.587431	2551.819474
447.962139	2552.540359
448.336786	2561.984961
448.711374	2554.415668
449.085901	2549.901315
449.460369	2549.891233
449.834776	2548.406613
450.209124	2552.615976
450.583412	2554.987839
450.957640	2549.981973
451.331808	2549.409802
451.705917	2547.579864
452.079965	2548.061294
452.453954	2549.303938
452.827883	2550.009700
453.201752	2546.526263
453.575562	2546.649771
453.949311	2547.453835
454.323001	2544.449307
454.696632	2549.130018
455.070202	2547.710934
455.443713	2548.215049
455.817164	2546.858979
456.190556	2543.768751
456.563888	2546.662374
456.937160	2546.896787
457.310373	2546.480892
457.683526	2546.049873
458.056619	2547.284956
458.429653	2548.462066
458.802628	2548.681356
459.175542	2548.638506
459.548398	2550.128167
459.921194	2551.673281
460.293930	2549.603887
460.666607	2551.544731
461.039224	2554.312325
461.411782	2554.491286
461.784280	2554.617314
462.156719	2556.379198
462.529099	2553.803168
462.901419	2551.766542
463.273680	2552.331151
463.645882	2551.085986
464.018024	2553.876265
464.390106	2552.648744
464.762130	2553.893909
465.134094	2556.532953
465.505999	2560.749878
465.877845	2567.139541
466.249631	2571.371589
466.621358	2568.261197
466.993026	2568.704819
467.364634	2568.611557
467.736184	2563.015877
468.107674	2560.797769
468.479105	2562.163922
468.850477	2564.117369
469.221790	2560.954045
469.593043	2561.175856
469.964238	2560.707028
470.335373	2562.620146
470.706449	2561.443037
471.077467	2561.992522
471.448425	2566.269942
471.819324	2571.245560
472.190164	2570.643142
472.560945	2567.131979
472.931667	2563.310784
473.302330	2562.221895
473.672934	2562.902451
474.043479	2562.804148
474.413965	2563.000753
474.784393	2558.748540
475.154761	2561.160732
475.525070	2562.668037
475.895321	2559.885320
476.265513	2557.899106
476.635645	2564.520661
477.005719	2565.738100
477.375734	2564.389591
477.745691	2566.819427
478.115588	2567.356310
478.485427	2570.330591
478.855207	2571.593400
479.224928	2575.515418
479.594591	2577.809143
479.964194	2578.850141
480.333739	2575.742270
480.703226	2579.477765
481.072653	2578.474575
481.442022	2576.319482
481.811333	2579.165213
482.180584	2579.883577
482.549777	2577.126066
482.918912	2576.629513
483.287988	2575.328895
483.657005	2576.080027
484.025964	2574.716395
484.394864	2574.265212
484.763706	2575.442321
485.132489	2574.008113
485.501213	2575.800243
485.869879	2571.966445
486.238487	2572.742783
486.607036	2573.214131
486.975527	2572.520972
487.343959	2574.429049
487.712333	2573.193966
488.080648	2570.829665
488.448905	2573.448545
488.817104	2570.444017
489.185244	2571.600962
489.553326	2574.751683
489.921350	2578.343505
490.289315	2579.056828
490.657222	2583.379618
491.025070	2581.222004
491.392861	2580.911973
491.760593	2579.122363
492.128267	2578.502301
492.495883	2576.448031
492.863440	2575.361662
493.230939	2573.929975
493.598380	2571.752196
493.965763	2562.254662
494.333088	2570.494428
494.700354	2568.387226
495.067563	2571.185067
495.434713	2563.676268
495.801805	2570.086095
496.168839	2569.236661
496.535815	2569.594582
496.902733	2572.195818
497.269593	2573.211610
497.636395	2567.603327
498.003139	2570.680951
498.369825	2568.467885
498.736453	2568.546022
499.103023	2568.467885
499.469535	2568.709860
499.835989	2570.507031
500.202385	2570.975859
500.568723	2570.043245
500.935003	2572.924265
501.301226	2571.759758
501.667390	2571.847978
502.033497	2572.309244
502.399546	2570.421332
502.765537	2568.929150
503.131470	2574.282856
503.497345	2570.164233
503.863163	2571.028791
504.228923	2570.184398
504.594625	2572.268915
504.960269	2570.436455
505.325856	2572.538616
505.691385	2569.571897
506.056856	2574.807136
506.422270	2574.325705
506.787625	2571.512742
507.152924	2569.299675
507.518164	2568.145251
507.883347	2571.225396
508.248472	2571.868143
508.613540	2572.946950
508.978550	2571.903431
509.343503	2570.522155
509.708398	2572.278997
510.073236	2573.987948
510.438016	2575.588514
510.802738	2572.299162
511.167403	2573.909810
511.532010	2572.384861
511.896561	2574.802094
512.261053	2574.794533
512.625488	2574.050962
512.989866	2571.046435
513.354186	2570.464182
513.718449	2570.076013
514.082655	2575.969122
514.446803	2574.817218
514.810894	2572.289079
515.174927	2577.751169
515.538904	2573.836713
515.902822	2576.397620
516.266684	2573.012485
516.630488	2572.710016
516.994235	2572.699933
517.357925	2574.129100
517.721558	2575.911148
518.085133	2572.977197
518.448651	2576.417784
518.812112	2574.013154
519.175516	2575.512897
519.538863	2574.902917
519.902152	2574.237485
520.265385	2576.541293
520.628560	2576.914338
520.991678	2575.172619
521.354739	2574.844944
521.717743	2574.479461
522.080690	2572.170612
522.443580	2574.847465
522.806413	2575.001220
523.169189	2576.425346
523.531908	2577.952816
523.894569	2575.333936
524.257174	2574.406364
524.619722	2575.896025
524.982213	2576.405181
525.344647	2575.628844
525.707025	2575.434759
526.069345	2575.737228
526.431608	2574.008113
526.793815	2576.112794
527.155964	2575.717064
527.518057	2575.079358
527.880093	2573.889646
528.242072	2575.717064
528.603995	2575.873340
528.965860	2574.600448
529.327669	2574.539954
529.689421	2576.150603
530.051117	2578.562795
530.412755	2575.326374
530.774337	2574.600448
531.135862	2575.787640
531.497331	2572.707495
531.858743	2568.956877
532.220098	2574.353432
532.581396	2568.442679
532.942638	2571.207752
533.303824	2574.751683
533.664953	2573.143555
534.026025	2574.040880
534.387040	2574.716395
534.747999	2575.694379
535.108902	2574.744121
535.469748	2575.180181
535.830537	2576.503484
536.191270	2576.256467
536.551947	2574.923082
536.912567	2574.325705
537.273131	2573.350242
537.633638	2574.285376
537.994089	2573.277145
538.354483	2572.712536
538.714821	2573.209090
539.075103	2574.076168
539.435328	2570.023081
539.795497	2573.793864
540.155609	2575.250757
540.515665	2574.144224
540.875665	2574.151786
541.235609	2574.113977
541.595496	2572.094995
541.955328	2573.574573
542.315102	2574.945767
542.674821	2573.806467
543.034483	2574.857547
543.394090	2573.176322
543.753640	2572.231106
544.113134	2572.435273
544.472571	2572.329408
544.831953	2572.016857
545.191278	2574.872671
545.550548	2573.269584
545.909761	2575.510377
546.268918	2575.356621
546.628019	2574.711354
546.987064	2573.451065
547.346053	2574.439131
547.704986	2575.530541
548.063863	2575.177660
548.422684	2572.896538
548.781449	2572.536096
549.140158	2574.101374
549.498811	2577.015161
549.857408	2571.444686
550.215949	2571.810170
550.574434	2567.134499
550.932864	2571.908472
551.291237	2569.516445
551.649555	2573.224213
552.007817	2574.681107
552.366022	2573.377968
552.724173	2570.920406
553.082267	2571.520303
553.440305	2575.376786
553.798288	2572.354614
554.156215	2573.141034
554.514086	2575.212948
554.871902	2572.800756
555.229661	2575.475088
555.587365	2573.057855
555.945014	2570.249932
556.302606	2573.388051
556.660143	2571.069120
557.017625	2572.447876
557.375050	2573.524162
557.732421	2570.572566
558.089735	2573.435942
558.446994	2572.823442
558.804197	2574.527352
559.161345	2573.428380
559.518437	2573.725808
559.875474	2571.477453
560.232455	2575.525500
560.589381	2572.213462
560.946251	2573.685479
561.303065	2573.294789
561.659825	2575.603638
562.016528	2572.094995
562.373177	2572.195818
562.729770	2575.064234
563.086307	2575.969122
563.442789	2574.781930
563.799216	2572.253791
564.155587	2571.295972
564.511904	2571.621126
564.868164	2569.340004
565.224370	2573.287228
565.580520	2571.106929
565.936615	2573.493915
566.292654	2570.887638
566.648638	2573.088102
567.004567	2571.464851
567.360441	2571.487536
567.716260	2572.233627
568.072023	2572.551219
568.427732	2567.479818
568.783385	2568.488049
569.138982	2568.193142
569.494525	2570.703636
569.850013	2568.203224
570.205445	2571.159861
570.560823	2568.417473
570.916145	2570.975859
571.271412	2573.221693
571.626625	2572.720098
571.981782	2570.227247
572.336884	2570.650704
572.691931	2573.740932
573.046923	2567.676423
573.401860	2570.106260
573.756743	2571.568194
574.111570	2572.309244
574.466342	2570.524675
574.821059	2569.589541
575.175722	2569.264387
575.530330	2566.786660
575.884882	2573.284707
576.239380	2569.405539
576.593823	2568.356979
576.948211	2570.582649
577.302544	2571.404357
577.656823	2569.836558
578.011047	2570.068451
578.365216	2568.591393
578.719330	2569.854202
579.073389	2566.597617
579.427394	2566.690878
579.781344	2568.813204
580.135239	2568.483008
580.489080	2567.603327
580.842866	2565.997719
581.196597	2566.950497
581.550273	2569.516445
581.903895	2567.031156
582.257463	2566.703481
582.610975	2566.751372
582.964434	2568.125086
583.317837	2569.518965
583.671186	2567.772205
584.024481	2568.760272
584.377721	2567.996537
584.730906	2565.765826
585.084037	2567.497463
585.437113	2569.367731
585.790135	2565.644838
586.143103	2564.142575
586.496016	2567.457133
586.848874	2563.595609
587.201679	2564.228274
587.554428	2562.451267
587.907124	2567.066444
588.259765	2564.041752
588.612352	2567.845302
588.964884	2565.231464
589.317362	2564.936556
589.669786	2565.710373
590.022155	2568.724983
590.374470	2564.175342
590.726731	2567.353790
591.078937	2565.833882
591.431090	2566.796742
591.783188	2565.009653
592.135232	2564.858418
592.487222	2564.157698
592.839157	2567.663821
593.191038	2566.280024
593.542866	2564.550908
593.894639	2561.009497
594.246358	2565.755744
594.598022	2564.644169
594.949633	2562.907492
595.301190	2564.530743
595.652692	2563.222564
596.004141	2564.596278
596.355535	2563.603171
596.706876	2561.995043
597.058162	2565.178532
597.409395	2563.439334
597.760573	2565.609550
598.111698	2560.170145
598.462768	2564.107287
598.813785	2564.175342
599.164748	2563.290620
599.515657	2562.262224
599.866511	2563.746844
600.217312	2562.113510
600.568060	2561.811041
600.918753	2565.851526
601.269392	2562.020249
601.619978	2563.038562
601.970510	2563.638459
602.320988	2564.971844
602.671412	2562.234498
603.021783	2561.526216
603.372100	2561.964796
603.722363	2561.495969
604.072572	2568.024263
604.422728	2563.157029
604.772830	2559.819785
605.122878	2559.134188
605.472872	2559.761812
605.822813	2557.052192
606.172701	2560.974209
606.522534	2562.017728
606.872314	2560.472615
607.222041	2559.852553
607.571714	2564.470250
607.921333	2563.938408
608.270899	2562.572255
608.620411	2564.261042
608.969870	2563.666186
609.319276	2563.857749
609.668627	2567.857905
610.017926	2569.740776
610.367171	2572.084912
610.716362	2569.183728
611.065500	2568.853533
611.414585	2562.431103
611.763616	2566.280024
612.112594	2564.971844
612.461518	2562.083263
612.810389	2563.318346
613.159207	2565.339849
613.507971	2562.373130
613.856682	2564.006463
614.205340	2563.877914
614.553945	2563.333469
614.902496	2566.433779
615.250994	2564.618964
615.599439	2561.921946
615.947830	2562.239539
616.296169	2562.869683
616.644454	2563.774570
616.992686	2564.162739
617.340864	2562.642831
617.688990	2561.732903
618.037063	2563.124262
618.385082	2563.164591
618.733048	2564.913871
619.080961	2562.327759
619.428821	2562.221895
619.776628	2560.452450
620.124382	2562.967986
620.472083	2561.629559
620.819731	2563.280537
621.167326	2562.481514
621.514868	2562.022769
621.862357	2564.510579
622.209793	2560.460012
622.557176	2563.434292
622.904506	2561.269117
623.251783	2557.478169
623.599007	2558.970351
623.946179	2555.471790
624.293297	2560.772563
624.640363	2561.705177
624.987376	2561.979920
625.334336	2558.073025
625.681243	2562.892368
626.028097	2559.078736
626.374899	2559.025803
626.721647	2561.213664
627.068343	2559.308108
627.414987	2557.548745
627.761577	2557.846173
628.108115	2558.216698
628.454600	2559.242573
628.801032	2558.322563
629.147412	2557.962120
629.493739	2555.779300
629.840014	2561.465722
630.186236	2557.710062
630.532405	2557.931873
630.878521	2561.180897
631.224585	2558.231822
631.570597	2561.551422
631.916556	2556.684187
632.262462	2559.834909
632.608316	2557.326935
632.954117	2558.100752
633.299866	2558.196534
633.645562	2559.991184
633.991206	2559.429096
634.336797	2559.595454
634.682336	2557.883982
635.027823	2556.802655
635.373257	2553.722510
635.718639	2554.884496
636.063968	2556.137222
636.409245	2554.723179
636.754470	2556.674105
637.099642	2557.815927
637.444762	2555.615463
637.789829	2553.767880
638.134845	2557.775597
638.479808	2553.886347
638.824719	2555.993549
639.169577	2553.939279
639.514383	2554.493806
639.859137	2553.586398
640.203839	2557.447922
640.548489	2555.597819
640.893086	2551.564896
641.237632	2548.683876
641.582125	2552.227807
641.926566	2548.346119
642.270955	2554.458518
642.615292	2550.975081
642.959576	2552.431974
643.303809	2553.571275
643.647990	2556.656461
643.992118	2554.219063
644.336195	2552.815102
644.680219	2552.628579
645.024192	2553.223435
645.368112	2554.067829
645.711981	2555.895247
646.055797	2552.225287
646.399562	2555.202088
646.743274	2552.749567
647.086935	2556.437171
647.430544	2554.748384
647.774101	2554.781152
648.117606	2554.438353
648.461059	2556.434650
648.804460	2553.392314
649.147810	2554.249310
649.491108	2553.825853
649.834354	2556.855587
650.177548	2553.079762
650.520690	2555.015566
650.863781	2553.147818
651.206820	2554.952551
651.549807	2554.244269
651.892742	2553.586398
652.235626	2554.019938
652.578458	2553.936759
652.921238	2554.138405
653.263967	2554.776111
653.606644	2549.210677
653.949269	2553.576316
654.291843	2552.240410
654.634365	2552.258054
654.976836	2552.603373
655.319255	2558.430947
655.661622	2552.031202
656.003938	2550.796120
656.346203	2554.476162
656.688416	2551.839639
657.030577	2551.764021
657.372687	2551.040616
657.714746	2551.433826
658.056753	2552.043805
658.398708	2547.872251
658.740612	2552.399207
659.082465	2547.789072
659.424266	2550.586912
659.766016	2548.837632
660.107715	2551.015410
660.449362	2551.159083
660.790958	2550.677653
661.132503	2552.802499
661.473996	2551.663198
661.815438	2552.658826
662.156829	2551.582540
662.498168	2549.240924
662.839456	2551.302756
663.180693	2551.101110
663.521879	2551.567416
663.863013	2552.943651
664.204097	2553.803168
664.545129	2551.796789
664.886110	2552.999104
665.227040	2552.232849
665.567918	2552.822664
665.908746	2551.098589
666.249522	2552.691594
666.590248	2550.334854
666.930922	2552.086655
667.271545	2551.950544
667.612118	2554.619835
667.952639	2550.932231
668.293109	2552.189999
668.633528	2554.173693
668.973896	2549.135060
669.314213	2548.479710
669.654480	2553.747715
669.994695	2551.879968
670.334859	2551.993394
670.674973	2550.917108
671.015035	2554.380380
671.355047	2552.121943
671.695008	2550.153373
672.034918	2549.344268
672.374777	2549.613969
672.714585	2552.454659
673.054342	2554.536656
673.394049	2552.013558
673.733705	2550.949875
674.073310	2552.646223
674.412864	2553.208312
674.752368	2550.944834
675.091820	2553.223435
675.431223	2549.729916
675.770574	2550.574309
676.109875	2548.330996
676.449125	2549.369473
676.788324	2546.785882
677.127473	2549.636654
677.466571	2546.324616
677.805619	2551.721172
678.144616	2548.744370
678.483562	2552.174875
678.822458	2549.596325
679.161303	2550.826367
679.500098	2548.565409
679.838842	2547.796633
680.177535	2548.804864
680.516179	2549.629093
680.854771	2550.571788
681.193314	2549.878630
681.531805	2551.655637
681.870247	2551.983312
682.208638	2552.210163
682.546978	2553.735112
682.885268	2550.491130
683.223508	2552.852911
683.561697	2552.636141
683.899836	2554.022458
684.237925	2550.095399
684.575963	2551.302756
684.913951	2552.174875
685.251889	2548.802343
685.589776	2553.803168
685.927614	2549.682025
686.265401	2548.265461
686.603137	2549.513146
686.940824	2551.065822
687.278460	2553.732592
687.616046	2552.169834
687.953582	2553.329300
688.291068	2551.295194
688.628504	2552.366439
688.965889	2552.164793
689.303224	2550.763352
689.640510	2551.174206
689.977745	2551.758980
690.314930	2548.278063
690.652065	2552.837787
690.989150	2549.477858
691.326185	2551.769063
691.663170	2549.866027
692.000105	2548.492312
692.336990	2548.618341
692.673825	2549.218239
693.010610	2547.022816
693.347345	2545.311344
693.684030	2543.889739
694.020665	2545.031560
694.357251	2542.478216
694.693786	2544.489636
695.030272	2546.317055
695.366707	2548.449463
695.703093	2547.176571
696.039429	2546.906870
696.375716	2546.180943
696.711952	2548.356201
697.048139	2547.247148
697.384276	2548.794782
697.720363	2548.862837
698.056400	2548.000800
698.392388	2544.308155
698.728326	2545.502908
699.064214	2547.458876
699.400053	2547.010213
699.735842	2548.202446
700.071581	2545.392003
700.407270	2546.531304
700.742910	2547.284956
701.078501	2545.197918
701.414042	2548.116747
701.749533	2545.470141
702.084974	2544.724050
702.420366	2546.473330
702.755709	2545.286139
703.091002	2546.614483
703.426246	2545.399565
703.761440	2544.391334
704.096584	2545.535676
704.431679	2545.029040
704.766725	2546.551468
705.101721	2544.640871
705.436668	2545.734801
705.771565	2544.335881
706.106413	2545.170192
706.441212	2544.328319
706.775961	2545.061807
707.110661	2542.982331
707.445311	2547.289997
707.779913	2545.081972
708.114465	2543.262115
708.448967	2545.583567
708.783421	2545.301262
709.117825	2546.246478
709.452180	2548.484751
709.786485	2546.473330
710.120742	2547.423588
710.454949	2550.833928
710.789107	2545.812939
711.123216	2543.088196
711.457275	2544.184647
711.791286	2543.844369
712.125247	2544.232537
712.459159	2550.266799
712.793023	2545.732281
713.126837	2548.668753
713.460602	2544.935778
713.794318	2548.872920
714.127985	2549.407282
714.461602	2546.564071
714.795171	2547.847045
715.128691	2544.935778
715.462162	2546.788402
715.795584	2543.395706
716.128957	2546.087682
716.462281	2546.286808
716.795556	2547.181612
717.128782	2544.509801
717.461960	2542.105171
717.795088	2543.186498
718.128167	2544.250182
718.461198	2546.417878
718.794180	2546.180943
719.127113	2544.182126
719.459997	2545.969215
719.792833	2544.706406
720.125619	2543.199101
720.458357	2546.644730
720.791046	2545.422250
721.123686	2544.734132
721.456278	2544.686241
721.788821	2543.700696
722.121315	2543.057949
722.453761	2540.958308
722.786158	2545.260933
723.118506	2542.405119
723.450805	2543.879657
723.783056	2544.585418
724.115259	2542.405119
724.447412	2542.213555
724.779518	2542.916796
725.111574	2543.793957
725.443582	2543.758669
725.775542	2544.706406
726.107453	2543.554502
726.439315	2540.628112
726.771129	2548.303269
727.102895	2544.167003
727.434612	2544.260264
727.766281	2542.460572
728.097901	2540.827238
728.429473	2540.471837
728.760996	2542.594162
729.092471	2539.181301
729.423897	2545.780172
729.755276	2544.590459
730.086606	2544.605583
730.417887	2544.595501
730.749120	2542.568957
731.080305	2545.036602
731.411442	2546.175902
731.742530	2543.461241
732.073570	2544.567774
732.404562	2545.311344
732.735506	2545.543237
733.066401	2545.817980
733.397249	2542.079965
733.728048	2542.717671
734.058798	2547.746222
734.389501	2543.093237
734.720156	2545.729760
735.050762	2540.837320
735.381320	2544.232537
735.711831	2541.550644
736.042293	2542.256405
736.372707	2540.673483
736.703073	2542.591642
737.033391	2543.771272
737.363661	2544.527445
737.693883	2541.674152
738.024056	2543.504091
738.354182	2544.479554
738.684260	2544.797147
739.014290	2542.465613
739.344272	2543.201622
739.674207	2543.607434
740.004093	2544.628268
740.333931	2541.785057
740.663722	2542.389996
740.993464	2543.889739
741.323159	2542.705068
741.652806	2544.451828
741.982405	2544.081303
742.311956	2541.580891
742.641460	2545.787733
742.970915	2540.741538
743.300323	2542.185829
743.629683	2542.722712
743.958996	2545.099616
744.288260	2540.789429
744.617477	2541.016281
744.946647	2536.678368
745.275768	2539.224151
745.604842	2537.149716
745.933869	2539.473688
746.262847	2537.227854
746.591778	2540.386137
746.920662	2541.079296
747.249498	2540.776827
747.578286	2541.598535
747.907027	2540.910417
748.235720	2543.284801
748.564365	2540.880170
748.892963	2542.274049
749.221514	2540.796991
749.550017	2539.995448
749.878473	2542.677342
750.206881	2540.557536
750.535242	2545.238248
750.863555	2540.302958
751.191821	2540.144162
751.520039	2542.677342
751.848210	2542.992414
752.176334	2542.962167
752.504411	2538.208359
752.832440	2540.403781
753.160421	2542.992414
753.488356	2541.548123
753.816243	2540.736497
754.144082	2540.668442
754.471875	2541.406971
754.799620	2542.372352
755.127318	2539.690458
755.454969	2540.885211
755.782572	2540.517207
756.110129	2541.611138
756.437638	2536.731301
756.765100	2541.495191
757.092515	2540.499563
757.419882	2539.231713
757.747203	2542.712630
758.074477	2538.427649
758.401703	2540.842362
758.728882	2539.390509
759.056014	2542.911755
759.383099	2540.907897
759.710138	2541.374203
760.037129	2541.883360
760.364073	2539.869419
760.690970	2542.216076
761.017820	2541.598535
761.344623	2541.870757
761.671379	2543.378062
761.998088	2537.855478
762.324751	2541.190201
762.651366	2541.248174
762.977935	2545.465100
763.304456	2547.345450
763.630931	2551.786707
763.957359	2548.545245
764.283740	2548.729247
764.610074	2543.983000
764.936362	2548.492313
765.262602	2542.803370
765.588796	2542.947043
765.914943	2543.564585
766.241044	2542.256405
766.567097	2541.291024
766.893104	2541.107022
767.219064	2540.756662
767.544978	2539.032587
767.870845	2539.622402
768.196665	2539.372865
768.522438	2541.235572
768.848165	2541.848072
769.173846	2540.033256
769.499479	2538.548637
769.825066	2539.821528
770.150607	2539.821528
770.476101	2538.906558
770.801548	2539.130890
771.126949	2536.975797
771.452303	2539.917310
771.777611	2536.597710
772.102872	2538.042001
772.428087	2540.199614
772.753256	2541.742208
773.078378	2536.811959
773.403453	2538.173071
773.728482	2541.384286
774.053465	2536.630477
774.378401	2538.954449
774.703291	2535.614685
775.028135	2537.648791
775.352932	2537.154758
775.677683	2536.224665
776.002388	2538.289017
776.327046	2535.856660
776.651658	2540.912938
776.976224	2538.215920
777.300743	2538.503266
777.625216	2534.596372
777.949643	2539.249357
778.274024	2540.244985
778.598359	2536.363296
778.922647	2534.931609
779.246889	2535.077802
779.571086	2530.634025
779.895236	2534.447658
780.219339	2536.587628
780.543397	2537.142155
780.867409	2537.933616
781.191374	2539.279604
781.515294	2534.223327
781.839167	2538.515869
782.162995	2535.962525
782.486776	2538.089892
782.810511	2536.174253
783.134201	2538.079809
783.457844	2537.885725
783.781441	2539.698020
784.104993	2537.542926
784.428498	2538.004192
784.751958	2534.228368
785.075372	2538.467978
785.398739	2537.946219
785.722061	2538.268853
786.045337	2536.338091
786.368568	2538.891435
786.691752	2537.124511
787.014891	2539.214069
787.337983	2537.910931
787.661030	2537.807587
787.984031	2538.465457
788.306987	2538.674665
788.629897	2539.738349
788.952760	2538.142824
789.275579	2538.921682
789.598351	2542.324461
789.921078	2538.551157
790.243759	2539.592155
790.566395	2536.786753
790.888984	2539.173740
791.211529	2534.034283
791.534027	2537.966383
791.856480	2537.989068
792.178888	2536.519572
792.501249	2538.914120
792.823566	2538.248688
793.145836	2536.479243
793.468062	2537.996630
793.790241	2536.779192
794.112375	2536.660724
794.434464	2538.087371
794.756507	2538.193235
795.078505	2539.342618
795.400457	2534.356917
795.722364	2534.117462
796.044226	2536.199459
796.366042	2532.579910
796.687812	2536.643080
797.009538	2540.045859
797.331218	2537.147196
797.652852	2538.732639
797.974442	2536.751465
798.295986	2538.283976
798.617484	2535.609644
798.938938	2533.966228
799.260346	2537.479912
799.581709	2535.760878
799.903026	2538.984696
800.224299	2535.786084
800.545526	2538.835982
800.866708	2534.755168
801.187845	2536.214582
801.508936	2536.769109
801.829983	2534.452699
802.150984	2535.740714
802.471940	2537.999151
802.792851	2537.114428
803.113717	2538.349511
803.434538	2538.823379
803.755314	2537.701723
804.076045	2535.549150
804.396731	2538.220962
804.717372	2536.655683
805.037967	2535.960004
805.358518	2535.425642
805.679024	2539.030067
805.999485	2536.524613
806.319901	2538.273894
806.640272	2535.760878
806.960598	2535.309695
807.280879	2537.621064
807.601115	2536.043183
807.921306	2534.500590
808.241453	2537.948739
808.561554	2537.313554
808.881611	2535.276928
809.201623	2537.076620
809.521590	2535.322298
809.841513	2537.847916
810.161390	2536.096115
810.481223	2537.643749
810.801011	2535.012267
811.120755	2536.731301
811.440453	2536.973276
811.760107	2535.455889
812.079716	2535.118131
812.399281	2530.525640
812.718801	2534.193080
813.038276	2531.496062
813.357707	2537.101825
813.677093	2537.784902
813.996434	2538.135262
814.315731	2536.922864
814.634983	2535.735673
814.954191	2535.521424
815.273354	2539.203987
815.592473	2536.743903
815.911547	2538.835982
816.230577	2538.649460
816.549562	2537.207690
816.868502	2535.382792
817.187399	2536.060827
817.506250	2534.941691
817.825058	2539.503935
818.143821	2534.072092
818.462539	2536.431352
818.781213	2536.204500
819.099843	2539.027546
819.418429	2536.693492
819.736970	2542.846220
820.055466	2540.980993
820.373919	2542.427804
820.692327	2542.034594
821.010691	2545.792775
821.329011	2552.222766
821.647286	2567.724314
821.965517	2581.103537
822.283704	2589.804568
822.601847	2591.324476
822.919945	2587.042016
823.237999	2576.659760
823.556010	2569.092988
823.873976	2561.364899
824.191897	2556.361554
824.509775	2554.970195
824.827609	2549.097251
825.145398	2545.235727
825.463144	2547.952909
825.780845	2547.968033
826.098502	2550.476007
826.416116	2552.956254
826.733685	2557.400031
827.051210	2560.011349
827.368692	2557.112686
827.686129	2553.198230
828.003522	2548.230173
828.320872	2540.943185
828.638177	2544.966025
828.955439	2535.844058
829.272656	2537.006043
829.589830	2539.161137
829.906960	2538.498225
830.224046	2538.097453
830.541088	2537.258101
830.858086	2537.462268
831.175041	2537.114428
831.491952	2538.697351
831.808819	2535.309695
832.125642	2537.212731
832.442421	2537.172402
832.759157	2540.807073
833.075849	2540.184491
833.392497	2546.001983
833.709101	2547.542055
834.025662	2549.112374
834.342179	2545.265974
834.658653	2542.115253
834.975083	2542.642053
835.291469	2541.505273
835.607811	2539.390509
835.924110	2538.256250
836.240366	2536.930426
836.556578	2539.095602
836.872746	2534.835827
837.188871	2534.291382
837.504952	2535.844057
837.820990	2536.050745
838.136984	2535.125693
838.452935	2534.195600
838.768842	2537.716846
839.084706	2536.716177
839.400526	2536.902700
839.716303	2537.613502
840.032037	2540.915458
840.347727	2541.001158
840.663373	2537.923533
840.978977	2536.144006
841.294537	2535.750796
841.610054	2535.178625
841.925527	2536.030580
842.240957	2535.039993
842.556344	2535.440765
842.871687	2533.562935
843.186987	2534.639222
843.502244	2531.231402
843.817458	2532.879859
844.132629	2534.316588
844.447756	2533.300795
844.762840	2528.249559
845.077881	2533.283151
845.392879	2530.124868
845.707833	2532.118645
846.022745	2529.945908
846.337613	2536.063348
846.652438	2536.257432
846.967221	2533.431865
847.281960	2534.243491
847.596656	2532.637884
847.911309	2530.681916
848.225919	2532.733666
848.540485	2534.079654
848.855009	2533.746938
849.169490	2530.613860
849.483928	2535.246681
849.798323	2533.121834
850.112675	2532.980682
850.426984	2533.003367
850.741251	2536.025539
851.055474	2531.617050
851.369654	2536.136444
851.683792	2532.965559
851.997887	2534.727442
852.311938	2528.622605
852.625947	2531.080167
852.939914	2535.423121
853.253837	2533.573018
853.567718	2533.341125
853.881555	2535.032432
854.195350	2533.784746
854.509103	2531.370033
854.822812	2530.873480
855.136479	2536.045704
855.450103	2529.666123
855.763685	2535.614685
856.077224	2534.024201
856.390720	2533.641073
856.704173	2534.349355
857.017584	2533.152081
857.330953	2534.500590
857.644278	2534.339273
857.957561	2534.901362
858.270802	2532.562266
858.584000	2532.247194
858.897155	2530.991947
859.210268	2531.367513
859.523339	2535.443286
859.836367	2533.784746
860.149352	2535.559232
860.462295	2533.570497
860.775195	2531.372554
861.088054	2527.306863
861.400869	2533.240302
861.713642	2528.400794
862.026373	2534.805580
862.339062	2533.744417
862.651708	2532.864736
862.964312	2533.729293
863.276873	2534.447658
863.589392	2535.473533
863.901869	2534.823224
864.214303	2535.279448
864.526696	2533.905734
864.839045	2535.473533
865.151353	2532.537061
865.463619	2532.741227
865.775842	2532.103521
866.088023	2533.588141
866.400162	2535.569315
866.712258	2534.924047
867.024313	2533.394057
867.336325	2535.697864
867.648296	2533.782226
867.960224	2534.510672
868.272110	2531.790970
868.583954	2533.394057
868.895755	2532.098480
869.207515	2530.457585
869.519233	2533.686444
869.830909	2532.985723
870.142542	2534.069571
870.454134	2531.357431
870.765684	2533.487318
871.077191	2533.336083
871.388657	2534.062010
871.700081	2533.870446
872.011463	2532.766433
872.322803	2533.688964
872.634101	2532.839530
872.945357	2532.945394
873.256571	2537.101825
873.567744	2538.314223
873.878874	2533.767102
874.189963	2534.669469
874.501010	2535.103008
874.812015	2532.900024
875.122979	2531.929602
875.433900	2534.631660
875.744780	2535.234078
876.055618	2533.837678
876.366415	2535.418080
876.677169	2534.430014
876.987882	2531.599406
877.298554	2531.178470
877.609183	2534.936650
877.919771	2531.075126
878.230317	2532.269879
878.540822	2536.718698
878.851285	2538.538554
879.161707	2534.293903
879.472087	2540.290355
879.782425	2537.235416
880.092722	2541.674152
880.402977	2544.865202
880.713191	2552.699155
881.023363	2562.093346
881.333494	2566.597617
881.643583	2569.037535
881.953631	2566.549726
882.263637	2563.409087
882.573602	2560.633932
882.883526	2560.671740
883.193408	2553.460370
883.503248	2549.550955
883.813048	2546.932075
884.122806	2545.631458
884.432522	2543.022661
884.742197	2540.781868
885.051831	2541.122146
885.361424	2540.486960
885.670975	2536.398584
885.980485	2538.752803
886.289954	2539.287166
886.599382	2535.481094
886.908768	2532.998326
887.218113	2535.324819
887.527417	2535.350024
887.836680	2536.181815
888.145901	2533.840199
888.455082	2533.310878
888.764221	2535.690302
889.073319	2533.429345
889.382376	2536.123842
889.691392	2533.416742
890.000366	2537.129552
890.309300	2535.894469
890.618193	2536.544778
890.927044	2534.596372
891.235855	2533.895652
891.544625	2532.862215
891.853353	2533.928419
892.162041	2534.238450
892.470687	2534.704757
892.779293	2536.002854
893.087858	2532.872297
893.396381	2531.208717
893.704864	2533.026052
894.013306	2532.670651
894.321707	2541.754810
894.630068	2543.032743
894.938387	2546.516180
895.246665	2541.606096
895.554903	2542.110212
895.863100	2540.769265
896.171256	2539.975283
896.479371	2538.251208
896.787446	2535.977648
897.095480	2538.697351
897.403473	2536.136444
897.711425	2537.285828
898.019336	2538.047042
898.327207	2535.007226
898.635038	2535.647452
898.942827	2535.503780
899.250576	2535.526465
899.558284	2534.009077
899.865952	2535.740714
900.173579	2534.256094
900.481165	2535.032432
900.788711	2536.103677
901.096216	2536.920344
901.403681	2531.097811
901.711105	2534.830786
902.018489	2534.004036
902.325832	2536.401105
902.633135	2534.591331
902.940397	2535.138296
903.247619	2533.787267
903.554800	2537.351363
903.861941	2541.898483
904.169041	2546.531304
904.476101	2548.124308
904.783121	2549.714792
905.090100	2546.826211
905.397039	2544.557692
905.703938	2542.372352
906.010796	2538.357073
906.317614	2539.960160
906.624391	2537.399253
906.931129	2535.997813
907.237826	2532.131248
907.544483	2536.335570
907.851099	2533.998995
908.157675	2533.666279
908.464211	2533.202493
908.770707	2529.093952
909.077163	2530.548325
909.383578	2529.230064
909.689954	2529.625794
909.996289	2527.349713
910.302584	2530.717204
910.608839	2530.674354
910.915054	2533.890610
911.221229	2533.235260
911.527363	2532.738707
911.833458	2532.295085
912.139513	2532.980682
912.445527	2532.683254
912.751502	2530.553367
913.057436	2532.831968
913.363331	2532.945394
913.669186	2536.254912
913.975000	2534.344314
914.280775	2534.505631
914.586510	2534.402288
914.892205	2540.113915
915.197859	2538.939326
915.503475	2543.231868
915.809050	2546.949719
916.114585	2548.394010
916.420081	2548.759494
916.725536	2548.462066
917.030952	2545.359235
917.336328	2542.621889
917.641665	2543.108360
917.946961	2542.473175
918.252218	2539.322454
918.557435	2537.235416
918.862612	2536.509490
919.167750	2535.105528
919.472848	2536.348173
919.777906	2532.945394
920.082925	2536.007895
920.387904	2532.963038
920.692843	2534.500590
920.997743	2536.383461
921.302603	2534.533358
921.607423	2531.130579
921.912204	2533.540250
922.216946	2531.407842
922.521647	2533.396577
922.826310	2531.856505
923.130932	2533.580579
923.435516	2530.266021
923.740059	2532.282482
924.044564	2531.785929
924.349028	2531.359951
924.653454	2523.473066
924.957840	2527.304343
925.262186	2527.362316
925.566493	2529.035979
925.870761	2526.588499
926.174989	2530.225692
926.479178	2531.526309
926.783328	2530.679395
927.087438	2532.955476
927.391509	2531.211237
927.695541	2529.164529
927.999533	2529.088911
928.303486	2529.421628
928.607400	2531.178470
928.911275	2529.177132
929.215110	2528.957841
929.518906	2529.499765
929.822663	2530.966741
930.126381	2530.669313
930.430060	2528.630166
930.733699	2529.933305
931.037299	2530.593696
931.340861	2530.071936
931.644383	2531.244005
931.947866	2528.063037
932.251309	2533.136958
932.554714	2529.545136
932.858080	2531.954807
933.161407	2529.963552
933.464694	2530.278624
933.767943	2530.490352
934.071153	2529.351051
934.374323	2531.629653
934.677455	2531.869108
934.980548	2532.438758
935.283602	2527.934487
935.586617	2531.317101
935.889593	2531.264169
936.192530	2532.942873
936.495428	2532.186700
936.798287	2527.763088
937.101108	2530.933974
937.403890	2530.795342
937.706632	2530.260980
938.009336	2529.272913
938.312002	2529.736700
938.614628	2530.941535
938.917216	2531.551515
939.219765	2530.921371
939.522275	2530.744930
939.824747	2531.700229
940.127179	2528.090763
940.429573	2527.137985
940.731929	2529.885414
941.034246	2527.150588
941.336524	2527.132944
941.638763	2528.433561
941.940964	2532.111083
942.243126	2530.359282
942.545250	2531.450692
942.847335	2530.540764
943.149381	2529.819879
943.451389	2531.927081
943.753359	2530.071936
944.055290	2531.133099
944.357182	2529.638397
944.659036	2530.339118
944.960851	2531.773326
945.262628	2530.306350
945.564367	2531.188552
945.866067	2529.635877
946.167729	2530.281144
946.469352	2531.982534
946.770937	2529.598068
947.072484	2529.870290
947.373992	2530.971782
947.675462	2528.665454
947.976893	2530.220650
948.278286	2528.027748
948.579641	2530.628984
948.880958	2532.070754
949.182236	2532.456402
949.483476	2529.537574
949.784678	2529.237625
950.085841	2528.680578
950.386967	2531.929602
950.688054	2529.406504
950.989103	2529.005732
951.290114	2532.075795
951.591087	2528.582275
951.892021	2529.441792
952.192917	2533.081505
952.493776	2530.165198
952.794596	2530.548325
953.095378	2530.928933
953.396122	2532.037986
953.696828	2529.688809
953.997496	2530.666792
954.298126	2528.804086
954.598718	2532.708460
954.899272	2528.617563
955.199788	2528.156298
955.500266	2530.800383
955.800706	2527.445495
956.101108	2525.847449
956.401472	2527.130423
956.701798	2526.026410
957.002087	2527.420289
957.302337	2526.457429
957.602550	2529.744261
957.902724	2530.195445
958.202861	2527.445495
958.502960	2530.540764
958.803022	2529.618233
959.103045	2529.862728
959.403031	2530.278624
959.702979	2530.003881
960.002889	2530.823068
960.302762	2526.805269
960.602596	2532.040507
960.902393	2525.943231
961.202153	2531.294416
961.501875	2530.424817
961.801559	2528.630166
962.101205	2526.659075
962.400814	2527.435413
962.700385	2528.693181
962.999918	2527.881555
963.299414	2530.001360
963.598873	2528.718387
963.898293	2529.910619
964.197677	2530.238294
964.497022	2529.119158
964.796331	2529.696370
965.095601	2528.461288
965.394835	2527.198479
965.694030	2526.432223
965.993189	2530.119827
966.292309	2528.524302
966.591393	2528.599919
966.890439	2527.125382
967.189447	2527.800897
967.488419	2528.335259
967.787353	2529.971113
968.086249	2528.589837
968.385108	2529.368695
968.683930	2527.848788
968.982714	2527.453057
969.281462	2530.051772
969.580172	2526.674199
969.878844	2525.920546
970.177480	2528.093283
970.476078	2526.769981
970.774639	2530.538243
971.073162	2529.083870
971.371649	2528.171421
971.670098	2523.190761
971.968510	2525.391225
972.266885	2524.138498
972.565223	2533.048738
972.863524	2527.145547
973.161788	2528.501617
973.460014	2528.894827
973.758204	2530.369364
974.056356	2525.282840
974.354471	2528.141174
974.652550	2532.642925
974.950591	2525.673530
975.248595	2526.464991
975.546563	2528.473891
975.844493	2528.746113
976.142386	2529.293078
976.440243	2530.669313
976.738062	2526.729651
977.035845	2528.637728
977.333590	2528.037831
977.631299	2531.034797
977.928971	2530.911288
978.226606	2528.544467
978.524204	2528.730989
978.821765	2529.590506
979.119290	2528.368026
979.416777	2528.491535
979.714228	2528.393232
980.011642	2528.703263
980.309020	2528.952800
980.606360	2525.665968
980.903664	2530.011443
981.200931	2526.021369
981.498162	2527.717718
981.795356	2526.109589
982.092513	2527.972296
982.389633	2529.603109
982.686717	2530.805424
982.983764	2528.247039
983.280775	2531.259128
983.577749	2530.180321
983.874686	2530.986906
984.171587	2530.467667
984.468451	2529.091432
984.765279	2528.458767
985.062070	2526.223015
985.358824	2529.585465
985.655543	2527.140505
985.952224	2528.720907
986.248869	2527.112779
986.545478	2525.363499
986.842050	2525.736544
987.138586	2523.475587
987.435086	2527.279137
987.731549	2523.543642
988.027975	2526.908612
988.324366	2526.948942
988.620719	2527.972296
988.917037	2529.257790
989.213318	2526.991791
989.509563	2526.376771
989.805772	2526.139836
990.101944	2528.315094
990.398080	2529.230064
990.694180	2524.372912
990.990244	2529.232584
991.286271	2526.432223
991.582262	2528.889786
991.878217	2526.938859
992.174136	2529.371216
992.470019	2530.656710
992.765865	2528.927594
993.061676	2528.277286
993.357450	2529.030938
993.653188	2528.811648
993.948890	2528.662934
994.244556	2528.819210
994.540186	2528.340300
994.835780	2527.011956
995.131337	2527.526154
995.426859	2527.422810
995.722345	2527.067409
996.017795	2527.637059
996.313208	2528.468849
996.608586	2529.411545
996.903928	2528.360465
997.199234	2527.687471
997.494504	2527.715197
997.789738	2526.817872
998.084936	2529.817358
998.380099	2525.789476
998.675225	2528.738551
998.970316	2526.492717
999.265371	2531.271731
999.560390	2527.911802
999.855373	2527.753006
1000.150320	2528.985568
1000.445232	2528.055475
1000.740108	2528.809127
1001.034948	2525.872655
1001.329752	2525.071112
1001.624521	2526.880886
1001.919254	2523.314270
1002.213951	2522.482479
1002.508613	2524.443488
1002.803239	2526.275947
1003.097829	2521.670853
1003.392384	2528.670496
1003.686903	2527.200999
1003.981386	2528.433561
1004.275834	2531.506145
1004.570246	2527.687471
1004.864623	2527.085053
1005.158964	2527.705115
1005.453270	2526.059178
1005.747540	2529.053623
1006.041775	2526.399456
1006.335974	2528.839374
1006.630138	2525.882738
1006.924266	2527.974816
1007.218359	2523.951976
1007.512416	2527.450536
1007.806438	2525.310567
1008.100425	2527.647141
1008.394376	2527.753006
1008.688292	2528.766278
1008.982172	2525.776873
1009.276017	2527.385001
1009.569827	2528.602440
1009.863602	2528.625125
1010.157341	2525.010618
1010.451045	2526.316277
1010.744714	2526.548170
1011.038347	2527.269055
1011.331945	2525.010618
1011.625508	2529.585465
1011.919036	2525.275278
1012.212528	2526.427182
1012.505986	2529.252749
1012.799408	2528.095804
1013.092795	2527.513551
1013.386147	2527.798376
1013.679464	2526.553211
1013.972745	2527.735362
1014.265992	2527.858870
1014.559204	2527.634538
1014.852380	2526.843077
1015.145521	2529.008253
1015.438628	2526.948942
1015.731699	2528.829292
1016.024736	2526.129754
1016.317737	2526.374250
1016.610703	2527.755526
1016.903635	2525.151770
1017.196531	2524.856863
1017.489393	2524.272089
1017.782219	2522.709331
1018.075011	2525.721421
1018.367768	2527.253931
1018.660490	2528.118489
1018.953177	2528.118489
1019.245829	2528.118489
