Dividing Wavelength (nm)	Counts (n)	Blue Motor Position (mm): 0.000000	Red Motor Position (mm): 13.000000	
326.493990	2084.963258
326.888308	2084.963258
327.282561	2084.963258
327.676750	2060.869063
328.070874	2059.797818
328.464933	2065.673282
328.858929	2080.264902
329.252859	2090.415265
329.646726	2104.780033
330.040528	2120.581530
330.434265	2141.391413
330.827938	2159.710966
331.221547	2180.193174
331.615091	2199.941894
332.008571	2221.185317
332.401986	2243.810015
332.795338	2259.898858
333.188625	2282.407610
333.581847	2299.996195
333.975006	2318.656026
334.368100	2335.364931
334.761129	2353.404700
335.154095	2370.136289
335.546996	2386.847714
335.939833	2402.200548
336.332606	2415.209246
336.725315	2425.682243
337.117960	2432.734817
337.510540	2440.969542
337.903056	2452.720472
338.295508	2456.597119
338.687896	2462.974179
339.080220	2474.248719
339.472480	2474.987248
339.864676	2478.992445
340.256807	2481.540748
340.648875	2485.518219
341.040879	2486.844042
341.432818	2484.721716
341.824694	2489.137767
342.216506	2488.351347
342.608253	2487.020482
342.999937	2486.347488
343.391557	2488.537870
343.783113	2481.296252
344.174605	2483.688280
344.566033	2480.819863
344.957397	2481.013948
345.348697	2480.048567
345.739934	2473.190077
346.131106	2471.980200
346.522215	2472.239819
346.913260	2468.721094
347.304241	2470.296455
347.695159	2469.058851
348.086012	2468.128758
348.476802	2464.662965
348.867528	2463.826134
349.258191	2461.827316
349.648789	2462.651545
350.039324	2463.722790
350.429796	2465.104066
350.820203	2461.187090
351.210548	2462.507872
351.600828	2457.469239
351.991045	2459.221040
352.381198	2457.055864
352.771288	2457.791872
353.161314	2457.774228
353.551276	2460.330093
353.941175	2458.868159
354.331010	2459.349589
354.720782	2459.836060
355.110490	2459.271451
355.500135	2460.559466
355.889717	2457.668364
356.279235	2462.427213
356.668689	2461.834878
357.058080	2462.717080
357.447408	2456.609722
357.836672	2458.444702
358.225873	2461.625670
358.615010	2460.236832
359.004084	2466.429890
359.393095	2463.463171
359.782043	2465.356124
360.170927	2468.020374
360.559748	2464.156329
360.948505	2468.942905
361.337199	2466.913840
361.725830	2468.784108
362.114398	2471.256794
362.502903	2468.065744
362.891344	2471.881898
363.279722	2469.479788
363.668037	2471.597072
364.056289	2472.438945
364.444478	2474.677217
364.832603	2473.764768
365.220665	2476.532362
365.608665	2475.193936
365.996601	2476.688638
366.384474	2474.881384
366.772284	2477.190233
367.160031	2476.721405
367.547715	2478.498412
367.935336	2477.643936
368.322893	2479.690645
368.710388	2480.487147
369.097820	2485.830770
369.485189	2483.970584
369.872495	2483.002683
370.259738	2485.929073
370.646918	2484.331027
371.034035	2486.743219
371.421090	2488.769763
371.808081	2492.006184
372.195010	2494.138592
372.581875	2501.110507
372.968678	2504.611589
373.355418	2513.872188
373.742096	2520.460977
374.128710	2529.300640
374.515262	2539.571991
374.901751	2552.031202
375.288177	2570.575087
375.674540	2585.151583
376.060841	2602.699840
376.447079	2623.139198
376.833254	2644.332209
377.219367	2668.607885
377.605417	2699.084181
377.991404	2725.338510
378.377329	2759.971237
378.763191	2793.643624
379.148991	2836.876559
379.534727	2881.135370
379.920402	2923.791093
380.306013	2968.894296
380.691563	3030.040972
381.077049	3085.039960
381.462474	3134.158443
381.847835	3202.284596
382.233134	3269.014349
382.618371	3323.690704
383.003545	3404.825555
383.388657	3481.912359
383.773706	3569.930905
384.158693	3634.170328
384.543618	3723.492013
384.928480	3798.141419
385.313280	3898.876276
385.698017	3994.111233
386.082692	4105.223305
386.467305	4168.005835
386.851856	4284.020429
387.236344	4434.740847
387.620770	4492.840145
388.005133	4603.818627
388.389435	4747.264659
388.773674	4827.252647
389.157851	4946.687664
389.541965	5075.799176
389.926018	5101.874544
390.310008	5265.840594
390.693936	5385.320981
391.077802	5492.558926
391.461606	5618.403770
391.845348	5728.424432
392.229027	5844.779304
392.612645	6055.416356
392.996200	6169.119581
393.379694	6325.652449
393.763125	6540.861827
394.146494	6628.663604
394.529801	6759.113542
394.913047	6979.666543
395.296230	6973.682694
395.679351	7019.728593
396.062410	7259.662310
396.445408	7155.481825
396.828343	7288.870756
397.211217	7401.737149
397.594028	7285.294057
397.976778	7460.869884
398.359466	7600.376255
398.742092	7560.871253
399.124656	7674.017430
399.507158	7828.493507
399.889598	7822.343300
400.271977	7985.089390
400.654294	7977.731826
401.036549	8126.087942
401.418742	8105.290662
401.800874	8328.336514
402.182944	8354.424485
402.564952	8616.902243
402.946898	8407.538082
403.328783	8389.894044
403.710606	8492.486566
404.092367	8639.809246
404.474067	8865.670582
404.855705	8610.285728
405.237282	8488.914908
405.618797	8749.456862
406.000250	8852.309004
406.381642	9024.870220
406.762972	8882.273622
407.144240	8641.195563
407.525447	8717.755566
407.906593	8571.151251
408.287677	8651.928179
408.668700	8627.977657
409.049661	8490.346596
409.430560	8476.821180
409.811399	8328.288623
410.192176	8309.291035
410.572891	8225.824651
410.953545	8383.393476
411.334138	7931.680885
411.714669	8129.500803
412.095139	7618.327803
412.475547	7742.269612
412.855894	7535.801594
413.236180	7550.950262
413.616405	7256.012515
413.996568	7248.549087
414.376670	7090.652586
414.756711	6905.911942
415.136691	6879.897067
415.516609	6815.866852
415.896466	6706.325099
416.276262	6671.626838
416.655997	6698.428132
417.035670	6572.237969
417.415283	6648.011552
417.794834	6517.458271
418.174324	6289.295647
418.553753	6104.436536
418.933121	6110.334686
419.312428	5910.173152
419.691674	5742.093521
420.070859	5728.764710
420.449983	5498.401623
420.829045	5496.107898
421.208047	5307.929187
421.586988	5269.883599
421.965867	5191.670097
422.344686	5067.607301
422.723444	5044.652407
423.102141	4684.585473
423.480777	4770.148977
423.859352	4575.913319
424.237866	4632.036485
424.616319	4476.337928
424.994712	4451.802632
425.373044	4318.592663
425.751314	4290.165596
426.129524	4088.448866
426.507673	4104.706587
426.885762	3982.211590
427.263789	3903.360382
427.641756	3828.229546
428.019662	3749.625354
428.397508	3670.464115
428.775292	3618.313379
429.153016	3537.354969
429.530679	3471.298209
429.908282	3405.967376
430.285824	3331.383505
430.663305	3304.632622
431.040726	3230.187382
431.418086	3170.900893
431.795385	3148.941627
432.172624	3118.309055
432.549802	3059.163718
432.926920	3023.439581
433.303977	2985.303252
433.680974	2955.225208
434.057910	2929.296033
434.434786	2899.578431
434.811601	2870.841333
435.188355	2864.822196
435.565050	2838.298165
435.941683	2810.927220
436.318257	2804.799697
436.694770	2782.248096
437.071222	2774.310799
437.447614	2744.613362
437.823946	2734.336970
438.200218	2723.410269
438.576429	2709.877291
438.952580	2703.424614
439.328670	2696.482945
439.704700	2691.146884
440.080670	2681.692200
440.456580	2679.736232
440.832429	2674.553926
441.208218	2662.558501
441.583947	2659.984992
441.959616	2658.023983
442.335224	2654.490134
442.710773	2648.511325
443.086261	2653.164310
443.461689	2643.679379
443.837057	2641.297434
444.212365	2645.098464
444.587612	2640.316930
444.962800	2636.278966
445.337927	2635.578245
445.712995	2626.552059
446.088002	2636.014305
446.462949	2632.571197
446.837837	2633.687812
447.212664	2630.443830
447.587431	2648.755821
447.962139	2660.587409
448.336786	2674.690037
448.711374	2663.715445
449.085901	2644.385141
449.460369	2638.910448
449.834776	2636.019346
450.209124	2649.025523
450.583412	2646.361273
450.957640	2645.204328
451.331808	2638.756693
451.705917	2631.232771
452.079965	2629.274282
452.453954	2630.917698
452.827883	2629.526340
453.201752	2629.735548
453.575562	2631.459622
453.949311	2632.533388
454.323001	2631.484828
454.696632	2629.680095
455.070202	2641.168885
455.443713	2638.444141
455.817164	2639.964049
456.190556	2640.495891
456.563888	2638.771816
456.937160	2638.975983
457.310373	2635.585807
457.683526	2635.427011
458.056619	2637.304840
458.429653	2635.845426
458.802628	2636.785602
459.175542	2636.034470
459.548398	2645.784061
459.921194	2651.016779
460.293930	2653.814619
460.666607	2663.680157
461.039224	2671.012516
461.411782	2673.008812
461.784280	2670.825993
462.156719	2664.821979
462.529099	2662.782832
462.901419	2655.856287
463.273680	2653.461738
463.645882	2654.401914
464.018024	2654.323776
464.390106	2659.327121
464.762130	2671.594769
465.134094	2690.670495
465.505999	2716.516491
465.877845	2736.839902
466.249631	2746.110584
466.621358	2737.142372
466.993026	2727.725496
467.364634	2719.410113
467.736184	2710.353680
468.107674	2705.511652
468.479105	2701.448482
468.850477	2700.057123
469.221790	2693.904395
469.593043	2688.001204
469.964238	2685.021882
470.335373	2684.938703
470.706449	2694.322811
471.077467	2708.206149
471.448425	2730.992164
471.819324	2745.354411
472.190164	2736.736559
472.560945	2722.407079
472.931667	2705.231868
473.302330	2700.420087
473.672934	2695.109231
474.043479	2698.864891
474.413965	2697.009746
474.784393	2690.466328
475.154761	2697.980168
475.525070	2697.871783
475.895321	2696.825744
476.265513	2700.785570
476.635645	2708.934595
477.005719	2706.098946
477.375734	2708.180943
477.745691	2713.847200
478.115588	2720.526729
478.485427	2729.494941
478.855207	2746.697879
479.224928	2758.413520
479.594591	2762.141454
479.964194	2762.365785
480.333739	2758.995774
480.703226	2761.261772
481.072653	2759.794797
481.442022	2765.244284
481.811333	2762.970723
482.180584	2756.049219
482.549777	2751.897829
482.918912	2748.502612
483.287988	2746.861716
483.657005	2737.013822
484.025964	2732.685992
484.394864	2731.158522
484.763706	2726.727348
485.132489	2721.943293
485.501213	2721.053529
485.869879	2719.200905
486.238487	2714.368959
486.607036	2716.067828
486.975527	2711.397199
487.343959	2709.683207
487.712333	2707.906200
488.080648	2708.128011
488.448905	2706.431662
488.817104	2705.806559
489.185244	2710.250337
489.553326	2714.240410
489.921350	2728.559807
490.289315	2734.715056
490.657222	2738.574059
491.025070	2737.659090
491.392861	2735.403174
491.760593	2729.378995
492.128267	2720.345247
492.495883	2708.233875
492.863440	2708.029708
493.230939	2694.975640
493.598380	2690.824250
493.965763	2686.148580
494.333088	2682.667663
494.700354	2679.191788
495.067563	2680.865451
495.434713	2676.981242
495.801805	2678.899401
496.168839	2680.091634
496.535815	2676.459482
496.902733	2674.732887
497.269593	2677.059380
497.636395	2673.621313
498.003139	2673.775068
498.369825	2672.855057
498.736453	2669.976558
499.103023	2671.065448
499.469535	2670.009326
499.835989	2666.261228
500.202385	2665.840292
500.568723	2667.332473
500.935003	2668.615447
501.301226	2667.408091
501.667390	2668.733914
502.033497	2668.663338
502.399546	2664.615291
502.765537	2661.535146
503.131470	2661.305774
503.497345	2662.530774
503.863163	2658.729744
504.228923	2659.145639
504.594625	2663.637307
504.960269	2657.290495
505.325856	2659.634631
505.691385	2654.994249
506.056856	2655.780669
506.422270	2656.501554
506.787625	2655.367295
507.152924	2654.280926
507.518164	2654.689259
507.883347	2652.100627
508.248472	2652.370329
508.613540	2651.253713
508.978550	2651.258754
509.343503	2650.406799
509.708398	2650.926038
510.073236	2653.449136
510.438016	2653.002993
510.802738	2648.949906
511.167403	2648.513846
511.532010	2651.921666
511.896561	2648.468476
512.261053	2654.875782
512.625488	2647.359422
512.989866	2647.399751
513.354186	2645.743732
513.718449	2642.580408
514.082655	2648.463434
514.446803	2642.187198
514.810894	2646.424288
515.174927	2645.680717
515.538904	2645.085861
515.902822	2642.633340
516.266684	2640.208545
516.630488	2641.673000
516.994235	2642.335912
517.357925	2643.386992
517.721558	2643.313896
518.085133	2642.494708
518.448651	2640.657208
518.812112	2640.843730
519.175516	2637.975314
519.538863	2639.419604
519.902152	2640.523617
520.265385	2640.016981
520.628560	2637.471198
520.991678	2638.550005
521.354739	2638.245016
521.717743	2637.834162
522.080690	2636.760396
522.443580	2635.870632
522.806413	2635.164871
523.169189	2634.360807
523.531908	2633.806280
523.894569	2630.554735
524.257174	2632.170425
524.619722	2634.512041
524.982213	2633.322329
525.344647	2631.343676
525.707025	2627.653551
526.069345	2631.187400
526.431608	2631.021042
526.793815	2627.666154
527.155964	2626.630197
527.518057	2629.115486
527.880093	2624.931328
528.242072	2626.315125
528.603995	2626.599950
528.965860	2624.104579
529.327669	2623.892851
529.689421	2624.137347
530.051117	2624.374281
530.412755	2623.527367
530.774337	2625.107769
531.135862	2621.183230
531.497331	2619.053343
531.858743	2616.436984
532.220098	2615.453959
532.581396	2613.182919
532.942638	2613.848352
533.303824	2617.251130
533.664953	2617.707355
534.026025	2616.936058
534.387040	2618.425719
534.747999	2616.411778
535.108902	2616.908332
535.469748	2614.412961
535.830537	2614.107971
536.191270	2611.930192
536.551947	2612.451952
536.912567	2609.412136
537.273131	2613.079576
537.633638	2611.279884
537.994089	2609.777620
538.354483	2608.683689
538.714821	2608.653442
539.075103	2607.546909
539.435328	2608.698813
539.795497	2609.744852
540.155609	2606.561364
540.515665	2609.213011
540.875665	2611.249637
541.235609	2605.401898
541.595496	2610.357353
541.955328	2607.796446
542.315102	2607.012547
542.674821	2605.081785
543.034483	2604.691096
543.394090	2603.317381
543.753640	2605.585900
544.113134	2606.112701
544.472571	2602.707402
544.831953	2604.832248
545.191278	2602.455344
545.550548	2602.911568
545.909761	2603.652618
546.268918	2602.848554
546.628019	2605.389295
546.987064	2604.121445
547.346053	2601.235385
547.704986	2600.743872
548.063863	2600.053234
548.422684	2602.162957
548.781449	2600.078440
549.140158	2602.974583
549.498811	2601.618512
549.857408	2599.783532
550.215949	2597.320929
550.574434	2599.660024
550.932864	2598.613985
551.291237	2596.557194
551.649555	2596.053078
552.007817	2598.961824
552.366022	2597.414190
552.724173	2598.495518
553.082267	2600.557349
553.440305	2599.811259
553.798288	2600.842175
554.156215	2597.484766
554.514086	2599.589448
554.871902	2599.450816
555.229661	2597.353696
555.587365	2598.177925
555.945014	2596.426124
556.302606	2598.004005
556.660143	2596.587441
557.017625	2594.795311
557.375050	2594.540732
557.732421	2598.092225
558.089735	2597.477204
558.446994	2594.623911
558.804197	2594.016452
559.161345	2596.852101
559.518437	2593.681216
559.875474	2593.492172
560.232455	2595.690115
560.589381	2594.739858
560.946251	2595.964858
561.303065	2595.420414
561.659825	2596.998295
562.016528	2593.338417
562.373177	2593.325814
562.729770	2593.497213
563.086307	2594.802872
563.442789	2591.329517
563.799216	2595.826227
564.155587	2592.988057
564.511904	2594.210537
564.868164	2591.180803
565.224370	2595.765733
565.580520	2592.804055
565.936615	2590.694332
566.292654	2589.416399
566.648638	2591.624425
567.004567	2592.665423
567.360441	2591.546287
567.716260	2589.832295
568.072023	2589.865062
568.427732	2587.175607
568.783385	2587.697366
569.138982	2587.525967
569.494525	2584.881882
569.850013	2587.770463
570.205445	2589.159301
570.560823	2590.858169
570.916145	2589.169383
571.271412	2590.270875
571.626625	2587.513364
571.981782	2589.378591
572.336884	2588.453539
572.691931	2586.079156
573.046923	2586.847932
573.401860	2587.916656
573.756743	2589.481934
574.111570	2586.618559
574.466342	2587.755339
574.821059	2584.206367
575.175722	2588.236769
575.530330	2586.074114
575.884882	2587.082345
576.239380	2584.246696
576.593823	2583.336768
576.948211	2584.276943
577.302544	2585.759042
577.656823	2581.693352
578.011047	2583.419947
578.365216	2581.169072
578.719330	2582.993969
579.073389	2584.365163
579.427394	2580.407857
579.781344	2582.424319
580.135239	2582.797364
580.489080	2580.911973
580.842866	2579.921386
581.196597	2581.889957
581.550273	2579.911304
581.903895	2583.235945
582.257463	2579.981880
582.610975	2580.720409
582.964434	2579.079513
583.317837	2580.584298
583.671186	2578.401478
584.024481	2579.984401
584.377721	2578.933320
584.730906	2578.567836
585.084037	2579.200501
585.437113	2577.491550
585.790135	2578.101530
586.143103	2576.253947
586.496016	2577.410892
586.848874	2571.953842
587.201679	2576.538772
587.554428	2573.856878
587.907124	2575.480130
588.259765	2569.219017
588.612352	2575.296127
588.964884	2574.154306
589.317362	2576.148082
589.669786	2575.522979
590.022155	2577.811663
590.374470	2575.578432
590.726731	2573.551888
591.078937	2575.023905
591.431090	2576.145562
591.783188	2570.885118
592.135232	2573.773699
592.487222	2572.662125
592.839157	2572.972156
593.191038	2570.872515
593.542866	2571.414439
593.894639	2570.345714
594.246358	2571.986610
594.598022	2570.769171
594.949633	2568.218347
595.301190	2569.309757
595.652692	2569.216496
596.004141	2569.778585
596.355535	2567.547874
596.706876	2568.180539
597.058162	2569.292113
597.409395	2566.476629
597.760573	2569.221537
598.111698	2567.817576
598.462768	2568.185580
598.813785	2567.857905
599.164748	2567.189952
599.515657	2567.953687
599.866511	2568.745148
600.217312	2566.285065
600.568060	2565.160888
600.918753	2571.535427
601.269392	2564.946639
601.619978	2566.249777
601.970510	2567.721794
602.320988	2568.785477
602.671412	2569.566856
603.021783	2564.959242
603.372100	2564.056875
603.722363	2566.317832
604.072572	2564.114848
604.422728	2565.561659
604.772830	2561.664847
605.122878	2559.154353
605.472872	2560.747358
605.822813	2559.013201
606.172701	2562.478994
606.522534	2565.833882
606.872314	2565.082750
607.222041	2563.850188
607.571714	2563.073850
607.921333	2565.980075
608.270899	2563.971175
608.620411	2565.712894
608.969870	2565.380178
609.319276	2563.048644
609.668627	2562.804148
610.017926	2563.192317
610.367171	2564.092163
610.716362	2562.998233
611.065500	2564.757595
611.414585	2563.651062
611.763616	2566.287586
612.112594	2562.990671
612.461518	2565.291958
612.810389	2564.495455
613.159207	2564.626525
613.507971	2563.391443
613.856682	2565.849005
614.205340	2567.086608
614.553945	2568.674572
614.902496	2564.369427
615.250994	2566.645507
615.599439	2565.816238
615.947830	2564.182904
616.296169	2563.706515
616.644454	2568.452761
616.992686	2563.890517
617.340864	2566.395970
617.688990	2563.915723
618.037063	2566.532082
618.385082	2565.118038
618.733048	2564.447564
619.080961	2563.383881
619.428821	2566.242215
619.776628	2563.792214
620.124382	2567.179870
620.472083	2565.107956
620.819731	2561.806000
621.167326	2564.319015
621.514868	2564.951680
621.862357	2565.796073
622.209793	2561.722821
622.557176	2562.133675
622.904506	2560.833057
623.251783	2556.656461
623.599007	2557.553787
623.946179	2556.858107
624.293297	2558.441030
624.640363	2561.894220
624.987376	2557.460525
625.334336	2561.117882
625.681243	2556.676626
626.028097	2557.183262
626.374899	2557.959599
626.721647	2559.169476
627.068343	2562.221895
627.414987	2557.790721
627.761577	2557.241235
628.108115	2559.227450
628.454600	2557.311811
628.801032	2558.196534
629.147412	2557.049671
629.493739	2558.912378
629.840014	2556.147305
630.186236	2553.551110
630.532405	2555.549928
630.878521	2557.301729
631.224585	2556.270813
631.570597	2555.973385
631.916556	2554.145967
632.262462	2553.288970
632.608316	2555.978426
632.954117	2552.608415
633.299866	2552.986501
633.645562	2553.621687
633.991206	2555.202088
634.336797	2552.792417
634.682336	2553.704866
635.027823	2551.804351
635.373257	2550.967519
635.718639	2554.337530
636.063968	2550.647406
636.409245	2552.742005
636.754470	2550.102961
637.099642	2551.491799
637.444762	2551.643034
637.789829	2549.619010
638.134845	2549.780327
638.479808	2549.341747
638.824719	2547.574822
639.169577	2549.729916
639.514383	2548.086500
639.859137	2550.029864
640.203839	2549.931562
640.548489	2547.784030
640.893086	2542.001827
641.237632	2544.983669
641.582125	2545.008875
641.926566	2543.224307
642.270955	2547.035419
642.615292	2547.844524
642.959576	2549.674463
643.303809	2546.722867
643.647990	2548.280584
643.992118	2544.199770
644.336195	2547.068187
644.680219	2547.116078
645.024192	2546.059956
645.368112	2548.318393
645.711981	2545.039122
646.055797	2548.255378
646.399562	2547.998279
646.743274	2549.513146
647.086935	2549.553475
647.430544	2549.069525
647.774101	2546.841335
648.117606	2550.964998
648.461059	2552.101779
648.804460	2552.116902
649.147810	2547.368135
649.491108	2549.072045
649.834354	2547.910059
650.177548	2549.843342
650.520690	2546.158258
650.863781	2548.318393
651.206820	2547.736139
651.549807	2547.037940
651.892742	2544.328319
652.235626	2545.056766
652.578458	2542.153062
652.921238	2543.710778
653.263967	2547.582384
653.606644	2541.933771
653.949269	2543.793957
654.291843	2544.363608
654.634365	2542.901673
654.976836	2545.875954
655.319255	2542.400078
655.661622	2542.274049
656.003938	2543.925027
656.346203	2543.965356
656.688416	2543.199101
657.030577	2541.880839
657.372687	2544.645912
657.714746	2542.823535
658.056753	2541.895963
658.398708	2537.575694
658.740612	2542.823535
659.082465	2538.934285
659.424266	2538.636857
659.766016	2538.999820
660.107715	2540.807073
660.449362	2539.347659
660.790958	2541.447300
661.132503	2541.585932
661.473996	2543.042825
661.815438	2541.999306
662.156829	2540.943185
662.498168	2539.854295
662.839456	2542.145500
663.180693	2543.587270
663.521879	2541.991745
663.863013	2540.451672
664.204097	2540.537372
664.545129	2542.216076
664.886110	2541.764893
665.227040	2543.985521
665.567918	2543.438556
665.908746	2543.481406
666.249522	2542.606765
666.590248	2542.286652
666.930922	2543.713299
667.271545	2541.762372
667.612118	2543.778834
667.952639	2540.050900
668.293109	2541.953936
668.633528	2541.747249
668.973896	2541.492670
669.314213	2541.596014
669.654480	2542.720191
669.994695	2541.374203
670.334859	2541.946374
670.674973	2539.761034
671.015035	2542.263967
671.355047	2542.188350
671.695008	2541.598535
672.034918	2541.313709
672.374777	2545.008875
672.714585	2540.222300
673.054342	2542.291693
673.394049	2540.290355
673.733705	2541.091899
674.073310	2541.853113
674.412864	2542.672300
674.752368	2541.076775
675.091820	2541.840510
675.431223	2539.519059
675.770574	2538.720036
676.109875	2534.606454
676.449125	2536.506969
676.788324	2537.268183
677.127473	2537.157278
677.466571	2535.430683
677.805619	2540.673483
678.144616	2538.780530
678.483562	2539.871939
678.822458	2535.468492
679.161303	2539.710623
679.500098	2538.006712
679.838842	2540.234902
680.177535	2535.609644
680.516179	2538.447813
680.854771	2539.718184
681.193314	2541.711961
681.531805	2538.281455
681.870247	2542.775644
682.208638	2541.391847
682.546978	2543.441076
682.885268	2541.192722
683.223508	2540.355890
683.561697	2541.664070
683.899836	2540.663401
684.237925	2538.145344
684.575963	2539.879501
684.913951	2540.497043
685.251889	2540.849923
685.589776	2538.699871
685.927614	2541.089378
686.265401	2541.374203
686.603137	2539.902186
686.940824	2541.754810
687.278460	2542.200953
687.616046	2540.431507
687.953582	2545.452497
688.291068	2540.325643
688.628504	2541.424615
688.965889	2542.813453
689.303224	2541.505273
689.640510	2541.696837
689.977745	2540.769265
690.314930	2539.183822
690.652065	2542.276570
690.989150	2538.873791
691.326185	2538.392361
691.663170	2536.791794
692.000105	2536.567463
692.336990	2537.258101
692.673825	2533.716691
693.010610	2538.977135
693.347345	2527.057326
693.684030	2530.644107
694.020665	2532.960518
694.357251	2527.886596
694.693786	2530.190403
695.030272	2535.655014
695.366707	2530.671834
695.703093	2532.685775
696.039429	2529.958510
696.375716	2533.303316
696.711952	2531.909437
697.048139	2531.667462
697.384276	2532.017822
697.720363	2532.839530
698.056400	2528.758716
698.392388	2532.721063
698.728326	2530.800383
699.064214	2531.717873
699.400053	2531.543953
699.735842	2528.057995
700.071581	2531.158305
700.407270	2529.363654
700.742910	2530.812986
701.078501	2529.204858
701.414042	2527.228726
701.749533	2529.204858
702.084974	2527.926925
702.420366	2528.065557
702.755709	2529.587986
703.091002	2530.029087
703.426246	2526.948942
703.761440	2525.703777
704.096584	2528.698222
704.431679	2527.231246
704.766725	2526.152439
705.101721	2526.618746
705.436668	2528.552028
705.771565	2525.318128
706.106413	2526.160001
706.441212	2528.436082
706.775961	2525.207223
707.110661	2528.849457
707.445311	2525.809641
707.779913	2529.754344
708.114465	2530.203006
708.448967	2527.314425
708.783421	2529.305681
709.117825	2529.414066
709.452180	2528.569672
709.786485	2530.195445
710.120742	2531.143182
710.454949	2531.763243
710.789107	2530.011443
711.123216	2529.729138
711.457275	2529.973634
711.791286	2530.981865
712.125247	2531.738038
712.459159	2534.321629
712.793023	2533.018491
713.126837	2531.604447
713.460602	2532.237112
713.794318	2531.899355
714.127985	2532.287523
714.461602	2527.667306
714.795171	2533.189890
715.128691	2532.005219
715.462162	2529.890455
715.795584	2528.741072
716.128957	2526.908612
716.462281	2528.660413
716.795556	2527.069929
717.128782	2526.986750
717.461960	2527.589168
717.795088	2525.459281
718.128167	2526.654034
718.461198	2526.795186
718.794180	2524.947603
719.127113	2527.485824
719.459997	2524.637572
719.792833	2526.346524
720.125619	2523.888961
720.458357	2525.716379
720.791046	2522.858045
721.123686	2523.168076
721.456278	2523.120185
721.788821	2523.740247
722.121315	2526.591020
722.453761	2522.306039
722.786158	2525.093797
723.118506	2524.002387
723.450805	2522.245545
723.783056	2523.208405
724.115259	2524.299815
724.447412	2521.567510
724.779518	2525.943231
725.111574	2525.116482
725.443582	2527.392563
725.775542	2526.039013
726.107453	2522.757222
726.439315	2527.805938
726.771129	2528.385670
727.102895	2527.395084
727.434612	2527.153108
727.766281	2526.389373
728.097901	2526.686802
728.429473	2523.319311
728.760996	2525.698735
729.092471	2524.004908
729.423897	2525.764270
729.755276	2524.687984
730.086606	2527.107738
730.417887	2528.786442
730.749120	2529.585465
731.080305	2529.318284
731.411442	2528.536905
731.742530	2528.423479
732.073570	2528.398273
732.404562	2529.414066
732.735506	2528.100845
733.066401	2527.206040
733.397249	2526.505320
733.728048	2527.831143
734.058798	2527.979857
734.389501	2525.255114
734.720156	2524.380474
735.050762	2526.893489
735.381320	2524.617408
735.711831	2522.807634
736.042293	2524.559435
736.372707	2524.297295
736.703073	2525.280320
737.033391	2524.435926
737.363661	2525.827285
737.693883	2524.778725
738.024056	2527.253931
738.354182	2522.701769
738.684260	2524.814013
739.014290	2522.999198
739.344272	2524.118334
739.674207	2524.841739
740.004093	2526.747295
740.333931	2524.057840
740.663722	2525.456760
740.993464	2525.565145
741.323159	2527.168232
741.652806	2523.657068
741.982405	2524.874507
742.311956	2524.652696
742.641460	2525.665968
742.970915	2526.333921
743.300323	2523.092459
743.629683	2520.745802
743.958996	2525.706297
744.288260	2522.989115
744.617477	2523.987264
744.946647	2520.786131
745.275768	2521.459125
745.604842	2516.241531
745.933869	2521.000380
746.262847	2516.755728
746.591778	2522.971471
746.920662	2523.205885
747.249498	2524.103210
747.578286	2522.154804
747.907027	2521.625483
748.235720	2522.706811
748.564365	2521.817047
748.892963	2521.968282
749.221514	2520.753363
749.550017	2522.966430
749.878473	2520.433250
750.206881	2522.036337
750.535242	2520.453415
750.863555	2522.230422
751.191821	2522.737057
751.520039	2521.214629
751.848210	2520.249248
752.176334	2523.183200
752.504411	2521.985926
752.832440	2521.496934
753.160421	2522.101872
753.488356	2518.711696
753.816243	2525.360978
754.144082	2523.336955
754.471875	2522.474918
754.799620	2519.538445
755.127318	2517.882426
755.454969	2523.163035
755.782572	2522.159845
756.110129	2517.930317
756.437638	2520.276974
756.765100	2519.745133
757.092515	2517.337982
757.419882	2520.584485
757.747203	2521.905267
758.074477	2520.972654
758.401703	2521.751512
758.728882	2521.262520
759.056014	2523.435257
759.383099	2521.562469
759.710138	2522.043899
760.037129	2517.907632
760.364073	2523.483148
760.690970	2521.219670
761.017820	2522.948786
761.344623	2523.011800
761.671379	2522.495082
761.998088	2521.363343
762.324751	2523.838550
762.651366	2524.088087
762.977935	2532.453882
763.304456	2531.387678
763.630931	2538.173071
763.957359	2534.147709
764.283740	2537.628626
764.610074	2529.484642
764.936362	2531.206196
765.262602	2524.327542
765.588796	2524.980371
765.914943	2522.046419
766.241044	2522.928621
766.567097	2521.754033
766.893104	2518.530215
767.219064	2520.397962
767.544978	2515.802950
767.870845	2519.046933
768.196665	2517.456449
768.522438	2517.363187
768.848165	2518.610873
769.173846	2514.086437
769.499479	2517.118692
769.825066	2520.415606
770.150607	2518.182375
770.476101	2517.126253
770.801548	2520.234125
771.126949	2515.747498
771.452303	2518.313445
771.777611	2515.886129
772.102872	2518.154649
772.428087	2514.731705
772.753256	2516.259175
773.078378	2517.113650
773.403453	2515.382014
773.728482	2516.231448
774.053465	2515.936541
774.378401	2516.075173
774.703291	2516.556603
775.028135	2514.671211
775.352932	2513.496622
775.677683	2515.351767
776.002388	2516.803619
776.327046	2510.870181
776.651658	2517.469052
776.976224	2514.230110
777.300743	2515.810512
777.625216	2513.829339
777.949643	2519.029289
778.274024	2516.503671
778.598359	2510.305572
778.922647	2511.369256
779.246889	2513.239524
779.571086	2509.519152
779.895236	2513.010151
780.219339	2517.791686
780.543397	2512.788340
780.867409	2513.799092
781.191374	2515.770183
781.515294	2512.624503
781.839167	2513.118536
782.162995	2515.969308
782.486776	2512.206087
782.810511	2514.502333
783.134201	2513.352950
783.457844	2514.048629
783.781441	2513.146262
784.104993	2512.528721
784.428498	2514.971160
784.751958	2514.789678
785.075372	2514.194822
785.398739	2513.259688
785.722061	2515.520646
786.045337	2516.773372
786.368568	2514.842611
786.691752	2513.826818
787.014891	2517.186747
787.337983	2516.599453
787.661030	2516.102899
787.984031	2516.329751
788.306987	2519.356964
788.629897	2517.282529
788.952760	2517.658095
789.275579	2516.889319
789.598351	2518.449556
789.921078	2513.970491
790.243759	2515.419823
790.566395	2514.887981
790.888984	2512.238855
791.211529	2514.061232
791.534027	2516.276819
791.856480	2513.564678
792.178888	2516.022241
792.501249	2513.814215
792.823566	2514.482168
793.145836	2514.550224
793.468062	2512.828670
793.790241	2515.092148
794.112375	2513.075686
794.434464	2513.305059
794.756507	2515.472755
795.078505	2516.685152
795.400457	2514.214987
795.722364	2511.114677
796.044226	2511.908659
796.366042	2513.143742
796.687812	2511.883453
797.009538	2513.617610
797.331218	2512.226252
797.652852	2514.716582
797.974442	2515.513084
798.295986	2513.738598
798.617484	2514.151972
798.938938	2515.172806
799.260346	2515.530728
799.581709	2514.595594
799.903026	2519.760256
800.224299	2512.253978
800.545526	2514.600635
800.866708	2512.208608
801.187845	2516.208763
801.508936	2514.015861
801.829983	2514.257837
802.150984	2513.020233
802.471940	2513.859586
802.792851	2513.627693
803.113717	2517.443846
803.434538	2512.085099
803.755314	2514.772034
804.076045	2513.796571
804.396731	2512.737929
804.717372	2512.445542
805.037967	2513.831859
805.358518	2512.591735
805.679024	2514.018382
805.999485	2513.133659
806.319901	2514.025944
806.640272	2511.780110
806.960598	2514.184740
807.280879	2511.785151
807.601115	2515.651716
807.921306	2514.134328
808.241453	2512.327075
808.561554	2513.237003
808.881611	2511.686848
809.201623	2513.854544
809.521590	2512.662312
809.841513	2513.317662
810.161390	2512.629544
810.481223	2512.112826
810.801011	2513.005110
811.120755	2513.854544
811.440453	2514.797240
811.760107	2514.580471
812.079716	2510.766838
812.399281	2510.766838
812.718801	2510.550068
813.038276	2508.667197
813.357707	2513.219359
813.677093	2512.042250
813.996434	2512.301869
814.315731	2514.303207
814.634983	2511.860768
814.954191	2511.860768
815.273354	2511.616272
815.592473	2509.138545
815.911547	2514.585512
816.230577	2514.870337
816.549562	2513.473937
816.868502	2514.822446
817.187399	2512.601818
817.506250	2513.065604
817.825058	2515.828156
818.143821	2515.802950
818.462539	2515.518125
818.781213	2514.272960
819.099843	2516.531397
819.418429	2517.201871
819.736970	2520.851666
820.055466	2522.943745
820.373919	2527.097656
820.692327	2527.064888
821.010691	2534.440096
821.329011	2551.988353
821.647286	2579.134966
821.965517	2603.047679
822.283704	2615.416150
822.601847	2618.420678
822.919945	2607.715788
823.237999	2596.584920
823.556010	2583.344330
823.873976	2570.827145
824.191897	2562.231977
824.509775	2554.826522
824.827609	2546.611962
825.145398	2541.023843
825.463144	2537.658873
825.780845	2538.944367
826.098502	2543.834286
826.416116	2550.813764
826.733685	2557.458005
827.051210	2555.996070
827.368692	2549.689587
827.686129	2547.605069
828.003522	2542.150541
828.320872	2531.826258
828.638177	2529.046062
828.955439	2523.296626
829.272656	2522.336286
829.589830	2518.091634
829.906960	2520.677746
830.224046	2517.963085
830.541088	2514.714061
830.858086	2518.850328
831.175041	2516.385204
831.491952	2512.022085
831.808819	2515.321520
832.125642	2514.880419
832.442421	2517.438805
832.759157	2519.508198
833.075849	2526.558252
833.392497	2531.367513
833.709101	2533.958666
834.025662	2531.911957
834.342179	2531.188552
834.658653	2527.616894
834.975083	2523.049609
835.291469	2526.618746
835.607811	2520.438291
835.924110	2518.409227
836.240366	2516.869154
836.556578	2515.228259
836.872746	2513.960409
837.188871	2512.286746
837.504952	2510.565192
837.820990	2510.734070
838.136984	2511.417147
838.452935	2511.099554
838.768842	2513.725995
839.084706	2510.875223
839.400526	2514.817405
839.716303	2519.178003
840.032037	2516.324710
840.347727	2518.005935
840.663373	2517.388393
840.978977	2516.443177
841.294537	2513.355470
841.610054	2514.477127
841.925527	2513.579802
842.240957	2511.989318
842.556344	2512.621982
842.871687	2509.599811
843.186987	2511.144924
843.502244	2509.352794
843.817458	2509.050325
844.132629	2511.749863
844.447756	2507.595952
844.762840	2507.474964
845.077881	2505.753410
845.392879	2509.481343
845.707833	2504.982114
846.022745	2503.368944
846.337613	2510.149296
846.652438	2508.042094
846.967221	2507.752228
847.281960	2509.191477
847.596656	2508.553771
847.911309	2507.719460
848.225919	2508.158041
848.540485	2506.418842
848.855009	2506.653256
849.169490	2509.521673
849.483928	2507.545540
849.798323	2508.208452
850.112675	2507.825324
850.426984	2507.038904
850.741251	2507.918586
851.055474	2507.716940
851.369654	2508.873884
851.683792	2503.409274
851.997887	2508.626868
852.311938	2506.512104
852.625947	2507.921106
852.939914	2506.713750
853.253837	2505.017402
853.567718	2508.382372
853.881555	2506.822135
854.195350	2508.105108
854.509103	2507.643843
854.822812	2508.072341
855.136479	2508.866323
855.450103	2504.765344
855.763685	2508.132835
856.077224	2505.849192
856.390720	2510.144255
856.704173	2507.406909
857.017584	2507.270797
857.330953	2505.536641
857.644278	2506.353307
857.957561	2511.167609
858.270802	2509.224245
858.584000	2507.573267
858.897155	2504.735097
859.210268	2507.038904
859.523339	2508.432783
859.836367	2506.776764
860.149352	2508.606703
860.462295	2506.892711
860.775195	2507.220386
861.088054	2504.351969
861.400869	2506.650736
861.713642	2506.098729
862.026373	2505.887001
862.339062	2507.464882
862.651708	2507.192660
862.964312	2504.704850
863.276873	2511.049142
863.589392	2506.693585
863.901869	2507.621158
864.214303	2507.878257
864.526696	2509.632578
864.839045	2508.468072
865.151353	2509.544358
865.463619	2506.628050
865.775842	2506.320540
866.088023	2509.443535
866.400162	2507.553102
866.712258	2507.641322
867.024313	2508.457989
867.336325	2510.799605
867.648296	2508.871364
867.960224	2506.265087
868.272110	2507.333812
868.583954	2508.273987
868.895755	2508.999913
869.207515	2506.186949
869.519233	2509.869512
869.830909	2508.838596
870.142542	2509.829183
870.454134	2506.930520
870.765684	2507.603514
871.077191	2508.286590
871.388657	2507.752228
871.700081	2509.219203
872.011463	2511.112157
872.322803	2510.545027
872.634101	2508.538648
872.945357	2508.478154
873.256571	2509.504029
873.567744	2511.089472
873.878874	2509.287259
874.189963	2511.956550
874.501010	2509.128463
874.812015	2511.129801
875.122979	2506.938081
875.433900	2508.924296
875.744780	2509.463699
876.055618	2510.260202
876.366415	2511.470079
876.677169	2511.059225
876.987882	2508.899090
877.298554	2505.277021
877.609183	2509.733401
877.919771	2504.581342
878.230317	2508.115191
878.540822	2513.698269
878.851285	2514.398989
879.161707	2511.800274
879.472087	2516.927128
879.782425	2517.151459
880.092722	2525.126564
880.402977	2531.647297
880.713191	2543.839328
881.023363	2551.879968
881.333494	2560.034034
881.643583	2563.484704
881.953631	2562.199210
882.263637	2558.619991
882.573602	2553.044474
882.883526	2550.002138
883.193408	2543.912424
883.503248	2541.747249
883.813048	2537.313554
884.122806	2533.520086
884.432522	2531.138140
884.742197	2524.249404
885.051831	2522.608508
885.361424	2522.595905
885.670975	2521.466687
885.980485	2517.295132
886.289954	2516.440656
886.599382	2515.979391
886.908768	2517.423681
887.218113	2514.577950
887.527417	2515.571057
887.836680	2510.192146
888.145901	2510.666015
888.455082	2508.432783
888.764221	2509.461179
889.073319	2511.233144
889.382376	2509.017557
889.691392	2509.257012
890.000366	2509.504029
890.309300	2506.965808
890.618193	2510.136693
890.927044	2510.930675
891.235855	2507.517814
891.544625	2509.504029
891.853353	2509.483864
892.162041	2511.888494
892.470687	2512.874040
892.779293	2512.233813
893.087858	2511.160048
893.396381	2511.676766
893.704864	2512.972343
894.013306	2515.003927
894.321707	2522.931142
894.630068	2523.074815
894.938387	2523.465504
895.246665	2522.870648
895.554903	2521.348220
895.863100	2520.725637
896.171256	2520.012314
896.479371	2519.606501
896.787446	2518.822602
897.095480	2515.399658
897.403473	2516.213804
897.711425	2512.879081
898.019336	2512.170799
898.327207	2512.730367
898.635038	2510.237517
898.942827	2508.644512
899.250576	2513.859586
899.558284	2510.355984
899.865952	2508.324399
900.173579	2510.204749
900.481165	2512.982425
900.788711	2509.509070
901.096216	2510.749194
901.403681	2508.881446
901.711105	2508.521004
902.018489	2508.785664
902.325832	2511.323885
902.633135	2509.221724
902.940397	2508.967146
903.247619	2514.252796
903.554800	2512.140552
903.861941	2522.603467
904.169041	2527.064888
904.476101	2527.715197
904.783121	2526.855680
905.090100	2523.853673
905.397039	2521.131450
905.703938	2517.796727
906.010796	2516.281860
906.317614	2518.547859
906.624391	2517.378311
906.931129	2514.824967
907.237826	2511.225583
907.544483	2512.964781
907.851099	2509.990500
908.157675	2507.074193
908.464211	2509.914883
908.770707	2502.890035
909.077163	2506.902793
909.383578	2505.211486
909.689954	2505.735766
909.996289	2500.921464
910.302584	2508.664677
910.608839	2506.340705
910.915054	2506.998575
911.221229	2503.807525
911.527363	2506.741476
911.833458	2505.760972
912.139513	2506.713750
912.445527	2505.221568
912.751502	2506.436487
913.057436	2504.493122
913.363331	2511.507887
913.669186	2507.550582
913.975000	2509.806498
914.280775	2512.236334
914.586510	2513.146262
914.892205	2513.451252
915.197859	2515.460152
915.503475	2520.105575
915.809050	2524.004908
916.114585	2528.032790
916.420081	2525.071112
916.725536	2528.569673
917.030952	2526.585978
917.336328	2525.083715
917.641665	2522.671522
917.946961	2520.171110
918.252218	2517.322858
918.557435	2522.651358
918.862612	2516.637261
919.167750	2517.262364
919.472848	2513.000069
919.777906	2513.410923
920.082925	2510.514780
920.387904	2510.650891
920.692843	2513.257168
920.997743	2506.867505
921.302603	2508.800788
921.607423	2508.664677
921.912204	2508.253822
922.216946	2506.711229
922.521647	2510.234996
922.826310	2505.554285
923.130932	2510.509739
923.435516	2504.276352
923.740059	2505.503873
924.044564	2504.664521
924.349028	2508.861282
924.653454	2499.784684
924.957840	2502.330467
925.262186	2500.301402
925.566493	2502.827020
925.870761	2501.607061
926.174989	2504.719974
926.479178	2505.060252
926.783328	2506.978411
927.087438	2505.161075
927.391509	2506.106291
927.695541	2506.030674
927.999533	2501.823831
928.303486	2505.755931
928.607400	2505.992865
928.911275	2505.849192
929.215110	2506.933040
929.518906	2503.782319
929.822663	2505.193842
930.126381	2505.307268
930.430060	2503.699140
930.733699	2503.696619
931.037299	2501.095384
931.340861	2504.266270
931.644383	2502.675786
931.947866	2504.697288
932.251309	2503.923471
932.554714	2504.286434
932.858080	2506.897752
933.161407	2506.401198
933.464694	2501.700322
933.767943	2504.246105
934.071153	2505.304747
934.374323	2501.360045
934.677455	2505.493791
934.980548	2503.162257
935.283602	2505.274501
935.586617	2501.927174
935.889593	2504.810714
936.192530	2503.424397
936.495428	2504.107473
936.798287	2505.294665
937.101108	2505.234171
937.403890	2504.087309
937.706632	2505.662669
938.009336	2504.392299
938.312002	2505.521517
938.614628	2503.595796
938.917216	2503.986486
939.219765	2505.098060
939.522275	2507.971518
939.824747	2506.479336
940.127179	2504.011692
940.429573	2501.415497
940.731929	2501.932216
941.034246	2498.867194
941.336524	2503.273162
941.638763	2503.386588
941.940964	2505.894562
942.243126	2505.466064
942.545250	2502.368275
942.847335	2507.621158
943.149381	2504.422546
943.451389	2505.524038
943.753359	2503.895745
944.055290	2504.495642
944.357182	2502.847185
944.659036	2504.046980
944.960851	2506.146620
945.262628	2504.001609
945.564367	2506.343225
945.866067	2504.929182
946.167729	2505.261898
946.469352	2501.518841
946.770937	2505.965139
947.072484	2503.706702
947.373992	2501.541526
947.675462	2498.882318
947.976893	2503.706702
948.278286	2501.322236
948.579641	2505.453462
948.880958	2502.479181
949.182236	2504.258708
949.483476	2504.543533
949.784678	2502.776609
950.085841	2501.813748
950.386967	2505.448420
950.688054	2503.873060
950.989103	2502.978255
951.290114	2504.283914
951.591087	2503.005981
951.892021	2504.712412
952.192917	2505.874398
952.493776	2504.049500
952.794596	2506.280211
953.095378	2504.707371
953.396122	2504.745179
953.696828	2501.191166
953.997496	2503.585714
954.298126	2504.722494
954.598718	2505.236692
954.899272	2504.609068
955.199788	2503.918430
955.500266	2502.421208
955.800706	2502.522031
956.101108	2499.386433
956.401472	2501.344921
956.701798	2498.763850
957.002087	2501.468429
957.302337	2504.699809
957.602550	2503.946157
957.902724	2501.188645
958.202861	2503.759634
958.502960	2504.455313
958.803022	2501.135713
959.103045	2501.415497
959.403031	2502.877432
959.702979	2502.103615
960.002889	2502.464057
960.302762	2505.219048
960.602596	2500.757627
960.902393	2503.313492
961.202153	2504.210817
961.501875	2504.662000
961.801559	2504.246105
962.101205	2502.285096
962.400814	2498.521875
962.700385	2502.514469
962.999918	2501.649911
963.299414	2500.883656
963.598873	2501.516320
963.898293	2502.940446
964.197677	2502.307782
964.497022	2502.103615
964.796331	2503.741990
965.095601	2503.805004
965.394835	2502.239726
965.694030	2501.365086
965.993189	2503.789881
966.292309	2502.534633
966.591393	2503.573111
966.890439	2500.298882
967.189447	2502.302740
967.488419	2501.760816
967.787353	2502.327946
968.086249	2504.251146
968.385108	2503.018584
968.683930	2499.671258
968.982714	2502.469098
969.281462	2502.658142
969.580172	2503.316012
969.878844	2501.367606
970.177480	2499.202431
970.476078	2502.549757
970.774639	2502.411125
971.073162	2503.822648
971.371649	2499.681340
971.670098	2501.244098
971.968510	2499.580517
972.266885	2498.277379
972.565223	2502.529592
972.863524	2504.120076
973.161788	2502.569922
973.460014	2504.089829
973.758204	2504.087309
974.056356	2500.223264
974.354471	2501.675117
974.652550	2502.491784
974.950591	2502.148985
975.248595	2502.796773
975.546563	2503.303409
975.844493	2503.605879
976.142386	2502.151506
976.440243	2499.714108
976.738062	2503.162257
977.035845	2502.322905
977.333590	2500.674448
977.631299	2502.753924
977.928971	2502.660662
978.226606	2500.918944
978.524204	2500.767709
978.821765	2501.286948
979.119290	2503.532782
979.416777	2500.530775
979.714228	2502.718636
980.011642	2503.005981
980.309020	2504.190652
980.606360	2501.579335
980.903664	2501.657473
981.200931	2502.396002
981.498162	2501.899448
981.795356	2502.698471
982.092513	2504.122597
982.389633	2504.924140
982.686717	2507.434635
982.983764	2504.117556
983.280775	2504.223420
983.577749	2505.549243
983.874686	2503.948677
984.171587	2501.924654
984.468451	2505.468585
984.765279	2501.680158
985.062070	2503.578152
985.358824	2503.308451
985.655543	2503.963801
985.952224	2504.440190
986.248869	2503.053872
986.545478	2497.369971
986.842050	2500.835765
987.138586	2499.298213
987.435086	2499.068840
987.731549	2494.433499
988.027975	2504.024294
988.324366	2501.841475
988.620719	2502.355672
988.917037	2498.612616
989.213318	2502.693430
989.509563	2501.082781
989.805772	2502.000271
990.101944	2500.714777
990.398080	2499.557832
990.694180	2499.832575
990.990244	2504.233502
991.286271	2501.365086
991.582262	2499.671258
991.878217	2498.655466
992.174136	2500.976917
992.470019	2501.188645
992.765865	2502.486743
993.061676	2501.158398
993.357450	2503.295848
993.653188	2500.245950
993.948890	2502.065806
994.244556	2502.030518
994.540186	2501.765858
994.835780	2502.731238
995.131337	2498.448778
995.426859	2500.419869
995.722345	2501.027328
996.017795	2501.407936
996.313208	2504.218379
996.608586	2502.607730
996.903928	2500.682009
997.199234	2506.174347
997.494504	2502.932885
997.789738	2500.923985
998.084936	2502.514469
998.380099	2504.961949
998.675225	2501.934736
998.970316	2501.314674
999.265371	2502.932885
999.560390	2503.472288
999.855373	2501.561691
1000.150320	2501.322236
1000.445232	2500.135044
1000.740108	2501.249139
1001.034948	2500.555981
1001.329752	2500.966835
1001.624521	2502.118738
1001.919254	2497.039776
1002.213951	2497.246463
1002.508613	2498.768892
1002.803239	2500.898779
1003.097829	2495.494662
1003.392384	2501.843995
1003.686903	2502.948008
1003.981386	2502.602689
1004.275834	2497.800990
1004.570246	2500.820641
1004.864623	2501.145796
1005.158964	2500.273676
1005.453270	2501.511279
1005.747540	2499.346104
1006.041775	2501.753255
1006.335974	2498.607575
1006.630138	2502.637977
1006.924266	2501.218892
1007.218359	2501.002123
1007.512416	2503.210148
1007.806438	2500.966835
1008.100425	2501.423059
1008.394376	2499.804849
1008.688292	2502.484222
1008.982172	2500.278717
1009.276017	2500.969355
1009.569827	2498.796618
1009.863602	2501.375168
1010.157341	2498.821824
1010.451045	2502.695950
1010.744714	2498.400887
1011.038347	2498.017760
1011.331945	2500.755106
1011.625508	2500.470281
1011.919036	2500.064468
1012.212528	2500.800477
1012.505986	2499.467091
1012.799408	2502.151506
1013.092795	2497.594303
1013.386147	2498.789056
1013.679464	2496.792759
1013.972745	2502.527072
1014.265992	2500.482884
1014.559204	2502.184273
1014.852380	2500.626557
1015.145521	2501.087822
1015.438628	2497.548932
1015.731699	2502.237205
1016.024736	2497.662358
1016.317737	2501.619664
1016.610703	2500.936588
1016.903635	2497.692605
1017.196531	2495.613129
1017.489393	2499.209993
1017.782219	2494.448623
1018.075011	2499.396515
1018.367768	2498.542040
1018.660490	2501.057575
1018.953177	2501.057575
1019.245829	2501.057575
