Dividing Wavelength (nm)	Counts (n)	Blue Motor Position (mm): 0.000000	Red Motor Position (mm): 3.300000	
326.493990	2071.914231
326.888308	2071.914231
327.282561	2071.914231
327.676750	2139.969808
328.070874	2026.543846
328.464933	2008.899808
328.858929	2076.955385
329.252859	2039.146731
329.646726	2026.543846
330.040528	2172.737308
330.434265	2142.490385
330.827938	2081.996538
331.221547	2056.790769
331.615091	2152.572692
332.008571	2134.928654
332.401986	2150.052115
332.795338	2215.587115
333.188625	2243.313462
333.581847	2240.792885
333.975006	2306.327885
334.368100	2238.272308
334.761129	2341.615962
335.154095	2296.245577
335.546996	2389.506923
335.939833	2361.780577
336.332606	2429.836154
336.725315	2293.725000
337.117960	2513.015192
337.510540	2354.218846
337.903056	2444.959615
338.295508	2364.301154
338.687896	2452.521346
339.080220	2460.083077
339.472480	2422.274423
339.864676	2462.603654
340.256807	2386.986346
340.648875	2414.712692
341.040879	2455.041923
341.432818	2414.712692
341.824694	2505.453462
342.216506	2548.303269
342.608253	2518.056346
342.999937	2513.015192
343.391557	2487.809423
343.783113	2528.138654
344.174605	2477.727115
344.566033	2457.562500
344.957397	2419.753846
345.348697	2432.356731
345.739934	2507.974038
346.131106	2442.439038
346.522215	2497.891731
346.913260	2500.412308
347.304241	2429.836154
347.695159	2422.274423
348.086012	2439.918462
348.476802	2457.562500
348.867528	2570.988462
349.258191	2429.836154
349.648789	2460.083077
350.039324	2455.041923
350.429796	2457.562500
350.820203	2455.041923
351.210548	2434.877308
351.600828	2399.589231
351.991045	2417.233269
352.381198	2447.480192
352.771288	2482.768269
353.161314	2386.986346
353.551276	2389.506923
353.941175	2371.862885
354.331010	2386.986346
354.720782	2404.630385
355.110490	2432.356731
355.500135	2470.165385
355.889717	2394.548077
356.279235	2472.685962
356.668689	2427.315577
357.058080	2490.330000
357.447408	2434.877308
357.836672	2528.138654
358.225873	2419.753846
358.615010	2412.192115
359.004084	2419.753846
359.393095	2392.027500
359.782043	2417.233269
360.170927	2460.083077
360.559748	2424.795000
360.948505	2394.548077
361.337199	2455.041923
361.725830	2528.138654
362.114398	2409.671538
362.502903	2497.891731
362.891344	2437.397885
363.279722	2502.932885
363.668037	2487.809423
364.056289	2550.823846
364.444478	2447.480192
364.832603	2477.727115
365.220665	2520.576923
365.608665	2442.439038
365.996601	2439.918462
366.384474	2467.644808
366.772284	2376.904038
367.160031	2480.247692
367.547715	2530.659231
367.935336	2414.712692
368.322893	2402.109808
368.710388	2376.904038
369.097820	2419.753846
369.485189	2424.795000
369.872495	2482.768269
370.259738	2515.535769
370.646918	2412.192115
371.034035	2505.453462
371.421090	2447.480192
371.808081	2394.548077
372.195010	2427.315577
372.581875	2510.494615
372.968678	2472.685962
373.355418	2427.315577
373.742096	2447.480192
374.128710	2502.932885
374.515262	2329.013077
374.901751	2510.494615
375.288177	2492.850577
375.674540	2477.727115
376.060841	2510.494615
376.447079	2475.206538
376.833254	2475.206538
377.219367	2520.576923
377.605417	2442.439038
377.991404	2570.988462
378.377329	2452.521346
378.763191	2533.179808
379.148991	2419.753846
379.534727	2460.083077
379.920402	2384.465769
380.306013	2429.836154
380.691563	2455.041923
381.077049	2500.412308
381.462474	2480.247692
381.847835	2487.809423
382.233134	2500.412308
382.618371	2447.480192
383.003545	2530.659231
383.388657	2500.412308
383.773706	2417.233269
384.158693	2460.083077
384.543618	2417.233269
384.928480	2480.247692
385.313280	2444.959615
385.698017	2497.891731
386.082692	2480.247692
386.467305	2492.850577
386.851856	2404.630385
387.236344	2457.562500
387.620770	2497.891731
388.005133	2444.959615
388.389435	2530.659231
388.773674	2467.644808
389.157851	2513.015192
389.541965	2432.356731
389.926018	2467.644808
390.310008	2434.877308
390.693936	2518.056346
391.077802	2540.741538
391.461606	2429.836154
391.845348	2477.727115
392.229027	2457.562500
392.612645	2578.550192
392.996200	2450.000769
393.379694	2520.576923
393.763125	2533.179808
394.146494	2548.303269
394.529801	2467.644808
394.913047	2460.083077
395.296230	2434.877308
395.679351	2460.083077
396.062410	2492.850577
396.445408	2477.727115
396.828343	2450.000769
397.211217	2507.974038
397.594028	2470.165385
397.976778	2485.288846
398.359466	2568.467885
398.742092	2480.247692
399.124656	2452.521346
399.507158	2450.000769
399.889598	2482.768269
400.271977	2427.315577
400.654294	2460.083077
401.036549	2429.836154
401.418742	2389.506923
401.800874	2490.330000
402.182944	2442.439038
402.564952	2419.753846
402.946898	2510.494615
403.328783	2465.124231
403.710606	2444.959615
404.092367	2399.589231
404.474067	2525.618077
404.855705	2455.041923
405.237282	2538.220962
405.618797	2432.356731
406.000250	2480.247692
406.381642	2513.015192
406.762972	2467.644808
407.144240	2477.727115
407.525447	2450.000769
407.906593	2480.247692
408.287677	2455.041923
408.668700	2482.768269
409.049661	2437.397885
409.430560	2455.041923
409.811399	2560.906154
410.192176	2487.809423
410.572891	2525.618077
410.953545	2467.644808
411.334138	2538.220962
411.714669	2450.000769
412.095139	2422.274423
412.475547	2497.891731
412.855894	2417.233269
413.236180	2467.644808
413.616405	2490.330000
413.996568	2480.247692
414.376670	2533.179808
414.756711	2533.179808
415.136691	2492.850577
415.516609	2460.083077
415.896466	2424.795000
416.276262	2520.576923
416.655997	2475.206538
417.035670	2485.288846
417.415283	2450.000769
417.794834	2467.644808
418.174324	2444.959615
418.553753	2497.891731
418.933121	2507.974038
419.312428	2480.247692
419.691674	2477.727115
420.070859	2513.015192
420.449983	2452.521346
420.829045	2487.809423
421.208047	2480.247692
421.586988	2422.274423
421.965867	2450.000769
422.344686	2510.494615
422.723444	2452.521346
423.102141	2545.782692
423.480777	2505.453462
423.859352	2364.301154
424.237866	2470.165385
424.616319	2626.441154
424.994712	2452.521346
425.373044	2477.727115
425.751314	2427.315577
426.129524	2444.959615
426.507673	2457.562500
426.885762	2560.906154
427.263789	2507.974038
427.641756	2422.274423
428.019662	2477.727115
428.397508	2502.932885
428.775292	2495.371154
429.153016	2437.397885
429.530679	2525.618077
429.908282	2467.644808
430.285824	2520.576923
430.663305	2558.385577
431.040726	2538.220962
431.418086	2492.850577
431.795385	2543.262115
432.172624	2480.247692
432.549802	2492.850577
432.926920	2497.891731
433.303977	2540.741538
433.680974	2581.070769
434.057910	2495.371154
434.434786	2460.083077
434.811601	2487.809423
435.188355	2460.083077
435.565050	2525.618077
435.941683	2482.768269
436.318257	2500.412308
436.694770	2432.356731
437.071222	2500.412308
437.447614	2518.056346
437.823946	2480.247692
438.200218	2455.041923
438.576429	2470.165385
438.952580	2525.618077
439.328670	2528.138654
439.704700	2465.124231
440.080670	2472.685962
440.456580	2540.741538
440.832429	2487.809423
441.208218	2502.932885
441.583947	2477.727115
441.959616	2455.041923
442.335224	2515.535769
442.710773	2427.315577
443.086261	2409.671538
443.461689	2412.192115
443.837057	2412.192115
444.212365	2432.356731
444.587612	2497.891731
444.962800	2570.988462
445.337927	2495.371154
445.712995	2490.330000
446.088002	2414.712692
446.462949	2482.768269
446.837837	2480.247692
447.212664	2593.673654
447.587431	2455.041923
447.962139	2533.179808
448.336786	2520.576923
448.711374	2439.918462
449.085901	2495.371154
449.460369	2487.809423
449.834776	2550.823846
450.209124	2434.877308
450.583412	2520.576923
450.957640	2417.233269
451.331808	2472.685962
451.705917	2500.412308
452.079965	2462.603654
452.453954	2465.124231
452.827883	2422.274423
453.201752	2515.535769
453.575562	2450.000769
453.949311	2480.247692
454.323001	2442.439038
454.696632	2510.494615
455.070202	2497.891731
455.443713	2450.000769
455.817164	2540.741538
456.190556	2565.947308
456.563888	2485.288846
456.937160	2482.768269
457.310373	2450.000769
457.683526	2460.083077
458.056619	2568.467885
458.429653	2558.385577
458.802628	2439.918462
459.175542	2439.918462
459.548398	2490.330000
459.921194	2477.727115
460.293930	2603.755962
460.666607	2460.083077
461.039224	2444.959615
461.411782	2520.576923
461.784280	2543.262115
462.156719	2505.453462
462.529099	2429.836154
462.901419	2507.974038
463.273680	2419.753846
463.645882	2505.453462
464.018024	2538.220962
464.390106	2475.206538
464.762130	2533.179808
465.134094	2465.124231
465.505999	2502.932885
465.877845	2432.356731
466.249631	2543.262115
466.621358	2500.412308
466.993026	2487.809423
467.364634	2490.330000
467.736184	2480.247692
468.107674	2470.165385
468.479105	2606.276538
468.850477	2407.150962
469.221790	2505.453462
469.593043	2495.371154
469.964238	2485.288846
470.335373	2457.562500
470.706449	2538.220962
471.077467	2553.344423
471.448425	2553.344423
471.819324	2502.932885
472.190164	2457.562500
472.560945	2563.426731
472.931667	2490.330000
473.302330	2525.618077
473.672934	2490.330000
474.043479	2497.891731
474.413965	2409.671538
474.784393	2515.535769
475.154761	2553.344423
475.525070	2485.288846
475.895321	2518.056346
476.265513	2450.000769
476.635645	2432.356731
477.005719	2550.823846
477.375734	2482.768269
477.745691	2548.303269
478.115588	2525.618077
478.485427	2475.206538
478.855207	2535.700385
479.224928	2419.753846
479.594591	2492.850577
479.964194	2402.109808
480.333739	2492.850577
480.703226	2528.138654
481.072653	2505.453462
481.442022	2545.782692
481.811333	2475.206538
482.180584	2500.412308
482.549777	2553.344423
482.918912	2482.768269
483.287988	2533.179808
483.657005	2432.356731
484.025964	2475.206538
484.394864	2525.618077
484.763706	2490.330000
485.132489	2520.576923
485.501213	2495.371154
485.869879	2502.932885
486.238487	2482.768269
486.607036	2560.906154
486.975527	2475.206538
487.343959	2533.179808
487.712333	2369.342308
488.080648	2560.906154
488.448905	2505.453462
488.817104	2502.932885
489.185244	2560.906154
489.553326	2470.165385
489.921350	2485.288846
490.289315	2482.768269
490.657222	2510.494615
491.025070	2510.494615
491.392861	2555.865000
491.760593	2497.891731
492.128267	2520.576923
492.495883	2409.671538
492.863440	2364.301154
493.230939	2553.344423
493.598380	2417.233269
493.965763	2485.288846
494.333088	2586.111923
494.700354	2482.768269
495.067563	2490.330000
495.434713	2457.562500
495.801805	2477.727115
496.168839	2492.850577
496.535815	2530.659231
496.902733	2535.700385
497.269593	2447.480192
497.636395	2573.509038
498.003139	2500.412308
498.369825	2515.535769
498.736453	2477.727115
499.103023	2462.603654
499.469535	2500.412308
499.835989	2520.576923
500.202385	2447.480192
500.568723	2422.274423
500.935003	2444.959615
501.301226	2555.865000
501.667390	2439.918462
502.033497	2497.891731
502.399546	2530.659231
502.765537	2392.027500
503.131470	2502.932885
503.497345	2485.288846
503.863163	2452.521346
504.228923	2565.947308
504.594625	2480.247692
504.960269	2515.535769
505.325856	2462.603654
505.691385	2424.795000
506.056856	2482.768269
506.422270	2525.618077
506.787625	2412.192115
507.152924	2565.947308
507.518164	2482.768269
507.883347	2419.753846
508.248472	2452.521346
508.613540	2535.700385
508.978550	2402.109808
509.343503	2545.782692
509.708398	2555.865000
510.073236	2555.865000
510.438016	2462.603654
510.802738	2465.124231
511.167403	2513.015192
511.532010	2452.521346
511.896561	2447.480192
512.261053	2510.494615
512.625488	2442.439038
512.989866	2470.165385
513.354186	2570.988462
513.718449	2583.591346
514.082655	2439.918462
514.446803	2490.330000
514.810894	2450.000769
515.174927	2490.330000
515.538904	2450.000769
515.902822	2505.453462
516.266684	2460.083077
516.630488	2490.330000
516.994235	2444.959615
517.357925	2480.247692
517.721558	2477.727115
518.085133	2480.247692
518.448651	2399.589231
518.812112	2558.385577
519.175516	2450.000769
519.538863	2578.550192
519.902152	2414.712692
520.265385	2535.700385
520.628560	2568.467885
520.991678	2540.741538
521.354739	2528.138654
521.717743	2467.644808
522.080690	2568.467885
522.443580	2437.397885
522.806413	2505.453462
523.169189	2447.480192
523.531908	2457.562500
523.894569	2543.262115
524.257174	2487.809423
524.619722	2568.467885
524.982213	2497.891731
525.344647	2528.138654
525.707025	2429.836154
526.069345	2502.932885
526.431608	2417.233269
526.793815	2578.550192
527.155964	2487.809423
527.518057	2520.576923
527.880093	2475.206538
528.242072	2492.850577
528.603995	2568.467885
528.965860	2573.509038
529.327669	2475.206538
529.689421	2477.727115
530.051117	2510.494615
530.412755	2507.974038
530.774337	2545.782692
531.135862	2487.809423
531.497331	2518.056346
531.858743	2510.494615
532.220098	2568.467885
532.581396	2507.974038
532.942638	2533.179808
533.303824	2518.056346
533.664953	2520.576923
534.026025	2462.603654
534.387040	2497.891731
534.747999	2591.153077
535.108902	2513.015192
535.469748	2530.659231
535.830537	2616.358846
536.191270	2472.685962
536.551947	2540.741538
536.912567	2409.671538
537.273131	2439.918462
537.633638	2518.056346
537.994089	2434.877308
538.354483	2485.288846
538.714821	2545.782692
539.075103	2470.165385
539.435328	2548.303269
539.795497	2553.344423
540.155609	2497.891731
540.515665	2548.303269
540.875665	2535.700385
541.235609	2507.974038
541.595496	2601.235385
541.955328	2548.303269
542.315102	2578.550192
542.674821	2477.727115
543.034483	2568.467885
543.394090	2550.823846
543.753640	2422.274423
544.113134	2558.385577
544.472571	2437.397885
544.831953	2593.673654
545.191278	2505.453462
545.550548	2540.741538
545.909761	2482.768269
546.268918	2502.932885
546.628019	2495.371154
546.987064	2502.932885
547.346053	2424.795000
547.704986	2490.330000
548.063863	2470.165385
548.422684	2578.550192
548.781449	2460.083077
549.140158	2528.138654
549.498811	2460.083077
549.857408	2495.371154
550.215949	2528.138654
550.574434	2460.083077
550.932864	2447.480192
551.291237	2510.494615
551.649555	2523.097500
552.007817	2518.056346
552.366022	2520.576923
552.724173	2507.974038
553.082267	2515.535769
553.440305	2500.412308
553.798288	2447.480192
554.156215	2409.671538
554.514086	2553.344423
554.871902	2497.891731
555.229661	2550.823846
555.587365	2543.262115
555.945014	2485.288846
556.302606	2515.535769
556.660143	2548.303269
557.017625	2560.906154
557.375050	2450.000769
557.732421	2502.932885
558.089735	2477.727115
558.446994	2467.644808
558.804197	2475.206538
559.161345	2470.165385
559.518437	2545.782692
559.875474	2457.562500
560.232455	2497.891731
560.589381	2482.768269
560.946251	2505.453462
561.303065	2507.974038
561.659825	2467.644808
562.016528	2502.932885
562.373177	2465.124231
562.729770	2558.385577
563.086307	2518.056346
563.442789	2528.138654
563.799216	2535.700385
564.155587	2502.932885
564.511904	2533.179808
564.868164	2523.097500
565.224370	2442.439038
565.580520	2422.274423
565.936615	2470.165385
566.292654	2500.412308
566.648638	2480.247692
567.004567	2450.000769
567.360441	2505.453462
567.716260	2485.288846
568.072023	2450.000769
568.427732	2510.494615
568.783385	2525.618077
569.138982	2528.138654
569.494525	2412.192115
569.850013	2510.494615
570.205445	2515.535769
570.560823	2437.397885
570.916145	2392.027500
571.271412	2475.206538
571.626625	2495.371154
571.981782	2422.274423
572.336884	2472.685962
572.691931	2500.412308
573.046923	2366.821731
573.401860	2497.891731
573.756743	2394.548077
574.111570	2576.029615
574.466342	2465.124231
574.821059	2558.385577
575.175722	2452.521346
575.530330	2462.603654
575.884882	2528.138654
576.239380	2422.274423
576.593823	2487.809423
576.948211	2450.000769
577.302544	2485.288846
577.656823	2523.097500
578.011047	2565.947308
578.365216	2502.932885
578.719330	2505.453462
579.073389	2518.056346
579.427394	2505.453462
579.781344	2477.727115
580.135239	2480.247692
580.489080	2502.932885
580.842866	2523.097500
581.196597	2462.603654
581.550273	2513.015192
581.903895	2475.206538
582.257463	2505.453462
582.610975	2475.206538
582.964434	2621.400000
583.317837	2460.083077
583.671186	2538.220962
584.024481	2437.397885
584.377721	2462.603654
584.730906	2439.918462
585.084037	2490.330000
585.437113	2482.768269
585.790135	2502.932885
586.143103	2470.165385
586.496016	2460.083077
586.848874	2525.618077
587.201679	2550.823846
587.554428	2525.618077
587.907124	2570.988462
588.259765	2581.070769
588.612352	2533.179808
588.964884	2394.548077
589.317362	2538.220962
589.669786	2530.659231
590.022155	2601.235385
590.374470	2510.494615
590.726731	2472.685962
591.078937	2472.685962
591.431090	2525.618077
591.783188	2550.823846
592.135232	2535.700385
592.487222	2510.494615
592.839157	2520.576923
593.191038	2538.220962
593.542866	2626.441154
593.894639	2487.809423
594.246358	2545.782692
594.598022	2490.330000
594.949633	2477.727115
595.301190	2502.932885
595.652692	2482.768269
596.004141	2497.891731
596.355535	2530.659231
596.706876	2543.262115
597.058162	2560.906154
597.409395	2475.206538
597.760573	2492.850577
598.111698	2510.494615
598.462768	2555.865000
598.813785	2455.041923
599.164748	2502.932885
599.515657	2545.782692
599.866511	2480.247692
600.217312	2523.097500
600.568060	2437.397885
600.918753	2485.288846
601.269392	2472.685962
601.619978	2470.165385
601.970510	2485.288846
602.320988	2603.755962
602.671412	2507.974038
603.021783	2510.494615
603.372100	2434.877308
603.722363	2558.385577
604.072572	2515.535769
604.422728	2497.891731
604.772830	2530.659231
605.122878	2422.274423
605.472872	2528.138654
605.822813	2538.220962
606.172701	2497.891731
606.522534	2560.906154
606.872314	2535.700385
607.222041	2518.056346
607.571714	2543.262115
607.921333	2487.809423
608.270899	2515.535769
608.620411	2432.356731
608.969870	2487.809423
609.319276	2480.247692
609.668627	2477.727115
610.017926	2477.727115
610.367171	2480.247692
610.716362	2553.344423
611.065500	2490.330000
611.414585	2477.727115
611.763616	2553.344423
612.112594	2495.371154
612.461518	2570.988462
612.810389	2450.000769
613.159207	2558.385577
613.507971	2490.330000
613.856682	2502.932885
614.205340	2480.247692
614.553945	2515.535769
614.902496	2427.315577
615.250994	2495.371154
615.599439	2505.453462
615.947830	2535.700385
616.296169	2507.974038
616.644454	2447.480192
616.992686	2533.179808
617.340864	2583.591346
617.688990	2507.974038
618.037063	2568.467885
618.385082	2432.356731
618.733048	2510.494615
619.080961	2480.247692
619.428821	2588.632500
619.776628	2482.768269
620.124382	2530.659231
620.472083	2495.371154
620.819731	2596.194231
621.167326	2528.138654
621.514868	2475.206538
621.862357	2510.494615
622.209793	2533.179808
622.557176	2472.685962
622.904506	2513.015192
623.251783	2477.727115
623.599007	2535.700385
623.946179	2455.041923
624.293297	2495.371154
624.640363	2460.083077
624.987376	2492.850577
625.334336	2507.974038
625.681243	2472.685962
626.028097	2447.480192
626.374899	2480.247692
626.721647	2450.000769
627.068343	2492.850577
627.414987	2475.206538
627.761577	2538.220962
628.108115	2515.535769
628.454600	2530.659231
628.801032	2460.083077
629.147412	2467.644808
629.493739	2472.685962
629.840014	2442.439038
630.186236	2520.576923
630.532405	2485.288846
630.878521	2492.850577
631.224585	2530.659231
631.570597	2530.659231
631.916556	2485.288846
632.262462	2563.426731
632.608316	2550.823846
632.954117	2434.877308
633.299866	2505.453462
633.645562	2492.850577
633.991206	2510.494615
634.336797	2535.700385
634.682336	2472.685962
635.027823	2492.850577
635.373257	2490.330000
635.718639	2520.576923
636.063968	2492.850577
636.409245	2450.000769
636.754470	2434.877308
637.099642	2465.124231
637.444762	2444.959615
637.789829	2540.741538
638.134845	2399.589231
638.479808	2447.480192
638.824719	2497.891731
639.169577	2412.192115
639.514383	2470.165385
639.859137	2505.453462
640.203839	2518.056346
640.548489	2558.385577
640.893086	2560.906154
641.237632	2475.206538
641.582125	2472.685962
641.926566	2477.727115
642.270955	2507.974038
642.615292	2495.371154
642.959576	2492.850577
643.303809	2535.700385
643.647990	2477.727115
643.992118	2528.138654
644.336195	2533.179808
644.680219	2500.412308
645.024192	2452.521346
645.368112	2523.097500
645.711981	2472.685962
646.055797	2495.371154
646.399562	2490.330000
646.743274	2606.276538
647.086935	2439.918462
647.430544	2525.618077
647.774101	2563.426731
648.117606	2490.330000
648.461059	2462.603654
648.804460	2555.865000
649.147810	2462.603654
649.491108	2570.988462
649.834354	2475.206538
650.177548	2520.576923
650.520690	2603.755962
650.863781	2444.959615
651.206820	2535.700385
651.549807	2402.109808
651.892742	2591.153077
652.235626	2520.576923
652.578458	2452.521346
652.921238	2487.809423
653.263967	2495.371154
653.606644	2490.330000
653.949269	2455.041923
654.291843	2470.165385
654.634365	2553.344423
654.976836	2462.603654
655.319255	2450.000769
655.661622	2477.727115
656.003938	2419.753846
656.346203	2490.330000
656.688416	2515.535769
657.030577	2525.618077
657.372687	2437.397885
657.714746	2444.959615
658.056753	2495.371154
658.398708	2518.056346
658.740612	2553.344423
659.082465	2568.467885
659.424266	2553.344423
659.766016	2492.850577
660.107715	2457.562500
660.449362	2530.659231
660.790958	2603.755962
661.132503	2465.124231
661.473996	2485.288846
661.815438	2492.850577
662.156829	2485.288846
662.498168	2470.165385
662.839456	2528.138654
663.180693	2462.603654
663.521879	2555.865000
663.863013	2417.233269
664.204097	2505.453462
664.545129	2502.932885
664.886110	2510.494615
665.227040	2447.480192
665.567918	2447.480192
665.908746	2487.809423
666.249522	2540.741538
666.590248	2444.959615
666.930922	2563.426731
667.271545	2467.644808
667.612118	2538.220962
667.952639	2384.465769
668.293109	2507.974038
668.633528	2525.618077
668.973896	2502.932885
669.314213	2477.727115
669.654480	2447.480192
669.994695	2462.603654
670.334859	2502.932885
670.674973	2490.330000
671.015035	2603.755962
671.355047	2588.632500
671.695008	2470.165385
672.034918	2540.741538
672.374777	2480.247692
672.714585	2555.865000
673.054342	2412.192115
673.394049	2570.988462
673.733705	2500.412308
674.073310	2515.535769
674.412864	2432.356731
674.752368	2550.823846
675.091820	2444.959615
675.431223	2500.412308
675.770574	2457.562500
676.109875	2485.288846
676.449125	2480.247692
676.788324	2507.974038
677.127473	2424.795000
677.466571	2548.303269
677.805619	2472.685962
678.144616	2550.823846
678.483562	2528.138654
678.822458	2492.850577
679.161303	2548.303269
679.500098	2525.618077
679.838842	2500.412308
680.177535	2492.850577
680.516179	2596.194231
680.854771	2437.397885
681.193314	2513.015192
681.531805	2520.576923
681.870247	2525.618077
682.208638	2477.727115
682.546978	2538.220962
682.885268	2565.947308
683.223508	2560.906154
683.561697	2568.467885
683.899836	2497.891731
684.237925	2397.068654
684.575963	2487.809423
684.913951	2560.906154
685.251889	2563.426731
685.589776	2513.015192
685.927614	2477.727115
686.265401	2507.974038
686.603137	2480.247692
686.940824	2525.618077
687.278460	2384.465769
687.616046	2492.850577
687.953582	2487.809423
688.291068	2520.576923
688.628504	2457.562500
688.965889	2502.932885
689.303224	2495.371154
689.640510	2462.603654
689.977745	2520.576923
690.314930	2497.891731
690.652065	2460.083077
690.989150	2507.974038
691.326185	2545.782692
691.663170	2439.918462
692.000105	2487.809423
692.336990	2520.576923
692.673825	2452.521346
693.010610	2502.932885
693.347345	2560.906154
693.684030	2442.439038
694.020665	2424.795000
694.357251	2495.371154
694.693786	2495.371154
695.030272	2475.206538
695.366707	2495.371154
695.703093	2452.521346
696.039429	2573.509038
696.375716	2492.850577
696.711952	2533.179808
697.048139	2412.192115
697.384276	2555.865000
697.720363	2475.206538
698.056400	2384.465769
698.392388	2500.412308
698.728326	2485.288846
699.064214	2407.150962
699.400053	2538.220962
699.735842	2553.344423
700.071581	2525.618077
700.407270	2462.603654
700.742910	2477.727115
701.078501	2568.467885
701.414042	2480.247692
701.749533	2472.685962
702.084974	2510.494615
702.420366	2518.056346
702.755709	2497.891731
703.091002	2560.906154
703.426246	2550.823846
703.761440	2450.000769
704.096584	2417.233269
704.431679	2467.644808
704.766725	2450.000769
705.101721	2530.659231
705.436668	2439.918462
705.771565	2533.179808
706.106413	2467.644808
706.441212	2565.947308
706.775961	2490.330000
707.110661	2480.247692
707.445311	2515.535769
707.779913	2492.850577
708.114465	2482.768269
708.448967	2545.782692
708.783421	2586.111923
709.117825	2482.768269
709.452180	2409.671538
709.786485	2520.576923
710.120742	2492.850577
710.454949	2538.220962
710.789107	2591.153077
711.123216	2439.918462
711.457275	2520.576923
711.791286	2470.165385
712.125247	2447.480192
712.459159	2601.235385
712.793023	2480.247692
713.126837	2475.206538
713.460602	2510.494615
713.794318	2492.850577
714.127985	2505.453462
714.461602	2510.494615
714.795171	2538.220962
715.128691	2434.877308
715.462162	2525.618077
715.795584	2528.138654
716.128957	2480.247692
716.462281	2497.891731
716.795556	2502.932885
717.128782	2482.768269
717.461960	2558.385577
717.795088	2530.659231
718.128167	2507.974038
718.461198	2515.535769
718.794180	2570.988462
719.127113	2497.891731
719.459997	2570.988462
719.792833	2477.727115
720.125619	2477.727115
720.458357	2475.206538
720.791046	2487.809423
721.123686	2444.959615
721.456278	2497.891731
721.788821	2518.056346
722.121315	2523.097500
722.453761	2427.315577
722.786158	2492.850577
723.118506	2477.727115
723.450805	2513.015192
723.783056	2485.288846
724.115259	2502.932885
724.447412	2465.124231
724.779518	2548.303269
725.111574	2495.371154
725.443582	2462.603654
725.775542	2424.795000
726.107453	2538.220962
726.439315	2457.562500
726.771129	2472.685962
727.102895	2500.412308
727.434612	2528.138654
727.766281	2513.015192
728.097901	2507.974038
728.429473	2475.206538
728.760996	2455.041923
729.092471	2538.220962
729.423897	2490.330000
729.755276	2507.974038
730.086606	2472.685962
730.417887	2593.673654
730.749120	2492.850577
731.080305	2550.823846
731.411442	2513.015192
731.742530	2530.659231
732.073570	2475.206538
732.404562	2439.918462
732.735506	2439.918462
733.066401	2535.700385
733.397249	2444.959615
733.728048	2462.603654
734.058798	2510.494615
734.389501	2500.412308
734.720156	2467.644808
735.050762	2447.480192
735.381320	2490.330000
735.711831	2555.865000
736.042293	2520.576923
736.372707	2447.480192
736.703073	2412.192115
737.033391	2535.700385
737.363661	2533.179808
737.693883	2444.959615
738.024056	2523.097500
738.354182	2515.535769
738.684260	2477.727115
739.014290	2535.700385
739.344272	2482.768269
739.674207	2455.041923
740.004093	2417.233269
740.333931	2568.467885
740.663722	2523.097500
740.993464	2555.865000
741.323159	2482.768269
741.652806	2563.426731
741.982405	2543.262115
742.311956	2560.906154
742.641460	2548.303269
742.970915	2505.453462
743.300323	2480.247692
743.629683	2419.753846
743.958996	2490.330000
744.288260	2573.509038
744.617477	2513.015192
744.946647	2460.083077
745.275768	2500.412308
745.604842	2500.412308
745.933869	2535.700385
746.262847	2530.659231
746.591778	2490.330000
746.920662	2495.371154
747.249498	2495.371154
747.578286	2492.850577
747.907027	2490.330000
748.235720	2596.194231
748.564365	2462.603654
748.892963	2507.974038
749.221514	2480.247692
749.550017	2535.700385
749.878473	2432.356731
750.206881	2470.165385
750.535242	2507.974038
750.863555	2510.494615
751.191821	2513.015192
751.520039	2475.206538
751.848210	2495.371154
752.176334	2497.891731
752.504411	2455.041923
752.832440	2434.877308
753.160421	2462.603654
753.488356	2518.056346
753.816243	2457.562500
754.144082	2538.220962
754.471875	2523.097500
754.799620	2495.371154
755.127318	2482.768269
755.454969	2548.303269
755.782572	2518.056346
756.110129	2500.412308
756.437638	2502.932885
756.765100	2591.153077
757.092515	2533.179808
757.419882	2548.303269
757.747203	2505.453462
758.074477	2555.865000
758.401703	2525.618077
758.728882	2545.782692
759.056014	2513.015192
759.383099	2573.509038
759.710138	2518.056346
760.037129	2457.562500
760.364073	2462.603654
760.690970	2404.630385
761.017820	2565.947308
761.344623	2482.768269
761.671379	2513.015192
761.998088	2545.782692
762.324751	2492.850577
762.651366	2543.262115
762.977935	2525.618077
763.304456	2455.041923
763.630931	2502.932885
763.957359	2520.576923
764.283740	2465.124231
764.610074	2593.673654
764.936362	2513.015192
765.262602	2429.836154
765.588796	2545.782692
765.914943	2447.480192
766.241044	2560.906154
766.567097	2570.988462
766.893104	2565.947308
767.219064	2513.015192
767.544978	2528.138654
767.870845	2505.453462
768.196665	2535.700385
768.522438	2507.974038
768.848165	2520.576923
769.173846	2467.644808
769.499479	2538.220962
769.825066	2487.809423
770.150607	2518.056346
770.476101	2460.083077
770.801548	2548.303269
771.126949	2492.850577
771.452303	2427.315577
771.777611	2568.467885
772.102872	2434.877308
772.428087	2361.780577
772.753256	2480.247692
773.078378	2492.850577
773.403453	2376.904038
773.728482	2553.344423
774.053465	2455.041923
774.378401	2455.041923
774.703291	2460.083077
775.028135	2477.727115
775.352932	2520.576923
775.677683	2497.891731
776.002388	2543.262115
776.327046	2505.453462
776.651658	2538.220962
776.976224	2480.247692
777.300743	2427.315577
777.625216	2550.823846
777.949643	2518.056346
778.274024	2553.344423
778.598359	2470.165385
778.922647	2487.809423
779.246889	2470.165385
779.571086	2472.685962
779.895236	2460.083077
780.219339	2510.494615
780.543397	2422.274423
780.867409	2424.795000
781.191374	2500.412308
781.515294	2424.795000
781.839167	2505.453462
782.162995	2555.865000
782.486776	2452.521346
782.810511	2500.412308
783.134201	2472.685962
783.457844	2523.097500
783.781441	2437.397885
784.104993	2465.124231
784.428498	2465.124231
784.751958	2510.494615
785.075372	2540.741538
785.398739	2553.344423
785.722061	2487.809423
786.045337	2497.891731
786.368568	2404.630385
786.691752	2515.535769
787.014891	2450.000769
787.337983	2497.891731
787.661030	2548.303269
787.984031	2513.015192
788.306987	2507.974038
788.629897	2470.165385
788.952760	2518.056346
789.275579	2492.850577
789.598351	2520.576923
789.921078	2502.932885
790.243759	2429.836154
790.566395	2518.056346
790.888984	2470.165385
791.211529	2409.671538
791.534027	2470.165385
791.856480	2581.070769
792.178888	2533.179808
792.501249	2460.083077
792.823566	2460.083077
793.145836	2500.412308
793.468062	2460.083077
793.790241	2525.618077
794.112375	2591.153077
794.434464	2485.288846
794.756507	2515.535769
795.078505	2555.865000
795.400457	2477.727115
795.722364	2500.412308
796.044226	2472.685962
796.366042	2502.932885
796.687812	2507.974038
797.009538	2543.262115
797.331218	2495.371154
797.652852	2500.412308
797.974442	2444.959615
798.295986	2558.385577
798.617484	2500.412308
798.938938	2467.644808
799.260346	2475.206538
799.581709	2457.562500
799.903026	2457.562500
800.224299	2515.535769
800.545526	2528.138654
800.866708	2452.521346
801.187845	2538.220962
801.508936	2533.179808
801.829983	2457.562500
802.150984	2523.097500
802.471940	2505.453462
802.792851	2533.179808
803.113717	2490.330000
803.434538	2513.015192
803.755314	2560.906154
804.076045	2528.138654
804.396731	2581.070769
804.717372	2460.083077
805.037967	2540.741538
805.358518	2485.288846
805.679024	2417.233269
805.999485	2515.535769
806.319901	2465.124231
806.640272	2470.165385
806.960598	2487.809423
807.280879	2447.480192
807.601115	2457.562500
807.921306	2523.097500
808.241453	2444.959615
808.561554	2543.262115
808.881611	2482.768269
809.201623	2523.097500
809.521590	2439.918462
809.841513	2472.685962
810.161390	2434.877308
810.481223	2439.918462
810.801011	2555.865000
811.120755	2389.506923
811.440453	2465.124231
811.760107	2538.220962
812.079716	2470.165385
812.399281	2492.850577
812.718801	2450.000769
813.038276	2442.439038
813.357707	2477.727115
813.677093	2460.083077
813.996434	2475.206538
814.315731	2606.276538
814.634983	2439.918462
814.954191	2513.015192
815.273354	2535.700385
815.592473	2523.097500
815.911547	2397.068654
816.230577	2510.494615
816.549562	2444.959615
816.868502	2467.644808
817.187399	2510.494615
817.506250	2477.727115
817.825058	2540.741538
818.143821	2513.015192
818.462539	2392.027500
818.781213	2485.288846
819.099843	2447.480192
819.418429	2429.836154
819.736970	2490.330000
820.055466	2495.371154
820.373919	2543.262115
820.692327	2497.891731
821.010691	2490.330000
821.329011	2455.041923
821.647286	2538.220962
821.965517	2470.165385
822.283704	2497.891731
822.601847	2475.206538
822.919945	2523.097500
823.237999	2513.015192
823.556010	2510.494615
823.873976	2477.727115
824.191897	2518.056346
824.509775	2434.877308
824.827609	2530.659231
825.145398	2535.700385
825.463144	2472.685962
825.780845	2502.932885
826.098502	2442.439038
826.416116	2465.124231
826.733685	2472.685962
827.051210	2465.124231
827.368692	2535.700385
827.686129	2439.918462
828.003522	2442.439038
828.320872	2460.083077
828.638177	2497.891731
828.955439	2528.138654
829.272656	2495.371154
829.589830	2545.782692
829.906960	2515.535769
830.224046	2563.426731
830.541088	2402.109808
830.858086	2533.179808
831.175041	2442.439038
831.491952	2533.179808
831.808819	2530.659231
832.125642	2545.782692
832.442421	2439.918462
832.759157	2485.288846
833.075849	2419.753846
833.392497	2450.000769
833.709101	2538.220962
834.025662	2500.412308
834.342179	2447.480192
834.658653	2515.535769
834.975083	2450.000769
835.291469	2543.262115
835.607811	2520.576923
835.924110	2523.097500
836.240366	2563.426731
836.556578	2475.206538
836.872746	2485.288846
837.188871	2429.836154
837.504952	2560.906154
837.820990	2480.247692
838.136984	2457.562500
838.452935	2457.562500
838.768842	2485.288846
839.084706	2480.247692
839.400526	2465.124231
839.716303	2422.274423
840.032037	2553.344423
840.347727	2528.138654
840.663373	2495.371154
840.978977	2558.385577
841.294537	2530.659231
841.610054	2535.700385
841.925527	2548.303269
842.240957	2573.509038
842.556344	2513.015192
842.871687	2455.041923
843.186987	2427.315577
843.502244	2432.356731
843.817458	2520.576923
844.132629	2495.371154
844.447756	2432.356731
844.762840	2412.192115
845.077881	2490.330000
845.392879	2480.247692
845.707833	2523.097500
846.022745	2500.412308
846.337613	2444.959615
846.652438	2560.906154
846.967221	2434.877308
847.281960	2475.206538
847.596656	2550.823846
847.911309	2543.262115
848.225919	2480.247692
848.540485	2507.974038
848.855009	2507.974038
849.169490	2515.535769
849.483928	2429.836154
849.798323	2485.288846
850.112675	2513.015192
850.426984	2477.727115
850.741251	2502.932885
851.055474	2545.782692
851.369654	2467.644808
851.683792	2535.700385
851.997887	2472.685962
852.311938	2586.111923
852.625947	2457.562500
852.939914	2507.974038
853.253837	2472.685962
853.567718	2505.453462
853.881555	2462.603654
854.195350	2598.714808
854.509103	2558.385577
854.822812	2399.589231
855.136479	2472.685962
855.450103	2450.000769
855.763685	2502.932885
856.077224	2492.850577
856.390720	2530.659231
856.704173	2444.959615
857.017584	2530.659231
857.330953	2550.823846
857.644278	2429.836154
857.957561	2520.576923
858.270802	2518.056346
858.584000	2500.412308
858.897155	2550.823846
859.210268	2485.288846
859.523339	2465.124231
859.836367	2452.521346
860.149352	2550.823846
860.462295	2576.029615
860.775195	2462.603654
861.088054	2422.274423
861.400869	2485.288846
861.713642	2535.700385
862.026373	2533.179808
862.339062	2500.412308
862.651708	2444.959615
862.964312	2467.644808
863.276873	2457.562500
863.589392	2490.330000
863.901869	2515.535769
864.214303	2467.644808
864.526696	2422.274423
864.839045	2487.809423
865.151353	2510.494615
865.463619	2558.385577
865.775842	2487.809423
866.088023	2495.371154
866.400162	2472.685962
866.712258	2475.206538
867.024313	2502.932885
867.336325	2528.138654
867.648296	2538.220962
867.960224	2555.865000
868.272110	2507.974038
868.583954	2470.165385
868.895755	2477.727115
869.207515	2502.932885
869.519233	2497.891731
869.830909	2472.685962
870.142542	2460.083077
870.454134	2482.768269
870.765684	2465.124231
871.077191	2487.809423
871.388657	2455.041923
871.700081	2455.041923
872.011463	2450.000769
872.322803	2563.426731
872.634101	2417.233269
872.945357	2452.521346
873.256571	2553.344423
873.567744	2465.124231
873.878874	2490.330000
874.189963	2462.603654
874.501010	2434.877308
874.812015	2439.918462
875.122979	2507.974038
875.433900	2520.576923
875.744780	2485.288846
876.055618	2422.274423
876.366415	2520.576923
876.677169	2462.603654
876.987882	2515.535769
877.298554	2462.603654
877.609183	2480.247692
877.919771	2480.247692
878.230317	2500.412308
878.540822	2477.727115
878.851285	2510.494615
879.161707	2581.070769
879.472087	2404.630385
879.782425	2545.782692
880.092722	2497.891731
880.402977	2515.535769
880.713191	2535.700385
881.023363	2457.562500
881.333494	2578.550192
881.643583	2507.974038
881.953631	2513.015192
882.263637	2513.015192
882.573602	2513.015192
882.883526	2502.932885
883.193408	2467.644808
883.503248	2550.823846
883.813048	2500.412308
884.122806	2394.548077
884.432522	2596.194231
884.742197	2492.850577
885.051831	2576.029615
885.361424	2480.247692
885.670975	2477.727115
885.980485	2578.550192
886.289954	2465.124231
886.599382	2523.097500
886.908768	2429.836154
887.218113	2518.056346
887.527417	2397.068654
887.836680	2518.056346
888.145901	2525.618077
888.455082	2465.124231
888.764221	2543.262115
889.073319	2442.439038
889.382376	2513.015192
889.691392	2538.220962
890.000366	2492.850577
890.309300	2455.041923
890.618193	2525.618077
890.927044	2444.959615
891.235855	2533.179808
891.544625	2495.371154
891.853353	2538.220962
892.162041	2563.426731
892.470687	2412.192115
892.779293	2475.206538
893.087858	2523.097500
893.396381	2502.932885
893.704864	2460.083077
894.013306	2444.959615
894.321707	2543.262115
894.630068	2500.412308
894.938387	2444.959615
895.246665	2465.124231
895.554903	2573.509038
895.863100	2480.247692
896.171256	2510.494615
896.479371	2492.850577
896.787446	2417.233269
897.095480	2510.494615
897.403473	2565.947308
897.711425	2500.412308
898.019336	2510.494615
898.327207	2487.809423
898.635038	2525.618077
898.942827	2407.150962
899.250576	2439.918462
899.558284	2515.535769
899.865952	2538.220962
900.173579	2427.315577
900.481165	2502.932885
900.788711	2460.083077
901.096216	2417.233269
901.403681	2437.397885
901.711105	2538.220962
902.018489	2419.753846
902.325832	2434.877308
902.633135	2452.521346
902.940397	2523.097500
903.247619	2437.397885
903.554800	2500.412308
903.861941	2467.644808
904.169041	2530.659231
904.476101	2490.330000
904.783121	2467.644808
905.090100	2485.288846
905.397039	2472.685962
905.703938	2439.918462
906.010796	2439.918462
906.317614	2437.397885
906.624391	2497.891731
906.931129	2409.671538
907.237826	2530.659231
907.544483	2450.000769
907.851099	2447.480192
908.157675	2573.509038
908.464211	2439.918462
908.770707	2389.506923
909.077163	2495.371154
909.383578	2513.015192
909.689954	2455.041923
909.996289	2444.959615
910.302584	2485.288846
910.608839	2502.932885
910.915054	2520.576923
911.221229	2477.727115
911.527363	2507.974038
911.833458	2482.768269
912.139513	2515.535769
912.445527	2560.906154
912.751502	2472.685962
913.057436	2422.274423
913.363331	2460.083077
913.669186	2467.644808
913.975000	2530.659231
914.280775	2460.083077
914.586510	2460.083077
914.892205	2424.795000
915.197859	2568.467885
915.503475	2460.083077
915.809050	2439.918462
916.114585	2545.782692
916.420081	2482.768269
916.725536	2457.562500
917.030952	2550.823846
917.336328	2530.659231
917.641665	2603.755962
917.946961	2485.288846
918.252218	2523.097500
918.557435	2495.371154
918.862612	2545.782692
919.167750	2490.330000
919.472848	2528.138654
919.777906	2510.494615
920.082925	2447.480192
920.387904	2442.439038
920.692843	2475.206538
920.997743	2477.727115
921.302603	2510.494615
921.607423	2412.192115
921.912204	2550.823846
922.216946	2467.644808
922.521647	2513.015192
922.826310	2465.124231
923.130932	2505.453462
923.435516	2450.000769
923.740059	2553.344423
924.044564	2555.865000
924.349028	2452.521346
924.653454	2422.274423
924.957840	2495.371154
925.262186	2490.330000
925.566493	2477.727115
925.870761	2475.206538
926.174989	2444.959615
926.479178	2432.356731
926.783328	2470.165385
927.087438	2432.356731
927.391509	2502.932885
927.695541	2487.809423
927.999533	2515.535769
928.303486	2490.330000
928.607400	2520.576923
928.911275	2470.165385
929.215110	2457.562500
929.518906	2492.850577
929.822663	2565.947308
930.126381	2485.288846
930.430060	2470.165385
930.733699	2538.220962
931.037299	2505.453462
931.340861	2467.644808
931.644383	2427.315577
931.947866	2475.206538
932.251309	2492.850577
932.554714	2487.809423
932.858080	2422.274423
933.161407	2563.426731
933.464694	2513.015192
933.767943	2490.330000
934.071153	2538.220962
934.374323	2550.823846
934.677455	2520.576923
934.980548	2485.288846
935.283602	2520.576923
935.586617	2412.192115
935.889593	2379.424615
936.192530	2444.959615
936.495428	2543.262115
936.798287	2455.041923
937.101108	2465.124231
937.403890	2555.865000
937.706632	2507.974038
938.009336	2500.412308
938.312002	2568.467885
938.614628	2528.138654
938.917216	2502.932885
939.219765	2558.385577
939.522275	2399.589231
939.824747	2558.385577
940.127179	2492.850577
940.429573	2525.618077
940.731929	2472.685962
941.034246	2545.782692
941.336524	2447.480192
941.638763	2455.041923
941.940964	2467.644808
942.243126	2444.959615
942.545250	2533.179808
942.847335	2392.027500
943.149381	2477.727115
943.451389	2583.591346
943.753359	2518.056346
944.055290	2530.659231
944.357182	2525.618077
944.659036	2563.426731
944.960851	2545.782692
945.262628	2477.727115
945.564367	2515.535769
945.866067	2467.644808
946.167729	2540.741538
946.469352	2422.274423
946.770937	2432.356731
947.072484	2502.932885
947.373992	2502.932885
947.675462	2480.247692
947.976893	2485.288846
948.278286	2460.083077
948.579641	2525.618077
948.880958	2414.712692
949.182236	2429.836154
949.483476	2482.768269
949.784678	2465.124231
950.085841	2598.714808
950.386967	2513.015192
950.688054	2470.165385
950.989103	2490.330000
951.290114	2462.603654
951.591087	2452.521346
951.892021	2414.712692
952.192917	2520.576923
952.493776	2455.041923
952.794596	2581.070769
953.095378	2429.836154
953.396122	2543.262115
953.696828	2525.618077
953.997496	2518.056346
954.298126	2455.041923
954.598718	2570.988462
954.899272	2434.877308
955.199788	2533.179808
955.500266	2477.727115
955.800706	2457.562500
956.101108	2591.153077
956.401472	2477.727115
956.701798	2500.412308
957.002087	2447.480192
957.302337	2452.521346
957.602550	2429.836154
957.902724	2477.727115
958.202861	2545.782692
958.502960	2563.426731
958.803022	2434.877308
959.103045	2500.412308
959.403031	2502.932885
959.702979	2467.644808
960.002889	2510.494615
960.302762	2482.768269
960.602596	2570.988462
960.902393	2429.836154
961.202153	2543.262115
961.501875	2586.111923
961.801559	2490.330000
962.101205	2429.836154
962.400814	2545.782692
962.700385	2444.959615
962.999918	2497.891731
963.299414	2510.494615
963.598873	2460.083077
963.898293	2533.179808
964.197677	2477.727115
964.497022	2528.138654
964.796331	2450.000769
965.095601	2505.453462
965.394835	2414.712692
965.694030	2502.932885
965.993189	2487.809423
966.292309	2444.959615
966.591393	2497.891731
966.890439	2497.891731
967.189447	2611.317692
967.488419	2427.315577
967.787353	2528.138654
968.086249	2523.097500
968.385108	2467.644808
968.683930	2465.124231
968.982714	2507.974038
969.281462	2502.932885
969.580172	2490.330000
969.878844	2543.262115
970.177480	2422.274423
970.476078	2533.179808
970.774639	2480.247692
971.073162	2429.836154
971.371649	2565.947308
971.670098	2515.535769
971.968510	2495.371154
972.266885	2434.877308
972.565223	2485.288846
972.863524	2548.303269
973.161788	2583.591346
973.460014	2467.644808
973.758204	2563.426731
974.056356	2507.974038
974.354471	2487.809423
974.652550	2475.206538
974.950591	2487.809423
975.248595	2596.194231
975.546563	2452.521346
975.844493	2452.521346
976.142386	2472.685962
976.440243	2472.685962
976.738062	2457.562500
977.035845	2535.700385
977.333590	2465.124231
977.631299	2535.700385
977.928971	2480.247692
978.226606	2533.179808
978.524204	2502.932885
978.821765	2528.138654
979.119290	2437.397885
979.416777	2495.371154
979.714228	2480.247692
980.011642	2606.276538
980.309020	2563.426731
980.606360	2492.850577
980.903664	2427.315577
981.200931	2490.330000
981.498162	2487.809423
981.795356	2565.947308
982.092513	2550.823846
982.389633	2462.603654
982.686717	2520.576923
982.983764	2457.562500
983.280775	2523.097500
983.577749	2530.659231
983.874686	2460.083077
984.171587	2545.782692
984.468451	2533.179808
984.765279	2429.836154
985.062070	2510.494615
985.358824	2439.918462
985.655543	2502.932885
985.952224	2530.659231
986.248869	2500.412308
986.545478	2515.535769
986.842050	2530.659231
987.138586	2505.453462
987.435086	2394.548077
987.731549	2495.371154
988.027975	2502.932885
988.324366	2475.206538
988.620719	2497.891731
988.917037	2452.521346
989.213318	2492.850577
989.509563	2510.494615
989.805772	2437.397885
990.101944	2366.821731
990.398080	2460.083077
990.694180	2581.070769
990.990244	2535.700385
991.286271	2507.974038
991.582262	2533.179808
991.878217	2555.865000
992.174136	2475.206538
992.470019	2568.467885
992.765865	2457.562500
993.061676	2480.247692
993.357450	2528.138654
993.653188	2523.097500
993.948890	2507.974038
994.244556	2462.603654
994.540186	2500.412308
994.835780	2487.809423
995.131337	2515.535769
995.426859	2467.644808
995.722345	2450.000769
996.017795	2500.412308
996.313208	2442.439038
996.608586	2583.591346
996.903928	2548.303269
997.199234	2439.918462
997.494504	2565.947308
997.789738	2500.412308
998.084936	2576.029615
998.380099	2477.727115
998.675225	2465.124231
998.970316	2502.932885
999.265371	2455.041923
999.560390	2462.603654
999.855373	2447.480192
1000.150320	2392.027500
1000.445232	2490.330000
1000.740108	2422.274423
1001.034948	2455.041923
1001.329752	2457.562500
1001.624521	2570.988462
1001.919254	2530.659231
1002.213951	2550.823846
1002.508613	2472.685962
1002.803239	2523.097500
1003.097829	2465.124231
1003.392384	2450.000769
1003.686903	2394.548077
1003.981386	2540.741538
1004.275834	2409.671538
1004.570246	2462.603654
1004.864623	2404.630385
1005.158964	2513.015192
1005.453270	2480.247692
1005.747540	2485.288846
1006.041775	2500.412308
1006.335974	2543.262115
1006.630138	2490.330000
1006.924266	2525.618077
1007.218359	2452.521346
1007.512416	2560.906154
1007.806438	2480.247692
1008.100425	2565.947308
1008.394376	2452.521346
1008.688292	2429.836154
1008.982172	2515.535769
1009.276017	2485.288846
1009.569827	2482.768269
1009.863602	2475.206538
1010.157341	2460.083077
1010.451045	2442.439038
1010.744714	2528.138654
1011.038347	2480.247692
1011.331945	2482.768269
1011.625508	2525.618077
1011.919036	2465.124231
1012.212528	2467.644808
1012.505986	2596.194231
1012.799408	2444.959615
1013.092795	2513.015192
1013.386147	2513.015192
1013.679464	2417.233269
1013.972745	2548.303269
1014.265992	2523.097500
1014.559204	2520.576923
1014.852380	2465.124231
1015.145521	2518.056346
1015.438628	2487.809423
1015.731699	2490.330000
1016.024736	2515.535769
1016.317737	2497.891731
1016.610703	2523.097500
1016.903635	2497.891731
1017.196531	2485.288846
1017.489393	2487.809423
1017.782219	2568.467885
1018.075011	2565.947308
1018.367768	2442.439038
1018.660490	2482.768269
1018.953177	2482.768269
1019.245829	2482.768269
