Dividing Wavelength (nm)	Counts (n)	Blue Motor Position (mm): 0.000000	Red Motor Position (mm): 41.500000	
326.493990	2139.490898
326.888308	2139.490898
327.282561	2139.490898
327.676750	2113.531476
328.070874	2113.707917
328.464933	2121.614967
328.858929	2129.809362
329.252859	2140.557102
329.646726	2155.126037
330.040528	2167.791936
330.434265	2187.437312
330.827938	2206.883563
331.221547	2226.932232
331.615091	2246.217166
332.008571	2264.791298
332.401986	2290.443209
332.795338	2307.061373
333.188625	2326.207675
333.581847	2344.900273
333.975006	2364.560773
334.368100	2382.706407
334.761129	2401.409087
335.154095	2416.131777
335.546996	2437.418049
335.939833	2460.345217
336.332606	2475.355252
336.725315	2484.857828
337.117960	2493.740341
337.510540	2500.568583
337.903056	2511.583505
338.295508	2517.529546
338.687896	2522.696728
339.080220	2533.918337
339.472480	2535.796167
339.864676	2541.646426
340.256807	2545.016437
340.648875	2546.523742
341.040879	2547.826880
341.432818	2549.651778
341.824694	2553.500699
342.216506	2551.390976
342.608253	2548.691438
342.999937	2548.240255
343.391557	2549.147663
343.783113	2546.256561
344.174605	2546.725388
344.566033	2544.073741
344.957397	2544.824873
345.348697	2543.612476
345.739934	2540.265149
346.131106	2539.609799
346.522215	2537.104346
346.913260	2535.841537
347.304241	2534.130065
347.695159	2533.378933
348.086012	2529.411545
348.476802	2527.200999
348.867528	2526.583458
349.258191	2527.059847
349.648789	2527.800897
350.039324	2523.140350
350.429796	2525.250073
350.820203	2520.581964
351.210548	2519.934176
351.600828	2522.439629
351.991045	2519.508198
352.381198	2518.414268
352.771288	2518.462159
353.161314	2521.224711
353.551276	2522.089269
353.941175	2519.082221
354.331010	2517.191788
354.720782	2518.003414
355.110490	2520.980215
355.500135	2520.513909
355.889717	2518.605832
356.279235	2520.264372
356.668689	2522.530370
357.058080	2520.765966
357.447408	2519.508198
357.836672	2519.394773
358.225873	2520.934845
358.615010	2517.350585
359.004084	2525.169414
359.393095	2521.433919
359.782043	2525.547501
360.170927	2525.671009
360.559748	2527.120341
360.948505	2527.440454
361.337199	2528.441123
361.725830	2526.306194
362.114398	2526.848118
362.502903	2526.570855
362.891344	2530.492873
363.279722	2530.293747
363.668037	2529.688809
364.056289	2530.281144
364.444478	2530.323994
364.832603	2528.330218
365.220665	2531.833820
365.608665	2530.530681
365.996601	2530.780218
366.384474	2530.966741
366.772284	2530.334076
367.160031	2534.051927
367.547715	2536.817000
367.935336	2535.619726
368.322893	2535.382792
368.710388	2534.750127
369.097820	2538.720036
369.485189	2537.164840
369.872495	2536.141486
370.259738	2535.707946
370.646918	2534.997144
371.034035	2536.385982
371.421090	2539.579552
371.808081	2537.704243
372.195010	2538.662062
372.581875	2539.829090
372.968678	2538.533513
373.355418	2542.659698
373.742096	2543.005017
374.128710	2542.909235
374.515262	2544.088865
374.901751	2543.720860
375.288177	2544.305634
375.674540	2549.417364
376.060841	2547.514329
376.447079	2551.567416
376.833254	2551.998435
377.219367	2552.225287
377.605417	2554.962633
377.991404	2557.692418
378.377329	2560.215516
378.763191	2559.673592
379.148991	2566.012843
379.534727	2570.436455
379.920402	2574.456775
380.306013	2574.577763
380.691563	2582.010944
381.077049	2586.129567
381.462474	2591.921853
381.847835	2595.180959
382.233134	2601.774788
382.618371	2606.281580
383.003545	2611.637806
383.388657	2620.563168
383.773706	2624.076853
384.158693	2629.854015
384.543618	2638.527320
384.928480	2643.139976
385.313280	2650.542910
385.698017	2661.832574
386.082692	2669.117042
386.467305	2675.216838
386.851856	2683.426357
387.236344	2694.373222
387.620770	2697.534026
388.005133	2708.649770
388.389435	2721.192161
388.773674	2729.099211
389.157851	2732.749006
389.541965	2746.574371
389.926018	2747.748959
390.310008	2759.973757
390.693936	2774.255346
391.077802	2780.289607
391.461606	2787.271606
391.845348	2798.682257
392.229027	2805.739873
392.612645	2818.430977
392.996200	2831.482525
393.379694	2844.155986
393.763125	2860.496886
394.146494	2869.767568
394.529801	2878.987838
394.913047	2895.742113
395.296230	2896.941908
395.679351	2903.119842
396.062410	2923.229004
396.445408	2916.854465
396.828343	2927.508944
397.211217	2935.103442
397.594028	2932.144285
397.976778	2945.198353
398.359466	2959.033799
398.742092	2955.217646
399.124656	2970.222640
399.507158	2981.625730
399.889598	2990.709890
400.271977	3006.466016
400.654294	3008.492560
401.036549	3022.317924
401.418742	3027.598533
401.800874	3054.588871
402.182944	3058.752864
402.564952	3086.968202
402.946898	3075.676017
403.328783	3086.302769
403.710606	3102.232816
404.092367	3126.513533
404.474067	3151.666370
404.855705	3139.736480
405.237282	3143.633292
405.618797	3175.808456
406.000250	3196.217567
406.381642	3225.662947
406.762972	3227.901219
407.144240	3222.532390
407.525447	3242.606265
407.906593	3240.486460
408.287677	3261.593771
408.668700	3284.410033
409.049661	3280.387192
409.430560	3299.077270
409.811399	3301.265131
410.192176	3320.628203
410.572891	3326.145746
410.953545	3367.682333
411.334138	3334.511541
411.714669	3387.025240
412.095139	3333.871314
412.475547	3384.330744
412.855894	3377.608365
413.236180	3408.503076
413.616405	3384.187071
413.996568	3409.972573
414.376670	3410.436359
414.756711	3409.266811
415.136691	3431.899071
415.516609	3456.991415
415.896466	3463.474338
416.276262	3492.009790
416.655997	3521.072042
417.035670	3527.242414
417.415283	3592.981581
417.794834	3611.802729
418.174324	3594.461159
418.553753	3602.774022
418.933121	3638.354486
419.312428	3633.275523
419.691674	3627.891571
420.070859	3666.085873
420.449983	3647.426042
420.829045	3691.256354
421.208047	3679.054242
421.586988	3724.684246
421.965867	3754.089296
422.344686	3765.525153
422.723444	3801.632418
423.102141	3707.153633
423.480777	3808.407729
423.859352	3774.725259
424.237866	3875.810476
424.616319	3858.736088
424.994712	3916.565684
425.373044	3907.088315
425.751314	3973.147595
426.129524	3905.664189
426.507673	4005.030373
426.885762	3984.585973
427.263789	4008.705374
427.641756	4010.825179
428.019662	4039.887431
428.397508	4042.531516
428.775292	4078.464861
429.153016	4085.131787
429.530679	4098.697532
429.908282	4102.947224
430.285824	4083.591714
430.663305	4159.824043
431.040726	4118.466417
431.418086	4108.013584
431.795385	4183.661139
432.172624	4217.517528
432.549802	4186.516952
432.926920	4206.114438
433.303977	4195.981719
433.680974	4236.270620
434.057910	4255.396758
434.434786	4264.919498
434.811601	4260.200978
435.188355	4364.696535
435.565050	4334.076567
435.941683	4333.857276
436.318257	4420.965894
436.694770	4423.093261
437.071222	4484.723887
437.447614	4421.853137
437.823946	4424.204836
438.200218	4439.121610
438.576429	4419.612344
438.952580	4442.761323
439.328670	4451.532931
439.704700	4495.920290
440.080670	4455.071821
440.456580	4521.262171
440.832429	4553.686872
441.208218	4456.672387
441.583947	4507.149460
441.959616	4521.201677
442.335224	4549.066655
442.710773	4571.585489
443.086261	4627.597749
443.461689	4580.712498
443.837057	4589.993262
444.212365	4664.483872
444.587612	4669.177186
444.962800	4637.559069
445.337927	4676.063402
445.712995	4563.640630
446.088002	4759.134056
446.462949	4776.891520
446.837837	4796.579747
447.212664	4781.317653
447.587431	5001.111961
447.962139	5306.000946
448.336786	5640.053005
448.711374	5629.764010
449.085901	5275.774187
449.460369	5210.841605
449.834776	5145.694774
450.209124	5381.240167
450.583412	5389.517742
450.957640	5508.509137
451.331808	5373.020566
451.705917	5224.306527
452.079965	5220.167740
452.453954	5256.461527
452.827883	5219.482143
453.201752	5227.754676
453.575562	5260.691055
453.949311	5393.021343
454.323001	5396.648454
454.696632	5391.105705
455.070202	5539.963416
455.443713	5573.371143
455.817164	5664.931100
456.190556	5740.621504
456.563888	5710.281320
456.937160	5790.975069
457.310373	5633.524711
457.683526	5685.294841
458.056619	5676.593809
458.429653	5664.976470
458.802628	5712.330549
459.175542	5738.206791
459.548398	5877.902206
459.921194	6059.545061
460.293930	6121.742817
460.666607	6371.698348
461.039224	6586.544763
461.411782	6711.797272
461.784280	6630.443131
462.156719	6638.859338
462.529099	6598.225117
462.901419	6453.947294
463.273680	6326.559857
463.645882	6315.683567
464.018024	6317.150543
464.390106	6379.650768
464.762130	6638.980325
465.134094	7026.219078
465.505999	7650.538256
465.877845	8351.500616
466.249631	8708.207621
466.621358	8646.808888
466.993026	8450.188764
467.364634	8233.817400
467.736184	7954.600491
468.107674	7792.287940
468.479105	7709.769293
468.850477	7647.914335
469.221790	7469.782644
469.593043	7251.747699
469.964238	7154.176166
470.335373	7127.911754
470.706449	7279.300125
471.077467	7466.795760
471.448425	8109.568081
471.819324	8692.491824
472.190164	8745.000482
472.560945	8266.794108
472.931667	7796.968652
473.302330	7595.370389
473.672934	7481.946948
474.043479	7554.511837
474.413965	7457.346117
474.784393	7408.381390
475.154761	7563.764875
475.525070	7574.179899
475.895321	7526.384719
476.265513	7616.276054
476.635645	7785.195037
477.005719	7777.005682
477.375734	7860.703960
477.745691	7976.045560
478.115588	8169.504880
478.485427	8409.930110
478.855207	8874.903455
479.224928	9306.547212
479.594591	9687.492085
479.964194	9701.130927
480.333739	9785.640830
480.703226	9795.917222
481.072653	9890.121264
481.442022	9998.044806
481.811333	10151.986521
482.180584	9993.732099
482.549777	9938.748234
482.918912	9880.021312
483.287988	9867.441113
483.657005	9773.683213
484.025964	9683.915386
484.394864	9743.020394
484.763706	9708.760713
485.132489	9621.606725
485.501213	9608.285476
485.869879	9671.073047
486.238487	9605.585938
486.607036	9686.413278
486.975527	9634.093663
487.343959	9678.954891
487.712333	9731.677798
488.080648	9772.082646
488.448905	9863.972799
488.817104	9879.441579
489.185244	10043.150530
489.553326	10251.619885
489.921350	10717.732532
490.289315	11337.343272
490.657222	11636.407203
491.025070	11816.701550
491.392861	11730.981770
491.760593	11574.083418
492.128267	11328.117960
492.495883	11082.442368
492.863440	10853.727739
493.230939	10626.747267
493.598380	10445.275810
493.965763	10418.804712
494.333088	10295.125043
494.700354	10219.195184
495.067563	10193.376914
495.434713	10198.062667
495.801805	10246.407332
496.168839	10204.119613
496.535815	10172.561990
496.902733	10211.197393
497.269593	10175.195993
497.636395	10182.866109
498.003139	10290.378797
498.369825	10220.609227
498.736453	10314.208331
499.103023	10249.752138
499.469535	10265.921639
499.835989	10307.460747
500.202385	10280.011664
500.568723	10304.063009
500.935003	10359.858500
501.301226	10328.724333
501.667390	10495.697431
502.033497	10596.729716
502.399546	10526.670280
502.765537	10434.538153
503.131470	10537.566734
503.497345	10627.195929
503.863163	10398.897195
504.228923	10538.189317
504.594625	10653.835907
504.960269	10555.936699
505.325856	10704.827178
505.691385	10581.155071
506.056856	10651.257357
506.422270	10748.397871
506.787625	10688.037615
507.152924	10742.950904
507.518164	10806.371140
507.883347	10672.624287
508.248472	10742.030893
508.613540	10849.168015
508.978550	10921.553943
509.343503	10911.925340
509.708398	10959.554161
510.073236	11085.005795
510.438016	11102.843918
510.802738	11013.660865
511.167403	11145.320680
511.532010	11202.421830
511.896561	11293.878443
512.261053	11495.612817
512.625488	11406.021431
512.989866	11396.886860
513.354186	11379.026052
513.718449	11382.272555
514.082655	11518.913030
514.446803	11471.800927
514.810894	11594.008578
515.174927	11585.272259
515.538904	11566.282232
515.902822	11724.183774
516.266684	11598.230545
516.630488	11700.147552
516.994235	11688.804956
517.357925	11798.571040
517.721558	11857.494567
518.085133	11929.908221
518.448651	11960.576080
518.812112	11918.240470
519.175516	11927.644743
519.538863	12012.787311
519.902152	12014.672702
520.265385	12123.891821
520.628560	12148.648928
520.991678	12088.633991
521.354739	12138.075107
521.717743	12221.985113
522.080690	12190.644260
522.443580	12318.974393
522.806413	12335.998369
523.169189	12328.779437
523.531908	12386.175494
523.894569	12355.941174
524.257174	12366.693955
524.619722	12464.729274
524.982213	12440.453597
525.344647	12432.196187
525.707025	12444.720934
526.069345	12544.235832
526.431608	12522.117769
526.793815	12609.352416
527.155964	12498.038698
527.518057	12536.880788
527.880093	12485.632418
528.242072	12610.920215
528.603995	12531.741332
528.965860	12539.282898
529.327669	12578.024165
529.689421	12516.622911
530.051117	12545.730534
530.412755	12575.402765
530.774337	12573.784555
531.135862	12536.974049
531.497331	12593.833224
531.858743	12561.416084
532.220098	12636.821663
532.581396	12560.264180
532.942638	12476.011376
533.303824	12550.428889
533.664953	12546.307746
534.026025	12493.889828
534.387040	12597.165426
534.747999	12566.570664
535.108902	12620.458078
535.469748	12488.301709
535.830537	12520.139116
536.191270	12554.040876
536.551947	12485.760968
536.912567	12542.322714
537.273131	12577.368815
537.633638	12463.284983
537.994089	12517.280782
538.354483	12430.638471
538.714821	12550.254969
539.075103	12644.085966
539.435328	12579.745719
539.795497	12554.789487
540.155609	12565.426322
540.515665	12664.174964
540.875665	12513.729289
541.235609	12614.386008
541.595496	12571.556365
541.955328	12747.265782
542.315102	12603.318155
542.674821	12528.358718
543.034483	12540.727188
543.394090	12539.890357
543.753640	12511.314576
544.113134	12758.913368
544.472571	12526.430476
544.831953	12790.100466
545.191278	12609.969957
545.550548	12554.764281
545.909761	12666.325016
546.268918	12711.251779
546.628019	12779.511523
546.987064	12665.364676
547.346053	12510.540759
547.704986	12713.479969
548.063863	12593.364396
548.422684	12648.864980
548.781449	12599.990993
549.140158	12700.889687
549.498811	12653.848160
549.857408	12526.254036
550.215949	12727.418759
550.574434	12688.700177
550.932864	12633.023154
551.291237	12825.890138
551.649555	12717.459960
552.007817	12782.485803
552.366022	12701.313144
552.724173	12735.587949
553.082267	12828.438441
553.440305	12915.695773
553.798288	12740.709762
554.156215	12817.274806
554.514086	12859.496990
554.871902	12806.499340
555.229661	12826.749655
555.587365	12779.509002
555.945014	12794.481229
556.302606	12770.805450
556.660143	12836.640399
557.017625	12868.737425
557.375050	12827.480622
557.732421	12930.705809
558.089735	12924.064089
558.446994	12893.943194
558.804197	13009.642716
559.161345	13005.871933
559.518437	12817.471411
559.875474	12916.769539
560.232455	12948.672481
560.589381	12988.628667
560.946251	12940.462962
561.303065	13106.367335
561.659825	13055.020663
562.016528	12971.506388
562.373177	12909.265782
562.729770	13038.094989
563.086307	12912.519846
563.442789	13028.237012
563.799216	13066.222107
564.155587	12997.569153
564.511904	13024.642670
564.868164	13034.936706
565.224370	13099.692848
565.580520	13050.965054
565.936615	13108.799692
566.292654	13041.717058
566.648638	13118.193882
567.004567	13117.152884
567.360441	13112.043674
567.716260	13079.409765
568.072023	13165.641222
568.427732	13145.595074
568.783385	13045.145042
569.138982	13165.303465
569.494525	13159.816169
569.850013	13112.041154
570.205445	13103.231738
570.560823	13114.342441
570.916145	13066.932909
571.271412	13077.781472
571.626625	13042.566492
571.981782	13033.323537
572.336884	12975.173827
572.691931	13058.095767
573.046923	12955.714973
573.401860	12939.731995
573.756743	12930.554574
574.111570	12950.772122
574.466342	12926.042742
574.821059	12989.263852
575.175722	12858.851723
575.530330	12888.675189
575.884882	12808.818271
576.239380	12807.507571
576.593823	12795.169347
576.948211	12780.928087
577.302544	12661.311588
577.656823	12678.456553
578.011047	12730.284655
578.365216	12672.903722
578.719330	12611.242848
579.073389	12584.330649
579.427394	12596.129469
579.781344	12580.562386
580.135239	12514.901357
580.489080	12526.196063
580.842866	12417.289495
581.196597	12505.224863
581.550273	12500.307217
581.903895	12460.812297
582.257463	12573.966036
582.610975	12417.057602
582.964434	12484.246101
583.317837	12413.934608
583.671186	12363.578522
584.024481	12414.531984
584.377721	12303.619038
584.730906	12374.719472
585.084037	12383.728014
585.437113	12304.135756
585.790135	12326.750372
586.143103	12236.717885
586.496016	12253.371337
586.848874	12266.369952
587.201679	12258.999785
587.554428	12136.421609
587.907124	12182.217971
588.259765	12121.769495
588.612352	12189.696523
588.964884	12043.631611
589.317362	12103.621341
589.669786	12095.434507
590.022155	12044.501210
590.374470	12141.493010
590.726731	12022.710822
591.078937	11912.629666
591.431090	11944.552773
591.783188	11871.443439
592.135232	11793.290431
592.487222	11847.795387
592.839157	11865.048736
593.191038	11792.945112
593.542866	11740.249931
593.894639	11600.970412
594.246358	11654.613330
594.598022	11658.361428
594.949633	11569.785834
595.301190	11552.605582
595.652692	11512.639314
596.004141	11593.005389
596.355535	11383.565611
596.706876	11366.531552
597.058162	11337.600370
597.409395	11418.271435
597.760573	11446.446444
598.111698	11335.677170
598.462768	11339.299239
598.813785	11340.700680
599.164748	11215.329704
599.515657	11287.085488
599.866511	11154.571198
600.217312	11286.621702
600.568060	11053.483460
600.918753	11213.056144
601.269392	11202.898219
601.619978	11106.723086
601.970510	11151.387709
602.320988	11191.401868
602.671412	11258.252609
603.021783	11180.654128
603.372100	11105.598909
603.722363	11125.226641
604.072572	11124.339398
604.422728	11128.513473
604.772830	11071.205637
605.122878	11077.171842
605.472872	11042.907119
605.822813	11096.887795
606.172701	11057.828935
606.522534	11092.471744
606.872314	11133.231993
607.222041	11071.051881
607.571714	11149.993830
607.921333	11006.699032
608.270899	11054.751310
608.620411	11110.009918
608.969870	11054.161495
609.319276	11035.559638
609.668627	11047.487008
610.017926	11126.988524
610.367171	11147.616926
610.716362	11128.757969
611.065500	11105.135123
611.414585	11115.572832
611.763616	11173.672130
612.112594	11131.419699
612.461518	11146.621298
612.810389	11183.454489
613.159207	11131.777621
613.507971	11123.661363
613.856682	11213.905578
614.205340	11173.465442
614.553945	11306.927470
614.902496	11179.983654
615.250994	11223.924872
615.599439	11212.080681
615.947830	11238.438354
616.296169	11201.829494
616.644454	11204.226563
616.992686	11207.513395
617.340864	11289.399378
617.688990	11176.280927
618.037063	11296.114195
618.385082	11259.550706
618.733048	11290.490788
619.080961	11272.950093
619.428821	11244.447409
619.776628	11247.116700
620.124382	11194.991169
620.472083	11204.919722
620.819731	11220.201980
621.167326	11141.663323
621.514868	11116.760023
621.862357	11008.450833
622.209793	10998.512198
622.557176	10910.740668
622.904506	10854.030208
623.251783	10774.712694
623.599007	10709.026459
623.946179	10661.576598
624.293297	10625.164344
624.640363	10495.004272
624.987376	10472.498041
625.334336	10398.829139
625.681243	10313.179936
626.028097	10278.711046
626.374899	10236.135981
626.721647	10208.931395
627.068343	10157.975412
627.414987	10086.254916
627.761577	10015.671200
628.108115	10051.662518
628.454600	9924.166696
628.801032	9933.545763
629.147412	9913.701261
629.493739	9874.690292
629.840014	9793.603332
630.186236	9826.653137
630.532405	9712.755827
630.878521	9737.202903
631.224585	9683.363380
631.570597	9604.726421
631.916556	9592.567158
632.262462	9571.134692
632.608316	9538.478098
632.954117	9505.486266
633.299866	9480.827462
633.645562	9444.763048
633.991206	9348.683697
634.336797	9258.479810
634.682336	9236.684382
635.027823	9177.876801
635.373257	9129.743864
635.718639	9053.937513
636.063968	9022.047174
636.409245	8911.222448
636.754470	8892.242504
637.099642	8831.584820
637.444762	8739.112415
637.789829	8734.416580
638.134845	8653.495978
638.479808	8628.590158
638.824719	8593.291998
639.169577	8505.054162
639.514383	8493.230136
639.859137	8419.727592
640.203839	8443.597456
640.548489	8360.708283
640.893086	8351.140173
641.237632	8279.379348
641.582125	8272.808204
641.926566	8250.264164
642.270955	8224.929846
642.615292	8211.351498
642.959576	8176.655757
643.303809	8161.572624
643.647990	8169.489756
643.992118	8129.261349
644.336195	8103.538861
644.680219	8088.523784
645.024192	8105.575487
645.368112	8152.667426
645.711981	8119.060574
646.055797	8219.555976
646.399562	8170.039242
646.743274	8288.029968
647.086935	8331.298192
647.430544	8293.088766
647.774101	8293.550032
648.117606	8302.563615
648.461059	8347.266047
648.804460	8270.151516
649.147810	8157.093559
649.491108	8121.205585
649.834354	8061.455309
650.177548	7923.216788
650.520690	7842.570929
650.863781	7818.622928
651.206820	7794.425390
651.549807	7702.310906
651.892742	7621.745706
652.235626	7566.837458
652.578458	7525.764657
652.921238	7423.293123
653.263967	7439.490350
653.606644	7368.069803
653.949269	7341.775145
654.291843	7264.968125
654.634365	7308.004455
654.976836	7234.766572
655.319255	7212.111627
655.661622	7191.523554
656.003938	7146.450598
656.346203	7107.232941
656.688416	7120.556711
657.030577	7070.853455
657.372687	7030.375510
657.714746	7044.163066
658.056753	7037.980090
658.398708	6952.764426
658.740612	6927.553615
659.082465	6954.004550
659.424266	6906.683238
659.766016	6901.415233
660.107715	6863.238575
660.449362	6873.041098
660.790958	6853.879673
661.132503	6829.208266
661.473996	6814.931718
661.815438	6812.940462
662.156829	6820.529919
662.498168	6768.313648
662.839456	6754.949549
663.180693	6756.078767
663.521879	6756.048520
663.863013	6727.311423
664.204097	6712.424896
664.545129	6746.556028
664.886110	6727.505507
665.227040	6710.784000
665.567918	6707.779472
665.908746	6698.425611
666.249522	6700.926024
666.590248	6682.664444
666.930922	6675.697569
667.271545	6656.984806
667.612118	6646.373177
667.952639	6617.802438
668.293109	6601.504388
668.633528	6567.995838
668.973896	6545.131685
669.314213	6531.944026
669.654480	6492.297872
669.994695	6473.711137
670.334859	6443.408762
670.674973	6411.344503
671.015035	6415.422796
671.355047	6393.143417
671.695008	6368.910590
672.034918	6342.769687
672.374777	6330.834755
672.714585	6299.060362
673.054342	6300.600435
673.394049	6264.604076
673.733705	6273.239572
674.073310	6229.565536
674.412864	6218.094391
674.752368	6163.740670
675.091820	6188.132293
675.431223	6122.675431
675.770574	6081.988278
676.109875	6048.414193
676.449125	6005.035064
676.788324	5988.353886
677.127473	5915.098359
677.466571	5894.411984
677.805619	5842.896433
678.144616	5831.987376
678.483562	5805.980064
678.822458	5761.887612
679.161303	5739.245269
679.500098	5709.802410
679.838842	5684.505900
680.177535	5677.221433
680.516179	5686.814748
680.854771	5679.646228
681.193314	5732.366615
681.531805	5810.096166
681.870247	5861.919227
682.208638	5944.518533
682.546978	5972.204550
682.885268	5970.697245
683.223508	5923.582621
683.561697	5874.191916
683.899836	5845.202761
684.237925	5781.311177
684.575963	5749.866980
684.913951	5686.114028
685.251889	5680.588923
685.589776	5668.860679
685.927614	5643.556607
686.265401	5632.488754
686.603137	5623.568432
686.940824	5643.039889
687.278460	5667.149207
687.616046	5660.119318
687.953582	5700.718251
688.291068	5681.657648
688.628504	5699.654567
688.965889	5685.110838
689.303224	5649.762268
689.640510	5614.121310
689.977745	5544.437440
690.314930	5462.548937
690.652065	5408.164970
690.989150	5337.273744
691.326185	5250.397019
691.663170	5179.861194
692.000105	5099.651395
692.336990	5030.814440
692.673825	4981.088498
693.010610	4921.229837
693.347345	4855.195763
693.684030	4783.124907
694.020665	4751.325309
694.357251	4684.368703
694.693786	4668.877237
695.030272	4633.473214
695.366707	4579.547991
695.703093	4543.521385
696.039429	4530.769787
696.375716	4496.563037
696.711952	4480.693485
697.048139	4458.018375
697.384276	4431.733799
697.720363	4435.907874
698.056400	4417.195111
698.392388	4389.340216
698.728326	4381.433166
699.064214	4356.187067
699.400053	4344.322712
699.735842	4309.127896
700.071581	4276.546919
700.407270	4244.223040
700.742910	4220.660687
701.078501	4192.064742
701.414042	4163.310001
701.749533	4129.322541
702.084974	4096.673508
702.420366	4101.911267
702.755709	4062.025658
703.091002	4029.855535
703.426246	4025.613404
703.761440	4010.628574
704.096584	3978.140858
704.431679	3969.291112
704.766725	3953.832414
705.101721	3937.630146
705.436668	3934.665947
705.771565	3906.337183
706.106413	3920.349070
706.441212	3915.615427
706.775961	3912.943615
707.110661	3908.426742
707.445311	3925.586829
707.779913	3907.496649
708.114465	3917.137855
708.448967	3924.379473
708.783421	3964.950679
709.117825	3973.157677
709.452180	3981.369717
709.786485	4000.500896
710.120742	4050.015109
710.454949	4044.540416
710.789107	4067.994384
711.123216	4112.727063
711.457275	4123.842807
711.791286	4161.676667
712.125247	4162.095083
712.459159	4144.821569
712.793023	4188.621634
713.126837	4118.635295
713.460602	4124.974546
713.794318	4099.330197
714.127985	4068.813572
714.461602	4002.177080
714.795171	3991.696521
715.128691	3919.025767
715.462162	3874.499776
715.795584	3838.967203
716.128957	3811.354283
716.462281	3779.274901
716.795556	3751.833380
717.128782	3715.335426
717.461960	3673.473684
717.795088	3658.400634
718.128167	3627.274030
718.461198	3593.112651
718.794180	3579.093202
719.127113	3552.725447
719.459997	3534.050492
719.792833	3507.239116
720.125619	3498.510358
720.458357	3474.882470
720.791046	3460.031230
721.123686	3441.557922
721.456278	3423.603853
721.788821	3415.205290
722.121315	3396.043865
722.453761	3394.516395
722.786158	3385.275960
723.118506	3382.717574
723.450805	3370.371789
723.783056	3369.993702
724.115259	3364.574462
724.447412	3349.967718
724.779518	3362.079091
725.111574	3359.888709
725.443582	3365.486911
725.775542	3358.688915
726.107453	3381.671535
726.439315	3370.737272
726.771129	3391.315262
727.102895	3406.673138
727.434612	3420.022113
727.766281	3423.442536
728.097901	3436.607509
728.429473	3433.960903
728.760996	3433.187086
729.092471	3434.119700
729.423897	3427.563679
729.755276	3410.849733
730.086606	3406.645411
730.417887	3425.915222
730.749120	3442.475412
731.080305	3450.798357
731.411442	3467.078763
731.742530	3462.982826
732.073570	3464.689257
732.404562	3478.428921
732.735506	3473.085298
733.066401	3457.982001
733.397249	3432.703135
733.728048	3398.032600
734.058798	3349.861854
734.389501	3311.380206
734.720156	3275.643467
735.050762	3246.825711
735.381320	3222.809654
735.711831	3202.513968
736.042293	3178.684434
736.372707	3174.573373
736.703073	3159.991836
737.033391	3164.211282
737.363661	3159.568379
737.693883	3163.016528
738.024056	3165.222033
738.354182	3171.715039
738.684260	3184.741381
739.014290	3192.351002
739.344272	3201.034390
739.674207	3215.779765
740.004093	3221.660271
740.333931	3223.437277
740.663722	3222.827298
740.993464	3216.780434
741.323159	3209.725339
741.652806	3194.526260
741.982405	3183.902028
742.311956	3163.399656
742.641460	3153.677791
742.970915	3135.721201
743.300323	3112.998200
743.629683	3099.445058
743.958996	3086.370825
744.288260	3069.553536
744.617477	3052.375804
744.946647	3040.632436
745.275768	3025.566948
745.604842	3012.712006
745.933869	3002.317146
746.262847	2997.346569
746.591778	2996.955879
746.920662	2985.623365
747.249498	2980.960298
747.578286	2984.211842
747.907027	2987.942296
748.235720	2997.636435
748.564365	2997.817917
748.892963	2991.592092
749.221514	2992.197030
749.550017	2987.561689
749.878473	2984.237048
750.206881	2969.685758
750.535242	2969.380768
750.863555	2961.698049
751.191821	2952.097172
751.520039	2951.590536
751.848210	2944.845472
752.176334	2943.741459
752.504411	2939.504369
752.832440	2930.639500
753.160421	2930.979778
753.488356	2926.062133
753.816243	2925.399221
754.144082	2919.894281
754.471875	2912.645102
754.799620	2909.900193
755.127318	2902.741755
755.454969	2905.337949
755.782572	2901.461302
756.110129	2897.962741
756.437638	2897.388050
756.765100	2895.439644
757.092515	2894.207082
757.419882	2892.203223
757.747203	2890.373284
758.074477	2892.941752
758.401703	2888.757594
758.728882	2895.658934
759.056014	2891.545352
759.383099	2898.746641
759.710138	2900.541291
760.037129	2902.565315
760.364073	2904.538926
760.690970	2903.807959
761.017820	2900.652197
761.344623	2903.664286
761.671379	2908.753331
761.998088	2911.616706
762.324751	2945.538631
762.651366	3024.175589
762.977935	3137.034421
763.304456	3225.511712
763.630931	3270.922426
763.957359	3244.947881
764.283740	3188.902853
764.610074	3131.174080
764.936362	3067.708473
765.262602	3014.524300
765.588796	2961.902216
765.914943	2920.625248
766.241044	2887.709034
766.567097	2859.944879
766.893104	2837.662979
767.219064	2825.496155
767.544978	2808.991417
767.870845	2798.379788
768.196665	2791.284364
768.522438	2780.788682
768.848165	2776.450769
769.173846	2770.421549
769.499479	2763.603388
769.825066	2759.341093
770.150607	2750.541759
770.476101	2745.475399
770.801548	2742.188567
771.126949	2736.265211
771.452303	2733.908472
771.777611	2726.475290
772.102872	2720.849362
772.428087	2718.966492
772.753256	2717.136553
773.078378	2713.388455
773.403453	2708.521221
773.728482	2703.807742
774.053465	2702.260108
774.378401	2699.104345
774.703291	2696.692153
775.028135	2691.192254
775.352932	2691.061184
775.677683	2688.757377
776.002388	2686.491378
776.327046	2685.314269
776.651658	2680.764628
776.976224	2676.555264
777.300743	2680.106757
777.625216	2676.777075
777.949643	2673.976714
778.274024	2674.926972
778.598359	2665.235353
778.922647	2668.615447
779.246889	2665.595796
779.571086	2664.537153
779.895236	2666.682164
780.219339	2668.943122
780.543397	2668.807011
780.867409	2669.855571
781.191374	2668.381033
781.515294	2667.269459
781.839167	2667.352638
782.162995	2667.655107
782.486776	2664.670744
782.810511	2663.750733
783.134201	2662.508089
783.457844	2663.609581
783.781441	2662.664365
784.104993	2657.938283
784.428498	2656.814106
784.751958	2654.132212
785.075372	2655.248827
785.398739	2653.071049
785.722061	2654.159938
786.045337	2653.600370
786.368568	2656.234373
786.691752	2653.746564
787.014891	2659.206133
787.337983	2663.130672
787.661030	2676.525017
787.984031	2686.982891
788.306987	2690.834332
788.629897	2695.822554
788.952760	2691.787111
789.275579	2686.662778
789.598351	2682.254289
789.921078	2674.092661
790.243759	2669.119562
790.566395	2662.341731
790.888984	2655.939466
791.211529	2653.534835
791.534027	2648.929741
791.856480	2641.844399
792.178888	2645.186684
792.501249	2641.375572
792.823566	2641.577218
793.145836	2638.817187
793.468062	2636.601599
793.790241	2636.704943
794.112375	2636.402474
794.434464	2636.765437
794.756507	2638.602937
795.078505	2641.297434
795.400457	2639.621251
795.722364	2645.920172
796.044226	2651.561223
796.366042	2657.960968
796.687812	2654.038951
797.009538	2655.452994
797.331218	2656.239414
797.652852	2651.490647
797.974442	2652.992911
798.295986	2647.611479
798.617484	2647.893784
798.938938	2640.551343
799.260346	2641.705768
799.581709	2639.863226
799.903026	2636.422638
800.224299	2636.944398
800.545526	2634.678399
800.866708	2631.918367
801.187845	2629.153295
801.508936	2626.594909
801.829983	2628.818058
802.150984	2626.975516
802.471940	2626.181534
802.792851	2624.316307
803.113717	2624.409569
803.434538	2624.268417
803.755314	2622.834208
804.076045	2622.826647
804.396731	2623.252624
804.717372	2622.738426
805.037967	2621.354630
805.358518	2622.506533
805.679024	2624.941411
805.999485	2623.708848
806.319901	2623.872686
806.640272	2626.194137
806.960598	2623.991153
807.280879	2623.943262
807.601115	2628.056844
807.921306	2625.904271
808.241453	2624.805299
808.561554	2623.655916
808.881611	2623.860083
809.201623	2621.047119
809.521590	2621.974692
809.841513	2620.638786
810.161390	2621.470576
810.481223	2621.926801
810.801011	2620.250617
811.120755	2618.153497
811.440453	2619.179372
811.760107	2618.052674
812.079716	2614.206273
812.399281	2611.060593
812.718801	2613.762652
813.038276	2608.887856
813.357707	2613.520677
813.677093	2614.733074
813.996434	2609.155037
814.315731	2612.628392
814.634983	2609.414657
814.954191	2611.345419
815.273354	2612.794750
815.592473	2611.468927
815.911547	2613.820625
816.230577	2613.427415
816.549562	2616.971346
816.868502	2617.230966
817.187399	2619.716255
817.506250	2619.859927
817.825058	2619.983436
818.143821	2621.959568
818.462539	2623.865124
818.781213	2626.219343
819.099843	2630.161525
819.418429	2638.663431
819.736970	2647.377066
820.055466	2658.694456
820.373919	2668.675941
820.692327	2687.663447
821.010691	2715.372149
821.329011	2798.450364
821.647286	2970.383957
821.965517	3195.867207
822.283704	3363.558669
822.601847	3432.529216
822.919945	3352.458048
823.237999	3252.968357
823.556010	3158.234994
823.873976	3074.486305
824.191897	2996.429079
824.509775	2940.444545
824.827609	2874.516335
825.145398	2829.866835
825.463144	2801.250725
825.780845	2789.628345
826.098502	2794.291412
826.416116	2818.340237
826.733685	2852.879702
827.051210	2870.871580
827.368692	2858.689632
827.686129	2828.220898
828.003522	2791.564148
828.320872	2753.326996
828.638177	2729.973851
828.955439	2706.023329
829.272656	2688.422140
829.589830	2671.541837
829.906960	2659.538849
830.224046	2647.717344
830.541088	2636.659573
830.858086	2629.997688
831.175041	2628.906278
831.491952	2621.916718
831.808819	2620.686677
832.125642	2619.784310
832.442421	2624.341513
832.759157	2639.149903
833.075849	2660.196720
833.392497	2686.461132
833.709101	2709.836962
834.025662	2713.370811
834.342179	2706.262784
834.658653	2690.335258
834.975083	2674.942095
835.291469	2661.424241
835.607811	2650.416882
835.924110	2639.893473
836.240366	2633.150930
836.556578	2625.538787
836.872746	2618.093003
837.188871	2610.508587
837.504952	2605.890890
837.820990	2602.667072
838.136984	2598.646752
838.452935	2598.853439
838.768842	2597.383943
839.084706	2600.088522
839.400526	2608.040942
839.716303	2619.824639
840.032037	2634.247381
840.347727	2633.602113
840.663373	2629.208747
840.978977	2616.353805
841.294537	2615.330451
841.610054	2610.095212
841.925527	2602.974583
842.240957	2601.041300
842.556344	2600.058275
842.871687	2594.195413
843.186987	2593.378746
843.502244	2589.610484
843.817458	2585.791810
844.132629	2584.218970
844.447756	2584.213929
844.762840	2579.669328
845.077881	2577.496591
845.392879	2578.131777
845.707833	2581.484144
846.022745	2579.669328
846.337613	2580.357446
846.652438	2582.731829
846.967221	2580.889288
847.281960	2577.428536
847.596656	2581.526994
847.911309	2580.881726
848.225919	2578.658577
848.540485	2575.659091
848.855009	2578.938361
849.169490	2577.796540
849.483928	2578.686303
849.798323	2577.297466
850.112675	2579.240830
850.426984	2578.708989
850.741251	2578.625810
851.055474	2580.501119
851.369654	2579.792837
851.683792	2577.463824
851.997887	2577.549523
852.311938	2576.188412
852.625947	2580.163362
852.939914	2575.601117
853.253837	2578.502301
853.567718	2576.536251
853.881555	2577.264698
854.195350	2578.177147
854.509103	2580.697724
854.822812	2576.490881
855.136479	2579.266036
855.450103	2578.177147
855.763685	2575.054152
856.077224	2576.926941
856.390720	2575.880901
856.704173	2577.478947
857.017584	2577.398289
857.330953	2576.349729
857.644278	2581.279977
857.957561	2577.879719
858.270802	2580.269226
858.584000	2578.008268
858.897155	2579.550861
859.210268	2578.504822
859.523339	2578.255285
859.836367	2577.408371
860.149352	2577.204204
860.462295	2580.538928
860.775195	2573.851837
861.088054	2574.106415
861.400869	2573.249419
861.713642	2573.062896
862.026373	2575.787640
862.339062	2577.859554
862.651708	2578.061200
862.964312	2576.004410
863.276873	2575.321333
863.589392	2580.002045
863.901869	2576.354770
864.214303	2577.415933
864.526696	2579.976839
864.839045	2580.392734
865.151353	2579.858372
865.463619	2581.106057
865.775842	2580.468351
866.088023	2581.121181
866.400162	2583.067066
866.712258	2580.733012
867.024313	2581.176633
867.336325	2579.356777
867.648296	2581.784092
867.960224	2579.233269
868.272110	2581.055646
868.583954	2578.280491
868.895755	2579.137487
869.207515	2577.040367
869.519233	2581.411047
869.830909	2579.709658
870.142542	2579.152610
870.454134	2580.848958
870.765684	2579.903742
871.077191	2583.175451
871.388657	2582.179823
871.700081	2582.416757
872.011463	2584.052612
872.322803	2586.137129
872.634101	2583.702252
872.945357	2582.953640
873.256571	2588.410689
873.567744	2580.836356
873.878874	2586.293405
874.189963	2583.651840
874.501010	2585.121336
874.812015	2585.907756
875.122979	2584.518918
875.433900	2584.034968
875.744780	2584.705441
876.055618	2585.333065
876.366415	2585.209557
876.677169	2583.674525
876.987882	2581.080852
877.298554	2581.400965
877.609183	2582.247879
877.919771	2584.196285
878.230317	2582.991449
878.540822	2590.822881
878.851285	2591.334558
879.161707	2593.366143
879.472087	2601.179932
879.782425	2605.268308
880.092722	2616.953702
880.402977	2645.489154
880.713191	2681.180523
881.023363	2726.261041
881.333494	2764.563728
881.643583	2779.886315
881.953631	2776.607045
882.263637	2765.569438
882.573602	2752.860689
882.883526	2741.044225
883.193408	2726.659292
883.503248	2713.418702
883.813048	2700.725076
884.122806	2689.286698
884.432522	2676.328412
884.742197	2663.826351
885.051831	2650.595842
885.361424	2638.575211
885.670975	2631.144550
885.980485	2623.471914
886.289954	2615.302724
886.599382	2611.363063
886.908768	2606.957094
887.218113	2600.254880
887.527417	2599.962493
887.836680	2595.745568
888.145901	2591.155597
888.455082	2592.695670
888.764221	2589.181986
889.073319	2588.428333
889.382376	2588.778693
889.691392	2586.300966
890.000366	2587.052098
890.309300	2590.038982
890.618193	2587.256265
890.927044	2584.052612
891.235855	2585.292736
891.544625	2587.067222
891.853353	2584.276943
892.162041	2585.930442
892.470687	2590.341451
892.779293	2592.809096
893.087858	2587.848601
893.396381	2593.119127
893.704864	2598.603902
894.013306	2604.033225
894.321707	2618.942438
894.630068	2623.638272
894.938387	2626.289919
895.246665	2628.147584
895.554903	2624.137347
895.863100	2620.653909
896.171256	2618.365225
896.479371	2615.206942
896.787446	2610.959770
897.095480	2607.551950
897.403473	2605.906014
897.711425	2601.285796
898.019336	2598.838316
898.327207	2596.282451
898.635038	2596.902513
898.942827	2591.367326
899.250576	2591.200968
899.558284	2590.429671
899.865952	2591.059816
900.173579	2587.377253
900.481165	2587.793148
900.788711	2586.149732
901.096216	2582.540266
901.403681	2583.893815
901.711105	2581.690831
902.018489	2583.097313
902.325832	2584.473548
902.633135	2583.122519
902.940397	2584.007241
903.247619	2588.740885
903.554800	2595.443099
903.861941	2613.319030
904.169041	2625.316977
904.476101	2635.389202
904.783121	2635.860550
905.090100	2631.739407
905.397039	2626.363016
905.703938	2621.415123
906.010796	2618.380349
906.317614	2611.983125
906.624391	2609.089502
906.931129	2606.420211
907.237826	2600.312853
907.544483	2596.113572
907.851099	2592.854466
908.157675	2589.406317
908.464211	2585.075966
908.770707	2582.666294
909.077163	2580.178485
909.383578	2576.584142
909.689954	2575.069276
909.996289	2571.968966
910.302584	2578.509863
910.608839	2577.937692
910.915054	2576.001889
911.221229	2578.005748
911.527363	2577.242013
911.833458	2575.591035
912.139513	2576.979873
912.445527	2574.378637
912.751502	2577.360480
913.057436	2578.189750
913.363331	2577.859554
913.669186	2581.229566
913.975000	2582.023547
914.280775	2584.649988
914.586510	2587.220977
914.892205	2595.264138
915.197859	2600.219592
915.503475	2608.474482
915.809050	2620.122067
916.114585	2624.417131
916.420081	2630.171608
916.725536	2629.927112
917.030952	2630.433748
917.336328	2628.916360
917.641665	2627.368726
917.946961	2621.163066
918.252218	2615.935389
918.557435	2615.111161
918.862612	2611.884822
919.167750	2609.220572
919.472848	2606.427773
919.777906	2600.464088
920.082925	2598.823192
920.387904	2593.570310
920.692843	2589.744074
920.997743	2590.568303
921.302603	2585.837180
921.607423	2583.871130
921.912204	2582.883064
922.216946	2581.176633
922.521647	2580.990111
922.826310	2578.686303
923.130932	2578.696386
923.435516	2577.547003
923.740059	2576.773186
924.044564	2576.952147
924.349028	2575.311251
924.653454	2570.812021
924.957840	2571.729511
925.262186	2570.728842
925.566493	2571.580797
925.870761	2568.145251
926.174989	2572.150447
926.479178	2572.432752
926.783328	2574.817218
927.087438	2574.333267
927.391509	2570.048286
927.695541	2569.629871
927.999533	2567.499983
928.303486	2567.389078
928.607400	2570.244891
928.911275	2567.326063
929.215110	2568.883780
929.518906	2567.552915
929.822663	2569.844120
930.126381	2571.225396
930.430060	2571.399316
930.733699	2569.087947
931.037299	2570.416291
931.340861	2566.711043
931.644383	2571.351425
931.947866	2567.691547
932.251309	2570.839747
932.554714	2570.791857
932.858080	2568.165415
933.161407	2567.172308
933.464694	2570.128945
933.767943	2569.587021
934.071153	2569.002247
934.374323	2569.032494
934.677455	2570.345714
934.980548	2570.471743
935.283602	2567.716753
935.586617	2568.364541
935.889593	2568.702298
936.192530	2568.160374
936.495428	2569.468554
936.798287	2569.695406
937.101108	2568.256156
937.403890	2569.995354
937.706632	2569.266908
938.009336	2570.247412
938.312002	2569.350087
938.614628	2572.019378
938.917216	2571.038873
939.219765	2572.092474
939.522275	2574.487022
939.824747	2575.568350
940.127179	2569.171126
940.429573	2570.272618
940.731929	2570.862433
941.034246	2568.248594
941.336524	2570.950653
941.638763	2571.288410
941.940964	2572.964594
942.243126	2571.129614
942.545250	2574.113977
942.847335	2572.369738
943.149381	2570.917885
943.451389	2569.420663
943.753359	2570.454099
944.055290	2570.552402
944.357182	2571.169943
944.659036	2570.277659
944.960851	2570.882597
945.262628	2568.876218
945.564367	2568.785477
945.866067	2569.723132
946.167729	2570.789336
946.469352	2571.308575
946.770937	2568.409911
947.072484	2570.121383
947.373992	2568.379664
947.675462	2571.038873
947.976893	2570.582649
948.278286	2566.524520
948.579641	2568.873697
948.880958	2570.678431
949.182236	2568.924109
949.483476	2568.588872
949.784678	2569.486198
950.085841	2570.126424
950.386967	2569.899572
950.688054	2570.280179
950.989103	2570.781774
951.290114	2567.656259
951.591087	2568.863615
951.892021	2569.390416
952.192917	2567.177349
952.493776	2569.677762
952.794596	2571.348904
953.095378	2568.893862
953.396122	2570.925447
953.696828	2572.710016
953.997496	2569.022412
954.298126	2571.207752
954.598718	2570.033163
954.899272	2570.388564
955.199788	2569.937381
955.500266	2570.847309
955.800706	2565.120558
956.101108	2563.746844
956.401472	2565.304561
956.701798	2564.961762
957.002087	2563.996381
957.302337	2566.085939
957.602550	2568.412432
957.902724	2567.530230
958.202861	2565.075188
958.502960	2567.701629
958.803022	2564.490414
959.103045	2564.119889
959.403031	2567.699109
959.702979	2565.420507
960.002889	2563.293140
960.302762	2567.021073
960.602596	2564.830692
960.902393	2564.253480
961.202153	2563.325908
961.501875	2565.044941
961.801559	2564.838254
962.101205	2564.024108
962.400814	2562.504200
962.700385	2563.401525
962.999918	2563.661144
963.299414	2564.003943
963.598873	2563.998902
963.898293	2563.774570
964.197677	2564.008984
964.497022	2565.241546
964.796331	2563.227605
965.095601	2563.356155
965.394835	2565.589386
965.694030	2562.632749
965.993189	2562.748696
966.292309	2563.797256
966.591393	2564.228274
966.890439	2563.756926
967.189447	2562.504200
967.488419	2559.179559
967.787353	2563.335990
968.086249	2562.789025
968.385108	2563.613253
968.683930	2564.145095
968.982714	2561.707697
969.281462	2564.238357
969.580172	2561.269117
969.878844	2563.162070
970.177480	2561.332131
970.476078	2561.382543
970.774639	2565.060065
971.073162	2565.354972
971.371649	2559.189641
971.670098	2559.905485
971.968510	2562.116031
972.266885	2558.461194
972.565223	2564.371947
972.863524	2563.716597
973.161788	2564.200548
973.460014	2564.908830
973.758204	2564.674416
974.056356	2561.891699
974.354471	2563.746844
974.652550	2561.296843
974.950591	2562.395815
975.248595	2562.582337
975.546563	2561.473284
975.844493	2564.934036
976.142386	2562.778943
976.440243	2563.197358
976.738062	2564.497976
977.035845	2564.296330
977.333590	2563.772050
977.631299	2560.497820
977.928971	2566.128789
978.226606	2563.646021
978.524204	2564.518141
978.821765	2562.778942
979.119290	2562.136195
979.416777	2561.856411
979.714228	2561.251473
980.011642	2564.931515
980.309020	2564.056875
980.606360	2561.763150
980.903664	2561.180897
981.200931	2564.520661
981.498162	2565.160888
981.795356	2565.458316
982.092513	2565.836402
982.389633	2563.998902
982.686717	2567.283213
982.983764	2567.994016
983.280775	2571.545509
983.577749	2566.597617
983.874686	2569.581980
984.171587	2569.816393
984.468451	2570.713719
984.765279	2569.733214
985.062070	2567.421845
985.358824	2565.924623
985.655543	2566.569890
985.952224	2566.138872
986.248869	2561.380022
986.545478	2561.705177
986.842050	2561.201061
987.138586	2560.117213
987.435086	2559.877758
987.731549	2556.384239
988.027975	2560.926318
988.324366	2562.284909
988.620719	2563.255332
988.917037	2559.482028
989.213318	2560.734755
989.509563	2559.025803
989.805772	2560.659137
990.101944	2561.410269
990.398080	2557.866338
990.694180	2559.605536
990.990244	2560.495300
991.286271	2561.939590
991.582262	2558.289795
991.878217	2562.589899
992.174136	2558.342727
992.470019	2559.522357
992.765865	2562.199210
993.061676	2557.785680
993.357450	2561.654765
993.653188	2562.405897
993.948890	2558.937583
994.244556	2559.371123
994.540186	2562.975547
994.835780	2558.902295
995.131337	2562.665517
995.426859	2561.972358
995.722345	2559.824826
996.017795	2562.978068
996.313208	2565.244067
996.608586	2563.078891
996.903928	2567.101732
997.199234	2562.978068
997.494504	2564.765157
997.789738	2562.872204
998.084936	2562.912533
998.380099	2562.794066
998.675225	2563.746844
998.970316	2563.807338
999.265371	2561.337173
999.560390	2561.029662
999.855373	2562.635270
1000.150320	2561.374981
1000.445232	2561.059909
1000.740108	2560.598643
1001.034948	2561.117882
1001.329752	2559.514795
1001.624521	2561.785835
1001.919254	2555.859959
1002.213951	2557.155535
1002.508613	2558.309960
1002.803239	2559.237532
1003.097829	2552.621018
1003.392384	2558.935063
1003.686903	2557.092521
1003.981386	2559.023283
1004.275834	2559.051009
1004.570246	2560.608726
1004.864623	2559.978582
1005.158964	2558.947666
1005.453270	2560.384394
1005.747540	2560.391956
1006.041775	2555.562531
1006.335974	2559.245094
1006.630138	2559.436658
1006.924266	2559.227450
1007.218359	2558.430947
1007.512416	2557.987326
1007.806438	2557.778118
1008.100425	2560.011349
1008.394376	2557.079918
1008.688292	2557.805844
1008.982172	2556.875751
1009.276017	2556.772408
1009.569827	2560.414641
1009.863602	2560.482697
1010.157341	2557.158056
1010.451045	2558.940104
1010.744714	2560.155022
1011.038347	2557.954558
1011.331945	2557.979764
1011.625508	2556.684188
1011.919036	2558.796431
1012.212528	2557.760474
1012.505986	2557.415155
1012.799408	2559.066133
1013.092795	2560.207954
1013.386147	2556.787531
1013.679464	2555.983467
1013.972745	2558.090669
1014.265992	2558.196534
1014.559204	2554.032541
1014.852380	2556.636297
1015.145521	2558.635114
1015.438628	2556.142263
1015.731699	2557.316852
1016.024736	2556.028837
1016.317737	2559.371122
1016.610703	2559.224929
1016.903635	2552.106820
1017.196531	2555.421378
1017.489393	2554.050185
1017.782219	2551.073383
1018.075011	2552.797458
1018.367768	2554.574465
1018.660490	2556.633776
1018.953177	2556.633776
1019.245829	2556.633776
