Dividing Wavelength (nm)	Counts (n)	Blue Motor Position (mm): 0.000000	Red Motor Position (mm): 49.700000	
326.493990	2128.259207
326.888308	2128.259207
327.282561	2128.259207
327.676750	2093.195462
328.070874	2092.187231
328.464933	2097.170412
328.858929	2103.408839
329.252859	2113.965016
329.646726	2123.739813
330.040528	2137.076185
330.434265	2152.466828
330.827938	2170.158758
331.221547	2189.768846
331.615091	2207.528831
332.008571	2226.891903
332.401986	2246.181878
332.795338	2268.675507
333.188625	2287.037909
333.581847	2306.017854
333.975006	2321.325317
334.368100	2340.872391
334.761129	2357.853518
335.154095	2374.454038
335.546996	2395.657131
335.939833	2424.757191
336.332606	2437.838986
336.725315	2450.136880
337.117960	2462.175156
337.510540	2468.340487
337.903056	2480.822384
338.295508	2489.374701
338.687896	2494.007522
339.080220	2502.148985
339.472480	2510.091323
339.864676	2517.025430
340.256807	2521.295287
340.648875	2521.625483
341.040879	2525.000536
341.432818	2525.116482
341.824694	2526.454908
342.216506	2529.219981
342.608253	2524.609846
342.999937	2528.461288
343.391557	2528.090763
343.783113	2524.856863
344.174605	2525.378622
344.566033	2523.452901
344.957397	2522.308559
345.348697	2520.350071
345.739934	2519.777900
346.131106	2515.881088
346.522215	2515.853362
346.913260	2513.597446
347.304241	2513.239524
347.695159	2510.960922
348.086012	2506.413801
348.476802	2508.422701
348.867528	2507.046466
349.258191	2504.697288
349.648789	2505.418173
350.039324	2500.195538
350.429796	2499.172184
350.820203	2498.985661
351.210548	2499.083964
351.600828	2496.908706
351.991045	2496.611278
352.381198	2494.670433
352.771288	2496.659169
353.161314	2495.824858
353.551276	2496.160094
353.941175	2495.040958
354.331010	2497.916937
354.720782	2494.811586
355.110490	2499.131855
355.500135	2493.677326
355.889717	2495.885352
356.279235	2497.218737
356.668689	2499.882987
357.058080	2496.608757
357.447408	2492.782521
357.836672	2494.884683
358.225873	2495.668582
358.615010	2496.949035
359.004084	2496.228150
359.393095	2500.215703
359.782043	2501.962463
360.170927	2499.172184
360.559748	2504.228461
360.948505	2504.099912
361.337199	2504.598986
361.725830	2505.811383
362.114398	2503.757113
362.502903	2505.186280
362.891344	2504.409943
363.279722	2506.398678
363.668037	2505.148472
364.056289	2507.091837
364.444478	2507.777433
364.832603	2510.330778
365.220665	2509.355315
365.608665	2510.613083
365.996601	2512.319513
366.384474	2510.088803
366.772284	2514.711541
367.160031	2511.782630
367.547715	2518.154649
367.935336	2518.409227
368.322893	2522.918539
368.710388	2522.633714
369.097820	2532.191742
369.485189	2536.078471
369.872495	2541.666590
370.259738	2546.861499
370.646918	2554.332489
371.034035	2562.768860
371.421090	2571.311095
371.808081	2583.782910
372.195010	2592.002511
372.581875	2603.821497
372.968678	2618.191306
373.355418	2626.904940
373.742096	2645.688279
374.128710	2660.385763
374.515262	2675.347908
374.901751	2688.863241
375.288177	2702.950746
375.674540	2725.719117
376.060841	2743.844586
376.447079	2765.327463
376.833254	2785.429064
377.219367	2794.611526
377.605417	2833.496466
377.991404	2844.161027
378.377329	2868.741693
378.763191	2882.425905
379.148991	2919.937131
379.534727	2944.905966
379.920402	2973.610296
380.306013	2982.724702
380.691563	3034.799821
381.077049	3057.076680
381.462474	3073.760379
381.847835	3115.733026
382.233134	3138.062817
382.618371	3137.599030
383.003545	3205.037066
383.388657	3210.501677
383.773706	3246.177922
384.158693	3260.532608
384.543618	3288.095117
384.928480	3323.715910
385.313280	3367.836088
385.698017	3365.013042
386.082692	3417.511618
386.467305	3423.344233
386.851856	3457.414872
387.236344	3479.137203
387.620770	3515.511649
388.005133	3538.695916
388.389435	3566.016449
388.773674	3580.227462
389.157851	3617.637864
389.541965	3632.973054
389.926018	3598.262189
390.310008	3671.827747
390.693936	3687.967002
391.077802	3730.466449
391.461606	3718.218966
391.845348	3782.496198
392.229027	3779.526958
392.612645	3796.016573
392.996200	3874.257801
393.379694	3915.892690
393.763125	3978.133296
394.146494	3944.894448
394.529801	4006.769571
394.913047	4054.700862
395.296230	4018.523021
395.679351	4075.629212
396.062410	4101.457563
396.445408	4080.655242
396.828343	4113.279069
397.211217	4136.198675
397.594028	4056.946696
397.976778	4122.756438
398.359466	4152.249709
398.742092	4179.653421
399.124656	4097.464970
399.507158	4179.217362
399.889598	4205.847257
400.271977	4268.821351
400.654294	4241.909151
401.036549	4252.422477
401.418742	4217.179771
401.800874	4320.301614
402.182944	4344.047969
402.564952	4404.652720
402.946898	4393.567223
403.328783	4390.610586
403.710606	4300.525167
404.092367	4493.803006
404.474067	4460.478458
404.855705	4469.189572
405.237282	4396.488572
405.618797	4503.698791
406.000250	4538.117268
406.381642	4616.547540
406.762972	4580.347014
407.144240	4593.690948
407.525447	4592.465948
407.906593	4652.644722
408.287677	4695.895302
408.668700	4621.384527
409.049661	4675.297147
409.430560	4717.451275
409.811399	4640.382115
410.192176	4805.336231
410.572891	4743.677878
410.953545	4846.184701
411.334138	4725.317996
411.714669	4794.286022
412.095139	4686.375082
412.475547	4830.809181
412.855894	4808.416376
413.236180	4819.552285
413.616405	4773.599647
413.996568	4862.618862
414.376670	4806.659534
414.756711	4759.950723
415.136691	4788.357625
415.516609	4871.801324
415.896466	4903.111930
416.276262	4938.074853
416.655997	4922.974077
417.035670	5105.673054
417.415283	5192.769069
417.794834	5139.451305
418.174324	5089.112863
418.553753	4995.846476
418.933121	5182.177604
419.312428	5249.865177
419.691674	5191.924675
420.070859	5311.984795
420.449983	5229.808947
420.829045	5345.427810
421.208047	5253.633440
421.586988	5319.032328
421.965867	5327.619934
422.344686	5465.261078
422.723444	5315.334642
423.102141	5138.274196
423.480777	5435.397283
423.859352	5210.571903
424.237866	5464.517508
424.616319	5453.399243
424.994712	5567.117592
425.373044	5443.989929
425.751314	5589.076858
426.129524	5391.624944
426.507673	5581.913378
426.885762	5664.109392
427.263789	5601.178147
427.641756	5477.193489
428.019662	5601.425164
428.397508	5605.498416
428.775292	5557.849430
429.153016	5656.739225
429.530679	5579.801135
429.908282	5666.635010
430.285824	5540.170104
430.663305	5809.289581
431.040726	5542.806627
431.418086	5543.701432
431.795385	5656.225027
432.172624	5663.552344
432.549802	5656.527496
432.926920	5666.549310
433.303977	5685.065468
433.680974	5719.652825
434.057910	5736.238221
434.434786	5737.039764
434.811601	5707.985074
435.188355	5943.379232
435.565050	5813.622453
435.941683	5800.578467
436.318257	6017.839595
436.694770	5997.233879
437.071222	6037.747112
437.447614	5964.796574
437.823946	5876.445312
438.200218	6030.104723
438.576429	5898.102109
438.952580	5994.637685
439.328670	6039.420775
439.704700	5946.860149
440.080670	5934.784065
440.456580	6204.022010
440.832429	6087.152940
441.208218	5931.008241
441.583947	6086.510193
441.959616	6089.265183
442.335224	6015.603843
442.710773	6156.620040
443.086261	6183.365882
443.461689	5975.521629
443.837057	6128.598786
444.212365	6283.185769
444.587612	6175.436147
444.962800	6326.091029
445.337927	6308.512526
445.712995	5915.728503
446.088002	6496.376165
446.462949	6326.612789
446.837837	6258.622747
447.212664	6433.810405
447.587431	6569.077165
447.962139	7117.060671
448.336786	8043.241620
448.711374	7778.265971
449.085901	6852.347162
449.460369	6777.841428
449.834776	6711.845163
450.209124	7104.513239
450.583412	7253.827175
450.957640	7402.009371
451.331808	7167.323495
451.705917	6718.496965
452.079965	6641.369832
452.453954	6854.915630
452.827883	6733.007927
453.201752	6821.739796
453.575562	6618.041893
453.949311	6825.845816
454.323001	6715.920936
454.696632	6790.542616
455.070202	6929.076044
455.443713	7084.348623
455.817164	7182.686412
456.190556	7263.435614
456.563888	7338.833631
456.937160	7383.044551
457.310373	7037.357508
457.683526	7064.163843
458.056619	6957.306505
458.429653	6943.617252
458.802628	6875.181068
459.175542	6983.757440
459.548398	7343.526946
459.921194	7507.427460
460.293930	7503.727253
460.666607	8041.131897
461.039224	8345.688166
461.411782	8474.353535
461.784280	8488.919949
462.156719	8375.826704
462.529099	8261.397553
462.901419	7849.830191
463.273680	7735.295176
463.645882	7753.516426
464.018024	7619.943493
464.390106	7791.289792
464.762130	8175.428236
465.134094	8640.615830
465.505999	9661.273044
465.877845	10892.952957
466.249631	11547.360261
466.621358	11155.095478
466.993026	10523.484271
467.364634	10267.247462
467.736184	9902.701463
468.107674	9568.709897
468.479105	9600.126368
468.850477	9374.943067
469.221790	9136.942632
469.593043	8812.176378
469.964238	8671.477774
470.335373	8682.462448
470.706449	8741.504442
471.077467	8728.815858
471.448425	10034.273058
471.819324	11115.124169
472.190164	11134.351130
472.560945	9885.755624
472.931667	9091.133667
473.302330	8963.539543
473.672934	8599.555632
474.043479	8967.022980
474.413965	8903.237260
474.784393	8783.875340
475.154761	8942.328888
475.525070	9028.411631
475.895321	8856.954427
476.265513	9037.876397
476.635645	9200.811531
477.005719	9202.384371
477.375734	9311.689189
477.745691	9555.807064
478.115588	9686.710706
478.485427	9931.148694
478.855207	10467.230035
479.224928	11279.889241
479.594591	11915.155284
479.964194	11722.444576
480.333739	11666.240751
480.703226	11583.170098
481.072653	11668.736123
481.442022	11903.858058
481.811333	12097.927358
482.180584	11904.662123
482.549777	11618.589245
482.918912	11435.146697
483.287988	11460.929679
483.657005	11464.947478
484.025964	11159.665284
484.394864	11290.503391
484.763706	11262.237641
485.132489	11006.512509
485.501213	10976.429424
485.869879	11041.722448
486.238487	10885.270239
486.607036	11000.616880
486.975527	10779.108580
487.343959	10974.418003
487.712333	11015.349652
488.080648	10950.694333
488.448905	10992.793009
488.817104	10939.480287
489.185244	11190.353308
489.553326	11350.730056
489.921350	11882.670089
490.289315	12957.045838
490.657222	13292.464050
491.025070	13201.390565
491.392861	13078.663674
491.760593	12697.091178
492.128267	12357.831606
492.495883	12018.861901
492.863440	11685.702126
493.230939	11347.367606
493.598380	11278.961669
493.965763	11148.184056
494.333088	11051.739221
494.700354	10970.901798
495.067563	11032.736592
495.434713	10868.450429
495.801805	10987.635909
496.168839	10918.478840
496.535815	10851.033242
496.902733	10845.971924
497.269593	10780.696543
497.636395	10884.072965
498.003139	10873.955369
498.369825	10734.602753
498.736453	10893.482278
499.103023	10818.663993
499.469535	10843.229536
499.835989	10840.348517
500.202385	10799.409306
500.568723	10653.263736
500.935003	10872.062416
501.301226	10677.904896
501.667390	10935.775038
502.033497	11035.337827
502.399546	10893.333564
502.765537	10803.863166
503.131470	10874.479649
503.497345	11050.121011
503.863163	10660.948975
504.228923	10973.437499
504.594625	11033.215501
504.960269	10786.030084
505.325856	11003.969247
505.691385	10795.837649
506.056856	10953.535023
506.422270	10975.794238
506.787625	10866.300377
507.152924	10991.202525
507.518164	10966.712600
507.883347	10889.134283
508.248472	10803.356530
508.613540	11032.666015
508.978550	10923.464541
509.343503	10896.254913
509.708398	11015.480722
510.073236	11123.530293
510.438016	11136.735595
510.802738	11076.418190
511.167403	11135.238373
511.532010	11031.463700
511.896561	11254.423853
512.261053	11334.071563
512.625488	11204.158507
512.989866	11180.628922
513.354186	11174.561893
513.718449	11073.665720
514.082655	11268.488672
514.446803	11162.969760
514.810894	11287.418204
515.174927	11156.290231
515.538904	11179.799652
515.902822	11328.654843
516.266684	11219.231557
516.630488	11158.906590
516.994235	11210.583458
517.357925	11277.257759
517.721558	11364.000893
518.085133	11381.072761
518.448651	11393.942826
518.812112	11274.893458
519.175516	11293.029009
519.538863	11411.445713
519.902152	11329.713485
520.265385	11485.623771
520.628560	11391.107177
520.991678	11378.925229
521.354739	11436.066708
521.717743	11368.127078
522.080690	11352.055879
522.443580	11485.782567
522.806413	11440.598705
523.169189	11471.400155
523.531908	11525.088444
523.894569	11348.267452
524.257174	11351.844151
524.619722	11475.170938
524.982213	11425.308886
525.344647	11474.954169
525.707025	11420.214800
526.069345	11517.002433
526.431608	11433.863724
526.793815	11542.175435
527.155964	11332.312200
527.518057	11383.616023
527.880093	11328.780872
528.242072	11405.305587
528.603995	11303.716255
528.965860	11228.918135
529.327669	11279.790939
529.689421	11231.264792
530.051117	11206.676564
530.412755	11305.740278
530.774337	11195.671725
531.135862	11172.900833
531.497331	11200.692714
531.858743	11049.400126
532.220098	11217.434386
532.581396	11084.040414
532.942638	11070.023486
533.303824	11028.260047
533.664953	11049.122862
534.026025	10960.829573
534.387040	11057.922196
534.747999	11060.851107
535.108902	11119.235230
535.469748	10877.269928
535.830537	10984.223048
536.191270	10959.632299
536.551947	10983.396298
536.912567	10986.103398
537.273131	10906.964844
537.633638	10885.711340
537.994089	10875.422345
538.354483	10830.225880
538.714821	10969.644031
539.075103	10979.456637
539.435328	10941.874835
539.795497	10772.640779
540.155609	10931.485017
540.515665	11015.878973
540.875665	10747.498025
541.235609	10819.596607
541.595496	10814.310957
541.955328	10967.385594
542.315102	10854.375527
542.674821	10809.325256
543.034483	10804.692436
543.394090	10812.843981
543.753640	10744.299412
544.113134	10958.278749
544.472571	10812.085288
544.831953	10951.180805
545.191278	10759.180899
545.550548	10785.989755
545.909761	10931.779924
546.268918	10904.073743
546.628019	10987.126752
546.987064	10848.008550
547.346053	10771.299833
547.704986	10878.447037
548.063863	10859.169665
548.422684	10846.279434
548.781449	10762.941599
549.140158	10869.453618
549.498811	10745.080791
549.857408	10599.215005
550.215949	10830.843421
550.574434	10682.169712
550.932864	10776.328383
551.291237	10843.368168
551.649555	10783.058324
552.007817	10793.778338
552.366022	10762.109809
552.724173	10752.531617
553.082267	10739.187683
553.440305	10869.259534
553.798288	10672.523464
554.156215	10828.781589
554.514086	10803.021293
554.871902	10656.855558
555.229661	10693.391320
555.587365	10677.373054
555.945014	10563.732843
556.302606	10694.830570
556.660143	10583.592469
557.017625	10748.455844
557.375050	10637.240428
557.732421	10768.267578
558.089735	10680.869094
558.446994	10690.419560
558.804197	10722.042718
559.161345	10728.394572
559.518437	10580.383775
559.875474	10660.999386
560.232455	10693.144304
560.589381	10638.984667
560.946251	10643.448609
561.303065	10750.018602
561.659825	10684.922182
562.016528	10605.284554
562.373177	10486.832562
562.729770	10604.354461
563.086307	10522.959991
563.442789	10617.559764
563.799216	10484.992541
564.155587	10531.693790
564.511904	10487.525721
564.868164	10478.693619
565.224370	10499.049798
565.580520	10422.270505
565.936615	10422.978787
566.292654	10300.715683
566.648638	10434.097052
567.004567	10381.714422
567.360441	10372.156394
567.716260	10283.318661
568.072023	10371.944666
568.427732	10324.779631
568.783385	10228.644827
569.138982	10303.755498
569.494525	10320.323251
569.850013	10198.160969
570.205445	10275.860274
570.560823	10173.814717
570.916145	10088.470503
571.271412	10163.868520
571.626625	10109.925654
571.981782	10083.923382
572.336884	10060.759280
572.691931	10068.043748
573.046923	10011.018215
573.401860	9969.665630
573.756743	9900.569055
574.111570	9942.904665
574.466342	9926.042005
574.821059	9961.337644
575.175722	9846.293472
575.530330	9857.147076
575.884882	9842.086629
576.239380	9776.677658
576.593823	9761.304659
576.948211	9769.204148
577.302544	9651.596549
577.656823	9664.748919
578.011047	9666.586420
578.365216	9642.242688
578.719330	9567.187469
579.073389	9574.091329
579.427394	9520.120736
579.781344	9498.254731
580.135239	9446.232544
580.489080	9456.473648
580.842866	9353.729892
581.196597	9365.687508
581.550273	9404.743848
581.903895	9371.976348
582.257463	9442.376061
582.610975	9312.531062
582.964434	9343.443417
583.317837	9263.193289
583.671186	9245.629909
584.024481	9238.829393
584.377721	9161.440119
584.730906	9136.776274
585.084037	9165.437754
585.437113	9105.158157
585.790135	9121.352864
586.143103	9025.991877
586.496016	8998.580603
586.848874	9056.629490
587.201679	9044.999548
587.554428	8932.486035
587.907124	8972.210327
588.259765	8948.463972
588.612352	8949.540258
588.964884	8829.739758
589.317362	8842.186367
589.669786	8837.069596
590.022155	8885.147080
590.374470	8903.615347
590.726731	8845.798353
591.078937	8692.905198
591.431090	8809.880132
591.783188	8678.795009
592.135232	8673.010285
592.487222	8671.591200
592.839157	8728.820899
593.191038	8656.238366
593.542866	8607.132486
593.894639	8511.350563
594.246358	8554.210453
594.598022	8570.425325
594.949633	8467.578224
595.301190	8441.613762
595.652692	8467.202658
596.004141	8580.182478
596.355535	8354.825257
596.706876	8335.701640
597.058162	8273.551775
597.409395	8349.469031
597.760573	8410.076303
598.111698	8323.310484
598.462768	8305.409346
598.813785	8272.440200
599.164748	8237.028615
599.515657	8227.984785
599.866511	8141.531517
600.217312	8264.336545
600.568060	8121.876058
600.918753	8222.731903
601.269392	8194.398098
601.619978	8114.120243
601.970510	8172.300200
602.320988	8168.733583
602.671412	8233.404025
603.021783	8162.966503
603.372100	8134.889797
603.722363	8136.583625
604.072572	8115.173844
604.422728	8121.432437
604.772830	8055.327786
605.122878	8062.032521
605.472872	8055.529432
605.822813	8086.638393
606.172701	8029.388529
606.522534	8108.451466
606.872314	8110.175540
607.222041	8076.500633
607.571714	8130.660269
607.921333	8092.241635
608.270899	8099.246319
608.620411	8179.708175
608.969870	8087.187879
609.319276	8083.129750
609.668627	8103.604396
610.017926	8130.509034
610.367171	8180.345881
610.716362	8157.022983
611.065500	8151.190368
611.414585	8172.204418
611.763616	8165.043459
612.112594	8144.465469
612.461518	8157.199423
612.810389	8222.542859
613.159207	8159.979620
613.507971	8108.242258
613.856682	8223.248621
614.205340	8183.017693
614.553945	8257.546111
614.902496	8156.055081
615.250994	8218.681336
615.599439	8193.636883
615.947830	8204.971918
616.296169	8185.298815
616.644454	8198.461267
616.992686	8190.902057
617.340864	8251.544618
617.688990	8154.240266
618.037063	8244.129080
618.385082	8197.765588
618.733048	8275.106971
619.080961	8216.304432
619.428821	8235.294458
619.776628	8235.385199
620.124382	8194.014970
620.472083	8176.590222
620.819731	8202.136269
621.167326	8097.058458
621.514868	8107.118080
621.862357	7994.392839
622.209793	8014.244903
622.557176	7946.829553
622.904506	7911.463338
623.251783	7844.723502
623.599007	7801.984600
623.946179	7804.815208
624.293297	7760.347190
624.640363	7678.962802
624.987376	7661.691809
625.334336	7612.636341
625.681243	7558.537198
626.028097	7542.019858
626.374899	7522.329111
626.721647	7517.184613
627.068343	7446.280784
627.414987	7421.644666
627.761577	7377.000207
628.108115	7414.534118
628.454600	7307.482696
628.801032	7356.157557
629.147412	7318.842936
629.493739	7303.807694
629.840014	7235.127014
630.186236	7298.138917
630.532405	7180.264137
630.878521	7234.527117
631.224585	7189.439037
631.570597	7113.297449
631.916556	7145.575957
632.262462	7142.798282
632.608316	7103.061387
632.954117	7079.660350
633.299866	7065.371200
633.645562	7055.306536
633.991206	6975.928528
634.336797	6922.577997
634.682336	6878.359516
635.027823	6843.338620
635.373257	6837.669842
635.718639	6769.435304
636.063968	6782.418796
636.409245	6675.327044
636.754470	6671.301683
637.099642	6627.695702
637.444762	6574.095634
637.789829	6586.963179
638.134845	6530.290528
638.479808	6510.897209
638.824719	6517.987592
639.169577	6443.925480
639.514383	6464.780733
639.859137	6392.752727
640.203839	6404.334778
640.548489	6387.502366
640.893086	6370.601897
641.237632	6336.649726
641.582125	6359.839034
641.926566	6327.971380
642.270955	6338.885478
642.615292	6339.072001
642.959576	6353.714032
643.303809	6344.065263
643.647990	6345.680953
643.992118	6338.754408
644.336195	6283.946983
644.680219	6310.904553
645.024192	6300.368542
645.368112	6394.416308
645.711981	6418.447488
646.055797	6495.630074
646.399562	6452.563497
646.743274	6578.746098
647.086935	6636.618545
647.430544	6630.223841
647.774101	6646.784031
648.117606	6654.048334
648.461059	6646.141284
648.804460	6611.944617
649.147810	6512.654051
649.491108	6488.885011
649.834354	6461.435928
650.177548	6375.842177
650.520690	6292.209434
650.863781	6271.424757
651.206820	6288.451254
651.549807	6210.729265
651.892742	6155.054762
652.235626	6154.475029
652.578458	6139.916177
652.921238	6049.225819
653.263967	6088.272076
653.606644	6028.788981
653.949269	6033.366349
654.291843	5973.046423
654.634365	6020.153485
654.976836	5978.586651
655.319255	5975.403162
655.661622	5953.872394
656.003938	5948.296878
656.346203	5912.209778
656.688416	5943.585920
657.030577	5892.340070
657.372687	5862.715730
657.714746	5849.069326
658.056753	5893.083640
658.398708	5837.343602
658.740612	5825.620399
659.082465	5873.644951
659.424266	5867.887953
659.766016	5864.275967
660.107715	5845.192679
660.449362	5854.044945
660.790958	5853.936560
661.132503	5836.405948
661.473996	5874.048243
661.815438	5859.433938
662.156829	5861.218507
662.498168	5851.703329
662.839456	5826.744576
663.180693	5863.653384
663.521879	5863.212283
663.863013	5851.552094
664.204097	5876.581423
664.545129	5912.976033
664.886110	5909.013687
665.227040	5939.174910
665.567918	5906.616618
665.908746	5937.662564
666.249522	5939.167348
666.590248	5924.419453
666.930922	5955.931705
667.271545	5965.197346
667.612118	5973.081711
667.952639	5938.549807
668.293109	5963.281708
668.633528	5921.419966
668.973896	5923.058341
669.314213	5915.857053
669.654480	5900.317696
669.994695	5890.338732
670.334859	5880.145519
670.674973	5873.821392
671.015035	5876.634355
671.355047	5871.658737
671.695008	5862.753538
672.034918	5832.945196
672.374777	5845.356516
672.714585	5827.843548
673.054342	5834.029044
673.394049	5821.403474
673.733705	5857.057034
674.073310	5843.521536
674.412864	5803.517460
674.752368	5794.052694
675.091820	5797.362211
675.431223	5737.972378
675.770574	5739.222584
676.109875	5688.387588
676.449125	5692.486047
676.788324	5663.189381
677.127473	5609.196103
677.466571	5592.285552
677.805619	5582.790539
678.144616	5569.280247
678.483562	5550.716197
678.822458	5518.619171
679.161303	5511.178428
679.500098	5508.012583
679.838842	5487.374099
680.177535	5494.580429
680.516179	5507.122820
680.854771	5511.097769
681.193314	5598.876861
681.531805	5704.826791
681.870247	5856.454617
682.208638	5963.286749
682.546978	5974.087421
682.885268	5954.106808
683.223508	5867.482141
683.561697	5809.017359
683.899836	5784.966014
684.237925	5738.116051
684.575963	5700.647675
684.913951	5660.089071
685.251889	5720.461930
685.589776	5689.652918
685.927614	5658.538917
686.265401	5733.715123
686.603137	5719.055448
686.940824	5793.611593
687.278460	5817.405839
687.616046	5827.117622
687.953582	5896.670421
688.291068	5875.484972
688.628504	5938.322955
688.965889	5901.537655
689.303224	5847.418348
689.640510	5799.539990
689.977745	5721.016457
690.314930	5622.645901
690.652065	5568.193878
690.989150	5473.505885
691.326185	5402.433178
691.663170	5343.345813
692.000105	5268.197333
692.336990	5188.378224
692.673825	5167.409544
693.010610	5100.402527
693.347345	5025.392679
693.684030	5015.136451
694.020665	4969.592147
694.357251	4879.151326
694.693786	4890.748501
695.030272	4859.173233
695.366707	4823.988500
695.703093	4791.374755
696.039429	4810.357220
696.375716	4792.652688
696.711952	4766.700828
697.048139	4758.203963
697.384276	4735.037341
697.720363	4746.359772
698.056400	4753.099795
698.392388	4706.154050
698.728326	4687.960525
699.064214	4663.548738
699.400053	4657.897604
699.735842	4623.673211
700.071581	4597.441567
700.407270	4573.677568
700.742910	4558.433118
701.078501	4501.044623
701.414042	4492.789734
701.749533	4470.447340
702.084974	4404.594747
702.420366	4462.971309
702.755709	4404.937546
703.091002	4347.307075
703.426246	4398.263058
703.761440	4349.925954
704.096584	4315.341118
704.431679	4334.926001
704.766725	4318.630471
705.101721	4310.055468
705.436668	4338.530426
705.771565	4284.433804
706.106413	4312.472702
706.441212	4346.634081
706.775961	4356.552551
707.110661	4333.559848
707.445311	4360.898026
707.779913	4384.198239
708.114465	4396.997728
708.448967	4420.093775
708.783421	4482.041994
709.117825	4523.843241
709.452180	4527.266185
709.786485	4572.281168
710.120742	4661.786855
710.454949	4643.245491
710.789107	4709.511458
711.123216	4785.458961
711.457275	4775.212816
711.791286	4849.015308
712.125247	4869.033730
712.459159	4770.159059
712.793023	4841.907282
713.126837	4802.588802
713.460602	4796.695693
713.794318	4717.700812
714.127985	4722.139548
714.461602	4638.340448
714.795171	4605.741827
715.128691	4543.113052
715.462162	4485.603569
715.795584	4436.202782
716.128957	4420.905400
716.462281	4366.773490
716.795556	4335.782997
717.128782	4301.689674
717.461960	4232.983788
717.795088	4247.220006
718.128167	4204.655024
718.461198	4140.881907
718.794180	4140.224037
719.127113	4120.513125
719.459997	4100.981174
719.792833	4054.254719
720.125619	4042.077812
720.458357	4011.178060
720.791046	4015.314327
721.123686	3988.371880
721.456278	3946.227834
721.788821	3961.099237
722.121315	3935.079322
722.453761	3909.313985
722.786158	3924.140018
723.118506	3951.357208
723.450805	3898.510792
723.783056	3920.228083
724.115259	3936.203499
724.447412	3942.971248
724.779518	3937.310032
725.111574	3938.598047
725.443582	3969.341524
725.775542	3956.035398
726.107453	4006.993902
726.439315	4007.218233
726.771129	4018.943957
727.102895	4055.822518
727.434612	4101.886062
727.766281	4113.016929
728.097901	4120.036736
728.429473	4121.463383
728.760996	4128.785658
729.092471	4125.592088
729.423897	4112.797639
729.755276	4112.827886
730.086606	4112.580869
730.417887	4152.126201
730.749120	4219.435687
731.080305	4281.073875
731.411442	4306.849295
731.742530	4276.977937
732.073570	4279.559008
732.404562	4338.129654
732.735506	4329.080783
733.066401	4292.292963
733.397249	4229.313828
733.728048	4148.766272
734.058798	4061.692942
734.389501	3992.210718
734.720156	3932.397428
735.050762	3886.170047
735.381320	3876.395250
735.711831	3830.014114
736.042293	3799.386584
736.372707	3820.166220
736.703073	3791.713948
737.033391	3784.956281
737.363661	3802.547387
737.693883	3826.974298
738.024056	3836.255062
738.354182	3828.985719
738.684260	3898.722520
739.014290	3914.302206
739.344272	3913.299017
739.674207	3953.837455
740.004093	3957.857776
740.333931	3950.475006
740.663722	3957.172179
740.993464	3952.120942
741.323159	3928.392231
741.652806	3899.677819
741.982405	3870.681102
742.311956	3841.056762
742.641460	3830.001511
742.970915	3805.322543
743.300323	3765.706635
743.629683	3730.398393
743.958996	3718.886919
744.288260	3695.042261
744.617477	3663.603105
744.946647	3648.719098
745.275768	3622.058956
745.604842	3619.908904
745.933869	3574.311667
746.262847	3565.603074
746.591778	3600.376953
746.920662	3573.608427
747.249498	3543.311092
747.578286	3583.264757
747.907027	3605.208899
748.235720	3601.874176
748.564365	3624.909729
748.892963	3628.546921
749.221514	3612.279118
749.550017	3586.793564
749.878473	3587.090992
750.206881	3553.090930
750.535242	3553.766445
750.863555	3552.037329
751.191821	3548.886608
751.520039	3529.294164
751.848210	3506.167870
752.176334	3542.660783
752.504411	3548.334602
752.832440	3508.227182
753.160421	3489.779079
753.488356	3497.290398
753.816243	3513.006196
754.144082	3467.590441
754.471875	3451.526804
754.799620	3474.653097
755.127318	3464.636324
755.454969	3465.863845
755.782572	3471.393991
756.110129	3445.852985
756.437638	3436.534412
756.765100	3453.376907
757.092515	3459.151549
757.419882	3465.495841
757.747203	3439.596913
758.074477	3440.831996
758.401703	3458.286991
758.728882	3477.390444
759.056014	3485.070642
759.383099	3488.055005
759.710138	3488.972495
760.037129	3505.268024
760.364073	3536.419835
760.690970	3521.757639
761.017820	3496.020028
761.344623	3513.701875
761.671379	3559.725089
761.998088	3614.472020
762.324751	3738.670927
762.651366	3985.526148
762.977935	4457.683138
763.304456	4904.473042
763.630931	5003.965254
763.957359	4647.303620
764.283740	4296.459477
764.610074	4105.646762
764.936362	3906.064961
765.262602	3749.756424
765.588796	3637.000936
765.914943	3546.350908
766.241044	3458.360088
766.567097	3431.846139
766.893104	3381.477451
767.219064	3349.778675
767.544978	3321.757422
767.870845	3266.473608
768.196665	3248.713623
768.522438	3257.772576
768.848165	3252.771752
769.173846	3216.699775
769.499479	3195.922660
769.825066	3183.045032
770.150607	3163.286230
770.476101	3179.022192
770.801548	3176.305010
771.126949	3132.278092
771.452303	3114.964250
771.777611	3118.931638
772.102872	3125.699387
772.428087	3102.830192
772.753256	3088.931731
773.078378	3082.552151
773.403453	3049.104095
773.728482	3038.822662
774.053465	3056.141546
774.378401	3045.693755
774.703291	3014.917510
775.028135	3014.378107
775.352932	3008.248064
775.677683	2999.589882
776.002388	2994.566372
776.327046	2994.634428
776.651658	2987.130670
776.976224	2975.352014
777.300743	2974.520224
777.625216	2965.078143
777.949643	2959.812658
778.274024	2962.020683
778.598359	2951.787141
778.922647	2953.929631
779.246889	2954.942903
779.571086	2939.663166
779.895236	2932.746703
780.219339	2946.292283
780.543397	2954.804271
780.867409	2960.205868
781.191374	2954.438788
781.515294	2951.996349
781.839167	2954.494240
782.162995	2944.177519
782.486776	2951.187243
782.810511	2949.138014
783.134201	2933.694440
783.457844	2941.092333
783.781441	2932.487083
784.104993	2911.278949
784.428498	2912.990421
784.751958	2928.479366
785.075372	2922.510640
785.398739	2905.098494
785.722061	2920.736154
786.045337	2936.623350
786.368568	2920.607604
786.691752	2907.556057
787.014891	2956.672019
787.337983	2987.786020
787.661030	3016.659229
787.984031	3081.581729
788.306987	3130.491003
788.629897	3121.497585
788.952760	3106.636263
789.275579	3090.164293
789.598351	3031.520551
789.921078	2986.024137
790.243759	2977.655822
790.566395	2962.139150
790.888984	2939.043104
791.211529	2921.638520
791.534027	2910.976480
791.856480	2900.301837
792.178888	2884.891029
792.501249	2877.457848
792.823566	2873.251005
793.145836	2874.201263
793.468062	2866.705067
793.790241	2867.194059
794.112375	2870.659852
794.434464	2884.477655
794.756507	2887.267933
795.078505	2892.256155
795.400457	2908.947415
795.722364	2943.053342
796.044226	2968.548977
796.366042	2971.702219
796.687812	2958.484314
797.009538	2980.161275
797.331218	2966.910602
797.652852	2954.877368
797.974442	2933.364244
798.295986	2931.441044
798.617484	2927.589602
798.938938	2912.950092
799.260346	2896.034500
799.581709	2891.535270
799.903026	2881.407592
800.224299	2877.437683
800.545526	2867.146168
800.866708	2852.257120
801.187845	2843.475430
801.508936	2842.643639
801.829983	2851.427850
802.150984	2837.332784
802.471940	2823.686380
802.792851	2826.116217
803.113717	2826.811896
803.434538	2832.117710
803.755314	2826.937925
804.076045	2815.865030
804.396731	2815.547437
804.717372	2817.916780
805.037967	2812.903352
805.358518	2818.856955
805.679024	2831.701815
805.999485	2828.059581
806.319901	2832.384891
806.640272	2824.498006
806.960598	2828.304077
807.280879	2833.188955
807.601115	2844.017354
807.921306	2829.047647
808.241453	2828.031855
808.561554	2833.403204
808.881611	2837.804132
809.201623	2828.387256
809.521590	2829.561845
809.841513	2825.299550
810.161390	2827.608398
810.481223	2823.522543
810.801011	2815.045843
811.120755	2807.829431
811.440453	2811.804381
811.760107	2814.282108
812.079716	2811.242292
812.399281	2799.355251
812.718801	2793.079015
813.038276	2786.333951
813.357707	2796.552370
813.677093	2802.332053
813.996434	2795.881896
814.315731	2792.443829
814.634983	2787.727830
814.954191	2788.199178
815.273354	2803.728452
815.592473	2811.000317
815.911547	2814.002324
816.230577	2820.291163
816.549562	2829.922288
816.868502	2827.308449
817.187399	2838.111642
817.506250	2857.230218
817.825058	2846.724453
818.143821	2859.970085
818.462539	2877.780482
818.781213	2904.080181
819.099843	2941.553598
819.418429	3001.893689
819.736970	3060.494582
820.055466	3134.866725
820.373919	3245.278077
820.692327	3385.908625
821.010691	3554.825087
821.329011	4000.982326
821.647286	4903.646293
821.965517	6301.734695
822.283704	7073.230359
822.601847	7059.901548
822.919945	6414.931284
823.237999	5893.590276
823.556010	5308.977747
823.873976	4743.803907
824.191897	4327.795289
824.509775	4031.551883
824.827609	3757.678598
825.145398	3629.560193
825.463144	3617.630303
825.780845	3708.023232
826.098502	3814.875529
826.416116	4098.024538
826.733685	4426.019651
827.051210	4493.185464
827.368692	4374.509141
827.686129	4102.044858
828.003522	3770.198303
828.320872	3514.576515
828.638177	3315.781134
828.955439	3174.006243
829.272656	3092.180755
829.589830	3021.413037
829.906960	2969.559729
830.224046	2927.448450
830.541088	2891.878068
830.858086	2877.046994
831.175041	2857.136957
831.491952	2858.119982
831.808819	2868.940818
832.125642	2896.258831
832.442421	2940.895728
832.759157	3023.215250
833.075849	3203.610419
833.392497	3487.568533
833.709101	3693.577806
834.025662	3644.111484
834.342179	3484.306907
834.658653	3305.756799
834.975083	3156.705003
835.291469	3057.795044
835.607811	2968.523772
835.924110	2910.353897
836.240366	2861.290867
836.556578	2814.355205
836.872746	2790.457615
837.188871	2770.192176
837.504952	2752.401944
837.820990	2747.083527
838.136984	2731.723131
838.452935	2721.802141
838.768842	2720.705690
839.084706	2739.310068
839.400526	2816.043991
839.716303	2953.606997
840.032037	3036.844009
840.347727	3022.191895
840.663373	2959.227884
840.978977	2880.651419
841.294537	2808.446972
841.610054	2761.786052
841.925527	2738.725294
842.240957	2714.142107
842.556344	2692.636545
842.871687	2678.102898
843.186987	2671.020077
843.502244	2662.702173
843.817458	2659.266627
844.132629	2649.776655
844.447756	2639.787609
844.762840	2633.791156
845.077881	2634.779222
845.392879	2633.196300
845.707833	2628.591206
846.022745	2620.638786
846.337613	2623.665999
846.652438	2621.349588
846.967221	2623.900412
847.281960	2621.586523
847.596656	2620.825308
847.911309	2619.386059
848.225919	2614.730553
848.540485	2611.746190
848.855009	2612.590584
849.169490	2610.939606
849.483928	2615.985801
849.798323	2613.382045
850.112675	2607.849378
850.426984	2610.692589
850.741251	2609.127311
851.055474	2607.032712
851.369654	2613.976901
851.683792	2613.881119
851.997887	2609.694441
852.311938	2608.986159
852.625947	2612.323402
852.939914	2614.024792
853.253837	2614.360029
853.567718	2609.833072
853.881555	2610.501025
854.195350	2613.906325
854.509103	2611.826849
854.822812	2608.703854
855.136479	2608.968515
855.450103	2612.618310
855.763685	2612.280553
856.077224	2609.220572
856.390720	2606.790736
856.704173	2610.551437
857.017584	2614.367590
857.330953	2616.550410
857.644278	2617.609052
857.957561	2615.718620
858.270802	2615.549741
858.584000	2612.134359
858.897155	2618.198867
859.210268	2617.694752
859.523339	2612.754421
859.836367	2610.233844
860.149352	2608.252671
860.462295	2612.421705
860.775195	2604.844851
861.088054	2606.841148
861.400869	2607.327619
861.713642	2603.818976
862.026373	2605.411981
862.339062	2606.523555
862.651708	2611.340377
862.964312	2616.661315
863.276873	2612.618310
863.589392	2614.670060
863.901869	2620.850514
864.214303	2622.907305
864.526696	2625.211112
864.839045	2626.279837
865.151353	2631.943573
865.463619	2631.573048
865.775842	2630.605147
866.088023	2631.469705
866.400162	2630.035497
866.712258	2632.051958
867.024313	2628.946607
867.336325	2626.809158
867.648296	2629.259159
867.960224	2633.186218
868.272110	2633.586989
868.583954	2624.694394
868.895755	2626.610032
869.207515	2630.879890
869.519233	2639.815335
869.830909	2636.243677
870.142542	2632.495580
870.454134	2631.857874
870.765684	2639.457413
871.077191	2638.025725
871.388657	2643.873464
871.700081	2643.949081
872.011463	2642.524955
872.322803	2645.305152
872.634101	2648.032416
872.945357	2651.440236
873.256571	2658.230670
873.567744	2655.760505
873.878874	2656.660351
874.189963	2657.706390
874.501010	2659.259065
874.812015	2665.172339
875.122979	2665.517658
875.433900	2658.757471
875.744780	2656.932573
876.055618	2663.473470
876.366415	2669.212824
876.677169	2666.992195
876.987882	2663.939777
877.298554	2660.078253
877.609183	2672.151816
877.919771	2677.780265
878.230317	2685.959537
878.540822	2697.521423
878.851285	2709.128680
879.161707	2734.064747
879.472087	2775.689555
879.782425	2821.289312
880.092722	2934.455654
880.402977	3130.480921
880.713191	3397.301633
881.023363	3704.522151
881.333494	3899.211512
881.643583	4072.735589
881.953631	4074.817586
882.263637	3894.308990
882.573602	3673.007378
882.883526	3538.267418
883.193408	3418.618152
883.503248	3311.062614
883.813048	3194.521219
884.122806	3074.362797
884.432522	2987.138232
884.742197	2920.322779
885.051831	2882.960267
885.361424	2845.144052
885.670975	2809.024184
885.980485	2778.343722
886.289954	2757.551483
886.599382	2742.851478
886.908768	2732.673389
887.218113	2714.384083
887.527417	2700.173070
887.836680	2691.416586
888.145901	2685.528518
888.455082	2676.671211
888.764221	2666.697288
889.073319	2658.197902
889.382376	2658.124806
889.691392	2656.753612
890.000366	2658.954076
890.309300	2656.854435
890.618193	2658.886020
890.927044	2661.658655
891.235855	2662.374498
891.544625	2658.603715
891.853353	2657.968530
892.162041	2667.955056
892.470687	2689.546318
892.779293	2700.624253
893.087858	2709.158927
893.396381	2737.379306
893.704864	2778.449586
894.013306	2849.819722
894.321707	2942.561829
894.630068	2998.367402
894.938387	3020.614014
895.246665	3014.907428
895.554903	2968.808597
895.863100	2918.991914
896.171256	2859.740713
896.479371	2800.827268
896.787446	2759.310846
897.095480	2739.610017
897.403473	2733.071640
897.711425	2715.546069
898.019336	2697.375230
898.327207	2685.195802
898.635038	2682.317303
898.942827	2679.756397
899.250576	2670.158040
899.558284	2658.858294
899.865952	2653.418889
900.173579	2653.454177
900.481165	2649.932931
900.788711	2640.730304
901.096216	2634.388533
901.403681	2629.881741
901.711105	2633.201341
902.018489	2627.580455
902.325832	2632.361989
902.633135	2635.487504
902.940397	2650.724392
903.247619	2690.231915
903.554800	2759.378901
903.861941	2893.244221
904.169041	3026.050899
904.476101	3088.218408
904.783121	3081.354877
905.090100	3021.133253
905.397039	2945.538631
905.703938	2867.962835
906.010796	2805.008905
906.317614	2749.573857
906.624391	2710.701520
906.931129	2683.605318
907.237826	2661.484735
907.544483	2643.006385
907.851099	2628.492903
908.157675	2616.653754
908.464211	2613.558485
908.770707	2599.670106
909.077163	2595.730445
909.383578	2590.273396
909.689954	2587.830957
909.996289	2587.122674
910.302584	2587.941862
910.608839	2588.027562
910.915054	2584.783579
911.221229	2587.377253
911.527363	2588.506471
911.833458	2587.974629
912.139513	2588.934969
912.445527	2590.885896
912.751502	2597.247832
913.057436	2602.339397
913.363331	2612.691407
913.669186	2619.169289
913.975000	2635.585807
914.280775	2653.791934
914.586510	2674.259019
914.892205	2709.131200
915.197859	2779.427570
915.503475	2865.041486
915.809050	2936.333484
916.114585	2952.931483
916.420081	2966.736683
916.725536	2979.395020
917.030952	2950.231945
917.336328	2901.733524
917.641665	2852.829291
917.946961	2800.381126
918.252218	2762.093563
918.557435	2733.207751
918.862612	2710.008361
919.167750	2691.351051
919.472848	2674.949657
919.777906	2659.546411
920.082925	2645.635347
920.387904	2634.670837
920.692843	2629.601957
920.997743	2621.047119
921.302603	2617.326748
921.607423	2610.143103
921.912204	2604.678493
922.216946	2602.384768
922.521647	2598.702205
922.826310	2593.580393
923.130932	2591.450505
923.435516	2584.513877
923.740059	2582.691500
924.044564	2584.052612
924.349028	2581.572364
924.653454	2569.937381
924.957840	2567.641135
925.262186	2568.049469
925.566493	2566.159036
925.870761	2560.996895
926.174989	2563.726679
926.479178	2562.942780
926.783328	2561.155691
927.087438	2558.360371
927.391509	2559.076215
927.695541	2560.878428
927.999533	2554.632438
928.303486	2554.700493
928.607400	2554.458518
928.911275	2557.296688
929.215110	2553.790565
929.518906	2552.489947
929.822663	2552.310987
930.126381	2554.551779
930.430060	2555.224773
930.733699	2554.768549
931.037299	2553.357026
931.340861	2553.399876
931.644383	2554.773590
931.947866	2555.186965
932.251309	2556.069167
932.554714	2553.596481
932.858080	2556.543035
933.161407	2552.900802
933.464694	2550.634803
933.767943	2552.016079
934.071153	2552.880637
934.374323	2550.491130
934.677455	2550.191181
934.980548	2550.536500
935.283602	2549.414844
935.586617	2547.181613
935.889593	2551.244783
936.192530	2550.765873
936.495428	2548.983825
936.798287	2551.781665
937.101108	2552.414330
937.403890	2558.554456
937.706632	2560.729713
938.009336	2562.136195
938.312002	2567.222720
938.614628	2572.052145
938.917216	2575.946436
939.219765	2573.476271
939.522275	2574.981055
939.824747	2576.435428
940.127179	2569.912175
940.429573	2563.663665
940.731929	2567.953687
941.034246	2562.047975
941.336524	2569.057700
941.638763	2565.493604
941.940964	2562.244580
942.243126	2563.215002
942.545250	2562.219374
942.847335	2558.763663
943.149381	2557.279044
943.451389	2554.561862
943.753359	2556.888354
944.055290	2556.280895
944.357182	2554.156049
944.659036	2553.266285
944.960851	2552.842828
945.262628	2553.097407
945.564367	2552.091696
945.866067	2553.291491
946.167729	2555.507078
946.469352	2552.563044
946.770937	2553.793086
947.072484	2556.545556
947.373992	2553.977088
947.675462	2552.658826
947.976893	2554.115720
948.278286	2553.974567
948.579641	2554.524053
948.880958	2551.348126
949.182236	2552.888199
949.483476	2550.090358
949.784678	2552.046326
950.085841	2553.223435
950.386967	2550.173537
950.688054	2550.793599
950.989103	2551.385935
951.290114	2553.009186
951.591087	2557.543704
951.892021	2557.473128
952.192917	2555.950700
952.493776	2557.029507
952.794596	2559.383725
953.095378	2562.597461
953.396122	2559.295505
953.696828	2560.512944
953.997496	2555.988508
954.298126	2555.416337
954.598718	2555.285267
954.899272	2553.735113
955.199788	2551.504402
955.500266	2550.566747
955.800706	2546.768238
956.101108	2540.955787
956.401472	2544.126673
956.701798	2541.243133
957.002087	2542.639533
957.302337	2544.398896
957.602550	2542.024512
957.902724	2542.064841
958.202861	2539.894625
958.502960	2539.599717
958.803022	2542.382434
959.103045	2541.255736
959.403031	2539.960160
959.702979	2538.626774
960.002889	2538.460416
960.302762	2537.192566
960.602596	2538.624254
960.902393	2539.342618
961.202153	2537.434542
961.501875	2535.392874
961.801559	2538.009233
962.101205	2537.369007
962.400814	2534.913965
962.700385	2534.926568
962.999918	2536.358255
963.299414	2534.409849
963.598873	2536.562422
963.898293	2535.513862
964.197677	2537.036290
964.497022	2533.593182
964.796331	2534.659386
965.095601	2536.532175
965.394835	2534.273738
965.694030	2533.608306
965.993189	2537.099305
966.292309	2535.332380
966.591393	2534.871115
966.890439	2532.549663
967.189447	2536.590148
967.488419	2531.329704
967.787353	2534.157792
968.086249	2533.351207
968.385108	2536.534696
968.683930	2537.172402
968.982714	2534.540919
969.281462	2534.503111
969.580172	2535.339942
969.878844	2534.823224
970.177480	2537.673996
970.476078	2534.180477
970.774639	2533.608306
971.073162	2536.108718
971.371649	2529.265352
971.670098	2532.544622
971.968510	2530.921371
972.266885	2531.060002
972.565223	2533.484798
972.863524	2535.105528
973.161788	2539.009902
973.460014	2534.009078
973.758204	2532.910106
974.056356	2537.376568
974.354471	2538.175591
974.652550	2535.692823
974.950591	2536.433873
975.248595	2532.458923
975.546563	2536.320447
975.844493	2532.378264
976.142386	2537.477391
976.440243	2534.268697
976.738062	2534.359438
977.035845	2535.085364
977.333590	2534.223327
977.631299	2535.067720
977.928971	2533.724252
978.226606	2532.524458
978.524204	2533.255425
978.821765	2531.375075
979.119290	2534.760209
979.416777	2531.944725
979.714228	2534.868594
980.011642	2531.823737
980.309020	2535.954963
980.606360	2535.201310
980.903664	2535.163502
981.200931	2534.767771
981.498162	2537.510159
981.795356	2536.224665
982.092513	2542.518545
982.389633	2544.444266
982.686717	2546.213711
982.983764	2549.311500
983.280775	2549.160265
983.577749	2551.683363
983.874686	2548.802343
984.171587	2545.891077
984.468451	2544.209852
984.765279	2540.136600
985.062070	2539.740869
985.358824	2539.183822
985.655543	2536.539737
985.952224	2535.387833
986.248869	2534.218285
986.545478	2529.048582
986.842050	2530.414735
987.138586	2529.303160
987.435086	2529.179652
987.731549	2528.282327
988.027975	2532.509334
988.324366	2531.039838
988.620719	2530.782739
988.917037	2532.027904
989.213318	2533.268028
989.509563	2531.846423
989.805772	2529.366175
990.101944	2528.733510
990.398080	2534.036804
990.694180	2529.063706
990.990244	2533.953625
991.286271	2530.286185
991.582262	2530.200486
991.878217	2531.632173
992.174136	2530.989426
992.470019	2527.813499
992.765865	2530.306350
993.061676	2530.598737
993.357450	2529.472039
993.653188	2531.662420
993.948890	2532.448840
994.244556	2532.892462
994.540186	2532.625281
994.835780	2530.538243
995.131337	2534.394726
995.426859	2534.104859
995.722345	2530.392050
996.017795	2533.149561
996.313208	2538.346990
996.608586	2534.064530
996.903928	2537.482433
997.199234	2533.890610
997.494504	2534.997144
997.789738	2533.593182
998.084936	2533.630991
998.380099	2532.627801
998.675225	2531.947246
998.970316	2534.871115
999.265371	2533.003367
999.560390	2532.471526
999.855373	2533.305837
1000.150320	2535.140817
1000.445232	2532.973120
1000.740108	2532.259797
1001.034948	2531.561597
1001.329752	2528.718387
1001.624521	2531.304498
1001.919254	2523.906605
1002.213951	2528.340300
1002.508613	2522.220339
1002.803239	2529.139323
1003.097829	2524.471214
1003.392384	2529.472039
1003.686903	2530.931453
1003.981386	2528.693181
1004.275834	2527.848787
1004.570246	2528.277286
1004.864623	2527.735362
1005.158964	2529.048582
1005.453270	2524.781245
1005.747540	2531.327184
1006.041775	2526.777542
1006.335974	2528.846936
1006.630138	2529.711494
1006.924266	2528.564631
1007.218359	2528.499096
1007.512416	2527.654703
1007.806438	2528.824251
1008.100425	2528.741072
1008.394376	2526.815351
1008.688292	2528.753675
1008.982172	2531.082688
1009.276017	2530.553367
1009.569827	2527.480783
1009.863602	2528.791483
1010.157341	2530.288706
1010.451045	2528.993129
1010.744714	2527.921884
1011.038347	2527.395084
1011.331945	2527.347193
1011.625508	2526.011287
1011.919036	2529.971113
1012.212528	2527.420289
1012.505986	2529.033459
1012.799408	2528.352903
1013.092795	2528.494055
1013.386147	2528.362985
1013.679464	2528.597399
1013.972745	2526.288550
1014.265992	2526.533046
1014.559204	2528.698222
1014.852380	2530.102183
1015.145521	2526.570855
1015.438628	2528.121010
1015.731699	2527.163191
1016.024736	2529.845084
1016.317737	2530.192924
1016.610703	2527.248890
1016.903635	2524.050278
1017.196531	2523.614218
1017.489393	2523.566327
1017.782219	2525.741585
1018.075011	2526.112110
1018.367768	2526.772501
1018.660490	2528.433561
1018.953177	2528.433561
1019.245829	2528.433561
