Dividing Wavelength (nm)	Counts (n)	Blue Motor Position (mm): 0.000000	Red Motor Position (mm): 4.000000	
326.493990	2185.340192
326.888308	2185.340192
327.282561	2185.340192
327.676750	2192.901923
328.070874	2160.134423
328.464933	2165.175577
328.858929	2132.408077
329.252859	2182.819615
329.646726	2215.587115
330.040528	2223.148846
330.434265	2240.792885
330.827938	2331.533654
331.221547	2190.381346
331.615091	2286.163269
332.008571	2271.039808
332.401986	2369.342308
332.795338	2349.177692
333.188625	2344.136538
333.581847	2336.574808
333.975006	2369.342308
334.368100	2429.836154
334.761129	2450.000769
335.154095	2336.574808
335.546996	2457.562500
335.939833	2429.836154
336.332606	2495.371154
336.725315	2444.959615
337.117960	2543.262115
337.510540	2497.891731
337.903056	2601.235385
338.295508	2497.891731
338.687896	2669.290962
339.080220	2540.741538
339.472480	2543.262115
339.864676	2631.482308
340.256807	2603.755962
340.648875	2538.220962
341.040879	2586.111923
341.432818	2500.412308
341.824694	2550.823846
342.216506	2570.988462
342.608253	2608.797115
342.999937	2573.509038
343.391557	2651.646923
343.783113	2591.153077
344.174605	2591.153077
344.566033	2618.879423
344.957397	2606.276538
345.348697	2596.194231
345.739934	2545.782692
346.131106	2586.111923
346.522215	2553.344423
346.913260	2513.015192
347.304241	2568.467885
347.695159	2497.891731
348.086012	2623.920577
348.476802	2540.741538
348.867528	2576.029615
349.258191	2482.768269
349.648789	2563.426731
350.039324	2636.523462
350.429796	2500.412308
350.820203	2523.097500
351.210548	2560.906154
351.600828	2535.700385
351.991045	2588.632500
352.381198	2510.494615
352.771288	2555.865000
353.161314	2510.494615
353.551276	2492.850577
353.941175	2634.002885
354.331010	2555.865000
354.720782	2538.220962
355.110490	2500.412308
355.500135	2560.906154
355.889717	2555.865000
356.279235	2593.673654
356.668689	2598.714808
357.058080	2570.988462
357.447408	2596.194231
357.836672	2639.044038
358.225873	2545.782692
358.615010	2568.467885
359.004084	2555.865000
359.393095	2618.879423
359.782043	2603.755962
360.170927	2553.344423
360.559748	2523.097500
360.948505	2538.220962
361.337199	2649.126346
361.725830	2641.564615
362.114398	2576.029615
362.502903	2641.564615
362.891344	2644.085192
363.279722	2563.426731
363.668037	2565.947308
364.056289	2502.932885
364.444478	2444.959615
364.832603	2515.535769
365.220665	2591.153077
365.608665	2492.850577
365.996601	2550.823846
366.384474	2538.220962
366.772284	2623.920577
367.160031	2616.358846
367.547715	2555.865000
367.935336	2586.111923
368.322893	2502.932885
368.710388	2611.317692
369.097820	2623.920577
369.485189	2634.002885
369.872495	2563.426731
370.259738	2505.453462
370.646918	2586.111923
371.034035	2500.412308
371.421090	2576.029615
371.808081	2581.070769
372.195010	2583.591346
372.581875	2628.961731
372.968678	2540.741538
373.355418	2558.385577
373.742096	2455.041923
374.128710	2540.741538
374.515262	2623.920577
374.901751	2550.823846
375.288177	2588.632500
375.674540	2563.426731
376.060841	2555.865000
376.447079	2581.070769
376.833254	2581.070769
377.219367	2523.097500
377.605417	2591.153077
377.991404	2538.220962
378.377329	2565.947308
378.763191	2560.906154
379.148991	2651.646923
379.534727	2586.111923
379.920402	2598.714808
380.306013	2654.167500
380.691563	2535.700385
381.077049	2555.865000
381.462474	2538.220962
381.847835	2553.344423
382.233134	2555.865000
382.618371	2518.056346
383.003545	2623.920577
383.388657	2553.344423
383.773706	2581.070769
384.158693	2628.961731
384.543618	2563.426731
384.928480	2520.576923
385.313280	2606.276538
385.698017	2510.494615
386.082692	2568.467885
386.467305	2520.576923
386.851856	2591.153077
387.236344	2538.220962
387.620770	2560.906154
388.005133	2628.961731
388.389435	2510.494615
388.773674	2576.029615
389.157851	2598.714808
389.541965	2565.947308
389.926018	2573.509038
390.310008	2540.741538
390.693936	2558.385577
391.077802	2659.208654
391.461606	2598.714808
391.845348	2661.729231
392.229027	2641.564615
392.612645	2492.850577
392.996200	2528.138654
393.379694	2528.138654
393.763125	2555.865000
394.146494	2646.605769
394.529801	2611.317692
394.913047	2603.755962
395.296230	2518.056346
395.679351	2477.727115
396.062410	2568.467885
396.445408	2651.646923
396.828343	2570.988462
397.211217	2472.685962
397.594028	2598.714808
397.976778	2523.097500
398.359466	2530.659231
398.742092	2570.988462
399.124656	2646.605769
399.507158	2654.167500
399.889598	2661.729231
400.271977	2601.235385
400.654294	2611.317692
401.036549	2634.002885
401.418742	2581.070769
401.800874	2591.153077
402.182944	2560.906154
402.564952	2576.029615
402.946898	2500.412308
403.328783	2601.235385
403.710606	2576.029615
404.092367	2601.235385
404.474067	2634.002885
404.855705	2611.317692
405.237282	2631.482308
405.618797	2634.002885
406.000250	2601.235385
406.381642	2666.770385
406.762972	2525.618077
407.144240	2611.317692
407.525447	2611.317692
407.906593	2525.618077
408.287677	2659.208654
408.668700	2654.167500
409.049661	2525.618077
409.430560	2636.523462
409.811399	2578.550192
410.192176	2528.138654
410.572891	2606.276538
410.953545	2583.591346
411.334138	2598.714808
411.714669	2578.550192
412.095139	2628.961731
412.475547	2588.632500
412.855894	2596.194231
413.236180	2654.167500
413.616405	2538.220962
413.996568	2608.797115
414.376670	2649.126346
414.756711	2603.755962
415.136691	2621.400000
415.516609	2608.797115
415.896466	2492.850577
416.276262	2538.220962
416.655997	2621.400000
417.035670	2555.865000
417.415283	2588.632500
417.794834	2636.523462
418.174324	2613.838269
418.553753	2596.194231
418.933121	2608.797115
419.312428	2623.920577
419.691674	2578.550192
420.070859	2545.782692
420.449983	2573.509038
420.829045	2679.373269
421.208047	2596.194231
421.586988	2593.673654
421.965867	2528.138654
422.344686	2525.618077
422.723444	2684.414423
423.102141	2573.509038
423.480777	2581.070769
423.859352	2598.714808
424.237866	2558.385577
424.616319	2591.153077
424.994712	2601.235385
425.373044	2641.564615
425.751314	2618.879423
426.129524	2603.755962
426.507673	2611.317692
426.885762	2656.688077
427.263789	2646.605769
427.641756	2578.550192
428.019662	2565.947308
428.397508	2565.947308
428.775292	2649.126346
429.153016	2608.797115
429.530679	2588.632500
429.908282	2528.138654
430.285824	2578.550192
430.663305	2659.208654
431.040726	2618.879423
431.418086	2664.249808
431.795385	2603.755962
432.172624	2603.755962
432.549802	2583.591346
432.926920	2628.961731
433.303977	2611.317692
433.680974	2661.729231
434.057910	2591.153077
434.434786	2606.276538
434.811601	2598.714808
435.188355	2596.194231
435.565050	2591.153077
435.941683	2591.153077
436.318257	2659.208654
436.694770	2628.961731
437.071222	2618.879423
437.447614	2596.194231
437.823946	2606.276538
438.200218	2659.208654
438.576429	2608.797115
438.952580	2649.126346
439.328670	2709.620192
439.704700	2684.414423
440.080670	2674.332115
440.456580	2644.085192
440.832429	2689.455577
441.208218	2674.332115
441.583947	2666.770385
441.959616	2727.264231
442.335224	2631.482308
442.710773	2815.484423
443.086261	2722.223077
443.461689	2775.155192
443.837057	2875.978269
444.212365	2853.293077
444.587612	2818.005000
444.962800	2802.881538
445.337927	2903.704615
445.712995	2969.239615
446.088002	2989.404231
446.462949	2981.842500
446.837837	2999.486538
447.212664	3140.638846
447.587431	3183.488654
447.962139	3299.435192
448.336786	3470.834423
448.711374	3551.492885
449.085901	3450.669808
449.460369	3475.875577
449.834776	3488.478462
450.209124	3675.001154
450.583412	3745.577308
450.957640	4032.923077
451.331808	3934.620577
451.705917	3866.565000
452.079965	3879.167885
452.453954	4121.143269
452.827883	4153.910769
453.201752	4320.268846
453.575562	4151.390192
453.949311	4433.694808
454.323001	4458.900577
454.696632	4698.355385
455.070202	4847.069423
455.443713	5058.797885
455.817164	5300.773269
456.190556	5303.293846
456.563888	5605.763077
456.937160	5749.435962
457.310373	5714.147885
457.683526	5880.505962
458.056619	5862.861923
458.429653	6009.055385
458.802628	6044.343462
459.175542	6309.004038
459.548398	6845.886923
459.921194	7166.000192
460.293930	7360.084615
460.666607	7907.049808
461.039224	8542.235192
461.411782	9250.517308
461.784280	9021.144808
462.156719	9275.723077
462.529099	9376.546154
462.901419	9043.830000
463.273680	8990.897885
463.645882	9147.173654
464.018024	9225.311538
464.390106	9668.933077
464.762130	10223.460000
465.134094	11002.318269
465.505999	12784.366154
465.877845	15178.914231
466.249631	16706.383846
466.621358	16464.408462
466.993026	15980.457692
467.364634	15834.264231
467.736184	14848.718654
468.107674	14826.033462
468.479105	15163.790769
468.850477	15007.515000
469.221790	15075.570577
469.593043	14672.278269
469.964238	14571.455192
470.335373	14251.341923
470.706449	15367.957500
471.077467	15405.766154
471.448425	17593.626923
471.819324	21298.875000
472.190164	21765.181731
472.560945	18591.775385
472.931667	16983.647308
473.302330	17023.976538
473.672934	17086.990962
474.043479	17525.571346
474.413965	17034.058846
474.784393	17248.307885
475.154761	18140.592115
475.525070	18170.839038
475.895321	18238.894615
476.265513	18695.119038
476.635645	19602.526731
477.005719	19332.825000
477.375734	19952.886923
477.745691	20431.796538
478.115588	20789.718462
478.485427	21717.290769
478.855207	23065.799423
479.224928	25462.868077
479.594591	27456.644423
479.964194	26546.716154
480.333739	27353.300769
480.703226	26685.347885
481.072653	26705.512500
481.442022	27842.292692
481.811333	28664.000769
482.180584	28220.379231
482.549777	27260.039423
482.918912	27451.603269
483.287988	27239.874808
483.657005	26818.938462
484.025964	26788.691538
484.394864	26574.442500
484.763706	25717.446346
485.132489	25772.899038
485.501213	25946.818846
485.869879	26022.436154
486.238487	25742.652115
486.607036	25465.388654
486.975527	25170.481154
487.343959	25581.335192
487.712333	25311.633462
488.080648	24883.135385
488.448905	25299.030577
488.817104	25006.643654
489.185244	25447.744615
489.553326	25934.215962
489.921350	26405.563846
490.289315	29228.610000
490.657222	29828.507308
491.025070	29722.643077
491.392861	29470.585385
491.760593	28492.601538
492.128267	27141.572308
492.495883	26221.561731
492.863440	24933.546923
493.230939	24525.213462
493.598380	23406.077308
493.965763	23128.813846
494.333088	22581.848654
494.700354	22659.986538
495.067563	22092.856731
495.434713	21734.934808
495.801805	21409.780385
496.168839	20923.309038
496.535815	20938.432500
496.902733	20547.743077
497.269593	20212.506346
497.636395	20141.930192
498.003139	19766.364231
498.369825	19466.415577
498.736453	19297.536923
499.103023	19143.781731
499.469535	18720.324808
499.835989	18806.024423
500.202385	18407.773269
500.568723	18127.989231
500.935003	17671.764808
501.301226	17152.525962
501.667390	17669.244231
502.033497	17470.118654
502.399546	17054.223462
502.765537	16290.488654
503.131470	16610.601923
503.497345	16401.394038
503.863163	15584.727115
504.228923	15534.315577
504.594625	15413.327885
504.960269	14843.677500
505.325856	15085.652885
505.691385	14223.615577
506.056856	14490.796731
506.422270	14173.204038
506.787625	13762.350000
507.152924	13837.967308
507.518164	13578.347885
507.883347	12900.312692
508.248472	12670.940192
508.613540	12683.543077
508.978550	12434.005962
509.343503	12232.359808
509.708398	12101.289808
510.073236	11692.956346
510.438016	11645.065385
510.802738	11448.460385
511.167403	11125.826538
511.532010	11025.003462
511.896561	10936.783269
512.261053	10873.768846
512.625488	10442.750192
512.989866	10135.239808
513.354186	9701.700577
513.718449	9484.930962
514.082655	9444.601731
514.446803	9469.807500
514.810894	9295.887692
515.174927	9084.159231
515.538904	8859.827885
515.902822	8552.317500
516.266684	8363.274231
516.630488	8196.916154
516.994235	8096.093077
517.357925	7927.214423
517.721558	7637.348077
518.085133	7534.004423
518.448651	7304.631923
518.812112	7108.026923
519.175516	7022.327308
519.538863	7060.135962
519.902152	6790.434231
520.265385	6661.884808
520.628560	6548.458846
520.991678	6404.785962
521.354739	6180.454615
521.717743	6157.769423
522.080690	5920.835192
522.443580	5865.382500
522.806413	5787.244615
523.169189	5787.244615
523.531908	5588.119038
523.894569	5439.405000
524.257174	5426.802115
524.619722	5131.894615
524.982213	5147.018077
525.344647	4990.742308
525.707025	4952.933654
526.069345	4723.561154
526.431608	4668.108462
526.793815	4650.464423
527.155964	4547.120769
527.518057	4476.544615
527.880093	4428.653654
528.242072	4300.104231
528.603995	4315.227692
528.965860	4224.486923
529.327669	4053.087692
529.689421	4017.799615
530.051117	3939.661731
530.412755	3881.688462
530.774337	3740.536154
531.135862	3826.235769
531.497331	3743.056731
531.858743	3672.480577
532.220098	3715.330385
532.581396	3644.754231
532.942638	3496.040192
533.303824	3533.848846
533.664953	3594.342692
534.026025	3455.710962
534.387040	3496.040192
534.747999	3385.134808
535.108902	3279.270577
535.469748	3233.900192
535.830537	3254.064808
536.191270	3148.200577
536.551947	3153.241731
536.912567	3110.391923
537.273131	3067.542115
537.633638	3148.200577
537.994089	3115.433077
538.354483	2991.924808
538.714821	3158.282885
539.075103	3029.733462
539.435328	3009.568846
539.795497	2969.239615
540.155609	2951.595577
540.515665	2984.363077
540.875665	2916.307500
541.235609	2911.266346
541.595496	2931.430962
541.955328	2820.525577
542.315102	2878.498846
542.674821	2918.828077
543.034483	2845.731346
543.394090	2780.196346
543.753640	2770.114038
544.113134	2840.690192
544.472571	2770.114038
544.831953	2777.675769
545.191278	2830.607885
545.550548	2744.908269
545.909761	2744.908269
546.268918	2805.402115
546.628019	2850.772500
546.987064	2845.731346
547.346053	2777.675769
547.704986	2732.305385
548.063863	2737.346538
548.422684	2694.496731
548.781449	2802.881538
549.140158	2649.126346
549.498811	2772.634615
549.857408	2744.908269
550.215949	2707.099615
550.574434	2697.017308
550.932864	2714.661346
551.291237	2757.511154
551.649555	2777.675769
552.007817	2714.661346
552.366022	2659.208654
552.724173	2777.675769
553.082267	2659.208654
553.440305	2684.414423
553.798288	2742.387692
554.156215	2694.496731
554.514086	2623.920577
554.871902	2679.373269
555.229661	2691.976154
555.587365	2712.140769
555.945014	2732.305385
556.302606	2691.976154
556.660143	2709.620192
557.017625	2707.099615
557.375050	2656.688077
557.732421	2757.511154
558.089735	2747.428846
558.446994	2694.496731
558.804197	2719.702500
559.161345	2679.373269
559.518437	2709.620192
559.875474	2588.632500
560.232455	2616.358846
560.589381	2649.126346
560.946251	2654.167500
561.303065	2674.332115
561.659825	2583.591346
562.016528	2684.414423
562.373177	2659.208654
562.729770	2712.140769
563.086307	2717.181923
563.442789	2747.428846
563.799216	2691.976154
564.155587	2739.867115
564.511904	2641.564615
564.868164	2694.496731
565.224370	2654.167500
565.580520	2646.605769
565.936615	2679.373269
566.292654	2681.893846
566.648638	2636.523462
567.004567	2636.523462
567.360441	2744.908269
567.716260	2679.373269
568.072023	2656.688077
568.427732	2639.044038
568.783385	2704.579038
569.138982	2651.646923
569.494525	2714.661346
569.850013	2548.303269
570.205445	2674.332115
570.560823	2646.605769
570.916145	2661.729231
571.271412	2606.276538
571.626625	2669.290962
571.981782	2596.194231
572.336884	2714.661346
572.691931	2636.523462
573.046923	2623.920577
573.401860	2674.332115
573.756743	2644.085192
574.111570	2586.111923
574.466342	2618.879423
574.821059	2606.276538
575.175722	2606.276538
575.530330	2666.770385
575.884882	2659.208654
576.239380	2654.167500
576.593823	2654.167500
576.948211	2513.015192
577.302544	2583.591346
577.656823	2694.496731
578.011047	2586.111923
578.365216	2641.564615
578.719330	2631.482308
579.073389	2591.153077
579.427394	2606.276538
579.781344	2613.838269
580.135239	2581.070769
580.489080	2576.029615
580.842866	2611.317692
581.196597	2699.537885
581.550273	2651.646923
581.903895	2651.646923
582.257463	2684.414423
582.610975	2651.646923
582.964434	2689.455577
583.317837	2717.181923
583.671186	2626.441154
584.024481	2601.235385
584.377721	2681.893846
584.730906	2654.167500
585.084037	2618.879423
585.437113	2598.714808
585.790135	2631.482308
586.143103	2646.605769
586.496016	2616.358846
586.848874	2563.426731
587.201679	2664.249808
587.554428	2576.029615
587.907124	2608.797115
588.259765	2729.784808
588.612352	2646.605769
588.964884	2611.317692
589.317362	2644.085192
589.669786	2618.879423
590.022155	2623.920577
590.374470	2628.961731
590.726731	2560.906154
591.078937	2722.223077
591.431090	2684.414423
591.783188	2550.823846
592.135232	2644.085192
592.487222	2681.893846
592.839157	2550.823846
593.191038	2601.235385
593.542866	2606.276538
593.894639	2666.770385
594.246358	2606.276538
594.598022	2576.029615
594.949633	2651.646923
595.301190	2588.632500
595.652692	2623.920577
596.004141	2684.414423
596.355535	2588.632500
596.706876	2641.564615
597.058162	2563.426731
597.409395	2666.770385
597.760573	2676.852692
598.111698	2654.167500
598.462768	2601.235385
598.813785	2666.770385
599.164748	2664.249808
599.515657	2649.126346
599.866511	2707.099615
600.217312	2646.605769
600.568060	2669.290962
600.918753	2707.099615
601.269392	2603.755962
601.619978	2623.920577
601.970510	2634.002885
602.320988	2568.467885
602.671412	2634.002885
603.021783	2626.441154
603.372100	2611.317692
603.722363	2616.358846
604.072572	2618.879423
604.422728	2626.441154
604.772830	2639.044038
605.122878	2646.605769
605.472872	2634.002885
605.822813	2608.797115
606.172701	2603.755962
606.522534	2659.208654
606.872314	2588.632500
607.222041	2601.235385
607.571714	2598.714808
607.921333	2691.976154
608.270899	2639.044038
608.620411	2598.714808
608.969870	2560.906154
609.319276	2583.591346
609.668627	2601.235385
610.017926	2684.414423
610.367171	2639.044038
610.716362	2641.564615
611.065500	2702.058462
611.414585	2651.646923
611.763616	2707.099615
612.112594	2634.002885
612.461518	2616.358846
612.810389	2616.358846
613.159207	2712.140769
613.507971	2659.208654
613.856682	2631.482308
614.205340	2603.755962
614.553945	2558.385577
614.902496	2636.523462
615.250994	2628.961731
615.599439	2641.564615
615.947830	2681.893846
616.296169	2669.290962
616.644454	2608.797115
616.992686	2634.002885
617.340864	2631.482308
617.688990	2505.453462
618.037063	2603.755962
618.385082	2719.702500
618.733048	2586.111923
619.080961	2631.482308
619.428821	2674.332115
619.776628	2596.194231
620.124382	2644.085192
620.472083	2618.879423
620.819731	2606.276538
621.167326	2697.017308
621.514868	2704.579038
621.862357	2626.441154
622.209793	2618.879423
622.557176	2674.332115
622.904506	2623.920577
623.251783	2601.235385
623.599007	2623.920577
623.946179	2628.961731
624.293297	2631.482308
624.640363	2626.441154
624.987376	2611.317692
625.334336	2616.358846
625.681243	2679.373269
626.028097	2671.811538
626.374899	2598.714808
626.721647	2697.017308
627.068343	2613.838269
627.414987	2548.303269
627.761577	2616.358846
628.108115	2543.262115
628.454600	2628.961731
628.801032	2601.235385
629.147412	2603.755962
629.493739	2709.620192
629.840014	2626.441154
630.186236	2669.290962
630.532405	2631.482308
630.878521	2641.564615
631.224585	2639.044038
631.570597	2644.085192
631.916556	2639.044038
632.262462	2570.988462
632.608316	2691.976154
632.954117	2644.085192
633.299866	2606.276538
633.645562	2608.797115
633.991206	2676.852692
634.336797	2656.688077
634.682336	2646.605769
635.027823	2689.455577
635.373257	2618.879423
635.718639	2588.632500
636.063968	2598.714808
636.409245	2623.920577
636.754470	2628.961731
637.099642	2608.797115
637.444762	2623.920577
637.789829	2583.591346
638.134845	2581.070769
638.479808	2613.838269
638.824719	2689.455577
639.169577	2646.605769
639.514383	2681.893846
639.859137	2550.823846
640.203839	2616.358846
640.548489	2613.838269
640.893086	2634.002885
641.237632	2631.482308
641.582125	2621.400000
641.926566	2649.126346
642.270955	2626.441154
642.615292	2656.688077
642.959576	2656.688077
643.303809	2626.441154
643.647990	2649.126346
643.992118	2644.085192
644.336195	2598.714808
644.680219	2669.290962
645.024192	2659.208654
645.368112	2623.920577
645.711981	2601.235385
646.055797	2639.044038
646.399562	2593.673654
646.743274	2654.167500
647.086935	2606.276538
647.430544	2631.482308
647.774101	2639.044038
648.117606	2626.441154
648.461059	2656.688077
648.804460	2623.920577
649.147810	2686.935000
649.491108	2634.002885
649.834354	2644.085192
650.177548	2634.002885
650.520690	2626.441154
650.863781	2588.632500
651.206820	2606.276538
651.549807	2681.893846
651.892742	2616.358846
652.235626	2639.044038
652.578458	2583.591346
652.921238	2674.332115
653.263967	2661.729231
653.606644	2709.620192
653.949269	2548.303269
654.291843	2636.523462
654.634365	2666.770385
654.976836	2596.194231
655.319255	2634.002885
655.661622	2649.126346
656.003938	2593.673654
656.346203	2583.591346
656.688416	2659.208654
657.030577	2671.811538
657.372687	2699.537885
657.714746	2621.400000
658.056753	2641.564615
658.398708	2623.920577
658.740612	2651.646923
659.082465	2563.426731
659.424266	2666.770385
659.766016	2646.605769
660.107715	2646.605769
660.449362	2651.646923
660.790958	2591.153077
661.132503	2664.249808
661.473996	2674.332115
661.815438	2684.414423
662.156829	2626.441154
662.498168	2646.605769
662.839456	2621.400000
663.180693	2686.935000
663.521879	2530.659231
663.863013	2618.879423
664.204097	2578.550192
664.545129	2596.194231
664.886110	2654.167500
665.227040	2661.729231
665.567918	2719.702500
665.908746	2634.002885
666.249522	2588.632500
666.590248	2586.111923
666.930922	2611.317692
667.271545	2674.332115
667.612118	2621.400000
667.952639	2603.755962
668.293109	2684.414423
668.633528	2631.482308
668.973896	2697.017308
669.314213	2697.017308
669.654480	2591.153077
669.994695	2631.482308
670.334859	2616.358846
670.674973	2649.126346
671.015035	2583.591346
671.355047	2661.729231
671.695008	2676.852692
672.034918	2603.755962
672.374777	2593.673654
672.714585	2691.976154
673.054342	2646.605769
673.394049	2588.632500
673.733705	2581.070769
674.073310	2565.947308
674.412864	2646.605769
674.752368	2593.673654
675.091820	2644.085192
675.431223	2586.111923
675.770574	2618.879423
676.109875	2649.126346
676.449125	2661.729231
676.788324	2702.058462
677.127473	2649.126346
677.466571	2634.002885
677.805619	2679.373269
678.144616	2651.646923
678.483562	2616.358846
678.822458	2644.085192
679.161303	2596.194231
679.500098	2659.208654
679.838842	2626.441154
680.177535	2674.332115
680.516179	2661.729231
680.854771	2694.496731
681.193314	2649.126346
681.531805	2639.044038
681.870247	2465.124231
682.208638	2616.358846
682.546978	2621.400000
682.885268	2538.220962
683.223508	2623.920577
683.561697	2634.002885
683.899836	2634.002885
684.237925	2631.482308
684.575963	2639.044038
684.913951	2686.935000
685.251889	2581.070769
685.589776	2621.400000
685.927614	2530.659231
686.265401	2593.673654
686.603137	2664.249808
686.940824	2666.770385
687.278460	2671.811538
687.616046	2671.811538
687.953582	2681.893846
688.291068	2611.317692
688.628504	2634.002885
688.965889	2661.729231
689.303224	2601.235385
689.640510	2616.358846
689.977745	2671.811538
690.314930	2666.770385
690.652065	2641.564615
690.989150	2636.523462
691.326185	2644.085192
691.663170	2686.935000
692.000105	2664.249808
692.336990	2591.153077
692.673825	2618.879423
693.010610	2601.235385
693.347345	2724.743654
693.684030	2636.523462
694.020665	2616.358846
694.357251	2513.015192
694.693786	2626.441154
695.030272	2606.276538
695.366707	2583.591346
695.703093	2639.044038
696.039429	2586.111923
696.375716	2689.455577
696.711952	2709.620192
697.048139	2560.906154
697.384276	2669.290962
697.720363	2704.579038
698.056400	2573.509038
698.392388	2634.002885
698.728326	2631.482308
699.064214	2634.002885
699.400053	2641.564615
699.735842	2606.276538
700.071581	2616.358846
700.407270	2555.865000
700.742910	2626.441154
701.078501	2616.358846
701.414042	2654.167500
701.749533	2618.879423
702.084974	2689.455577
702.420366	2649.126346
702.755709	2518.056346
703.091002	2626.441154
703.426246	2608.797115
703.761440	2603.755962
704.096584	2659.208654
704.431679	2603.755962
704.766725	2628.961731
705.101721	2623.920577
705.436668	2606.276538
705.771565	2543.262115
706.106413	2555.865000
706.441212	2659.208654
706.775961	2626.441154
707.110661	2664.249808
707.445311	2631.482308
707.779913	2583.591346
708.114465	2588.632500
708.448967	2568.467885
708.783421	2671.811538
709.117825	2636.523462
709.452180	2576.029615
709.786485	2644.085192
710.120742	2649.126346
710.454949	2616.358846
710.789107	2618.879423
711.123216	2613.838269
711.457275	2586.111923
711.791286	2684.414423
712.125247	2613.838269
712.459159	2684.414423
712.793023	2702.058462
713.126837	2593.673654
713.460602	2621.400000
713.794318	2586.111923
714.127985	2671.811538
714.461602	2591.153077
714.795171	2621.400000
715.128691	2530.659231
715.462162	2644.085192
715.795584	2560.906154
716.128957	2576.029615
716.462281	2596.194231
716.795556	2656.688077
717.128782	2606.276538
717.461960	2626.441154
717.795088	2618.879423
718.128167	2654.167500
718.461198	2593.673654
718.794180	2689.455577
719.127113	2654.167500
719.459997	2618.879423
719.792833	2560.906154
720.125619	2656.688077
720.458357	2578.550192
720.791046	2525.618077
721.123686	2553.344423
721.456278	2666.770385
721.788821	2649.126346
722.121315	2674.332115
722.453761	2618.879423
722.786158	2676.852692
723.118506	2598.714808
723.450805	2623.920577
723.783056	2591.153077
724.115259	2573.509038
724.447412	2588.632500
724.779518	2628.961731
725.111574	2616.358846
725.443582	2621.400000
725.775542	2581.070769
726.107453	2598.714808
726.439315	2568.467885
726.771129	2523.097500
727.102895	2631.482308
727.434612	2581.070769
727.766281	2669.290962
728.097901	2563.426731
728.429473	2621.400000
728.760996	2596.194231
729.092471	2626.441154
729.423897	2628.961731
729.755276	2686.935000
730.086606	2616.358846
730.417887	2674.332115
730.749120	2543.262115
731.080305	2583.591346
731.411442	2603.755962
731.742530	2634.002885
732.073570	2671.811538
732.404562	2702.058462
732.735506	2651.646923
733.066401	2621.400000
733.397249	2565.947308
733.728048	2611.317692
734.058798	2636.523462
734.389501	2550.823846
734.720156	2651.646923
735.050762	2623.920577
735.381320	2565.947308
735.711831	2649.126346
736.042293	2676.852692
736.372707	2671.811538
736.703073	2641.564615
737.033391	2588.632500
737.363661	2588.632500
737.693883	2603.755962
738.024056	2641.564615
738.354182	2591.153077
738.684260	2679.373269
739.014290	2588.632500
739.344272	2626.441154
739.674207	2646.605769
740.004093	2676.852692
740.333931	2578.550192
740.663722	2623.920577
740.993464	2618.879423
741.323159	2724.743654
741.652806	2603.755962
741.982405	2679.373269
742.311956	2591.153077
742.641460	2593.673654
742.970915	2560.906154
743.300323	2621.400000
743.629683	2593.673654
743.958996	2570.988462
744.288260	2636.523462
744.617477	2661.729231
744.946647	2616.358846
745.275768	2560.906154
745.604842	2611.317692
745.933869	2583.591346
746.262847	2601.235385
746.591778	2674.332115
746.920662	2707.099615
747.249498	2565.947308
747.578286	2555.865000
747.907027	2681.893846
748.235720	2535.700385
748.564365	2583.591346
748.892963	2598.714808
749.221514	2608.797115
749.550017	2666.770385
749.878473	2679.373269
750.206881	2712.140769
750.535242	2679.373269
750.863555	2588.632500
751.191821	2608.797115
751.520039	2593.673654
751.848210	2535.700385
752.176334	2634.002885
752.504411	2613.838269
752.832440	2689.455577
753.160421	2560.906154
753.488356	2628.961731
753.816243	2596.194231
754.144082	2631.482308
754.471875	2634.002885
754.799620	2550.823846
755.127318	2593.673654
755.454969	2578.550192
755.782572	2621.400000
756.110129	2651.646923
756.437638	2586.111923
756.765100	2671.811538
757.092515	2659.208654
757.419882	2611.317692
757.747203	2586.111923
758.074477	2608.797115
758.401703	2631.482308
758.728882	2634.002885
759.056014	2596.194231
759.383099	2634.002885
759.710138	2639.044038
760.037129	2646.605769
760.364073	2646.605769
760.690970	2644.085192
761.017820	2606.276538
761.344623	2538.220962
761.671379	2573.509038
761.998088	2583.591346
762.324751	2616.358846
762.651366	2644.085192
762.977935	2639.044038
763.304456	2666.770385
763.630931	2686.935000
763.957359	2639.044038
764.283740	2671.811538
764.610074	2644.085192
764.936362	2634.002885
765.262602	2598.714808
765.588796	2578.550192
765.914943	2681.893846
766.241044	2616.358846
766.567097	2576.029615
766.893104	2714.661346
767.219064	2477.727115
767.544978	2601.235385
767.870845	2593.673654
768.196665	2578.550192
768.522438	2586.111923
768.848165	2598.714808
769.173846	2621.400000
769.499479	2586.111923
769.825066	2548.303269
770.150607	2654.167500
770.476101	2608.797115
770.801548	2520.576923
771.126949	2618.879423
771.452303	2593.673654
771.777611	2661.729231
772.102872	2583.591346
772.428087	2480.247692
772.753256	2634.002885
773.078378	2636.523462
773.403453	2545.782692
773.728482	2545.782692
774.053465	2495.371154
774.378401	2576.029615
774.703291	2573.509038
775.028135	2669.290962
775.352932	2608.797115
775.677683	2684.414423
776.002388	2603.755962
776.327046	2681.893846
776.651658	2588.632500
776.976224	2558.385577
777.300743	2525.618077
777.625216	2616.358846
777.949643	2691.976154
778.274024	2644.085192
778.598359	2654.167500
778.922647	2588.632500
779.246889	2543.262115
779.571086	2555.865000
779.895236	2626.441154
780.219339	2641.564615
780.543397	2654.167500
780.867409	2550.823846
781.191374	2608.797115
781.515294	2608.797115
781.839167	2611.317692
782.162995	2636.523462
782.486776	2606.276538
782.810511	2608.797115
783.134201	2694.496731
783.457844	2661.729231
783.781441	2563.426731
784.104993	2644.085192
784.428498	2593.673654
784.751958	2717.181923
785.075372	2651.646923
785.398739	2641.564615
785.722061	2641.564615
786.045337	2621.400000
786.368568	2608.797115
786.691752	2591.153077
787.014891	2535.700385
787.337983	2646.605769
787.661030	2641.564615
787.984031	2603.755962
788.306987	2581.070769
788.629897	2472.685962
788.952760	2598.714808
789.275579	2586.111923
789.598351	2535.700385
789.921078	2621.400000
790.243759	2651.646923
790.566395	2623.920577
790.888984	2583.591346
791.211529	2618.879423
791.534027	2616.358846
791.856480	2560.906154
792.178888	2576.029615
792.501249	2606.276538
792.823566	2634.002885
793.145836	2568.467885
793.468062	2570.988462
793.790241	2618.879423
794.112375	2603.755962
794.434464	2636.523462
794.756507	2578.550192
795.078505	2681.893846
795.400457	2674.332115
795.722364	2656.688077
796.044226	2583.591346
796.366042	2613.838269
796.687812	2631.482308
797.009538	2550.823846
797.331218	2684.414423
797.652852	2631.482308
797.974442	2606.276538
798.295986	2570.988462
798.617484	2661.729231
798.938938	2636.523462
799.260346	2596.194231
799.581709	2689.455577
799.903026	2576.029615
800.224299	2596.194231
800.545526	2563.426731
800.866708	2583.591346
801.187845	2573.509038
801.508936	2634.002885
801.829983	2598.714808
802.150984	2586.111923
802.471940	2581.070769
802.792851	2586.111923
803.113717	2707.099615
803.434538	2608.797115
803.755314	2654.167500
804.076045	2565.947308
804.396731	2689.455577
804.717372	2669.290962
805.037967	2553.344423
805.358518	2616.358846
805.679024	2639.044038
805.999485	2578.550192
806.319901	2623.920577
806.640272	2611.317692
806.960598	2628.961731
807.280879	2568.467885
807.601115	2563.426731
807.921306	2671.811538
808.241453	2651.646923
808.561554	2669.290962
808.881611	2714.661346
809.201623	2591.153077
809.521590	2646.605769
809.841513	2596.194231
810.161390	2669.290962
810.481223	2611.317692
810.801011	2560.906154
811.120755	2608.797115
811.440453	2649.126346
811.760107	2583.591346
812.079716	2550.823846
812.399281	2646.605769
812.718801	2669.290962
813.038276	2593.673654
813.357707	2591.153077
813.677093	2621.400000
813.996434	2578.550192
814.315731	2593.673654
814.634983	2616.358846
814.954191	2641.564615
815.273354	2671.811538
815.592473	2583.591346
815.911547	2646.605769
816.230577	2628.961731
816.549562	2596.194231
816.868502	2581.070769
817.187399	2631.482308
817.506250	2583.591346
817.825058	2553.344423
818.143821	2548.303269
818.462539	2570.988462
818.781213	2596.194231
819.099843	2631.482308
819.418429	2596.194231
819.736970	2603.755962
820.055466	2616.358846
820.373919	2593.673654
820.692327	2550.823846
821.010691	2634.002885
821.329011	2666.770385
821.647286	2654.167500
821.965517	2671.811538
822.283704	2727.264231
822.601847	2712.140769
822.919945	2684.414423
823.237999	2752.470000
823.556010	2661.729231
823.873976	2613.838269
824.191897	2681.893846
824.509775	2631.482308
824.827609	2656.688077
825.145398	2641.564615
825.463144	2545.782692
825.780845	2601.235385
826.098502	2671.811538
826.416116	2593.673654
826.733685	2601.235385
827.051210	2674.332115
827.368692	2651.646923
827.686129	2606.276538
828.003522	2621.400000
828.320872	2671.811538
828.638177	2646.605769
828.955439	2656.688077
829.272656	2669.290962
829.589830	2505.453462
829.906960	2626.441154
830.224046	2523.097500
830.541088	2568.467885
830.858086	2588.632500
831.175041	2588.632500
831.491952	2628.961731
831.808819	2651.646923
832.125642	2588.632500
832.442421	2553.344423
832.759157	2613.838269
833.075849	2598.714808
833.392497	2651.646923
833.709101	2618.879423
834.025662	2626.441154
834.342179	2576.029615
834.658653	2603.755962
834.975083	2576.029615
835.291469	2628.961731
835.607811	2639.044038
835.924110	2664.249808
836.240366	2621.400000
836.556578	2679.373269
836.872746	2588.632500
837.188871	2583.591346
837.504952	2666.770385
837.820990	2616.358846
838.136984	2523.097500
838.452935	2578.550192
838.768842	2540.741538
839.084706	2628.961731
839.400526	2553.344423
839.716303	2545.782692
840.032037	2618.879423
840.347727	2586.111923
840.663373	2634.002885
840.978977	2636.523462
841.294537	2634.002885
841.610054	2583.591346
841.925527	2628.961731
842.240957	2656.688077
842.556344	2583.591346
842.871687	2691.976154
843.186987	2611.317692
843.502244	2578.550192
843.817458	2613.838269
844.132629	2545.782692
844.447756	2606.276538
844.762840	2606.276538
845.077881	2548.303269
845.392879	2576.029615
845.707833	2513.015192
846.022745	2563.426731
846.337613	2603.755962
846.652438	2644.085192
846.967221	2699.537885
847.281960	2520.576923
847.596656	2601.235385
847.911309	2545.782692
848.225919	2661.729231
848.540485	2568.467885
848.855009	2596.194231
849.169490	2621.400000
849.483928	2628.961731
849.798323	2540.741538
850.112675	2583.591346
850.426984	2664.249808
850.741251	2646.605769
851.055474	2664.249808
851.369654	2555.865000
851.683792	2550.823846
851.997887	2626.441154
852.311938	2558.385577
852.625947	2520.576923
852.939914	2603.755962
853.253837	2581.070769
853.567718	2568.467885
853.881555	2553.344423
854.195350	2656.688077
854.509103	2646.605769
854.822812	2626.441154
855.136479	2588.632500
855.450103	2641.564615
855.763685	2558.385577
856.077224	2628.961731
856.390720	2659.208654
856.704173	2623.920577
857.017584	2616.358846
857.330953	2533.179808
857.644278	2543.262115
857.957561	2568.467885
858.270802	2671.811538
858.584000	2654.167500
858.897155	2570.988462
859.210268	2586.111923
859.523339	2628.961731
859.836367	2601.235385
860.149352	2651.646923
860.462295	2560.906154
860.775195	2588.632500
861.088054	2623.920577
861.400869	2636.523462
861.713642	2570.988462
862.026373	2576.029615
862.339062	2593.673654
862.651708	2555.865000
862.964312	2598.714808
863.276873	2530.659231
863.589392	2573.509038
863.901869	2646.605769
864.214303	2613.838269
864.526696	2659.208654
864.839045	2656.688077
865.151353	2586.111923
865.463619	2507.974038
865.775842	2641.564615
866.088023	2623.920577
866.400162	2603.755962
866.712258	2568.467885
867.024313	2563.426731
867.336325	2560.906154
867.648296	2621.400000
867.960224	2535.700385
868.272110	2674.332115
868.583954	2570.988462
868.895755	2601.235385
869.207515	2641.564615
869.519233	2644.085192
869.830909	2636.523462
870.142542	2626.441154
870.454134	2611.317692
870.765684	2646.605769
871.077191	2565.947308
871.388657	2583.591346
871.700081	2639.044038
872.011463	2621.400000
872.322803	2528.138654
872.634101	2623.920577
872.945357	2560.906154
873.256571	2583.591346
873.567744	2691.976154
873.878874	2588.632500
874.189963	2636.523462
874.501010	2570.988462
874.812015	2611.317692
875.122979	2606.276538
875.433900	2649.126346
875.744780	2593.673654
876.055618	2606.276538
876.366415	2636.523462
876.677169	2613.838269
876.987882	2603.755962
877.298554	2646.605769
877.609183	2639.044038
877.919771	2598.714808
878.230317	2525.618077
878.540822	2606.276538
878.851285	2623.920577
879.161707	2593.673654
879.472087	2613.838269
879.782425	2558.385577
880.092722	2644.085192
880.402977	2646.605769
880.713191	2591.153077
881.023363	2641.564615
881.333494	2548.303269
881.643583	2651.646923
881.953631	2628.961731
882.263637	2661.729231
882.573602	2626.441154
882.883526	2618.879423
883.193408	2656.688077
883.503248	2659.208654
883.813048	2611.317692
884.122806	2497.891731
884.432522	2664.249808
884.742197	2634.002885
885.051831	2578.550192
885.361424	2596.194231
885.670975	2613.838269
885.980485	2631.482308
886.289954	2601.235385
886.599382	2674.332115
886.908768	2598.714808
887.218113	2591.153077
887.527417	2651.646923
887.836680	2636.523462
888.145901	2565.947308
888.455082	2578.550192
888.764221	2621.400000
889.073319	2581.070769
889.382376	2623.920577
889.691392	2639.044038
890.000366	2573.509038
890.309300	2606.276538
890.618193	2631.482308
890.927044	2606.276538
891.235855	2684.414423
891.544625	2626.441154
891.853353	2659.208654
892.162041	2621.400000
892.470687	2639.044038
892.779293	2631.482308
893.087858	2583.591346
893.396381	2618.879423
893.704864	2611.317692
894.013306	2649.126346
894.321707	2636.523462
894.630068	2636.523462
894.938387	2634.002885
895.246665	2671.811538
895.554903	2573.509038
895.863100	2613.838269
896.171256	2583.591346
896.479371	2570.988462
896.787446	2646.605769
897.095480	2631.482308
897.403473	2681.893846
897.711425	2611.317692
898.019336	2611.317692
898.327207	2654.167500
898.635038	2606.276538
898.942827	2576.029615
899.250576	2606.276538
899.558284	2671.811538
899.865952	2586.111923
900.173579	2568.467885
900.481165	2618.879423
900.788711	2634.002885
901.096216	2606.276538
901.403681	2694.496731
901.711105	2603.755962
902.018489	2583.591346
902.325832	2621.400000
902.633135	2558.385577
902.940397	2586.111923
903.247619	2576.029615
903.554800	2681.893846
903.861941	2616.358846
904.169041	2598.714808
904.476101	2523.097500
904.783121	2618.879423
905.090100	2576.029615
905.397039	2613.838269
905.703938	2603.755962
906.010796	2641.564615
906.317614	2603.755962
906.624391	2639.044038
906.931129	2666.770385
907.237826	2520.576923
907.544483	2611.317692
907.851099	2626.441154
908.157675	2533.179808
908.464211	2709.620192
908.770707	2560.906154
909.077163	2737.346538
909.383578	2623.920577
909.689954	2621.400000
909.996289	2563.426731
910.302584	2550.823846
910.608839	2598.714808
910.915054	2535.700385
911.221229	2565.947308
911.527363	2565.947308
911.833458	2626.441154
912.139513	2578.550192
912.445527	2563.426731
912.751502	2613.838269
913.057436	2659.208654
913.363331	2694.496731
913.669186	2553.344423
913.975000	2656.688077
914.280775	2581.070769
914.586510	2598.714808
914.892205	2545.782692
915.197859	2591.153077
915.503475	2644.085192
915.809050	2621.400000
916.114585	2694.496731
916.420081	2588.632500
916.725536	2611.317692
917.030952	2565.947308
917.336328	2611.317692
917.641665	2691.976154
917.946961	2583.591346
918.252218	2596.194231
918.557435	2487.809423
918.862612	2545.782692
919.167750	2611.317692
919.472848	2631.482308
919.777906	2618.879423
920.082925	2628.961731
920.387904	2659.208654
920.692843	2616.358846
920.997743	2535.700385
921.302603	2613.838269
921.607423	2649.126346
921.912204	2749.949423
922.216946	2543.262115
922.521647	2674.332115
922.826310	2555.865000
923.130932	2563.426731
923.435516	2618.879423
923.740059	2601.235385
924.044564	2560.906154
924.349028	2618.879423
924.653454	2631.482308
924.957840	2644.085192
925.262186	2591.153077
925.566493	2611.317692
925.870761	2644.085192
926.174989	2581.070769
926.479178	2565.947308
926.783328	2581.070769
927.087438	2510.494615
927.391509	2576.029615
927.695541	2515.535769
927.999533	2533.179808
928.303486	2576.029615
928.607400	2596.194231
928.911275	2568.467885
929.215110	2583.591346
929.518906	2565.947308
929.822663	2578.550192
930.126381	2674.332115
930.430060	2644.085192
930.733699	2606.276538
931.037299	2608.797115
931.340861	2538.220962
931.644383	2565.947308
931.947866	2671.811538
932.251309	2689.455577
932.554714	2578.550192
932.858080	2608.797115
933.161407	2502.932885
933.464694	2626.441154
933.767943	2528.138654
934.071153	2568.467885
934.374323	2664.249808
934.677455	2596.194231
934.980548	2669.290962
935.283602	2608.797115
935.586617	2583.591346
935.889593	2611.317692
936.192530	2608.797115
936.495428	2588.632500
936.798287	2618.879423
937.101108	2581.070769
937.403890	2676.852692
937.706632	2603.755962
938.009336	2513.015192
938.312002	2598.714808
938.614628	2581.070769
938.917216	2639.044038
939.219765	2545.782692
939.522275	2671.811538
939.824747	2573.509038
940.127179	2606.276538
940.429573	2618.879423
940.731929	2533.179808
941.034246	2570.988462
941.336524	2596.194231
941.638763	2507.974038
941.940964	2623.920577
942.243126	2540.741538
942.545250	2550.823846
942.847335	2628.961731
943.149381	2623.920577
943.451389	2601.235385
943.753359	2611.317692
944.055290	2596.194231
944.357182	2684.414423
944.659036	2646.605769
944.960851	2586.111923
945.262628	2596.194231
945.564367	2634.002885
945.866067	2596.194231
946.167729	2568.467885
946.469352	2593.673654
946.770937	2568.467885
947.072484	2621.400000
947.373992	2548.303269
947.675462	2523.097500
947.976893	2576.029615
948.278286	2482.768269
948.579641	2586.111923
948.880958	2613.838269
949.182236	2591.153077
949.483476	2613.838269
949.784678	2636.523462
950.085841	2639.044038
950.386967	2530.659231
950.688054	2550.823846
950.989103	2646.605769
951.290114	2674.332115
951.591087	2528.138654
951.892021	2671.811538
952.192917	2591.153077
952.493776	2639.044038
952.794596	2606.276538
953.095378	2578.550192
953.396122	2616.358846
953.696828	2631.482308
953.997496	2623.920577
954.298126	2523.097500
954.598718	2613.838269
954.899272	2563.426731
955.199788	2591.153077
955.500266	2611.317692
955.800706	2535.700385
956.101108	2611.317692
956.401472	2510.494615
956.701798	2570.988462
957.002087	2525.618077
957.302337	2543.262115
957.602550	2586.111923
957.902724	2596.194231
958.202861	2591.153077
958.502960	2593.673654
958.803022	2535.700385
959.103045	2618.879423
959.403031	2593.673654
959.702979	2550.823846
960.002889	2707.099615
960.302762	2573.509038
960.602596	2583.591346
960.902393	2530.659231
961.202153	2606.276538
961.501875	2548.303269
961.801559	2576.029615
962.101205	2596.194231
962.400814	2641.564615
962.700385	2628.961731
962.999918	2578.550192
963.299414	2623.920577
963.598873	2583.591346
963.898293	2596.194231
964.197677	2674.332115
964.497022	2588.632500
964.796331	2586.111923
965.095601	2621.400000
965.394835	2598.714808
965.694030	2621.400000
965.993189	2598.714808
966.292309	2563.426731
966.591393	2555.865000
966.890439	2588.632500
967.189447	2636.523462
967.488419	2583.591346
967.787353	2581.070769
968.086249	2613.838269
968.385108	2623.920577
968.683930	2588.632500
968.982714	2500.412308
969.281462	2616.358846
969.580172	2626.441154
969.878844	2626.441154
970.177480	2623.920577
970.476078	2565.947308
970.774639	2598.714808
971.073162	2583.591346
971.371649	2568.467885
971.670098	2666.770385
971.968510	2518.056346
972.266885	2634.002885
972.565223	2641.564615
972.863524	2553.344423
973.161788	2573.509038
973.460014	2618.879423
973.758204	2631.482308
974.056356	2621.400000
974.354471	2651.646923
974.652550	2560.906154
974.950591	2588.632500
975.248595	2631.482308
975.546563	2555.865000
975.844493	2591.153077
976.142386	2545.782692
976.440243	2593.673654
976.738062	2601.235385
977.035845	2548.303269
977.333590	2555.865000
977.631299	2669.290962
977.928971	2545.782692
978.226606	2565.947308
978.524204	2644.085192
978.821765	2593.673654
979.119290	2583.591346
979.416777	2634.002885
979.714228	2588.632500
980.011642	2601.235385
980.309020	2596.194231
980.606360	2596.194231
980.903664	2550.823846
981.200931	2618.879423
981.498162	2611.317692
981.795356	2588.632500
982.092513	2593.673654
982.389633	2601.235385
982.686717	2563.426731
982.983764	2570.988462
983.280775	2628.961731
983.577749	2576.029615
983.874686	2591.153077
984.171587	2621.400000
984.468451	2565.947308
984.765279	2628.961731
985.062070	2563.426731
985.358824	2641.564615
985.655543	2550.823846
985.952224	2477.727115
986.248869	2573.509038
986.545478	2565.947308
986.842050	2621.400000
987.138586	2606.276538
987.435086	2598.714808
987.731549	2505.453462
988.027975	2492.850577
988.324366	2591.153077
988.620719	2573.509038
988.917037	2578.550192
989.213318	2533.179808
989.509563	2606.276538
989.805772	2631.482308
990.101944	2671.811538
990.398080	2507.974038
990.694180	2611.317692
990.990244	2639.044038
991.286271	2581.070769
991.582262	2565.947308
991.878217	2523.097500
992.174136	2661.729231
992.470019	2654.167500
992.765865	2636.523462
993.061676	2563.426731
993.357450	2560.906154
993.653188	2651.646923
993.948890	2616.358846
994.244556	2583.591346
994.540186	2591.153077
994.835780	2540.741538
995.131337	2570.988462
995.426859	2573.509038
995.722345	2656.688077
996.017795	2560.906154
996.313208	2560.906154
996.608586	2666.770385
996.903928	2646.605769
997.199234	2497.891731
997.494504	2570.988462
997.789738	2540.741538
998.084936	2623.920577
998.380099	2573.509038
998.675225	2608.797115
998.970316	2581.070769
999.265371	2601.235385
999.560390	2656.688077
999.855373	2555.865000
1000.150320	2613.838269
1000.445232	2611.317692
1000.740108	2576.029615
1001.034948	2588.632500
1001.329752	2634.002885
1001.624521	2525.618077
1001.919254	2576.029615
1002.213951	2523.097500
1002.508613	2598.714808
1002.803239	2636.523462
1003.097829	2578.550192
1003.392384	2513.015192
1003.686903	2550.823846
1003.981386	2613.838269
1004.275834	2603.755962
1004.570246	2603.755962
1004.864623	2586.111923
1005.158964	2591.153077
1005.453270	2535.700385
1005.747540	2586.111923
1006.041775	2616.358846
1006.335974	2523.097500
1006.630138	2596.194231
1006.924266	2583.591346
1007.218359	2639.044038
1007.512416	2543.262115
1007.806438	2626.441154
1008.100425	2628.961731
1008.394376	2535.700385
1008.688292	2659.208654
1008.982172	2666.770385
1009.276017	2497.891731
1009.569827	2523.097500
1009.863602	2613.838269
1010.157341	2634.002885
1010.451045	2654.167500
1010.744714	2588.632500
1011.038347	2636.523462
1011.331945	2550.823846
1011.625508	2576.029615
1011.919036	2601.235385
1012.212528	2598.714808
1012.505986	2654.167500
1012.799408	2611.317692
1013.092795	2588.632500
1013.386147	2631.482308
1013.679464	2593.673654
1013.972745	2611.317692
1014.265992	2530.659231
1014.559204	2669.290962
1014.852380	2540.741538
1015.145521	2586.111923
1015.438628	2646.605769
1015.731699	2606.276538
1016.024736	2553.344423
1016.317737	2560.906154
1016.610703	2563.426731
1016.903635	2548.303269
1017.196531	2533.179808
1017.489393	2540.741538
1017.782219	2636.523462
1018.075011	2646.605769
1018.367768	2613.838269
1018.660490	2591.153077
1018.953177	2591.153077
1019.245829	2591.153077
