Dividing Wavelength (nm)	Counts (n)	Blue Motor Position (mm): 0.000000	Red Motor Position (mm): 5.500000	
326.493990	2127.717283
326.888308	2127.717283
327.282561	2127.717283
327.676750	2095.342993
328.070874	2096.623446
328.464933	2097.205700
328.858929	2102.894642
329.252859	2110.955447
329.646726	2123.596140
330.040528	2140.194139
330.434265	2155.229380
330.827938	2168.411998
331.221547	2189.927642
331.615091	2209.893132
332.008571	2228.862994
332.401986	2246.996024
332.795338	2267.044693
333.188625	2287.952879
333.581847	2303.104067
333.975006	2321.365647
334.368100	2340.212000
334.761129	2359.081039
335.154095	2377.060314
335.546996	2393.244939
335.939833	2407.501322
336.332606	2423.443971
336.725315	2433.732966
337.117960	2444.773093
337.510540	2455.041923
337.903056	2463.939560
338.295508	2470.543471
338.687896	2477.787609
339.080220	2491.002994
339.472480	2492.401914
339.864676	2500.450116
340.256807	2503.147134
340.648875	2505.662669
341.040879	2508.294152
341.432818	2512.793382
341.824694	2511.006293
342.216506	2512.712723
342.608253	2511.868330
342.999937	2514.479648
343.391557	2510.121570
343.783113	2507.580828
344.174605	2510.837414
344.566033	2510.217352
344.957397	2505.599655
345.348697	2508.213493
345.739934	2501.206289
346.131106	2501.884325
346.522215	2501.133193
346.913260	2494.196565
347.304241	2497.322080
347.695159	2491.194558
348.086012	2492.124651
348.476802	2491.335710
348.867528	2489.730103
349.258191	2486.344968
349.648789	2489.709938
350.039324	2482.513691
350.429796	2483.055615
350.820203	2483.829432
351.210548	2481.807929
351.600828	2481.286170
351.991045	2481.820532
352.381198	2480.688793
352.771288	2479.000007
353.161314	2478.886581
353.551276	2483.292549
353.941175	2480.345995
354.331010	2479.736015
354.720782	2481.124853
355.110490	2479.312558
355.500135	2479.806591
355.889717	2480.656026
356.279235	2481.429843
356.668689	2477.752321
357.058080	2480.925727
357.447408	2478.258957
357.836672	2476.640747
358.225873	2476.000520
358.615010	2475.723257
359.004084	2483.108547
359.393095	2483.461428
359.782043	2479.804071
360.170927	2484.386480
360.559748	2484.207519
360.948505	2485.314052
361.337199	2486.854124
361.725830	2483.302632
362.114398	2484.953609
362.502903	2484.976295
362.891344	2485.946717
363.279722	2486.982674
363.668037	2489.205823
364.056289	2488.429485
364.444478	2487.209526
364.832603	2486.095431
365.220665	2489.828405
365.608665	2489.047026
365.996601	2490.914774
366.384474	2493.130361
366.772284	2490.778663
367.160031	2493.027017
367.547715	2493.389980
367.935336	2498.753768
368.322893	2502.451454
368.710388	2502.985817
369.097820	2509.375479
369.485189	2509.103257
369.872495	2514.061232
370.259738	2521.975843
370.646918	2526.553211
371.034035	2529.955990
371.421090	2540.013092
371.808081	2543.793957
372.195010	2548.787220
372.581875	2556.180072
372.968678	2560.381874
373.355418	2566.118707
373.742096	2575.457444
374.128710	2579.041705
374.515262	2587.115113
374.901751	2590.265834
375.288177	2592.899837
375.674540	2603.634974
376.060841	2603.088009
376.447079	2609.149996
376.833254	2612.434308
377.219367	2610.382558
377.605417	2622.352778
377.991404	2616.673918
378.377329	2616.131994
378.763191	2619.633076
379.148991	2625.213633
379.534727	2623.930659
379.920402	2626.194137
380.306013	2624.137347
380.691563	2627.250259
381.077049	2624.212964
381.462474	2619.824639
381.847835	2617.190637
382.233134	2615.874895
382.618371	2605.049018
383.003545	2609.674276
383.388657	2601.535333
383.773706	2597.509972
384.158693	2592.146184
384.543618	2586.512695
384.928480	2581.400965
385.313280	2578.325861
385.698017	2572.354614
386.082692	2568.931671
386.467305	2561.934549
386.851856	2558.826678
387.236344	2550.962478
387.620770	2548.605738
388.005133	2541.608617
388.389435	2541.061652
388.773674	2532.552184
389.157851	2533.414221
389.541965	2528.622605
389.926018	2524.874507
390.310008	2521.572551
390.693936	2521.781759
391.077802	2517.748836
391.461606	2520.345030
391.845348	2513.259688
392.229027	2514.640964
392.612645	2510.862620
392.996200	2512.954698
393.379694	2510.613083
393.763125	2509.816580
394.146494	2510.078720
394.529801	2509.352794
394.913047	2510.043432
395.296230	2506.423884
395.679351	2507.195180
396.062410	2508.095026
396.445408	2509.201559
396.828343	2509.435973
397.211217	2506.852382
397.594028	2506.156702
397.976778	2506.247443
398.359466	2507.711898
398.742092	2507.888339
399.124656	2507.984121
399.507158	2510.537465
399.889598	2511.893536
400.271977	2513.012672
400.654294	2513.486540
401.036549	2510.585356
401.418742	2510.688700
401.800874	2511.936385
402.182944	2511.475120
402.564952	2511.303721
402.946898	2513.095851
403.328783	2510.630727
403.710606	2512.032167
404.092367	2511.119718
404.474067	2511.137363
404.855705	2513.196674
405.237282	2515.245903
405.618797	2513.315141
406.000250	2515.071983
406.381642	2511.727178
406.762972	2515.049298
407.144240	2513.945285
407.525447	2513.461334
407.906593	2512.261540
408.287677	2514.671211
408.668700	2514.706499
409.049661	2515.243382
409.430560	2511.369256
409.811399	2515.147600
410.192176	2516.929648
410.572891	2515.911335
410.953545	2516.125584
411.334138	2516.377642
411.714669	2514.867816
412.095139	2516.607014
412.475547	2514.734226
412.855894	2515.003928
413.236180	2514.048629
413.616405	2517.161541
413.996568	2515.616428
414.376670	2518.565503
414.756711	2516.770852
415.136691	2517.496778
415.516609	2515.608866
415.896466	2517.602642
416.276262	2516.785975
416.655997	2516.060049
417.035670	2513.741118
417.415283	2517.035512
417.794834	2514.068793
418.174324	2514.434277
418.553753	2519.092303
418.933121	2517.239679
419.312428	2517.456449
419.691674	2517.438805
420.070859	2518.883095
420.449983	2518.255472
420.829045	2517.688342
421.208047	2517.521984
421.586988	2520.912160
421.965867	2518.971316
422.344686	2521.920391
422.723444	2520.435771
423.102141	2518.396624
423.480777	2521.751512
423.859352	2518.568023
424.237866	2522.230422
424.616319	2518.373939
424.994712	2522.802593
425.373044	2521.590195
425.751314	2522.666481
426.129524	2520.758405
426.507673	2522.001049
426.885762	2521.050792
427.263789	2521.585154
427.641756	2522.434588
428.019662	2520.082890
428.397508	2517.174144
428.775292	2524.072963
429.153016	2521.224711
429.530679	2521.393590
429.908282	2522.074146
430.285824	2521.542304
430.663305	2518.941069
431.040726	2521.063394
431.418086	2521.464166
431.795385	2521.345699
432.172624	2523.029444
432.549802	2521.466687
432.926920	2521.620442
433.303977	2524.735875
433.680974	2522.316121
434.057910	2523.215967
434.434786	2520.629855
434.811601	2522.132119
435.188355	2521.849814
435.565050	2522.114475
435.941683	2525.275278
436.318257	2521.842253
436.694770	2519.921573
437.071222	2522.507685
437.447614	2518.512571
437.823946	2519.775380
438.200218	2522.817716
438.576429	2524.317459
438.952580	2522.278312
439.328670	2525.393746
439.704700	2523.548683
440.080670	2526.530526
440.456580	2524.675381
440.832429	2526.023890
441.208218	2523.034486
441.583947	2523.916688
441.959616	2525.267717
442.335224	2524.733354
442.710773	2525.912984
443.086261	2523.649506
443.461689	2522.512726
443.837057	2525.706297
444.212365	2524.294774
444.587612	2526.422141
444.962800	2525.234949
445.337927	2526.717048
445.712995	2524.491379
446.088002	2527.347193
446.462949	2526.603623
446.837837	2526.795186
447.212664	2527.274096
447.587431	2525.814682
447.962139	2524.783766
448.336786	2530.041689
448.711374	2528.519261
449.085901	2526.858201
449.460369	2525.827285
449.834776	2527.072450
450.209124	2526.606143
450.583412	2526.893489
450.957640	2524.892151
451.331808	2526.107069
451.705917	2526.603623
452.079965	2528.965403
452.453954	2530.064375
452.827883	2526.286030
453.201752	2528.186545
453.575562	2528.715866
453.949311	2527.967255
454.323001	2526.434744
454.696632	2526.069260
455.070202	2528.153777
455.443713	2528.978006
455.817164	2526.553211
456.190556	2524.624970
456.563888	2525.981040
456.937160	2525.237470
457.310373	2524.244363
457.683526	2527.014477
458.056619	2526.485155
458.429653	2527.226205
458.802628	2528.035310
459.175542	2529.310722
459.548398	2528.632687
459.921194	2527.884076
460.293930	2532.232071
460.666607	2525.824764
461.039224	2529.882893
461.411782	2529.325846
461.784280	2529.093953
462.156719	2529.910619
462.529099	2527.889117
462.901419	2528.587317
463.273680	2532.015301
463.645882	2529.572862
464.018024	2527.861390
464.390106	2529.071267
464.762130	2528.695701
465.134094	2530.911288
465.505999	2529.154446
465.877845	2528.536905
466.249631	2533.449509
466.621358	2528.604961
466.993026	2534.714839
467.364634	2536.912782
467.736184	2534.677030
468.107674	2532.171577
468.479105	2530.515558
468.850477	2531.541433
469.221790	2529.860208
469.593043	2531.468336
469.964238	2530.308871
470.335373	2528.625125
470.706449	2529.368695
471.077467	2531.725435
471.448425	2532.446320
471.819324	2530.311391
472.190164	2532.584952
472.560945	2532.191742
472.931667	2530.513037
473.302330	2531.833820
473.672934	2530.480270
474.043479	2533.474715
474.413965	2529.371216
474.784393	2525.335772
475.154761	2531.584283
475.525070	2530.376926
475.895321	2526.971627
476.265513	2527.788294
476.635645	2530.054292
477.005719	2532.297606
477.375734	2529.703932
477.745691	2529.832482
478.115588	2529.799714
478.485427	2532.978162
478.855207	2530.323994
479.224928	2533.265507
479.594591	2533.139478
479.964194	2531.501103
480.333739	2530.419776
480.703226	2533.525127
481.072653	2530.583613
481.442022	2533.562935
481.811333	2533.091588
482.180584	2531.740558
482.549777	2530.923891
482.918912	2531.700229
483.287988	2535.155940
483.657005	2535.057638
484.025964	2532.148892
484.394864	2535.937319
484.763706	2530.891124
485.132489	2533.520086
485.501213	2534.576207
485.869879	2532.937832
486.238487	2532.380785
486.607036	2535.571835
486.975527	2533.247863
487.343959	2534.256094
487.712333	2533.013450
488.080648	2535.949922
488.448905	2532.945394
488.817104	2533.893131
489.185244	2534.268697
489.553326	2534.987061
489.921350	2536.355735
490.289315	2532.043028
490.657222	2533.802390
491.025070	2534.379602
491.392861	2536.988399
491.760593	2532.353058
492.128267	2535.448327
492.495883	2531.269210
492.863440	2536.832124
493.230939	2534.419932
493.598380	2535.624767
493.965763	2531.410363
494.333088	2531.027235
494.700354	2531.896834
495.067563	2532.416073
495.434713	2531.022194
495.801805	2531.987575
496.168839	2533.199972
496.535815	2535.987730
496.902733	2533.565456
497.269593	2536.811959
497.636395	2533.401618
498.003139	2533.313398
498.369825	2535.874304
498.736453	2534.349355
499.103023	2535.488656
499.469535	2535.957483
499.835989	2536.943029
500.202385	2534.399767
500.568723	2536.509490
500.935003	2535.213913
501.301226	2534.314067
501.667390	2533.220137
502.033497	2535.954963
502.399546	2534.626619
502.765537	2533.348686
503.131470	2534.659386
503.497345	2533.739376
503.863163	2537.787422
504.228923	2535.904551
504.594625	2533.971269
504.960269	2533.946063
505.325856	2536.080992
505.691385	2531.889272
506.056856	2535.750796
506.422270	2532.383305
506.787625	2535.231557
507.152924	2536.575025
507.518164	2532.537061
507.883347	2537.341280
508.248472	2537.883204
508.613540	2537.079140
508.978550	2536.789274
509.343503	2534.082174
509.708398	2536.181815
510.073236	2534.722401
510.438016	2537.973945
510.802738	2536.554860
511.167403	2536.224665
511.532010	2538.210879
511.896561	2536.151568
512.261053	2537.525282
512.625488	2532.151412
512.989866	2533.562935
513.354186	2533.507483
513.718449	2530.003881
514.082655	2537.369007
514.446803	2535.476053
514.810894	2537.207690
515.174927	2536.454037
515.538904	2538.712474
515.902822	2537.104346
516.266684	2534.351876
516.630488	2536.214582
516.994235	2539.176260
517.357925	2533.784746
517.721558	2534.132586
518.085133	2536.416228
518.448651	2538.336908
518.812112	2537.011085
519.175516	2534.334232
519.538863	2534.858512
519.902152	2539.259439
520.265385	2537.419418
520.628560	2539.612320
520.991678	2531.180990
521.354739	2536.935467
521.717743	2534.924047
522.080690	2536.794315
522.443580	2536.363296
522.806413	2539.088040
523.169189	2535.344983
523.531908	2537.842875
523.894569	2535.934798
524.257174	2538.926723
524.619722	2539.161137
524.982213	2537.414377
525.344647	2535.405477
525.707025	2537.978986
526.069345	2536.897659
526.431608	2538.195756
526.793815	2538.674665
527.155964	2537.424459
527.518057	2537.268183
527.880093	2536.411187
528.242072	2538.654501
528.603995	2538.175591
528.965860	2535.637370
529.327669	2537.787422
529.689421	2536.259953
530.051117	2538.692309
530.412755	2538.767927
530.774337	2537.031249
531.135862	2541.117104
531.497331	2537.331198
531.858743	2534.125024
532.220098	2537.104346
532.581396	2533.273069
532.942638	2534.538399
533.303824	2537.694161
533.664953	2538.077289
534.026025	2535.813811
534.387040	2537.759696
534.747999	2538.846065
535.108902	2540.113915
535.469748	2537.036290
535.830537	2538.503266
536.191270	2536.280117
536.551947	2538.483102
536.912567	2536.116280
537.273131	2537.404295
537.633638	2536.123842
537.994089	2537.762217
538.354483	2537.704243
538.714821	2537.333718
539.075103	2538.689789
539.435328	2538.805735
539.795497	2539.569470
540.155609	2538.170550
540.515665	2537.479912
540.875665	2538.664583
541.235609	2538.835982
541.595496	2537.787422
541.955328	2537.227854
542.315102	2540.287835
542.674821	2539.241795
543.034483	2540.101312
543.394090	2539.352701
543.753640	2541.613658
544.113134	2537.714326
544.472571	2538.694830
544.831953	2538.374717
545.191278	2542.425284
545.550548	2537.686599
545.909761	2537.598379
546.268918	2536.186856
546.628019	2540.428987
546.987064	2537.232895
547.346053	2535.647452
547.704986	2541.263298
548.063863	2536.960673
548.422684	2537.706764
548.781449	2538.515869
549.140158	2538.956970
549.498811	2537.989068
549.857408	2540.640715
550.215949	2534.324150
550.574434	2533.998995
550.932864	2537.101825
551.291237	2533.822555
551.649555	2539.670293
552.007817	2534.402288
552.366022	2537.588297
552.724173	2537.179963
553.082267	2537.134593
553.440305	2540.761703
553.798288	2538.432690
554.156215	2539.045190
554.514086	2538.377237
554.871902	2538.072248
555.229661	2538.467978
555.587365	2538.157947
555.945014	2537.429500
556.302606	2539.977804
556.660143	2536.426311
557.017625	2536.849768
557.375050	2539.057793
557.732421	2539.393030
558.089735	2537.787422
558.446994	2539.367824
558.804197	2538.180632
559.161345	2538.641898
559.518437	2538.331867
559.875474	2540.668442
560.232455	2537.938657
560.589381	2540.302958
560.946251	2540.323123
561.303065	2538.641898
561.659825	2539.080478
562.016528	2538.422608
562.373177	2536.582587
562.729770	2538.984696
563.086307	2539.130890
563.442789	2539.700540
563.799216	2537.996630
564.155587	2541.101981
564.511904	2539.493853
564.868164	2538.402443
565.224370	2538.349511
565.580520	2538.909079
565.936615	2539.602238
566.292654	2538.500746
566.648638	2538.939326
567.004567	2539.070396
567.360441	2537.487474
567.716260	2539.453524
568.072023	2539.050231
568.427732	2534.384643
568.783385	2537.638708
569.138982	2534.987061
569.494525	2536.943029
569.850013	2534.248532
570.205445	2540.502084
570.560823	2539.153575
570.916145	2539.256919
571.271412	2541.107022
571.626625	2538.367155
571.981782	2539.360262
572.336884	2540.670962
572.691931	2542.135418
573.046923	2538.412525
573.401860	2539.088040
573.756743	2537.006043
574.111570	2538.039480
574.466342	2537.338760
574.821059	2538.344470
575.175722	2539.380427
575.530330	2539.481250
575.884882	2541.870757
576.239380	2540.532331
576.593823	2539.748431
576.948211	2543.176416
577.302544	2539.478729
577.656823	2538.193235
578.011047	2539.526620
578.365216	2537.532844
578.719330	2539.256919
579.073389	2539.461085
579.427394	2535.498738
579.781344	2537.008564
580.135239	2541.192722
580.489080	2541.454862
580.842866	2539.950077
581.196597	2544.471992
581.550273	2541.016281
581.903895	2539.950077
582.257463	2542.359749
582.610975	2538.198276
582.964434	2538.064686
583.317837	2538.956970
583.671186	2540.234903
584.024481	2537.386651
584.377721	2540.464275
584.730906	2540.378575
585.084037	2538.352032
585.437113	2537.815149
585.790135	2540.701209
586.143103	2538.357073
586.496016	2540.222300
586.848874	2538.699871
587.201679	2535.229037
587.554428	2536.935467
587.907124	2538.329346
588.259765	2535.193749
588.612352	2539.055272
588.964884	2542.029553
589.317362	2539.279604
589.669786	2539.914789
590.022155	2540.434028
590.374470	2541.306148
590.726731	2538.538554
591.078937	2540.066024
591.431090	2538.341949
591.783188	2536.721218
592.135232	2541.578370
592.487222	2539.070396
592.839157	2540.577701
593.191038	2537.689120
593.542866	2538.588966
593.894639	2537.600900
594.246358	2540.497042
594.598022	2538.024357
594.949633	2538.178112
595.301190	2539.380427
595.652692	2537.890766
596.004141	2537.842875
596.355535	2542.175747
596.706876	2537.434542
597.058162	2537.507638
597.409395	2538.193235
597.760573	2537.885725
598.111698	2539.123328
598.462768	2538.427649
598.813785	2540.227341
599.164748	2541.094419
599.515657	2535.884387
599.866511	2539.198945
600.217312	2537.749614
600.568060	2537.021167
600.918753	2539.861857
601.269392	2538.208359
601.619978	2539.014943
601.970510	2540.716333
602.320988	2536.179294
602.671412	2537.845396
603.021783	2540.950746
603.372100	2538.767927
603.722363	2537.316074
604.072572	2539.418236
604.422728	2539.498894
604.772830	2537.547967
605.122878	2535.851619
605.472872	2537.542926
605.822813	2533.958666
606.172701	2538.596528
606.522534	2537.084181
606.872314	2539.889583
607.222041	2541.288504
607.571714	2539.672814
607.921333	2537.507638
608.270899	2539.367824
608.620411	2539.463606
608.969870	2540.580222
609.319276	2540.799512
609.668627	2543.955274
610.017926	2545.815460
610.367171	2547.809236
610.716362	2548.320913
611.065500	2544.333361
611.414585	2542.581560
611.763616	2541.296065
612.112594	2540.988555
612.461518	2543.035263
612.810389	2538.919161
613.159207	2541.492670
613.507971	2540.676003
613.856682	2540.244985
614.205340	2539.854295
614.553945	2537.835313
614.902496	2537.177443
615.250994	2537.915972
615.599439	2538.626774
615.947830	2538.588966
616.296169	2539.564429
616.644454	2539.619882
616.992686	2536.118800
617.340864	2538.725077
617.688990	2537.679038
618.037063	2540.058462
618.385082	2537.716846
618.733048	2540.318082
619.080961	2541.689275
619.428821	2537.789943
619.776628	2540.945705
620.124382	2540.479398
620.472083	2541.701878
620.819731	2539.798843
621.167326	2537.515200
621.514868	2537.127031
621.862357	2535.776002
622.209793	2540.275232
622.557176	2538.672145
622.904506	2536.801877
623.251783	2535.902031
623.599007	2536.118800
623.946179	2534.818183
624.293297	2535.413039
624.640363	2536.295241
624.987376	2540.492001
625.334336	2538.099974
625.681243	2539.720705
626.028097	2539.894625
626.374899	2538.460416
626.721647	2540.113915
627.068343	2538.566281
627.414987	2538.838503
627.761577	2539.027546
628.108115	2537.676517
628.454600	2534.462781
628.801032	2539.380427
629.147412	2537.684079
629.493739	2540.403781
629.840014	2540.492001
630.186236	2536.801877
630.532405	2539.453524
630.878521	2536.398584
631.224585	2538.808256
631.570597	2538.112577
631.916556	2539.733308
632.262462	2536.527134
632.608316	2538.031918
632.954117	2539.098122
633.299866	2536.842206
633.645562	2538.525951
633.991206	2538.495704
634.336797	2539.400592
634.682336	2536.398584
635.027823	2538.120138
635.373257	2538.112577
635.718639	2540.471837
636.063968	2539.698020
636.409245	2535.886907
636.754470	2538.843544
637.099642	2539.261960
637.444762	2538.813297
637.789829	2538.770447
638.134845	2538.989737
638.479808	2540.726415
638.824719	2537.036290
639.169577	2534.056968
639.514383	2536.207021
639.859137	2537.749614
640.203839	2537.989068
640.548489	2539.108205
640.893086	2533.938501
641.237632	2534.732483
641.582125	2535.763399
641.926566	2532.043027
642.270955	2535.765920
642.615292	2536.040663
642.959576	2538.057124
643.303809	2536.905220
643.647990	2534.959335
643.992118	2536.721218
644.336195	2539.839172
644.680219	2535.269366
645.024192	2537.673996
645.368112	2537.850437
645.711981	2536.885056
646.055797	2535.163502
646.399562	2535.740714
646.743274	2535.561753
647.086935	2539.398071
647.430544	2538.762886
647.774101	2537.540406
648.117606	2537.784902
648.461059	2538.407484
648.804460	2540.277752
649.147810	2539.957639
649.491108	2536.355735
649.834354	2536.718698
650.177548	2534.969417
650.520690	2538.735159
650.863781	2536.219623
651.206820	2541.051569
651.549807	2534.046886
651.892742	2537.515200
652.235626	2535.355066
652.578458	2536.809438
652.921238	2534.427493
653.263967	2537.442103
653.606644	2537.167360
653.949269	2536.761547
654.291843	2534.845909
654.634365	2539.385468
654.976836	2535.430683
655.319255	2536.630477
655.661622	2535.231557
656.003938	2536.716177
656.346203	2538.835982
656.688416	2537.248019
657.030577	2536.738862
657.372687	2536.925385
657.714746	2536.116280
658.056753	2536.643080
658.398708	2531.732997
658.740612	2534.160312
659.082465	2532.090918
659.424266	2535.513862
659.766016	2531.203675
660.107715	2535.942360
660.449362	2536.191897
660.790958	2538.679707
661.132503	2537.429500
661.473996	2537.999151
661.815438	2536.728780
662.156829	2536.426311
662.498168	2536.138965
662.839456	2539.375386
663.180693	2537.681558
663.521879	2535.967566
663.863013	2537.336239
664.204097	2537.172402
664.545129	2537.185004
664.886110	2539.627443
665.227040	2537.089222
665.567918	2536.592669
665.908746	2533.850281
666.249522	2537.358924
666.590248	2538.064686
666.930922	2536.370858
667.271545	2538.626774
667.612118	2536.759027
667.952639	2536.156609
668.293109	2537.464788
668.633528	2539.088040
668.973896	2537.094264
669.314213	2534.268697
669.654480	2537.540406
669.994695	2537.318595
670.334859	2535.448327
670.674973	2536.683410
671.015035	2537.157278
671.355047	2536.504449
671.695008	2538.175591
672.034918	2536.958153
672.374777	2534.598893
672.714585	2536.746424
673.054342	2537.452186
673.394049	2535.478574
673.733705	2535.289531
674.073310	2538.054603
674.412864	2536.441434
674.752368	2535.692823
675.091820	2534.692154
675.431223	2539.065355
675.770574	2536.887576
676.109875	2530.659231
676.449125	2534.520755
676.788324	2531.959848
677.127473	2534.858512
677.466571	2533.026052
677.805619	2537.883204
678.144616	2536.385982
678.483562	2536.869932
678.822458	2536.222144
679.161303	2537.852957
679.500098	2536.156609
679.838842	2536.431352
680.177535	2537.673996
680.516179	2536.164171
680.854771	2538.102494
681.193314	2537.474871
681.531805	2536.857329
681.870247	2537.908410
682.208638	2539.965201
682.546978	2537.484953
682.885268	2534.815662
683.223508	2535.806249
683.561697	2535.781043
683.899836	2536.791794
684.237925	2536.872453
684.575963	2533.512524
684.913951	2537.638708
685.251889	2537.469830
685.589776	2535.811290
685.927614	2538.641898
686.265401	2533.711649
686.603137	2535.009747
686.940824	2535.798687
687.278460	2536.887576
687.616046	2536.514531
687.953582	2536.116280
688.291068	2536.549819
688.628504	2534.987061
688.965889	2537.366486
689.303224	2538.440252
689.640510	2536.078471
689.977745	2536.665766
690.314930	2534.316588
690.652065	2537.197607
690.989150	2536.955632
691.326185	2537.217772
691.663170	2536.827083
692.000105	2538.049562
692.336990	2535.387833
692.673825	2537.169881
693.010610	2537.404295
693.347345	2533.018491
693.684030	2530.646628
694.020665	2534.122503
694.357251	2532.514375
694.693786	2535.745755
695.030272	2536.645601
695.366707	2536.385982
695.703093	2537.288348
696.039429	2532.922709
696.375716	2535.574356
696.711952	2536.849768
697.048139	2535.712987
697.384276	2536.149047
697.720363	2536.345652
698.056400	2535.750796
698.392388	2535.103008
698.728326	2535.516382
699.064214	2534.316588
699.400053	2538.720036
699.735842	2536.612833
700.071581	2534.359438
700.407270	2537.051414
700.742910	2537.303472
701.078501	2538.785571
701.414042	2535.836496
701.749533	2536.512010
702.084974	2535.743234
702.420366	2533.116793
702.755709	2534.929088
703.091002	2535.226516
703.426246	2536.000333
703.761440	2534.747607
704.096584	2533.406660
704.431679	2537.840354
704.766725	2537.021167
705.101721	2535.478574
705.436668	2534.246012
705.771565	2536.207021
706.106413	2533.283151
706.441212	2534.165353
706.775961	2536.222144
707.110661	2537.250539
707.445311	2536.796836
707.779913	2537.500077
708.114465	2537.237937
708.448967	2537.016126
708.783421	2537.484953
709.117825	2531.808614
709.452180	2537.401774
709.786485	2535.450848
710.120742	2534.188038
710.454949	2536.247350
710.789107	2533.255425
711.123216	2532.907585
711.457275	2532.968079
711.791286	2531.420445
712.125247	2533.825075
712.459159	2534.334232
712.793023	2534.828265
713.126837	2537.628626
713.460602	2535.455889
713.794318	2534.132586
714.127985	2534.767771
714.461602	2534.651825
714.795171	2535.896990
715.128691	2534.619057
715.462162	2535.395395
715.795584	2536.887576
716.128957	2534.480425
716.462281	2536.270035
716.795556	2533.383974
717.128782	2533.933460
717.461960	2535.352545
717.795088	2535.271887
718.128167	2535.183666
718.461198	2536.693492
718.794180	2536.494366
719.127113	2535.796167
719.459997	2535.407998
719.792833	2537.666435
720.125619	2533.608306
720.458357	2534.256094
720.791046	2534.114942
721.123686	2536.370858
721.456278	2533.323481
721.788821	2533.625950
722.121315	2533.860363
722.453761	2535.697864
722.786158	2534.634181
723.118506	2535.798687
723.450805	2537.875643
723.783056	2535.592000
724.115259	2535.503780
724.447412	2535.697864
724.779518	2535.700385
725.111574	2533.575538
725.443582	2531.949766
725.775542	2533.835158
726.107453	2532.400949
726.439315	2534.296423
726.771129	2539.385468
727.102895	2536.927906
727.434612	2534.102339
727.766281	2534.835827
728.097901	2533.691485
728.429473	2532.600075
728.760996	2529.943387
729.092471	2529.620753
729.423897	2533.729293
729.755276	2536.940508
730.086606	2534.787936
730.417887	2537.492515
730.749120	2538.720036
731.080305	2532.947915
731.411442	2535.229037
731.742530	2535.155940
732.073570	2534.004036
732.404562	2532.350538
732.735506	2537.623585
733.066401	2535.725590
733.397249	2532.857174
733.728048	2537.240457
734.058798	2535.604603
734.389501	2533.068902
734.720156	2536.786753
735.050762	2533.021011
735.381320	2537.721887
735.711831	2535.750796
736.042293	2536.459078
736.372707	2535.718029
736.703073	2537.474871
737.033391	2534.132586
737.363661	2532.655528
737.693883	2535.022349
738.024056	2537.671476
738.354182	2533.159643
738.684260	2534.253573
739.014290	2532.726104
739.344272	2536.232226
739.674207	2533.149561
740.004093	2538.561239
740.333931	2534.941691
740.663722	2536.222144
740.993464	2535.100487
741.323159	2536.970755
741.652806	2535.523944
741.982405	2536.859850
742.311956	2533.681402
742.641460	2535.216434
742.970915	2531.826258
743.300323	2533.860363
743.629683	2535.768440
743.958996	2534.626619
744.288260	2535.768440
744.617477	2532.486649
744.946647	2529.920702
745.275768	2534.223327
745.604842	2530.175280
745.933869	2529.814837
746.262847	2529.519930
746.591778	2535.662576
746.920662	2531.566638
747.249498	2535.213913
747.578286	2532.479087
747.907027	2535.662576
748.235720	2532.839530
748.564365	2532.713501
748.892963	2537.542926
749.221514	2533.482277
749.550017	2533.202493
749.878473	2535.614685
750.206881	2537.845396
750.535242	2531.695188
750.863555	2532.642925
751.191821	2535.032432
751.520039	2535.193749
751.848210	2533.643594
752.176334	2534.825744
752.504411	2533.686444
752.832440	2533.948584
753.160421	2535.725590
753.488356	2532.937832
753.816243	2531.720394
754.144082	2532.668131
754.471875	2535.430683
754.799620	2530.308871
755.127318	2530.525640
755.454969	2535.095446
755.782572	2534.114942
756.110129	2532.952956
756.437638	2536.106198
756.765100	2530.392050
757.092515	2532.945394
757.419882	2535.430683
757.747203	2536.638039
758.074477	2532.234591
758.401703	2534.661907
758.728882	2532.529499
759.056014	2533.565456
759.383099	2534.016639
759.710138	2534.586290
760.037129	2533.746938
760.364073	2534.251053
760.690970	2530.742410
761.017820	2534.268697
761.344623	2534.220806
761.671379	2533.489839
761.998088	2530.865918
762.324751	2532.635363
762.651366	2528.831812
762.977935	2531.697708
763.304456	2530.137471
763.630931	2535.355066
763.957359	2535.939839
764.283740	2533.535209
764.610074	2534.808100
764.936362	2535.579397
765.262602	2534.233409
765.588796	2532.285003
765.914943	2532.221988
766.241044	2536.315405
766.567097	2534.399767
766.893104	2534.399767
767.219064	2534.777853
767.544978	2533.026052
767.870845	2533.605785
768.196665	2534.256094
768.522438	2535.045035
768.848165	2530.613860
769.173846	2531.254087
769.499479	2531.659900
769.825066	2529.681247
770.150607	2532.378264
770.476101	2533.378933
770.801548	2535.861702
771.126949	2532.229550
771.452303	2535.191228
771.777611	2532.733666
772.102872	2533.958666
772.428087	2532.395908
772.753256	2532.819365
773.078378	2533.300795
773.403453	2536.708615
773.728482	2532.809283
774.053465	2534.112421
774.378401	2533.663758
774.703291	2531.871628
775.028135	2530.989426
775.352932	2533.978831
775.677683	2532.426155
776.002388	2533.000847
776.327046	2532.874818
776.651658	2532.925229
776.976224	2531.637215
777.300743	2533.502442
777.625216	2534.697195
777.949643	2533.396577
778.274024	2534.805580
778.598359	2529.507327
778.922647	2527.727800
779.246889	2530.603778
779.571086	2527.400125
779.895236	2531.954807
780.219339	2533.217616
780.543397	2532.068233
780.867409	2533.169725
781.191374	2534.969417
781.515294	2531.697708
781.839167	2530.291227
782.162995	2531.649817
782.486776	2534.457740
782.810511	2531.037317
783.134201	2532.101001
783.457844	2534.293903
783.781441	2534.803059
784.104993	2534.861033
784.428498	2532.960518
784.751958	2533.852802
785.075372	2533.457071
785.398739	2531.826258
785.722061	2529.986237
786.045337	2531.720394
786.368568	2533.389016
786.691752	2533.512524
787.014891	2531.604447
787.337983	2530.712163
787.661030	2535.776002
787.984031	2533.250384
788.306987	2529.184693
788.629897	2532.350538
788.952760	2531.082688
789.275579	2533.827596
789.598351	2534.694674
789.921078	2533.971269
790.243759	2532.647966
790.566395	2533.459592
790.888984	2532.716022
791.211529	2531.196114
791.534027	2532.844571
791.856480	2531.740558
792.178888	2530.908768
792.501249	2534.682072
792.823566	2533.179808
793.145836	2531.317101
793.468062	2531.470857
793.790241	2531.574200
794.112375	2532.922709
794.434464	2533.930940
794.756507	2531.647297
795.078505	2532.728624
795.400457	2530.719725
795.722364	2526.643952
796.044226	2527.468180
796.366042	2528.385670
796.687812	2529.247708
797.009538	2530.306350
797.331218	2534.777853
797.652852	2533.739376
797.974442	2530.321473
798.295986	2531.738038
798.617484	2533.129396
798.938938	2533.787267
799.260346	2530.815507
799.581709	2530.213089
799.903026	2532.577390
800.224299	2530.669313
800.545526	2531.299457
800.866708	2532.663089
801.187845	2534.780374
801.508936	2531.985054
801.829983	2532.889941
802.150984	2531.765764
802.471940	2531.324663
802.792851	2534.296423
803.113717	2533.157123
803.434538	2530.729807
803.755314	2531.705270
804.076045	2532.106042
804.396731	2529.993798
804.717372	2530.099663
805.037967	2534.309026
805.358518	2532.988244
805.679024	2533.457071
805.999485	2532.864736
806.319901	2534.782895
806.640272	2532.693336
806.960598	2529.373737
807.280879	2529.716535
807.601115	2530.883562
807.921306	2530.931453
808.241453	2529.356093
808.561554	2533.048738
808.881611	2530.996988
809.201623	2533.608306
809.521590	2530.502955
809.841513	2533.351207
810.161390	2531.864067
810.481223	2530.800383
810.801011	2531.158305
811.120755	2530.858356
811.440453	2532.751310
811.760107	2534.558563
812.079716	2529.771988
812.399281	2526.686802
812.718801	2526.157480
813.038276	2525.897861
813.357707	2530.427338
813.677093	2530.460105
813.996434	2532.587472
814.315731	2532.458923
814.634983	2531.914478
814.954191	2532.070754
815.273354	2532.244674
815.592473	2532.169056
815.911547	2531.853984
816.230577	2533.651156
816.549562	2533.331042
816.868502	2530.507996
817.187399	2532.519417
817.506250	2531.642256
817.825058	2531.052441
818.143821	2531.281813
818.462539	2533.971269
818.781213	2531.216278
819.099843	2534.316588
819.418429	2531.475898
819.736970	2531.619571
820.055466	2533.515044
820.373919	2533.401618
820.692327	2533.757020
821.010691	2534.082174
821.329011	2531.274252
821.647286	2534.886238
821.965517	2535.980169
822.283704	2535.733152
822.601847	2533.998995
822.919945	2534.510672
823.237999	2534.329191
823.556010	2536.328008
823.873976	2533.169725
824.191897	2530.712163
824.509775	2534.026722
824.827609	2534.137627
825.145398	2532.552184
825.463144	2532.544622
825.780845	2533.535209
826.098502	2536.385982
826.416116	2535.024870
826.733685	2534.067051
827.051210	2533.255425
827.368692	2534.001516
827.686129	2534.999664
828.003522	2533.318439
828.320872	2529.444313
828.638177	2530.059333
828.955439	2528.993129
829.272656	2528.307532
829.589830	2526.933818
829.906960	2531.922040
830.224046	2531.675023
830.541088	2530.815507
830.858086	2530.366844
831.175041	2528.166380
831.491952	2529.088911
831.808819	2530.341638
832.125642	2530.775177
832.442421	2529.353572
832.759157	2532.340456
833.075849	2532.027904
833.392497	2530.936494
833.709101	2536.317926
834.025662	2532.811803
834.342179	2533.688964
834.658653	2533.179808
834.975083	2533.716691
835.291469	2535.549150
835.607811	2529.938346
835.924110	2529.842564
836.240366	2529.628315
836.556578	2530.689478
836.872746	2532.196783
837.188871	2530.931453
837.504952	2531.395239
837.820990	2528.499096
838.136984	2531.042358
838.452935	2530.197965
838.768842	2531.279293
839.084706	2530.152595
839.400526	2533.464633
839.716303	2531.669982
840.032037	2533.056299
840.347727	2531.440610
840.663373	2531.138140
840.978977	2533.348686
841.294537	2531.591844
841.610054	2531.745599
841.925527	2529.265352
842.240957	2532.842050
842.556344	2531.496062
842.871687	2530.702081
843.186987	2533.963707
843.502244	2530.976823
843.817458	2533.265507
844.132629	2530.349200
844.447756	2531.339787
844.762840	2525.318128
845.077881	2528.778880
845.392879	2526.674199
845.707833	2528.489014
846.022745	2526.729651
846.337613	2530.694519
846.652438	2531.831299
846.967221	2529.600588
847.281960	2528.579755
847.596656	2532.290044
847.911309	2532.327853
848.225919	2530.991947
848.540485	2527.727800
848.855009	2533.205013
849.169490	2529.530012
849.483928	2530.006401
849.798323	2532.116124
850.112675	2532.204344
850.426984	2528.052954
850.741251	2529.421627
851.055474	2529.666123
851.369654	2532.030425
851.683792	2529.809796
851.997887	2529.451874
852.311938	2530.137471
852.625947	2530.523120
852.939914	2527.591689
853.253837	2530.702081
853.567718	2527.211082
853.881555	2531.952287
854.195350	2531.972451
854.509103	2531.496062
854.822812	2529.015815
855.136479	2529.623274
855.450103	2531.254087
855.763685	2529.358613
856.077224	2529.605630
856.390720	2530.114786
856.704173	2529.293078
857.017584	2530.878521
857.330953	2530.041689
857.644278	2530.954138
857.957561	2532.900024
858.270802	2532.847092
858.584000	2530.810465
858.897155	2529.880372
859.210268	2530.434899
859.523339	2529.159488
859.836367	2528.778880
860.149352	2529.847605
860.462295	2530.326515
860.775195	2525.552542
861.088054	2526.838036
861.400869	2530.996988
861.713642	2524.834178
862.026373	2526.157480
862.339062	2529.197296
862.651708	2534.248532
862.964312	2528.882224
863.276873	2532.816845
863.589392	2529.998840
863.901869	2526.850639
864.214303	2531.246525
864.526696	2528.499096
864.839045	2532.403470
865.151353	2531.125537
865.463619	2527.480783
865.775842	2531.128058
866.088023	2529.290557
866.400162	2533.162164
866.712258	2529.789632
867.024313	2528.937677
867.336325	2529.764426
867.648296	2529.474560
867.960224	2528.536905
868.272110	2533.199972
868.583954	2530.354241
868.895755	2532.272400
869.207515	2529.610671
869.519233	2530.147554
869.830909	2529.507327
870.142542	2528.370547
870.454134	2531.173428
870.765684	2531.869108
871.077191	2530.293747
871.388657	2530.177801
871.700081	2530.762574
872.011463	2529.842564
872.322803	2529.550177
872.634101	2531.128058
872.945357	2530.165198
873.256571	2529.313243
873.567744	2531.327184
873.878874	2529.015815
874.189963	2528.783922
874.501010	2531.533871
874.812015	2530.833151
875.122979	2529.683768
875.433900	2530.071936
875.744780	2530.422297
876.055618	2530.422297
876.366415	2529.746782
876.677169	2531.428007
876.987882	2525.597912
877.298554	2526.724610
877.609183	2527.385001
877.919771	2528.801566
878.230317	2526.064219
878.540822	2531.090249
878.851285	2530.379447
879.161707	2530.187883
879.472087	2526.321318
879.782425	2531.334745
880.092722	2530.588655
880.402977	2530.913809
880.713191	2531.722914
881.023363	2532.176618
881.333494	2533.910775
881.643583	2534.845909
881.953631	2533.247863
882.263637	2533.159643
882.573602	2530.923891
882.883526	2533.696526
883.193408	2529.961031
883.503248	2530.258459
883.813048	2532.680733
884.122806	2530.636546
884.432522	2532.867256
884.742197	2528.433561
885.051831	2530.271062
885.361424	2530.271062
885.670975	2530.281144
885.980485	2530.911288
886.289954	2526.943900
886.599382	2528.080681
886.908768	2529.719056
887.218113	2528.153777
887.527417	2531.909437
887.836680	2530.492873
888.145901	2528.685619
888.455082	2530.233253
888.764221	2530.979344
889.073319	2532.363141
889.382376	2530.099663
889.691392	2527.851308
890.000366	2532.068233
890.309300	2527.720238
890.618193	2530.223171
890.927044	2529.076308
891.235855	2531.125538
891.544625	2528.947759
891.853353	2528.403314
892.162041	2529.227543
892.470687	2531.135620
892.779293	2531.380116
893.087858	2524.191430
893.396381	2524.662778
893.704864	2528.332738
894.013306	2524.262007
894.321707	2528.791483
894.630068	2527.843746
894.938387	2527.117820
895.246665	2531.150743
895.554903	2528.690660
895.863100	2531.564118
896.171256	2527.647141
896.479371	2528.373067
896.787446	2526.593540
897.095480	2527.548839
897.403473	2528.151257
897.711425	2530.908768
898.019336	2526.956503
898.327207	2528.667975
898.635038	2528.625125
898.942827	2527.848787
899.250576	2530.744930
899.558284	2529.436751
899.865952	2528.279806
900.173579	2528.536905
900.481165	2529.265352
900.788711	2530.250897
901.096216	2530.634025
901.403681	2530.497914
901.711105	2528.741072
902.018489	2529.671165
902.325832	2531.894313
902.633135	2530.260980
902.940397	2529.101514
903.247619	2529.414066
903.554800	2528.441123
903.861941	2529.315763
904.169041	2530.462626
904.476101	2530.064375
904.783121	2528.761236
905.090100	2527.909281
905.397039	2528.063037
905.703938	2529.086391
906.010796	2528.768798
906.317614	2527.100176
906.624391	2530.949097
906.931129	2528.955321
907.237826	2530.694519
907.544483	2528.022707
907.851099	2528.521782
908.157675	2531.060003
908.464211	2530.258459
908.770707	2525.401307
909.077163	2527.115300
909.383578	2525.383663
909.689954	2523.258817
909.996289	2526.389373
910.302584	2526.827954
910.608839	2528.010104
910.915054	2529.635877
911.221229	2529.242667
911.527363	2530.422297
911.833458	2529.396422
912.139513	2528.143695
912.445527	2530.923891
912.751502	2530.177801
913.057436	2531.123017
913.363331	2529.598068
913.669186	2527.997502
913.975000	2529.282996
914.280775	2528.418438
914.586510	2527.851308
914.892205	2527.299302
915.197859	2532.073274
915.503475	2528.753675
915.809050	2527.521113
916.114585	2532.837009
916.420081	2530.941535
916.725536	2526.984230
917.030952	2528.816689
917.336328	2527.289219
917.641665	2529.792152
917.946961	2530.321473
918.252218	2528.312574
918.557435	2527.279137
918.862612	2530.795342
919.167750	2527.798376
919.472848	2529.363654
919.777906	2530.719725
920.082925	2528.118489
920.387904	2529.028417
920.692843	2527.826102
920.997743	2527.553880
921.302603	2530.084539
921.607423	2528.932636
921.912204	2528.552028
922.216946	2526.898530
922.521647	2530.029087
922.826310	2527.808458
923.130932	2527.770650
923.435516	2530.334076
923.740059	2529.739220
924.044564	2527.904240
924.349028	2528.360465
924.653454	2523.165556
924.957840	2527.800897
925.262186	2525.837367
925.566493	2527.992460
925.870761	2520.849145
926.174989	2527.505989
926.479178	2526.918695
926.783328	2529.068747
927.087438	2529.179652
927.391509	2529.656041
927.695541	2529.267872
927.999533	2530.717204
928.303486	2527.027079
928.607400	2528.587317
928.911275	2528.788963
929.215110	2528.947759
929.518906	2524.738396
929.822663	2529.777029
930.126381	2528.126051
930.430060	2527.412728
930.733699	2529.098994
931.037299	2526.084384
931.340861	2527.321987
931.644383	2527.032121
931.947866	2527.223684
932.251309	2528.917512
932.554714	2530.996988
932.858080	2530.094622
933.161407	2527.790814
933.464694	2531.518747
933.767943	2529.409025
934.071153	2527.468180
934.374323	2528.070598
934.677455	2525.925587
934.980548	2526.749816
935.283602	2524.342665
935.586617	2527.909281
935.889593	2528.920033
936.192530	2528.015146
936.495428	2527.886596
936.798287	2527.362316
937.101108	2528.771319
937.403890	2527.632018
937.706632	2527.584127
938.009336	2529.353572
938.312002	2527.034641
938.614628	2527.059847
938.917216	2527.853829
939.219765	2527.899199
939.522275	2528.428520
939.824747	2528.151257
940.127179	2525.076153
940.429573	2526.036493
940.731929	2529.051103
941.034246	2524.821575
941.336524	2524.998015
941.638763	2528.650331
941.940964	2528.887265
942.243126	2526.099507
942.545250	2526.981709
942.847335	2529.885414
943.149381	2524.556914
943.451389	2529.610671
943.753359	2527.402645
944.055290	2527.016997
944.357182	2527.206040
944.659036	2525.963396
944.960851	2528.055475
945.262628	2527.120341
945.564367	2525.817202
945.866067	2528.236956
946.167729	2528.564631
946.469352	2529.126720
946.770937	2529.701412
947.072484	2529.209899
947.373992	2528.862059
947.675462	2524.945083
947.976893	2526.318797
948.278286	2524.693025
948.579641	2528.247039
948.880958	2527.909281
949.182236	2530.765095
949.483476	2525.668488
949.784678	2525.754188
950.085841	2528.368026
950.386967	2526.316277
950.688054	2525.935670
950.989103	2525.981040
951.290114	2526.059178
951.591087	2527.372398
951.892021	2525.542460
952.192917	2528.426000
952.493776	2527.538757
952.794596	2526.875845
953.095378	2525.691174
953.396122	2528.241998
953.696828	2525.174455
953.997496	2529.361134
954.298126	2526.860721
954.598718	2527.158149
954.899272	2528.950280
955.199788	2527.942049
955.500266	2527.616894
955.800706	2524.506503
956.101108	2522.066584
956.401472	2524.672861
956.701798	2523.689836
957.002087	2527.132944
957.302337	2527.019518
957.602550	2529.396422
957.902724	2528.970444
958.202861	2526.459950
958.502960	2528.617563
958.803022	2528.141174
959.103045	2526.223015
959.403031	2529.109076
959.702979	2528.776360
960.002889	2527.773170
960.302762	2524.299815
960.602596	2529.156967
960.902393	2526.338962
961.202153	2528.327697
961.501875	2526.255783
961.801559	2526.028931
962.101205	2527.347193
962.400814	2528.302491
962.700385	2526.875845
962.999918	2525.577748
963.299414	2523.894002
963.598873	2529.232584
963.898293	2525.912984
964.197677	2529.308202
964.497022	2525.539939
964.796331	2528.330218
965.095601	2527.939528
965.394835	2528.257121
965.694030	2525.875176
965.993189	2530.404652
966.292309	2525.119003
966.591393	2527.979858
966.890439	2526.717048
967.189447	2526.346524
967.488419	2527.334590
967.787353	2525.113962
968.086249	2526.437264
968.385108	2525.383663
968.683930	2524.335103
968.982714	2526.454908
969.281462	2527.014477
969.580172	2525.169414
969.878844	2528.025228
970.177480	2525.469363
970.476078	2526.714528
970.774639	2530.523120
971.073162	2525.933149
971.371649	2523.447860
971.670098	2521.678415
971.968510	2525.638242
972.266885	2520.597088
972.565223	2527.841226
972.863524	2527.909281
973.161788	2529.502286
973.460014	2524.945083
973.758204	2525.862573
974.056356	2526.091945
974.354471	2526.621267
974.652550	2524.892151
974.950591	2527.120341
975.248595	2527.586648
975.546563	2527.264014
975.844493	2527.919364
976.142386	2526.896009
976.440243	2526.830474
976.738062	2527.077491
977.035845	2524.899712
977.333590	2527.042203
977.631299	2524.821575
977.928971	2527.059847
978.226606	2524.839219
978.524204	2528.851977
978.821765	2526.966586
979.119290	2525.786956
979.416777	2524.950124
979.714228	2528.821730
980.011642	2526.311236
980.309020	2528.536905
980.606360	2526.165042
980.903664	2527.218643
981.200931	2527.077491
981.498162	2524.871986
981.795356	2527.223684
982.092513	2527.581606
982.389633	2527.208561
982.686717	2522.331245
982.983764	2529.439272
983.280775	2525.774353
983.577749	2527.523633
983.874686	2530.971782
984.171587	2526.124713
984.468451	2526.800227
984.765279	2526.903571
985.062070	2526.679240
985.358824	2525.454239
985.655543	2525.754188
985.952224	2526.883407
986.248869	2524.312418
986.545478	2522.951307
986.842050	2527.243849
987.138586	2524.105731
987.435086	2522.784948
987.731549	2523.583971
988.027975	2529.714014
988.324366	2527.276617
988.620719	2528.909950
988.917037	2526.215454
989.213318	2526.160001
989.509563	2526.250742
989.805772	2528.090763
990.101944	2525.799558
990.398080	2525.497089
990.694180	2522.696728
990.990244	2526.664116
991.286271	2525.270237
991.582262	2525.335772
991.878217	2526.202851
992.174136	2527.185876
992.470019	2527.112779
992.765865	2527.516071
993.061676	2527.463139
993.357450	2526.528005
993.653188	2526.233098
993.948890	2527.916843
994.244556	2528.441123
994.540186	2525.842408
994.835780	2527.705115
995.131337	2528.267203
995.426859	2528.299971
995.722345	2523.583971
996.017795	2527.369878
996.313208	2529.565300
996.608586	2524.551873
996.903928	2527.349713
997.199234	2527.644621
997.494504	2524.622449
997.789738	2526.142357
998.084936	2525.212264
998.380099	2524.703108
998.675225	2524.337624
998.970316	2527.274096
999.265371	2526.543129
999.560390	2525.421472
999.855373	2526.918695
1000.150320	2526.326359
1000.445232	2525.250073
1000.740108	2525.771832
1001.034948	2525.423993
1001.329752	2526.424662
1001.624521	2527.556401
1001.919254	2518.709176
1002.213951	2523.009280
1002.508613	2521.978364
1002.803239	2524.428365
1003.097829	2520.758405
1003.392384	2527.599250
1003.686903	2525.461801
1003.981386	2527.574045
1004.275834	2526.301153
1004.570246	2525.398787
1004.864623	2525.567665
1005.158964	2527.372398
1005.453270	2526.107069
1005.747540	2525.487007
1006.041775	2524.014990
1006.335974	2527.626977
1006.630138	2527.155629
1006.924266	2527.896678
1007.218359	2528.035310
1007.512416	2527.074970
1007.806438	2525.129085
1008.100425	2526.182686
1008.394376	2525.492048
1008.688292	2526.946421
1008.982172	2524.415762
1009.276017	2525.877696
1009.569827	2525.544980
1009.863602	2530.215609
1010.157341	2525.607995
1010.451045	2527.286699
1010.744714	2524.940042
1011.038347	2525.751668
1011.331945	2524.352747
1011.625508	2527.258973
1011.919036	2526.316277
1012.212528	2528.103366
1012.505986	2525.476925
1012.799408	2527.198479
1013.092795	2523.500792
1013.386147	2525.597912
1013.679464	2523.168076
1013.972745	2526.701925
1014.265992	2525.587830
1014.559204	2523.306708
1014.852380	2524.443488
1015.145521	2525.207223
1015.438628	2525.852491
1015.731699	2528.252080
1016.024736	2525.769312
1016.317737	2525.333252
1016.610703	2527.551359
1016.903635	2523.347037
1017.196531	2522.369053
1017.489393	2524.254445
1017.782219	2522.069105
1018.075011	2526.495238
1018.367768	2526.505320
1018.660490	2525.537418
1018.953177	2525.537418
1019.245829	2525.537418
