Dividing Wavelength (nm)	Counts (n)	Blue Motor Position (mm): 0.000000	Red Motor Position (mm): 32.500000	
326.493990	2143.107926
326.888308	2143.107926
327.282561	2143.107926
327.676750	2117.685387
328.070874	2117.982815
328.464933	2120.760491
328.858929	2131.858591
329.252859	2145.787299
329.646726	2158.198620
330.040528	2173.075065
330.434265	2192.516275
330.827938	2211.024871
331.221547	2231.842316
331.615091	2250.396283
332.008571	2269.497215
332.401986	2293.213323
332.795338	2309.750828
333.188625	2329.323108
333.581847	2350.417816
333.975006	2368.860878
334.368100	2390.189999
334.761129	2405.623492
335.154095	2422.929773
335.546996	2441.297217
335.939833	2456.032510
336.332606	2472.086064
336.725315	2480.550162
337.117960	2490.241780
337.510540	2499.330980
337.903056	2507.028822
338.295508	2511.954029
338.687896	2522.225380
339.080220	2529.744261
339.472480	2532.025383
339.864676	2536.534696
340.256807	2541.112063
340.648875	2547.017775
341.040879	2546.337219
341.432818	2549.462735
341.824694	2548.804864
342.216506	2549.782848
342.608253	2548.235214
342.999937	2546.811088
343.391557	2546.150697
343.783113	2542.866385
344.174605	2542.329502
344.566033	2540.421425
344.957397	2540.640715
345.348697	2539.972763
345.739934	2539.188863
346.131106	2536.151568
346.522215	2533.373892
346.913260	2532.196783
347.304241	2530.933974
347.695159	2527.478263
348.086012	2527.823582
348.476802	2524.935001
348.867528	2524.952645
349.258191	2524.493900
349.648789	2520.155987
350.039324	2520.539114
350.429796	2519.561131
350.820203	2518.174813
351.210548	2518.870493
351.600828	2518.250431
351.991045	2515.775224
352.381198	2517.446367
352.771288	2518.152128
353.161314	2513.093330
353.551276	2520.150946
353.941175	2516.707837
354.331010	2516.435615
354.720782	2516.622138
355.110490	2516.755728
355.500135	2517.950482
355.889717	2519.336799
356.279235	2517.766480
356.668689	2519.510719
357.058080	2517.552231
357.447408	2515.631551
357.836672	2512.105264
358.225873	2516.110461
358.615010	2512.503515
359.004084	2522.565658
359.393095	2520.985257
359.782043	2522.991636
360.170927	2520.158507
360.559748	2523.087418
360.948505	2521.764115
361.337199	2526.548170
361.725830	2522.220339
362.114398	2526.195289
362.502903	2522.706811
362.891344	2524.141019
363.279722	2526.066740
363.668037	2526.200330
364.056289	2524.995494
364.444478	2528.685619
364.832603	2528.821730
365.220665	2528.423479
365.608665	2529.308202
365.996601	2527.536236
366.384474	2528.002543
366.772284	2530.019004
367.160031	2530.888603
367.547715	2528.743592
367.935336	2530.457585
368.322893	2531.115455
368.710388	2529.547656
369.097820	2535.665097
369.485189	2531.251566
369.872495	2535.637370
370.259738	2533.426824
370.646918	2531.128058
371.034035	2531.818696
371.421090	2534.278779
371.808081	2532.380785
372.195010	2536.718698
372.581875	2534.800539
372.968678	2537.497556
373.355418	2537.928575
373.742096	2538.563760
374.128710	2539.292207
374.515262	2542.137938
374.901751	2541.031405
375.288177	2541.890922
375.674540	2540.585263
376.060841	2543.766231
376.447079	2547.537014
376.833254	2548.877961
377.219367	2549.641696
377.605417	2549.316541
377.991404	2551.862324
378.377329	2554.513971
378.763191	2553.999773
379.148991	2563.157029
379.534727	2567.996537
379.920402	2572.541137
380.306013	2573.607341
380.691563	2579.432394
381.077049	2583.346850
381.462474	2588.526636
381.847835	2590.361616
382.233134	2595.571648
382.618371	2604.789398
383.003545	2609.805346
383.388657	2612.973711
383.773706	2623.313118
384.158693	2628.180352
384.543618	2634.882566
384.928480	2638.257618
385.313280	2647.765235
385.698017	2653.691111
386.082692	2664.244767
386.467305	2668.776764
386.851856	2679.804288
387.236344	2691.330886
387.620770	2698.693491
388.005133	2706.013247
388.389435	2719.465566
388.773674	2723.679970
389.157851	2731.244222
389.541965	2742.077661
389.926018	2745.747621
390.310008	2758.544590
390.693936	2768.490787
391.077802	2775.412291
391.461606	2785.444187
391.845348	2794.306536
392.229027	2802.813483
392.612645	2819.774445
392.996200	2826.922801
393.379694	2841.953001
393.763125	2853.948427
394.146494	2863.698018
394.529801	2876.074051
394.913047	2892.417472
395.296230	2896.233625
395.679351	2901.723442
396.062410	2919.092738
396.445408	2912.854310
396.828343	2926.818306
397.211217	2935.264759
397.594028	2928.945673
397.976778	2939.660645
398.359466	2956.845939
398.742092	2954.501802
399.124656	2971.545943
399.507158	2983.110350
399.889598	2988.204436
400.271977	3000.842609
400.654294	3006.778568
401.036549	3021.128212
401.418742	3024.183151
401.800874	3049.817418
402.182944	3056.759087
402.564952	3086.224632
402.946898	3074.370358
403.328783	3085.236565
403.710606	3102.285748
404.092367	3123.781228
404.474067	3150.950526
404.855705	3141.440390
405.237282	3139.912920
405.618797	3171.379802
406.000250	3193.263451
406.381642	3229.179152
406.762972	3228.672516
407.144240	3217.145917
407.525447	3242.157602
407.906593	3238.840523
408.287677	3262.354985
408.668700	3278.768982
409.049661	3277.072634
409.430560	3295.699697
409.811399	3298.411838
410.192176	3318.422698
410.572891	3324.973678
410.953545	3367.521016
411.334138	3333.818382
411.714669	3386.107750
412.095139	3331.108762
412.475547	3382.873850
412.855894	3374.858416
413.236180	3403.444278
413.616405	3384.635733
413.996568	3407.651121
414.376670	3410.496853
414.756711	3403.572828
415.136691	3435.148095
415.516609	3454.054943
415.896466	3461.344451
416.276262	3488.014675
416.655997	3519.042977
417.035670	3526.067825
417.415283	3590.309769
417.794834	3613.315075
418.174324	3595.716407
418.553753	3594.627518
418.933121	3641.008653
419.312428	3631.395173
419.691674	3624.735809
420.070859	3660.003721
420.449983	3645.586021
420.829045	3692.695604
421.208047	3678.109025
421.586988	3723.476889
421.965867	3754.784975
422.344686	3761.935852
422.723444	3798.489258
423.102141	3705.074157
423.480777	3807.389416
423.859352	3774.137965
424.237866	3874.237636
424.616319	3861.110472
424.994712	3914.377824
425.373044	3904.091349
425.751314	3971.622646
426.129524	3904.552615
426.507673	4008.644880
426.885762	3981.016836
427.263789	4003.439889
427.641756	4006.857791
428.019662	4036.872821
428.397508	4041.659397
428.775292	4077.441507
429.153016	4084.836879
429.530679	4096.423971
429.908282	4108.651290
430.285824	4085.514914
430.663305	4159.398065
431.040726	4115.577835
431.418086	4107.738841
431.795385	4179.592928
432.172624	4212.310016
432.549802	4180.076878
432.926920	4202.691494
433.303977	4193.957695
433.680974	4235.890013
434.057910	4259.371708
434.434786	4263.893623
434.811601	4260.793313
435.188355	4365.293912
435.565050	4336.985312
435.941683	4328.720341
436.318257	4419.075462
436.694770	4428.257923
437.071222	4480.524606
437.447614	4417.288372
437.823946	4418.528496
438.200218	4439.885345
438.576429	4420.262653
438.952580	4446.438845
439.328670	4449.473619
439.704700	4491.201770
440.080670	4453.859423
440.456580	4516.281511
440.832429	4554.382551
441.208218	4455.003765
441.583947	4506.360520
441.959616	4524.160834
442.335224	4546.523393
442.710773	4567.890323
443.086261	4625.263695
443.461689	4574.022887
443.837057	4592.486113
444.212365	4661.330630
444.587612	4667.475797
444.962800	4631.809633
445.337927	4675.589534
445.712995	4560.941093
446.088002	4754.957460
446.462949	4776.520996
446.837837	4795.760559
447.212664	4781.859577
447.587431	5002.493237
447.962139	5301.494154
448.336786	5636.549403
448.711374	5625.032887
449.085901	5273.853508
449.460369	5208.857911
449.834776	5144.865504
450.209124	5378.780084
450.583412	5388.421291
450.957640	5510.422255
451.331808	5371.341861
451.705917	5226.360797
452.079965	5220.860898
452.453954	5258.823308
452.827883	5215.940732
453.201752	5226.479264
453.575562	5257.734418
453.949311	5392.945726
454.323001	5397.263474
454.696632	5389.575715
455.070202	5541.591709
455.443713	5573.366102
455.817164	5663.184340
456.190556	5737.906843
456.563888	5712.940528
456.937160	5786.677486
457.310373	5629.053208
457.683526	5692.642322
458.056619	5688.107804
458.429653	5660.147045
458.802628	5709.250404
459.175542	5739.280557
459.548398	5875.174941
459.921194	6061.616975
460.293930	6123.114011
460.666607	6369.341609
461.039224	6589.272028
461.411782	6713.644855
461.784280	6629.565970
462.156719	6638.423278
462.529099	6594.716474
462.901419	6450.993178
463.273680	6327.351318
463.645882	6307.330375
464.018024	6313.616694
464.390106	6377.712445
464.762130	6636.593339
465.134094	7018.516195
465.505999	7651.549007
465.877845	8355.851132
466.249631	8709.949340
466.621358	8635.582238
466.993026	8444.192312
467.364634	8229.567707
467.736184	7947.527752
468.107674	7795.630225
468.479105	7706.744601
468.850477	7645.366032
469.221790	7471.214331
469.593043	7247.918942
469.964238	7152.217678
470.335373	7125.207175
470.706449	7276.535052
471.077467	7454.273534
471.448425	8109.943647
471.819324	8693.847894
472.190164	8742.500070
472.560945	8258.357737
472.931667	7789.893392
473.302330	7597.991789
473.672934	7474.990156
474.043479	7552.245838
474.413965	7456.925181
474.784393	7408.318375
475.154761	7556.190541
475.525070	7568.954743
475.895321	7519.422886
476.265513	7617.135571
476.635645	7781.212525
477.005719	7766.946060
477.375734	7857.845626
477.745691	7962.230278
478.115588	8166.424735
478.485427	8396.533243
478.855207	8871.122590
479.224928	9298.317528
479.594591	9683.529738
479.964194	9694.529536
480.333739	9779.304099
480.703226	9777.229664
481.072653	9877.435200
481.442022	9987.246654
481.811333	10143.298092
482.180584	9984.975614
482.549777	9917.154451
482.918912	9853.588022
483.287988	9838.953552
483.657005	9758.746274
484.025964	9669.777470
484.394864	9730.951872
484.763706	9691.083907
485.132489	9600.174259
485.501213	9592.917518
485.869879	9650.416919
486.238487	9590.817877
486.607036	9668.842336
486.975527	9612.157082
487.343959	9663.002159
487.712333	9705.204179
488.080648	9742.997709
488.448905	9843.886321
488.817104	9850.293628
489.185244	10013.987455
489.553326	10221.670390
489.921350	10686.162306
490.289315	11310.063067
490.657222	11598.041502
491.025070	11770.857297
491.392861	11695.885257
491.760593	11534.003724
492.128267	11285.046342
492.495883	11038.443178
492.863440	10810.608230
493.230939	10584.290669
493.598380	10400.452391
493.965763	10377.608402
494.333088	10243.226364
494.700354	10171.173152
495.067563	10145.858998
495.434713	10145.417897
495.801805	10180.332929
496.168839	10143.323298
496.535815	10103.548594
496.902733	10151.502570
497.269593	10106.154871
497.636395	10111.198545
498.003139	10206.405777
498.369825	10137.185693
498.736453	10223.238189
499.103023	10172.781280
499.469535	10168.029993
499.835989	10206.496517
500.202385	10177.585500
500.568723	10194.916987
500.935003	10246.130069
501.301226	10212.137568
501.667390	10371.616991
502.033497	10466.635179
502.399546	10390.307069
502.765537	10297.431371
503.131470	10385.399506
503.497345	10473.244132
503.863163	10240.282330
504.228923	10366.296053
504.594625	10468.079470
504.960269	10371.120437
505.325856	10509.842909
505.691385	10382.480678
506.056856	10431.231156
506.422270	10517.049238
506.787625	10450.201018
507.152924	10493.388583
507.518164	10542.028156
507.883347	10401.140508
508.248472	10457.747625
508.613540	10549.887314
508.978550	10610.731521
509.343503	10579.516696
509.708398	10610.925605
510.073236	10720.986597
510.438016	10729.012113
510.802738	10622.190063
511.167403	10728.490354
511.532010	10770.016859
511.896561	10849.044507
512.261053	11010.200113
512.625488	10912.754609
512.989866	10884.380475
513.354186	10840.920688
513.718449	10831.166055
514.082655	10934.106417
514.446803	10874.663651
514.810894	10960.514501
515.174927	10932.488206
515.538904	10893.464634
515.902822	11011.039465
516.266684	10867.850532
516.630488	10932.740264
516.994235	10897.406817
517.357925	10974.889351
517.721558	11000.614359
518.085133	11026.188133
518.448651	11023.516321
518.812112	10964.905346
519.175516	10941.448857
519.538863	10988.273615
519.902152	10964.330654
520.265385	11023.355004
520.628560	11008.854125
520.991678	10933.564492
521.354739	10936.286716
521.717743	10964.804523
522.080690	10895.168544
522.443580	10971.045471
522.806413	10949.882708
523.169189	10896.675849
523.531908	10918.990517
523.894569	10836.194606
524.257174	10800.662033
524.619722	10843.093425
524.982213	10777.684454
525.344647	10736.679708
525.707025	10701.164780
526.069345	10719.827131
526.431608	10673.463639
526.793815	10682.278097
527.155964	10554.888139
527.518057	10527.018120
527.880093	10446.127765
528.242072	10474.915274
528.603995	10371.097752
528.965860	10329.551083
529.327669	10294.557913
529.689421	10207.459378
530.051117	10162.580506
530.412755	10134.418100
530.774337	10078.879708
531.135862	9996.829888
531.497331	9976.206527
531.858743	9897.151153
532.220098	9903.160208
532.581396	9793.028641
532.942638	9680.016054
533.303824	9662.414865
533.664953	9591.601777
534.026025	9505.463581
534.387040	9508.105146
534.747999	9426.536756
535.108902	9392.211539
535.469748	9255.981918
535.830537	9207.962408
536.191270	9176.503087
536.551947	9073.005678
536.912567	9043.703971
537.273131	8998.368875
537.633638	8863.011373
537.994089	8837.593876
538.354483	8723.532729
538.714821	8736.017146
539.075103	8720.245896
539.435328	8615.820915
539.795497	8534.491980
540.155609	8469.516548
540.515665	8456.951472
540.875665	8314.674987
541.235609	8298.293758
541.595496	8218.832570
541.955328	8236.819407
542.315102	8101.330836
542.674821	8000.293510
543.034483	7935.499559
543.394090	7875.497226
543.753640	7795.983106
544.113134	7846.165272
544.472571	7666.639701
544.831953	7730.722849
545.191278	7579.732730
545.550548	7478.980229
545.909761	7465.885832
546.268918	7421.851353
546.628019	7380.281998
546.987064	7264.469050
547.346053	7140.267622
547.704986	7157.591548
548.063863	7050.388891
548.422684	7003.521283
548.781449	6922.525064
549.140158	6893.727473
549.498811	6812.085987
549.857408	6701.462907
550.215949	6710.118568
550.574434	6632.852803
550.932864	6550.117386
551.291237	6557.936215
551.649555	6463.311237
552.007817	6420.030411
552.366022	6332.841134
552.724173	6279.299039
553.082267	6252.429689
553.440305	6217.207147
553.798288	6104.444098
554.156215	6065.644857
554.514086	6022.200193
554.871902	5946.613133
555.229661	5895.861316
555.587365	5824.944884
555.945014	5774.205671
556.302606	5706.293767
556.660143	5669.405124
557.017625	5620.964676
557.375050	5557.546961
557.732421	5521.719481
558.089735	5470.367767
558.446994	5406.617335
558.804197	5386.074633
559.161345	5328.676056
559.518437	5235.407148
559.875474	5202.712745
560.232455	5159.578112
560.589381	5115.919199
560.946251	5055.296803
561.303065	5039.323907
561.659825	4981.776616
562.016528	4912.125513
562.373177	4850.119321
562.729770	4830.456301
563.086307	4762.219242
563.442789	4738.251076
563.799216	4699.086352
564.155587	4641.097959
564.511904	4602.150005
564.868164	4557.903797
565.224370	4527.109909
565.580520	4477.089060
565.936615	4445.372641
566.292654	4390.045977
566.648638	4361.613869
567.004567	4320.924196
567.360441	4282.770223
567.716260	4240.427052
568.072023	4212.229358
568.427732	4171.421217
568.783385	4119.462044
569.138982	4099.715845
569.494525	4066.217377
569.850013	4020.756252
570.205445	3989.049915
570.560823	3955.430460
570.916145	3921.274122
571.271412	3888.776324
571.626625	3852.356508
571.981782	3819.992300
572.336884	3784.706744
572.691931	3763.881737
573.046923	3722.753484
573.401860	3692.872044
573.756743	3666.378260
574.111570	3638.351965
574.466342	3610.250053
574.821059	3588.331116
575.175722	3550.676218
575.530330	3526.340048
575.884882	3501.340966
576.239380	3469.548929
576.593823	3448.499591
576.948211	3419.344078
577.302544	3389.142525
577.656823	3373.086450
578.011047	3354.683718
578.365216	3328.802434
578.719330	3307.818631
579.073389	3283.631175
579.427394	3262.511261
579.781344	3244.985690
580.135239	3225.294943
580.489080	3208.344063
580.842866	3184.653160
581.196597	3179.480937
581.550273	3160.407731
581.903895	3144.144969
582.257463	3134.894451
582.610975	3112.337808
582.964434	3102.391612
583.317837	3087.116916
583.671186	3068.716704
584.024481	3056.895198
584.377721	3043.248795
584.730906	3030.184645
585.084037	3018.214425
585.437113	3002.337311
585.790135	2991.841629
586.143103	2978.800164
586.496016	2969.446303
586.848874	2954.406020
587.201679	2944.255657
587.554428	2930.493307
587.907124	2924.252358
588.259765	2916.161307
588.612352	2909.471695
588.964884	2894.227246
589.317362	2884.583519
589.669786	2879.958260
590.022155	2870.536344
590.374470	2866.402597
590.726731	2856.572347
591.078937	2845.184381
591.431090	2839.127435
591.783188	2828.344407
592.135232	2821.775783
592.487222	2815.512149
592.839157	2810.775985
593.191038	2801.699388
593.542866	2796.191927
593.894639	2789.177162
594.246358	2783.551234
594.598022	2777.514452
594.949633	2770.938267
595.301190	2766.307967
595.652692	2760.109869
596.004141	2757.571648
596.355535	2749.334402
596.706876	2743.839545
597.058162	2741.384503
597.409395	2739.178998
597.760573	2735.604820
598.111698	2729.373954
598.462768	2727.753223
598.813785	2723.059908
599.164748	2720.587222
599.515657	2717.305431
599.866511	2710.005841
600.217312	2708.412836
600.568060	2706.035932
600.918753	2704.581559
601.269392	2702.439069
601.619978	2698.688450
601.970510	2699.724407
602.320988	2696.382122
602.671412	2696.351875
603.021783	2691.116637
603.372100	2688.076821
603.722363	2684.406861
604.072572	2686.188909
604.422728	2685.969619
604.772830	2678.601973
605.122878	2675.821776
605.472872	2676.280521
605.822813	2672.398833
606.172701	2673.381858
606.522534	2673.664162
606.872314	2673.596107
607.222041	2672.333298
607.571714	2672.580314
607.921333	2668.136537
608.270899	2666.571259
608.620411	2667.642504
608.969870	2667.234171
609.319276	2664.222081
609.668627	2664.988337
610.017926	2664.065806
610.367171	2663.349962
610.716362	2661.751916
611.065500	2662.039262
611.414585	2660.723521
611.763616	2659.024652
612.112594	2660.055568
612.461518	2659.775784
612.810389	2656.514157
613.159207	2660.015238
613.507971	2657.729075
613.856682	2658.260917
614.205340	2657.479538
614.553945	2657.960968
614.902496	2655.700011
615.250994	2655.952068
615.599439	2654.858138
615.947830	2653.330668
616.296169	2653.726399
616.644454	2653.456697
616.992686	2651.228507
617.340864	2655.102634
617.688990	2652.027530
618.037063	2654.338899
618.385082	2650.527787
618.733048	2651.525935
619.080961	2650.558034
619.428821	2652.191368
619.776628	2651.488127
620.124382	2649.998466
620.472083	2650.043836
620.819731	2651.813281
621.167326	2645.637868
621.514868	2646.920841
621.862357	2643.087044
622.209793	2646.288177
622.557176	2642.925727
622.904506	2640.758031
623.251783	2638.245016
623.599007	2640.601755
623.946179	2637.761065
624.293297	2635.439613
624.640363	2637.909779
624.987376	2640.032105
625.334336	2637.982876
625.681243	2637.501445
626.028097	2633.839047
626.374899	2636.394912
626.721647	2635.096815
627.068343	2636.775519
627.414987	2633.133286
627.761577	2633.226547
628.108115	2633.473563
628.454600	2635.749644
628.801032	2633.604633
629.147412	2630.118676
629.493739	2634.416259
629.840014	2631.134468
630.186236	2629.538943
630.532405	2631.305867
630.878521	2630.743779
631.224585	2632.132617
631.570597	2628.102214
631.916556	2631.439458
632.262462	2628.865949
632.608316	2631.227729
632.954117	2628.248407
633.299866	2628.820578
633.645562	2627.658592
633.991206	2627.736730
634.336797	2627.661113
634.682336	2626.559621
635.027823	2623.355968
635.373257	2626.627677
635.718639	2624.278499
636.063968	2624.308746
636.409245	2623.850001
636.754470	2624.407048
637.099642	2625.208592
637.444762	2622.902264
637.789829	2622.524177
638.134845	2621.470576
638.479808	2619.759104
638.824719	2622.249434
639.169577	2621.468056
639.514383	2617.251130
639.859137	2620.200205
640.203839	2620.754732
640.548489	2621.762963
640.893086	2616.852879
641.237632	2614.206273
641.582125	2617.364556
641.926566	2613.097220
642.270955	2615.552262
642.615292	2617.331789
642.959576	2619.610390
643.303809	2616.653754
643.647990	2618.823970
643.992118	2619.711213
644.336195	2617.409927
644.680219	2616.326079
645.024192	2618.445884
645.368112	2615.660646
645.711981	2617.883795
646.055797	2618.110647
646.399562	2619.718775
646.743274	2618.287087
647.086935	2618.453446
647.430544	2618.297170
647.774101	2621.044599
648.117606	2619.751543
648.461059	2618.496295
648.804460	2621.122737
649.147810	2618.750874
649.491108	2618.067797
649.834354	2619.464197
650.177548	2614.722992
650.520690	2615.229628
650.863781	2616.512601
651.206820	2619.862448
651.549807	2614.962447
651.892742	2613.813063
652.235626	2616.578136
652.578458	2613.727364
652.921238	2612.053701
653.263967	2612.381376
653.606644	2612.141921
653.949269	2610.531272
654.291843	2612.356170
654.634365	2612.895573
654.976836	2610.979935
655.319255	2612.734257
655.661622	2612.051180
656.003938	2613.497991
656.346203	2609.787702
656.688416	2612.943464
657.030577	2612.895573
657.372687	2610.127980
657.714746	2611.257198
658.056753	2611.010182
658.398708	2604.827207
658.740612	2607.574636
659.082465	2608.262753
659.424266	2604.953236
659.766016	2605.593462
660.107715	2609.291148
660.449362	2611.892384
660.790958	2611.118567
661.132503	2611.063114
661.473996	2609.825511
661.815438	2613.591253
662.156829	2611.789040
662.498168	2609.573453
662.839456	2610.395161
663.180693	2611.093361
663.521879	2611.098402
663.863013	2610.614451
664.204097	2608.902980
664.545129	2611.345419
664.886110	2612.192332
665.227040	2611.239554
665.567918	2611.569750
665.908746	2613.210646
666.249522	2612.283073
666.590248	2609.855758
666.930922	2611.544544
667.271545	2612.945985
667.612118	2609.729729
667.952639	2608.643360
668.293109	2610.006992
668.633528	2611.486571
668.973896	2611.363063
669.314213	2609.727208
669.654480	2607.017588
669.994695	2611.100923
670.334859	2610.264091
670.674973	2608.640840
671.015035	2609.686879
671.355047	2608.441714
671.695008	2609.394492
672.034918	2609.679317
672.374777	2608.136724
672.714585	2610.337188
673.054342	2608.986159
673.394049	2608.650922
673.733705	2611.126128
674.073310	2610.440532
674.412864	2610.644698
674.752368	2610.755604
675.091820	2609.901128
675.431223	2608.855089
675.770574	2608.620675
676.109875	2601.772267
676.449125	2605.956425
676.788324	2604.741507
677.127473	2603.284614
677.466571	2602.677155
677.805619	2606.707557
678.144616	2605.812752
678.483562	2605.719491
678.822458	2606.636981
679.161303	2606.374841
679.500098	2603.466095
679.838842	2607.554471
680.177535	2606.029522
680.516179	2606.062289
680.854771	2604.940633
681.193314	2607.937599
681.531805	2607.277207
681.870247	2606.954574
682.208638	2612.560337
682.546978	2610.465737
682.885268	2609.603700
683.223508	2610.533793
683.561697	2609.696961
683.899836	2607.834255
684.237925	2606.742845
684.575963	2610.284256
684.913951	2607.352825
685.251889	2607.073041
685.589776	2606.692434
685.927614	2608.446755
686.265401	2607.738473
686.603137	2608.320726
686.940824	2607.995572
687.278460	2610.576643
687.616046	2608.673607
687.953582	2609.850717
688.291068	2611.375666
688.628504	2611.531941
688.965889	2610.652260
689.303224	2613.392127
689.640510	2610.269132
689.977745	2606.999944
690.314930	2608.885336
690.652065	2608.519852
690.989150	2606.833586
691.326185	2606.538678
691.663170	2606.765530
692.000105	2605.497680
692.336990	2601.298399
692.673825	2604.202104
693.010610	2602.745210
693.347345	2599.284458
693.684030	2597.953593
694.020665	2598.961824
694.357251	2596.408480
694.693786	2597.429313
695.030272	2599.440734
695.366707	2599.067688
695.703093	2597.956114
696.039429	2601.860488
696.375716	2597.348655
696.711952	2596.663058
697.048139	2597.043665
697.384276	2595.738006
697.720363	2598.089705
698.056400	2596.723552
698.392388	2597.262955
698.728326	2598.803028
699.064214	2596.537029
699.400053	2595.241453
699.735842	2596.872266
700.071581	2599.539036
700.407270	2598.523244
700.742910	2597.542739
701.078501	2595.642224
701.414042	2596.600044
701.749533	2594.719693
702.084974	2594.238263
702.420366	2594.863366
702.755709	2597.194900
703.091002	2593.731627
703.426246	2595.795980
703.761440	2595.226329
704.096584	2593.711462
704.431679	2594.931422
704.766725	2592.768767
705.101721	2592.352872
705.436668	2593.756833
705.771565	2593.741709
706.106413	2593.429158
706.441212	2593.562748
706.775961	2594.933942
707.110661	2593.124168
707.445311	2594.356730
707.779913	2595.674992
708.114465	2594.233222
708.448967	2591.122830
708.783421	2598.026690
709.117825	2597.898141
709.452180	2597.094077
709.786485	2595.390167
710.120742	2594.591144
710.454949	2600.380909
710.789107	2592.418407
711.123216	2593.040989
711.457275	2598.170363
711.791286	2595.551484
712.125247	2596.534509
712.459159	2599.024839
712.793023	2602.077257
713.126837	2599.178594
713.460602	2600.769078
713.794318	2600.098604
714.127985	2596.211875
714.461602	2597.709097
714.795171	2599.725559
715.128691	2592.907398
715.462162	2595.473346
715.795584	2594.477718
716.128957	2597.341093
716.462281	2593.310691
716.795556	2593.640886
717.128782	2595.261617
717.461960	2594.061823
717.795088	2593.804724
718.128167	2593.141812
718.461198	2592.824219
718.794180	2593.867738
719.127113	2590.338931
719.459997	2593.693818
719.792833	2591.478231
720.125619	2590.732141
720.458357	2590.454877
720.791046	2591.107707
721.123686	2591.594178
721.456278	2593.051071
721.788821	2588.572006
722.121315	2588.738364
722.453761	2588.750967
722.786158	2591.543766
723.118506	2590.734661
723.450805	2590.338931
723.783056	2589.539908
724.115259	2587.316759
724.447412	2587.536049
724.779518	2591.349682
725.111574	2591.306832
725.443582	2588.090576
725.775542	2589.628128
726.107453	2589.991091
726.439315	2591.329517
726.771129	2594.649117
727.102895	2591.032089
727.434612	2593.134250
727.766281	2591.337079
728.097901	2589.481934
728.429473	2587.417582
728.760996	2591.223653
729.092471	2589.237438
729.423897	2591.548808
729.755276	2590.054105
730.086606	2592.703232
730.417887	2591.435382
730.749120	2590.769949
731.080305	2592.849425
731.411442	2595.140630
731.742530	2596.542070
732.073570	2595.206165
732.404562	2594.734817
732.735506	2598.931577
733.066401	2593.953438
733.397249	2595.327152
733.728048	2590.520412
734.058798	2591.848756
734.389501	2593.424117
734.720156	2593.189703
735.050762	2589.454208
735.381320	2590.898499
735.711831	2587.815833
736.042293	2589.718869
736.372707	2587.077304
736.703073	2590.873293
737.033391	2587.745257
737.363661	2590.338931
737.693883	2590.152408
738.024056	2590.739702
738.354182	2590.502768
738.684260	2590.991760
739.014290	2587.835998
739.344272	2592.057964
739.674207	2591.634507
740.004093	2591.213571
740.333931	2589.703745
740.663722	2590.359095
740.993464	2593.202306
741.323159	2592.683067
741.652806	2591.629466
741.982405	2592.738520
742.311956	2589.610484
742.641460	2590.810278
742.970915	2590.406986
743.300323	2589.885227
743.629683	2588.299784
743.958996	2587.253744
744.288260	2588.327510
744.617477	2589.524784
744.946647	2584.629824
745.275768	2585.759042
745.604842	2583.195616
745.933869	2582.565471
746.262847	2582.835173
746.591778	2586.794999
746.920662	2587.767942
747.249498	2587.473035
747.578286	2587.936821
747.907027	2586.595874
748.235720	2586.885740
748.564365	2587.352047
748.892963	2584.337437
749.221514	2588.340113
749.550017	2587.757860
749.878473	2585.806933
750.206881	2587.410020
750.535242	2587.667119
750.863555	2586.545462
751.191821	2587.778024
751.520039	2587.321800
751.848210	2586.817685
752.176334	2586.270719
752.504411	2584.677715
752.832440	2585.716193
753.160421	2584.506316
753.488356	2586.464804
753.816243	2585.738878
754.144082	2585.562437
754.471875	2584.216449
754.799620	2585.423806
755.127318	2584.869279
755.454969	2582.726788
755.782572	2587.089907
756.110129	2584.715523
756.437638	2587.450349
756.765100	2584.723085
757.092515	2584.869279
757.419882	2586.295925
757.747203	2586.182499
758.074477	2586.336254
758.401703	2583.026737
758.728882	2585.247365
759.056014	2583.919021
759.383099	2583.798033
759.710138	2585.741398
760.037129	2587.924218
760.364073	2587.578899
760.690970	2583.225862
761.017820	2588.962696
761.344623	2588.382963
761.671379	2591.531163
761.998088	2584.390369
762.324751	2587.662078
762.651366	2590.505289
762.977935	2596.811772
763.304456	2600.234716
763.630931	2607.587238
763.957359	2604.514655
764.283740	2604.963318
764.610074	2601.547936
764.936362	2597.673809
765.262602	2592.488983
765.588796	2590.238107
765.914943	2589.547469
766.241044	2588.171234
766.567097	2585.668302
766.893104	2586.636203
767.219064	2584.274422
767.544978	2585.970771
767.870845	2582.351222
768.196665	2585.194433
768.522438	2582.580595
768.848165	2583.442632
769.173846	2579.573547
769.499479	2582.225193
769.825066	2580.861561
770.150607	2581.287539
770.476101	2576.483319
770.801548	2581.849627
771.126949	2579.205542
771.452303	2582.205029
771.777611	2577.214287
772.102872	2580.738053
772.428087	2580.009606
772.753256	2577.579770
773.078378	2577.229410
773.403453	2579.071952
773.728482	2576.112794
774.053465	2580.337281
774.378401	2577.315110
774.703291	2577.788978
775.028135	2576.316961
775.352932	2578.593042
775.677683	2577.816704
776.002388	2579.969277
776.327046	2577.400809
776.651658	2579.641602
776.976224	2577.168916
777.300743	2578.716550
777.625216	2578.812332
777.949643	2577.794019
778.274024	2577.945254
778.598359	2572.405026
778.922647	2574.141703
779.246889	2570.323029
779.571086	2569.992834
779.895236	2573.677917
780.219339	2576.987435
780.543397	2576.412743
780.867409	2577.345357
781.191374	2577.352918
781.515294	2576.742939
781.839167	2577.131107
782.162995	2575.094481
782.486776	2578.840059
782.810511	2576.687486
783.134201	2577.620099
783.457844	2575.104564
783.781441	2576.639595
784.104993	2578.199832
784.428498	2575.490212
784.751958	2577.110943
785.075372	2579.175295
785.398739	2576.493402
785.722061	2575.863257
786.045337	2576.117836
786.368568	2573.161199
786.691752	2576.667321
787.014891	2578.777044
787.337983	2577.960377
787.661030	2580.115471
787.984031	2578.446849
788.306987	2579.369380
788.629897	2581.592529
788.952760	2580.392734
789.275579	2580.672518
789.598351	2581.741243
789.921078	2578.393917
790.243759	2581.685790
790.566395	2576.725295
790.888984	2578.174626
791.211529	2577.451221
791.534027	2576.364852
791.856480	2575.654049
792.178888	2578.214956
792.501249	2575.449883
792.823566	2576.712692
793.145836	2577.020202
793.468062	2577.481468
793.790241	2577.796540
794.112375	2574.842424
794.434464	2576.100192
794.756507	2576.155644
795.078505	2576.334605
795.400457	2574.514749
795.722364	2573.614903
796.044226	2574.466858
796.366042	2576.637074
796.687812	2573.118349
797.009538	2578.144379
797.331218	2579.225707
797.652852	2575.273442
797.974442	2578.809812
798.295986	2578.156982
798.617484	2579.157651
798.938938	2577.536920
799.260346	2577.781416
799.581709	2576.274111
799.903026	2579.538258
800.224299	2575.091961
800.545526	2577.693196
800.866708	2575.026426
801.187845	2575.611200
801.508936	2572.606672
801.829983	2576.314441
802.150984	2574.572722
802.471940	2576.022054
802.792851	2575.979204
803.113717	2574.605489
803.434538	2576.629513
803.755314	2575.149934
804.076045	2576.349729
804.396731	2574.151786
804.717372	2573.698082
805.037967	2572.263873
805.358518	2572.737742
805.679024	2575.553226
805.999485	2574.348391
806.319901	2574.398802
806.640272	2575.102043
806.960598	2575.545665
807.280879	2575.896025
807.601115	2575.240675
807.921306	2572.767989
808.241453	2574.819738
808.561554	2572.445355
808.881611	2575.800243
809.201623	2573.791343
809.521590	2575.205387
809.841513	2575.830490
810.161390	2575.417115
810.481223	2574.671024
810.801011	2574.555078
811.120755	2574.915520
811.440453	2574.958370
811.760107	2576.942064
812.079716	2572.518452
812.399281	2570.965776
812.718801	2573.987948
813.038276	2569.710529
813.357707	2578.169585
813.677093	2572.735221
813.996434	2575.407033
814.315731	2575.626323
814.634983	2571.626168
814.954191	2576.437949
815.273354	2574.625654
815.592473	2575.044070
815.911547	2573.693041
816.230577	2575.893504
816.549562	2576.117836
816.868502	2575.192784
817.187399	2576.632033
817.506250	2574.623133
817.825058	2577.859554
818.143821	2579.303845
818.462539	2577.723443
818.781213	2578.330902
819.099843	2577.756211
819.418429	2580.894329
819.736970	2585.123857
820.055466	2583.485482
820.373919	2590.457398
820.692327	2590.933787
821.010691	2599.102977
821.329011	2608.240068
821.647286	2634.446506
821.965517	2661.736792
822.283704	2684.154804
822.601847	2697.929757
822.919945	2691.787111
823.237999	2681.861079
823.556010	2670.324398
823.873976	2655.843684
824.191897	2643.719709
824.509775	2636.546147
824.827609	2627.363685
825.145398	2618.622324
825.463144	2613.434977
825.780845	2612.308279
826.098502	2614.468413
826.416116	2617.750205
826.733685	2623.923098
827.051210	2627.527522
827.368692	2625.780763
827.686129	2621.508385
828.003522	2614.755759
828.320872	2603.430807
828.638177	2598.611464
828.955439	2595.662389
829.272656	2591.334558
829.589830	2586.701738
829.906960	2587.599063
830.224046	2582.290728
830.541088	2581.060687
830.858086	2583.268712
831.175041	2576.553895
831.491952	2578.275449
831.808819	2577.378124
832.125642	2579.031622
832.442421	2578.451890
832.759157	2583.271233
833.075849	2587.760380
833.392497	2595.468305
833.709101	2598.558532
834.025662	2599.927205
834.342179	2600.252360
834.658653	2597.530137
834.975083	2591.589137
835.291469	2591.024527
835.607811	2585.950606
835.924110	2584.450863
836.240366	2582.474731
836.556578	2580.291911
836.872746	2576.006930
837.188871	2578.030953
837.504952	2574.219841
837.820990	2575.071796
838.136984	2572.500808
838.452935	2570.834706
838.768842	2574.968452
839.084706	2570.668348
839.400526	2576.044739
839.716303	2577.219328
840.032037	2578.683783
840.347727	2581.627817
840.663373	2579.939030
840.978977	2578.860223
841.294537	2576.201015
841.610054	2575.933833
841.925527	2573.141034
842.240957	2576.163206
842.556344	2575.676735
842.871687	2574.562640
843.186987	2574.068607
843.502244	2570.139027
843.817458	2571.109449
844.132629	2569.781105
844.447756	2569.639953
844.762840	2561.891699
845.077881	2565.791032
845.392879	2568.157854
845.707833	2567.593244
846.022745	2563.368757
846.337613	2566.907648
846.652438	2567.799932
846.967221	2568.296485
847.281960	2567.547874
847.596656	2573.556929
847.911309	2567.394119
848.225919	2568.601475
848.540485	2569.760941
848.855009	2568.425035
849.169490	2567.648697
849.483928	2567.817576
849.798323	2566.930333
850.112675	2568.445199
850.426984	2565.798594
850.741251	2567.429407
851.055474	2564.235836
851.369654	2570.312947
851.683792	2567.855384
851.997887	2567.522668
852.311938	2565.397822
852.625947	2567.404201
852.939914	2568.782957
853.253837	2567.358831
853.567718	2568.755230
853.881555	2568.490570
854.195350	2564.359344
854.509103	2568.402350
854.822812	2565.453275
855.136479	2568.079716
855.450103	2564.016546
855.763685	2568.132648
856.077224	2566.501835
856.390720	2567.936043
856.704173	2567.739438
857.017584	2567.787329
857.330953	2566.746331
857.644278	2569.828996
857.957561	2567.651218
858.270802	2570.375961
858.584000	2566.287586
858.897155	2568.452761
859.210268	2568.639284
859.523339	2567.230281
859.836367	2566.481670
860.149352	2568.614078
860.462295	2570.383523
860.775195	2565.039900
861.088054	2562.650393
861.400869	2564.132492
861.713642	2563.187276
862.026373	2566.264900
862.339062	2568.871177
862.651708	2568.586352
862.964312	2570.055848
863.276873	2566.988306
863.589392	2570.822103
863.901869	2566.920250
864.214303	2567.701629
864.526696	2566.942936
864.839045	2566.577452
865.151353	2568.508214
865.463619	2566.978224
865.775842	2568.432597
866.088023	2570.204562
866.400162	2570.358317
866.712258	2567.585683
867.024313	2571.507700
867.336325	2569.387895
867.648296	2566.370765
867.960224	2569.390416
868.272110	2567.696588
868.583954	2568.848492
868.895755	2568.664490
869.207515	2567.636094
869.519233	2567.010991
869.830909	2566.335477
870.142542	2569.478636
870.454134	2571.908472
870.765684	2569.219017
871.077191	2568.571228
871.388657	2571.842937
871.700081	2569.329922
872.011463	2569.264387
872.322803	2569.284552
872.634101	2568.669531
872.945357	2570.950653
873.256571	2570.139027
873.567744	2570.958215
873.878874	2571.086764
874.189963	2572.820921
874.501010	2572.112639
874.812015	2569.839078
875.122979	2569.655076
875.433900	2571.001064
875.744780	2573.826631
876.055618	2571.290931
876.366415	2570.895200
876.677169	2572.374779
876.987882	2567.900755
877.298554	2566.524520
877.609183	2568.311609
877.919771	2569.183728
878.230317	2571.996692
878.540822	2574.960891
878.851285	2572.967114
879.161707	2575.180181
879.472087	2577.310068
879.782425	2578.628330
880.092722	2586.477407
880.402977	2593.976123
880.713191	2604.890221
881.023363	2617.029320
881.333494	2628.044241
881.643583	2632.790487
881.953631	2636.553708
882.263637	2631.888121
882.573602	2629.904427
882.883526	2626.131123
883.193408	2622.498972
883.503248	2615.955554
883.813048	2612.716612
884.122806	2609.840634
884.432522	2603.493822
884.742197	2598.636670
885.051831	2595.516196
885.361424	2593.653489
885.670975	2589.517223
885.980485	2584.027406
886.289954	2582.361305
886.599382	2580.017168
886.908768	2578.928279
887.218113	2576.150603
887.527417	2577.620099
887.836680	2575.573391
888.145901	2574.517269
888.455082	2572.649522
888.764221	2572.097515
889.073319	2569.776064
889.382376	2572.488205
889.691392	2574.968452
890.000366	2571.671538
890.309300	2571.805128
890.618193	2569.763461
890.927044	2571.124573
891.235855	2574.330747
891.544625	2571.069120
891.853353	2571.686661
892.162041	2571.558112
892.470687	2571.739593
892.779293	2571.134655
893.087858	2572.324367
893.396381	2568.762792
893.704864	2575.089440
894.013306	2576.105233
894.321707	2582.832652
894.630068	2585.751481
894.938387	2589.635690
895.246665	2588.919846
895.554903	2588.629979
895.863100	2587.198292
896.171256	2586.434557
896.479371	2585.307859
896.787446	2580.556572
897.095480	2579.893660
897.403473	2579.974318
897.711425	2578.104050
898.019336	2577.577250
898.327207	2577.562126
898.635038	2576.626992
898.942827	2575.843093
899.250576	2572.894018
899.558284	2574.474419
899.865952	2573.947619
900.173579	2571.399316
900.481165	2570.517114
900.788711	2570.706157
901.096216	2571.401836
901.403681	2569.808832
901.711105	2569.773543
902.018489	2568.293965
902.325832	2571.921075
902.633135	2568.092319
902.940397	2570.096177
903.247619	2573.846796
903.554800	2580.780903
903.861941	2584.435739
904.169041	2586.827767
904.476101	2593.590475
904.783121	2593.293047
905.090100	2592.804055
905.397039	2589.464290
905.703938	2588.224167
906.010796	2584.579412
906.317614	2583.803075
906.624391	2580.733012
906.931129	2581.632858
907.237826	2579.346695
907.544483	2574.814697
907.851099	2574.555078
908.157675	2576.601786
908.464211	2571.401836
908.770707	2567.023594
909.077163	2566.436300
909.383578	2566.534602
909.689954	2565.738100
909.996289	2564.354303
910.302584	2567.903275
910.608839	2565.949828
910.915054	2566.108625
911.221229	2566.577452
911.527363	2565.977555
911.833458	2565.571742
912.139513	2567.502504
912.445527	2566.146433
912.751502	2566.181721
913.057436	2567.434448
913.363331	2571.482495
913.669186	2569.644994
913.975000	2570.670869
914.280775	2572.001733
914.586510	2573.660273
914.892205	2575.901066
915.197859	2576.982393
915.503475	2584.564289
915.809050	2587.657037
916.114585	2589.809609
916.420081	2591.546287
916.725536	2591.939497
917.030952	2593.716504
917.336328	2593.396390
917.641665	2589.514702
917.946961	2587.165524
918.252218	2585.459094
918.557435	2586.512695
918.862612	2584.445822
919.167750	2585.953127
919.472848	2580.375090
919.777906	2580.574216
920.082925	2578.320820
920.387904	2575.999368
920.692843	2575.217990
920.997743	2575.197825
921.302603	2571.006106
921.607423	2572.115159
921.912204	2569.622309
922.216946	2571.542988
922.521647	2569.128276
922.826310	2569.453430
923.130932	2570.045766
923.435516	2570.693554
923.740059	2565.952349
924.044564	2566.491752
924.349028	2569.405539
924.653454	2560.833057
924.957840	2565.642318
925.262186	2564.775239
925.566493	2565.576783
925.870761	2562.413459
926.174989	2565.788511
926.479178	2566.516958
926.783328	2564.939077
927.087438	2564.621484
927.391509	2564.261042
927.695541	2565.481001
927.999533	2562.547049
928.303486	2567.714232
928.607400	2564.878583
928.911275	2564.306412
929.215110	2562.521844
929.518906	2566.665672
929.822663	2563.235167
930.126381	2564.911351
930.430060	2563.414128
930.733699	2565.302040
931.037299	2563.706515
931.340861	2562.894889
931.644383	2563.802297
931.947866	2562.431103
932.251309	2563.951011
932.554714	2563.913202
932.858080	2566.577452
933.161407	2564.366906
933.464694	2563.295661
933.767943	2562.214333
934.071153	2565.002091
934.374323	2563.756926
934.677455	2563.862791
934.980548	2563.134344
935.283602	2563.454457
935.586617	2564.752554
935.889593	2562.826833
936.192530	2561.332131
936.495428	2565.813717
936.798287	2562.000084
937.101108	2563.401525
937.403890	2563.739282
937.706632	2567.706670
938.009336	2565.120558
938.312002	2568.293965
938.614628	2565.317163
938.917216	2565.904458
939.219765	2565.922102
939.522275	2564.281206
939.824747	2566.101063
940.127179	2561.745506
940.429573	2562.552091
940.731929	2563.734241
941.034246	2561.417831
941.336524	2562.705846
941.638763	2565.914540
941.940964	2567.479818
942.243126	2566.242215
942.545250	2564.581155
942.847335	2565.967472
943.149381	2564.573593
943.451389	2561.732903
943.753359	2564.104766
944.055290	2563.146947
944.357182	2563.174673
944.659036	2563.159550
944.960851	2565.879252
945.262628	2565.372616
945.564367	2564.971844
945.866067	2566.418656
946.167729	2565.294478
946.469352	2564.908830
946.770937	2565.239026
947.072484	2561.203582
947.373992	2564.553429
947.675462	2562.872204
947.976893	2563.313305
948.278286	2561.745506
948.579641	2565.037379
948.880958	2560.833057
949.182236	2564.997050
949.483476	2563.396484
949.784678	2562.428582
950.085841	2565.619633
950.386967	2561.926988
950.688054	2564.122410
950.989103	2564.944118
951.290114	2562.567214
951.591087	2565.831361
951.892021	2564.999571
952.192917	2565.395301
952.493776	2565.090312
952.794596	2564.195507
953.095378	2564.724828
953.396122	2565.196176
953.696828	2564.245918
953.997496	2565.168449
954.298126	2563.691391
954.598718	2565.420507
954.899272	2564.772719
955.199788	2565.571742
955.500266	2564.843295
955.800706	2563.149467
956.101108	2560.016390
956.401472	2560.394477
956.701798	2562.058057
957.002087	2559.295505
957.302337	2563.603171
957.602550	2563.951011
957.902724	2560.366750
958.202861	2562.121072
958.502960	2564.198027
958.803022	2562.110990
959.103045	2559.151832
959.403031	2560.076884
959.702979	2561.042265
960.002889	2562.393294
960.302762	2562.262224
960.602596	2562.025290
960.902393	2560.954045
961.202153	2561.344734
961.501875	2560.011349
961.801559	2561.869014
962.101205	2562.637790
962.400814	2561.566545
962.700385	2561.773232
962.999918	2560.661658
963.299414	2560.817934
963.598873	2560.845660
963.898293	2560.656617
964.197677	2559.164435
964.497022	2560.485217
964.796331	2560.376833
965.095601	2560.160063
965.394835	2563.603171
965.694030	2559.686195
965.993189	2562.264745
966.292309	2561.122923
966.591393	2562.852039
966.890439	2559.673592
967.189447	2561.531257
967.488419	2562.617626
967.787353	2560.623849
968.086249	2560.298695
968.385108	2562.491597
968.683930	2562.995712
968.982714	2562.733572
969.281462	2558.738458
969.580172	2560.835578
969.878844	2560.621329
970.177480	2561.228788
970.476078	2562.630228
970.774639	2560.739796
971.073162	2559.739127
971.371649	2559.981102
971.670098	2556.361554
971.968510	2557.727706
972.266885	2558.153684
972.565223	2559.749209
972.863524	2558.420865
973.161788	2560.860783
973.460014	2563.215002
973.758204	2560.649055
974.056356	2561.039744
974.354471	2560.192831
974.652550	2561.609395
974.950591	2559.015721
975.248595	2562.506720
975.546563	2561.359858
975.844493	2560.570917
976.142386	2564.679457
976.440243	2559.202244
976.738062	2561.173335
977.035845	2560.896072
977.333590	2561.987481
977.631299	2562.688202
977.928971	2563.499828
978.226606	2560.656617
978.524204	2562.201730
978.821765	2560.893551
979.119290	2562.121072
979.416777	2560.787687
979.714228	2560.669220
980.011642	2560.520506
980.309020	2562.922615
980.606360	2563.343552
980.903664	2561.599312
981.200931	2562.421021
981.498162	2559.658468
981.795356	2560.341545
982.092513	2561.196020
982.389633	2561.170814
982.686717	2563.638459
982.983764	2560.714590
983.280775	2564.850857
983.577749	2566.958059
983.874686	2566.353121
984.171587	2564.059396
984.468451	2564.371947
984.765279	2565.226423
985.062070	2565.309602
985.358824	2563.043603
985.655543	2564.044272
985.952224	2562.814231
986.248869	2561.619477
986.545478	2558.241904
986.842050	2558.499003
987.138586	2559.391287
987.435086	2556.727037
987.731549	2553.825853
988.027975	2559.711400
988.324366	2560.374312
988.620719	2558.783828
988.917037	2560.301215
989.213318	2559.242573
989.509563	2559.451781
989.805772	2558.597305
990.101944	2556.664023
990.398080	2558.987995
990.694180	2560.442368
990.990244	2559.131668
991.286271	2557.263920
991.582262	2558.748540
991.878217	2559.431616
992.174136	2560.066802
992.470019	2561.253993
992.765865	2558.549414
993.061676	2559.504713
993.357450	2561.198541
993.653188	2558.466235
993.948890	2558.942624
994.244556	2558.657799
994.540186	2561.432954
994.835780	2560.853222
995.131337	2558.887172
995.426859	2557.886503
995.722345	2559.930691
996.017795	2561.165773
996.313208	2560.734755
996.608586	2561.493448
996.903928	2562.746175
997.199234	2561.984961
997.494504	2563.746844
997.789738	2560.104610
998.084936	2562.171483
998.380099	2558.967830
998.675225	2560.316339
998.970316	2560.669220
999.265371	2562.594940
999.560390	2561.306926
999.855373	2562.519323
1000.150320	2560.218036
1000.445232	2560.117213
1000.740108	2559.373643
1001.034948	2561.972358
1001.329752	2558.466235
1001.624521	2558.902295
1001.919254	2553.709907
1002.213951	2558.173848
1002.508613	2555.733930
1002.803239	2556.258210
1003.097829	2552.421892
1003.392384	2557.208468
1003.686903	2558.990515
1003.981386	2557.972202
1004.275834	2557.281564
1004.570246	2562.726010
1004.864623	2556.757284
1005.158964	2559.792059
1005.453270	2558.773746
1005.747540	2560.112172
1006.041775	2559.320711
1006.335974	2558.365412
1006.630138	2557.052192
1006.924266	2558.778787
1007.218359	2557.669733
1007.512416	2559.086297
1007.806438	2558.040258
1008.100425	2559.668551
1008.394376	2558.083108
1008.688292	2559.968499
1008.982172	2557.142932
1009.276017	2554.934907
1009.569827	2559.363561
1009.863602	2559.547563
1010.157341	2560.402038
1010.451045	2557.483210
1010.744714	2560.999415
1011.038347	2557.402552
1011.331945	2558.924980
1011.625508	2560.346586
1011.919036	2559.550083
1012.212528	2558.806513
1012.505986	2558.670402
1012.799408	2557.458005
1013.092795	2556.480021
1013.386147	2558.569579
1013.679464	2557.427758
1013.972745	2557.727706
1014.265992	2558.166287
1014.559204	2561.720300
1014.852380	2555.320555
1015.145521	2562.380691
1015.438628	2559.040927
1015.731699	2560.233160
1016.024736	2556.732078
1016.317737	2558.899775
1016.610703	2560.565876
1016.903635	2554.145967
1017.196531	2554.403065
1017.489393	2556.243087
1017.782219	2551.897612
1018.075011	2554.173693
1018.367768	2557.689898
1018.660490	2557.732747
1018.953177	2557.732747
1019.245829	2557.732747
