Dividing Wavelength (nm)	Counts (n)	Blue Motor Position (mm): 0.000000	Red Motor Position (mm): 33.000000	
326.493990	2079.372618
326.888308	2079.372618
327.282561	2079.372618
327.676750	2055.787580
328.070874	2056.037117
328.464933	2060.306974
328.858929	2072.262070
329.252859	2084.431416
329.646726	2100.497573
330.040528	2114.869903
330.434265	2134.679117
330.827938	2153.840543
331.221547	2174.060611
331.615091	2193.524506
332.008571	2215.695500
332.401986	2236.644015
332.795338	2255.117323
333.188625	2275.710437
333.581847	2293.520833
333.975006	2314.847435
334.368100	2329.290340
334.761129	2346.180726
335.154095	2361.992305
335.546996	2387.273692
335.939833	2425.785587
336.332606	2436.639191
336.725315	2450.502364
337.117960	2459.392439
337.510540	2465.688840
337.903056	2475.647639
338.295508	2480.784575
338.687896	2488.616008
339.080220	2493.291678
339.472480	2500.066989
339.864676	2505.415653
340.256807	2508.765500
340.648875	2506.804491
341.040879	2510.824811
341.432818	2511.477640
341.824694	2512.032167
342.216506	2511.001251
342.608253	2512.851355
342.999937	2508.974708
343.391557	2509.637619
343.783113	2507.379182
344.174605	2507.444717
344.566033	2502.363234
344.957397	2506.091168
345.348697	2499.426762
345.739934	2501.720487
346.131106	2499.638491
346.522215	2497.357368
346.913260	2495.610609
347.304241	2495.073726
347.695159	2493.485762
348.086012	2493.979795
348.476802	2489.919146
348.867528	2490.977788
349.258191	2487.711121
349.648789	2488.752119
350.039324	2484.028558
350.429796	2488.605925
350.820203	2484.794813
351.210548	2484.535194
351.600828	2485.881182
351.991045	2484.530153
352.381198	2483.078300
352.771288	2484.515029
353.161314	2485.127529
353.551276	2485.024186
353.941175	2484.479741
354.331010	2482.932107
354.720782	2486.564258
355.110490	2483.854638
355.500135	2486.871768
355.889717	2486.773466
356.279235	2485.994608
356.668689	2488.401759
357.058080	2488.527788
357.447408	2486.581902
357.836672	2486.113075
358.225873	2488.406800
358.615010	2486.506285
359.004084	2489.369660
359.393095	2492.089363
359.782043	2492.500217
360.170927	2495.111534
360.559748	2493.276554
360.948505	2495.940804
361.337199	2496.475167
361.725830	2497.637153
362.114398	2495.794611
362.502903	2498.657986
362.891344	2500.455157
363.279722	2500.666886
363.668037	2499.580517
364.056289	2501.644870
364.444478	2501.624705
364.832603	2503.076558
365.220665	2505.662669
365.608665	2505.750890
365.996601	2505.723163
366.384474	2505.392968
366.772284	2509.622496
367.160031	2508.190808
367.547715	2510.015706
367.935336	2510.461848
368.322893	2511.643998
368.710388	2509.214162
369.097820	2514.646006
369.485189	2513.385717
369.872495	2516.576768
370.259738	2515.439987
370.646918	2519.992149
371.034035	2521.635565
371.421090	2520.677746
371.808081	2528.675537
372.195010	2531.037317
372.581875	2536.244829
372.968678	2540.822197
373.355418	2547.282436
373.742096	2557.911708
374.128710	2567.966290
374.515262	2576.231262
374.901751	2591.543766
375.288177	2605.480036
375.674540	2620.459825
376.060841	2640.228710
376.447079	2661.106648
376.833254	2685.483148
377.219367	2706.449307
377.605417	2736.781929
377.991404	2762.443923
378.377329	2799.970272
378.763191	2829.566886
379.148991	2873.137579
379.534727	2923.019796
379.920402	2965.670478
380.306013	3009.576408
380.691563	3069.719894
381.077049	3122.142853
381.462474	3176.065555
381.847835	3244.146337
382.233134	3311.801143
382.618371	3366.752240
383.003545	3447.360290
383.388657	3525.200747
383.773706	3613.652832
384.158693	3678.507276
384.543618	3765.250411
384.928480	3843.695806
385.313280	3942.905713
385.698017	4039.814334
386.082692	4151.448166
386.467305	4213.726580
386.851856	4330.469621
387.236344	4480.751458
387.620770	4535.334552
388.005133	4651.800329
388.389435	4789.965753
388.773674	4876.242580
389.157851	4996.975694
389.541965	5127.029902
389.926018	5151.776926
390.310008	5320.794212
390.693936	5434.938538
391.077802	5548.041865
391.461606	5676.621535
391.845348	5789.152692
392.229027	5900.393313
392.612645	6114.465912
392.996200	6226.258539
393.379694	6395.918572
393.763125	6606.941272
394.146494	6703.300407
394.529801	6834.226734
394.913047	7065.051087
395.296230	7062.996816
395.679351	7121.345652
396.062410	7369.710699
396.445408	7270.515914
396.828343	7420.649038
397.211217	7553.730458
397.594028	7441.607635
397.976778	7642.679097
398.359466	7803.746483
398.742092	7785.537835
399.124656	7923.690657
399.507158	8115.249462
399.889598	8139.575549
400.271977	8345.773865
400.654294	8377.112198
401.036549	8576.136952
401.418742	8609.280018
401.800874	8895.851970
402.182944	8977.080082
402.564952	9333.068723
402.946898	9172.218106
403.328783	9223.451353
403.710606	9421.276312
404.092367	9666.352006
404.474067	10026.368529
404.855705	9833.940125
405.237282	9792.723651
405.618797	10206.085663
406.000250	10449.424680
406.381642	10800.508278
406.762972	10753.446586
407.144240	10573.338762
407.525447	10822.049128
407.906593	10766.558627
408.287677	11029.664008
408.668700	11172.575679
409.049661	11160.565130
409.430560	11321.032618
409.811399	11294.564040
410.192176	11456.606889
410.572891	11534.472552
410.953545	12009.379491
411.334138	11497.626758
411.714669	12072.071280
412.095139	11429.951788
412.475547	11898.968139
412.855894	11766.549631
413.236180	12089.357397
413.616405	11789.675924
413.996568	12054.523023
414.376670	12037.751105
414.756711	11928.466451
415.136691	12201.817977
415.516609	12365.070703
415.896466	12455.894652
416.276262	12748.669743
416.655997	13196.495604
417.035670	13244.210125
417.415283	13864.740876
417.794834	13946.659626
418.174324	13694.382643
418.553753	13604.395527
418.933121	14092.916102
419.312428	13920.405297
419.691674	13835.920599
420.070859	14293.354899
420.449983	13940.431280
420.829045	14504.962373
421.208047	14266.442699
421.586988	14707.820924
421.965867	14954.083810
422.344686	14956.858966
422.723444	15531.442119
423.102141	14233.080343
423.480777	15422.343988
423.859352	14915.813891
424.237866	16014.488001
424.616319	15731.109620
424.994712	16385.073303
425.373044	16172.792835
425.751314	16862.266405
426.129524	16001.635580
426.507673	17067.050678
426.885762	16789.870395
427.263789	16972.211450
427.641756	17165.121284
428.019662	17220.894090
428.397508	17276.147657
428.775292	17549.030356
429.153016	17545.216723
429.530679	17608.485724
429.908282	17662.690731
430.285824	17372.990743
430.663305	18086.939115
431.040726	17703.234211
431.418086	17537.022327
431.795385	18179.474535
432.172624	18621.843347
432.549802	18175.607970
432.926920	18391.691988
433.303977	18266.479809
433.680974	18539.904432
434.057910	18828.686930
434.434786	18871.440956
434.811601	18793.161919
435.188355	19843.529173
435.565050	19509.041053
435.941683	19474.254571
436.318257	20364.209789
436.694770	20170.982362
437.071222	20759.900037
437.447614	19836.743780
437.823946	19874.350787
438.200218	20047.335461
438.576429	19821.443878
438.952580	20122.257089
439.328670	20093.976216
439.704700	20518.955568
440.080670	20090.202913
440.456580	20699.940553
440.832429	20858.603308
441.208218	19883.450070
441.583947	20319.759415
441.959616	20443.373548
442.335224	20690.521157
442.710773	20827.595171
443.086261	21383.273998
443.461689	20715.177440
443.837057	20883.967874
444.212365	21544.306096
444.587612	21538.793594
444.962800	21141.114611
445.337927	21567.286195
445.712995	20283.062335
446.088002	22182.301923
446.462949	22380.991441
446.837837	22567.662847
447.212664	22591.888112
447.587431	25541.066455
447.962139	28512.753551
448.336786	30812.376701
448.711374	29142.433996
449.085901	25417.855614
449.460369	25444.493071
449.834776	25435.345898
450.209124	27993.340785
450.583412	27476.352814
450.957640	27957.306617
451.331808	26620.919418
451.705917	25240.543110
452.079965	25275.319510
452.453954	25672.980849
452.827883	25577.773617
453.201752	25376.797937
453.575562	25541.280704
453.949311	26679.051483
454.323001	26759.939318
454.696632	26539.373713
455.070202	28117.544733
455.443713	28306.822416
455.817164	28889.267249
456.190556	29467.089344
456.563888	28874.443737
456.937160	29290.628795
457.310373	27591.447398
457.683526	28032.467701
458.056619	28036.372074
458.429653	28012.013219
458.802628	28624.188257
459.175542	28756.226158
459.548398	30137.104061
459.921194	31771.743566
460.293930	32494.685357
460.666607	34589.851910
461.039224	36379.383387
461.411782	36738.487461
461.784280	35452.368127
462.156719	34895.514711
462.529099	34323.966332
462.901419	33003.602440
463.273680	31940.286983
463.645882	32073.600297
464.018024	32068.110480
464.390106	33012.487474
464.762130	35913.726965
465.134094	40249.474674
465.505999	45745.622902
465.877845	50270.282810
466.249631	51285.258643
466.621358	49401.460109
466.993026	47169.209460
467.364634	45042.626436
467.736184	43080.639606
468.107674	41799.079996
468.479105	41026.694568
468.850477	40286.655704
469.221790	38839.504273
469.593043	37059.293889
469.964238	36140.999825
470.335373	36098.180264
470.706449	37949.251627
471.077467	40730.748591
471.448425	45394.156176
471.819324	48152.456271
472.190164	46157.701941
472.560945	42509.960826
472.931667	39362.713027
473.302330	38259.343082
473.672934	37414.412930
474.043479	37944.502860
474.413965	37160.701739
474.784393	36785.786087
475.154761	37710.444608
475.525070	37763.691795
475.895321	37278.606766
476.265513	37909.335771
476.635645	38884.201663
477.005719	38742.709078
477.375734	39256.599260
477.745691	39974.895627
478.115588	41330.648419
478.485427	43464.415087
478.855207	46926.833304
479.224928	49582.238407
479.594591	51120.770834
479.964194	50019.528256
480.333739	50145.521814
480.703226	50234.498180
481.072653	50888.837428
481.442022	51349.213242
481.811333	51556.601270
482.180584	50267.656369
482.549777	49743.240258
482.918912	49203.405778
483.287988	48883.612622
483.657005	48055.230057
484.025964	47371.442908
484.394864	47351.127058
484.763706	46920.920030
485.132489	46023.849224
485.501213	45866.030862
485.869879	45995.230593
486.238487	45586.370331
486.607036	45766.760460
486.975527	45207.580552
487.343959	45418.515032
487.712333	45486.938613
488.080648	45364.867072
488.448905	45822.258523
488.817104	45618.769827
489.185244	46621.576315
489.553326	48389.234226
489.921350	51146.069865
490.289315	53972.135670
490.657222	54487.787735
491.025070	54699.513676
491.392861	53748.046299
491.760593	52466.322852
492.128267	50754.788106
492.495883	49190.157625
492.863440	47755.102442
493.230939	46373.949797
493.598380	45251.108395
493.965763	44899.215692
494.333088	44061.527157
494.700354	43545.698652
495.067563	43244.131787
495.434713	43061.994899
495.801805	43128.550733
496.168839	42693.957901
496.535815	42326.815707
496.902733	42318.545694
497.269593	41878.442881
497.636395	41779.515278
498.003139	42147.879951
498.369825	41549.278220
498.736453	41826.254336
499.103023	41317.649804
499.469535	41172.620849
499.835989	41215.634494
500.202385	40825.590339
500.568723	40809.607360
500.935003	40957.025822
501.301226	40703.914529
501.667390	41274.121961
502.033497	41440.837960
502.399546	40825.335760
502.765537	40103.117375
503.131470	40410.713459
503.497345	40704.093490
503.863163	39305.747989
504.228923	39873.119772
504.594625	40209.783149
504.960269	39412.958208
505.325856	40024.273729
505.691385	39328.120630
506.056856	39388.317048
506.422270	39740.623126
506.787625	39226.369981
507.152924	39352.192139
507.518164	39338.288637
507.883347	38498.414762
508.248472	38642.311978
508.613540	39011.321919
508.978550	39196.975013
509.343503	38852.810398
509.708398	38960.665885
510.073236	39337.960962
510.438016	39219.163651
510.802738	38591.212322
511.167403	39082.961757
511.532010	39170.382926
511.896561	39317.834155
512.261053	39982.953912
512.625488	39449.120925
512.989866	39192.269095
513.354186	38919.719113
513.718449	38770.848798
514.082655	39268.299778
514.446803	38812.639964
514.810894	39149.898197
515.174927	38917.783310
515.538904	38682.477372
515.902822	39137.433944
516.266684	38487.087290
516.630488	38713.886281
516.994235	38417.652957
517.357925	38773.722256
517.721558	38752.940099
518.085133	38850.589770
518.448651	38787.945872
518.812112	38407.217769
519.175516	38328.192641
519.538863	38436.506873
519.902152	38219.719613
520.265385	38439.871843
520.628560	38265.954556
520.991678	37901.280007
521.354739	37916.963037
521.717743	37981.590629
522.080690	37679.701131
522.443580	37934.571787
522.806413	37777.817108
523.169189	37533.411887
523.531908	37464.806825
523.894569	37126.684033
524.257174	37056.301964
524.619722	37076.998421
524.982213	36843.661053
525.344647	36556.290078
525.707025	36379.935393
526.069345	36466.887736
526.431608	36167.528897
526.793815	36195.232558
527.155964	35588.204538
527.518057	35507.357033
527.880093	35100.472903
528.242072	35276.051251
528.603995	34794.668949
528.965860	34548.030497
529.327669	34384.263573
529.689421	34068.871345
530.051117	33791.731392
530.412755	33659.930424
530.774337	33449.774803
531.135862	33062.982192
531.497331	32947.393575
531.858743	32630.080667
532.220098	32620.121867
532.581396	32152.930414
532.942638	31664.256084
533.303824	31639.486374
533.664953	31359.926667
534.026025	30921.270665
534.387040	30972.186319
534.747999	30686.834326
535.108902	30526.515552
535.469748	29946.568610
535.830537	29769.205694
536.191270	29629.381731
536.551947	29145.345262
536.912567	29086.472147
537.273131	28893.693383
537.633638	28317.025712
537.994089	28256.685621
538.354483	27729.799344
538.714821	27839.905706
539.075103	27767.880220
539.435328	27359.909722
539.795497	27020.224173
540.155609	26764.272189
540.515665	26761.794462
540.875665	26190.079725
541.235609	26111.427643
541.595496	25836.190725
541.955328	25947.096110
542.315102	25326.774567
542.674821	24946.434633
543.034483	24705.361615
543.394090	24433.167033
543.753640	24161.632843
544.113134	24414.827316
544.472571	23635.447287
544.831953	24004.452187
545.191278	23341.875693
545.550548	22950.546043
545.909761	22928.964864
546.268918	22763.554524
546.628019	22654.824397
546.987064	22192.706865
547.346053	21602.468408
547.704986	21746.322774
548.063863	21307.087040
548.422684	21136.043210
548.781449	20814.170578
549.140158	20752.272771
549.498811	20444.659043
549.857408	19952.649989
550.215949	20074.073741
550.574434	19797.037131
550.932864	19472.669128
551.291237	19519.163690
551.649555	19133.170102
552.007817	18991.344800
552.366022	18618.294374
552.724173	18456.664900
553.082267	18374.458804
553.440305	18241.420233
553.798288	17760.884846
554.156215	17636.985887
554.514086	17491.909041
554.871902	17177.769539
555.229661	16971.485524
555.587365	16704.821088
555.945014	16516.483581
556.302606	16291.121319
556.660143	16141.666231
557.017625	15967.174252
557.375050	15696.928077
557.732421	15596.581389
558.089735	15388.835439
558.446994	15165.590461
558.804197	15105.194917
559.161345	14893.176590
559.518437	14475.751407
559.875474	14377.431263
560.232455	14240.291714
560.589381	14107.757259
560.946251	13836.490250
561.303065	13823.577334
561.659825	13593.471346
562.016528	13340.171009
562.373177	13085.930498
562.729770	13031.392775
563.086307	12733.085016
563.442789	12674.773990
563.799216	12506.656550
564.155587	12297.526803
564.511904	12141.359419
564.868164	11992.158909
565.224370	11887.718804
565.580520	11691.070955
565.936615	11576.977040
566.292654	11371.441636
566.648638	11277.817327
567.004567	11117.808583
567.360441	10987.499797
567.716260	10820.259519
568.072023	10732.102341
568.427732	10592.628737
568.783385	10378.293999
569.138982	10315.634977
569.494525	10180.864771
569.850013	10012.218010
570.205445	9880.152382
570.560823	9751.900387
570.916145	9612.961146
571.271412	9496.656685
571.626625	9345.752266
571.981782	9230.395542
572.336884	9076.148837
572.691931	9005.701233
573.046923	8840.910955
573.401860	8715.970998
573.756743	8606.633412
574.111570	8512.071448
574.466342	8390.904795
574.821059	8304.716188
575.175722	8140.619068
575.530330	8045.013586
575.884882	7910.334119
576.239380	7810.630179
576.593823	7716.113585
576.948211	7616.011393
577.302544	7469.943961
577.656823	7384.995477
578.011047	7326.180335
578.365216	7213.485341
578.719330	7105.014834
579.073389	7014.115268
579.427394	6943.622293
579.781344	6862.379058
580.135239	6753.573314
580.489080	6688.315577
580.842866	6559.977883
581.196597	6533.867226
581.550273	6462.502132
581.903895	6380.820316
582.257463	6346.815213
582.610975	6228.998406
582.964434	6183.166756
583.317837	6089.182004
583.671186	6017.043093
584.024481	5967.632223
584.377721	5870.206884
584.730906	5826.469833
585.084037	5768.612511
585.437113	5686.008164
585.790135	5629.002796
586.143103	5539.970978
586.496016	5490.270242
586.848874	5435.505667
587.201679	5389.674017
587.554428	5297.960305
587.907124	5258.654429
588.259765	5196.665881
588.612352	5160.883771
588.964884	5076.071398
589.317362	5043.654258
589.669786	4992.668028
590.022155	4930.061939
590.374470	4908.286675
590.726731	4837.113144
591.078937	4765.125467
591.431090	4726.681628
591.783188	4662.119571
592.135232	4604.567238
592.487222	4577.980192
592.839157	4539.518709
593.191038	4482.886387
593.542866	4435.807051
593.894639	4371.270200
594.246358	4347.934698
594.598022	4308.233091
594.949633	4257.113271
595.301190	4216.163978
595.652692	4180.389430
596.004141	4160.451666
596.355535	4085.817384
596.706876	4053.140624
597.058162	4013.612937
597.409395	4000.112727
597.760573	3975.748831
598.111698	3931.472376
598.462768	3902.478180
598.813785	3877.423645
599.164748	3834.702387
599.515657	3822.152435
599.866511	3781.366979
600.217312	3777.283645
600.568060	3720.462279
600.918753	3724.533011
601.269392	3699.065102
601.619978	3670.756502
601.970510	3657.049605
602.320988	3639.695433
602.671412	3625.960809
603.021783	3602.292592
603.372100	3574.636822
603.722363	3553.557237
604.072572	3539.704146
604.422728	3525.420037
604.772830	3500.794000
605.122878	3484.410250
605.472872	3471.333497
605.822813	3458.292032
606.172701	3441.613375
606.522534	3433.683640
606.872314	3426.492434
607.222041	3405.430493
607.571714	3401.037128
607.921333	3373.635936
608.270899	3370.575955
608.620411	3363.604040
608.969870	3347.880681
609.319276	3332.384174
609.668627	3327.617763
610.017926	3322.049808
610.367171	3321.071825
610.716362	3308.262253
611.065500	3297.723721
611.414585	3290.192237
611.763616	3286.270219
612.112594	3275.908127
612.461518	3268.948814
612.810389	3267.355810
613.159207	3255.506578
613.507971	3246.760176
613.856682	3243.380082
614.205340	3234.487487
614.553945	3240.559557
614.902496	3222.630693
615.250994	3221.156155
615.599439	3215.021071
615.947830	3211.285576
616.296169	3204.487580
616.644454	3203.103783
616.992686	3197.583720
617.340864	3198.901982
617.688990	3184.688448
618.037063	3188.207174
618.385082	3181.847758
618.733048	3177.829959
619.080961	3174.759896
619.428821	3169.456602
619.776628	3164.783452
620.124382	3155.268275
620.472083	3151.830208
620.819731	3149.551606
621.167326	3136.663896
621.514868	3135.012918
621.862357	3117.447018
622.209793	3115.987604
622.557176	3103.924123
622.904506	3095.830550
623.251783	3083.714137
623.599007	3079.981162
623.946179	3070.004719
624.293297	3066.402815
624.640363	3057.762277
624.987376	3051.496123
625.334336	3046.878426
625.681243	3038.121942
626.028097	3030.857639
626.374899	3030.270344
626.721647	3023.863038
627.068343	3019.933458
627.414987	3013.319465
627.761577	3008.684124
628.108115	3006.955008
628.454600	2997.512927
628.801032	2995.562000
629.147412	2993.870693
629.493739	2988.201916
629.840014	2981.134218
630.186236	2984.141266
630.532405	2977.945688
630.878521	2974.749597
631.224585	2972.564256
631.570597	2969.133751
631.916556	2965.262145
632.262462	2961.251907
632.608316	2959.956331
632.954117	2957.090435
633.299866	2953.924590
633.645562	2948.475103
633.991206	2943.043259
634.336797	2934.261569
634.682336	2933.765016
635.027823	2925.716814
635.373257	2924.227153
635.718639	2917.968560
636.063968	2914.132242
636.409245	2907.087230
636.754470	2909.580080
637.099642	2901.204203
637.444762	2897.877042
637.789829	2893.798748
638.134845	2890.811864
638.479808	2887.086452
638.824719	2882.962788
639.169577	2879.582694
639.514383	2879.744011
639.859137	2872.338556
640.203839	2874.050028
640.548489	2866.591641
640.893086	2864.814634
641.237632	2859.758357
641.582125	2861.250538
641.926566	2857.368850
642.270955	2857.537728
642.615292	2858.309025
642.959576	2857.676360
643.303809	2852.090762
643.647990	2852.849455
643.992118	2851.175792
644.336195	2850.505319
644.680219	2848.002386
645.024192	2851.281657
645.368112	2854.828108
645.711981	2851.843745
646.055797	2858.261134
646.399562	2857.953624
646.743274	2863.705580
647.086935	2867.763709
647.430544	2862.939325
647.774101	2861.482431
648.117606	2864.953266
648.461059	2863.801362
648.804460	2863.950076
649.147810	2855.251565
649.491108	2847.838548
649.834354	2846.353929
650.177548	2838.842609
650.520690	2835.931343
650.863781	2835.621312
651.206820	2832.604182
651.549807	2825.060095
651.892742	2822.317707
652.235626	2821.556493
652.578458	2815.282777
652.921238	2812.689103
653.263967	2815.146666
653.606644	2809.745069
653.949269	2809.036787
654.291843	2805.513021
654.634365	2805.870943
654.976836	2803.965387
655.319255	2803.259625
655.661622	2803.393216
656.003938	2801.888431
656.346203	2796.552370
656.688416	2798.195786
657.030577	2793.452060
657.372687	2794.414921
657.714746	2796.368368
658.056753	2796.751495
658.398708	2786.170113
658.740612	2789.363684
659.082465	2787.246400
659.424266	2788.398303
659.766016	2784.408230
660.107715	2789.378808
660.449362	2789.436781
660.790958	2789.076339
661.132503	2788.184054
661.473996	2788.002573
661.815438	2789.280505
662.156829	2789.323355
662.498168	2786.275978
662.839456	2785.378652
663.180693	2785.698766
663.521879	2787.692542
663.863013	2785.784465
664.204097	2785.605504
664.545129	2787.800927
664.886110	2786.669188
665.227040	2788.204219
665.567918	2788.668005
665.908746	2787.100206
666.249522	2789.439302
666.590248	2787.044754
666.930922	2789.240176
667.271545	2787.143056
667.612118	2788.539456
667.952639	2786.427212
668.293109	2786.316307
668.633528	2784.340175
668.973896	2783.304217
669.314213	2783.072324
669.654480	2782.535442
669.994695	2780.178702
670.334859	2779.142745
670.674973	2779.072169
671.015035	2780.428239
671.355047	2778.918414
671.695008	2775.112342
672.034918	2777.915224
672.374777	2776.801129
672.714585	2775.193001
673.054342	2774.399019
673.394049	2775.772734
673.733705	2778.063938
674.073310	2774.721653
674.412864	2774.058741
674.752368	2769.829213
675.091820	2770.918102
675.431223	2769.372989
675.770574	2769.075561
676.109875	2763.903337
676.449125	2762.065836
676.788324	2759.605753
677.127473	2755.847573
677.466571	2754.229363
677.805619	2755.482089
678.144616	2752.974115
678.483562	2755.275402
678.822458	2750.945051
679.161303	2753.158117
679.500098	2747.869947
679.838842	2749.657036
680.177535	2749.989752
680.516179	2753.072418
680.854771	2753.458066
681.193314	2758.975609
681.531805	2768.077412
681.870247	2772.125459
682.208638	2774.709050
682.546978	2779.472941
682.885268	2778.883126
683.223508	2775.233330
683.561697	2774.083947
683.899836	2773.247116
684.237925	2766.002977
684.575963	2766.665889
684.913951	2761.904519
685.251889	2762.935435
685.589776	2760.828233
685.927614	2763.285796
686.265401	2762.557349
686.603137	2765.282092
686.940824	2766.590272
687.278460	2775.440017
687.616046	2768.090015
687.953582	2776.133176
688.291068	2776.183588
688.628504	2779.382200
688.965889	2776.947322
689.303224	2774.741818
689.640510	2771.117228
689.977745	2764.541043
690.314930	2758.637852
690.652065	2756.079466
690.989150	2753.236255
691.326185	2746.496233
691.663170	2739.453741
692.000105	2734.520972
692.336990	2731.009808
692.673825	2726.656772
693.010610	2723.987481
693.347345	2716.829042
693.684030	2713.597663
694.020665	2710.817466
694.357251	2704.269007
694.693786	2706.245140
695.030272	2706.172043
695.366707	2700.394881
695.703093	2697.564273
696.039429	2697.334900
696.375716	2699.938656
696.711952	2696.356917
697.048139	2695.714169
697.384276	2695.046217
697.720363	2696.011597
698.056400	2695.701567
698.392388	2691.187213
698.728326	2692.487831
699.064214	2689.677388
699.400053	2690.617563
699.735842	2688.109589
700.071581	2684.149762
700.407270	2681.296469
700.742910	2681.752694
701.078501	2680.232786
701.414042	2679.365707
701.749533	2677.646674
702.084974	2674.470747
702.420366	2674.848834
702.755709	2670.831034
703.091002	2670.460509
703.426246	2672.290448
703.761440	2668.013029
704.096584	2668.582679
704.431679	2664.675785
704.766725	2667.715601
705.101721	2664.675785
705.436668	2666.112514
705.771565	2663.082781
706.106413	2666.840961
706.441212	2665.464726
706.775961	2666.830878
707.110661	2668.623009
707.445311	2671.945129
707.779913	2669.850530
708.114465	2671.377999
708.448967	2673.258350
708.783421	2677.356808
709.117825	2677.540810
709.452180	2683.083558
709.786485	2683.254958
710.120742	2691.346010
710.454949	2690.073118
710.789107	2691.136802
711.123216	2697.168542
711.457275	2700.311702
711.791286	2702.176929
712.125247	2702.164326
712.459159	2701.836651
712.793023	2706.040973
713.126837	2701.226671
713.460602	2704.526106
713.794318	2701.239274
714.127985	2700.533512
714.461602	2691.721576
714.795171	2694.544622
715.128691	2682.735719
715.462162	2678.584329
715.795584	2674.173319
716.128957	2674.241375
716.462281	2670.105108
716.795556	2669.200221
717.128782	2664.269972
717.461960	2663.723007
717.795088	2661.746875
718.128167	2660.300064
718.461198	2657.771925
718.794180	2655.125319
719.127113	2651.445277
719.459997	2649.580050
719.792833	2647.828249
720.125619	2646.638537
720.458357	2644.649802
720.791046	2643.220634
721.123686	2640.841210
721.456278	2641.340284
721.788821	2638.797022
722.121315	2639.709471
722.453761	2637.398102
722.786158	2639.659059
723.118506	2639.946405
723.450805	2637.516569
723.783056	2639.699388
724.115259	2640.841210
724.447412	2637.556898
724.779518	2640.702578
725.111574	2639.117135
725.443582	2642.197280
725.775542	2644.072589
726.107453	2646.457055
726.439315	2647.631644
726.771129	2651.772952
727.102895	2652.143477
727.434612	2654.850576
727.766281	2655.679846
728.097901	2654.258241
728.429473	2656.788900
728.760996	2654.830412
729.092471	2655.178251
729.423897	2658.147491
729.755276	2655.967192
730.086606	2658.059271
730.417887	2660.226967
730.749120	2666.999757
731.080305	2667.032525
731.411442	2668.991013
731.742530	2670.647032
732.073570	2672.608041
732.404562	2675.451252
732.735506	2674.627023
733.066401	2673.336488
733.397249	2669.089315
733.728048	2662.687050
734.058798	2657.814775
734.389501	2652.619866
734.720156	2644.750625
735.050762	2642.119142
735.381320	2641.592342
735.711831	2638.320633
736.042293	2634.701084
736.372707	2636.183184
736.703073	2634.963224
737.033391	2636.576394
737.363661	2636.183184
737.693883	2636.662093
738.024056	2637.287196
738.354182	2639.134779
738.684260	2643.981849
739.014290	2642.076292
739.344272	2645.698362
739.674207	2647.732467
740.004093	2650.565596
740.333931	2649.053249
740.663722	2648.808753
740.993464	2649.698517
741.323159	2651.818322
741.652806	2644.266674
741.982405	2646.152065
742.311956	2642.242651
742.641460	2643.457569
742.970915	2638.935654
743.300323	2636.783081
743.629683	2636.543626
743.958996	2633.992802
744.288260	2631.507513
744.617477	2628.689508
744.946647	2622.514095
745.275768	2621.813375
745.604842	2617.828342
745.933869	2617.548558
746.262847	2617.992180
746.591778	2622.478807
746.920662	2620.911008
747.249498	2621.823457
747.578286	2619.960751
747.907027	2625.400156
748.235720	2625.120372
748.564365	2627.658592
748.892963	2622.584671
749.221514	2623.434106
749.550017	2625.143057
749.878473	2622.733385
750.206881	2621.392438
750.535242	2620.018724
750.863555	2620.953858
751.191821	2618.403034
751.520039	2621.689866
751.848210	2617.392283
752.176334	2618.718106
752.504411	2620.689197
752.832440	2615.872375
753.160421	2621.294136
753.488356	2617.246089
753.816243	2618.135853
754.144082	2615.002776
754.471875	2616.636110
754.799620	2611.441201
755.127318	2613.326592
755.454969	2613.147631
755.782572	2614.649895
756.110129	2612.530090
756.437638	2612.686366
756.765100	2611.418515
757.092515	2612.998917
757.419882	2612.048660
757.747203	2613.790378
758.074477	2615.753908
758.401703	2612.714092
758.728882	2617.183075
759.056014	2616.789865
759.383099	2617.843466
759.710138	2620.681636
760.037129	2618.483692
760.364073	2620.825308
760.690970	2620.643827
761.017820	2620.432098
761.344623	2622.156173
761.671379	2627.217492
761.998088	2626.264713
762.324751	2648.634834
762.651366	2672.426559
762.977935	2710.303269
763.304456	2727.803634
763.630931	2738.740417
763.957359	2727.768346
764.283740	2710.562888
764.610074	2692.674354
764.936362	2675.771365
765.262602	2657.214878
765.588796	2643.752476
765.914943	2632.712349
766.241044	2625.047275
766.567097	2613.891201
766.893104	2609.946498
767.219064	2605.898452
767.544978	2604.620519
767.870845	2602.936774
768.196665	2597.003336
768.522438	2597.051227
768.848165	2592.690629
769.173846	2593.245156
769.499479	2592.783890
769.825066	2588.844228
770.150607	2586.986563
770.476101	2587.364650
770.801548	2588.972778
771.126949	2582.646130
771.452303	2582.749473
771.777611	2582.310893
772.102872	2579.898701
772.428087	2579.006417
772.753256	2578.663618
773.078378	2580.554051
773.403453	2574.885273
773.728482	2572.468040
774.053465	2577.471385
774.378401	2576.097671
774.703291	2571.759758
775.028135	2572.866291
775.352932	2569.433266
775.677683	2570.900241
776.002388	2571.217834
776.327046	2569.271949
776.651658	2569.292113
776.976224	2570.887638
777.300743	2570.375961
777.625216	2568.064592
777.949643	2563.605692
778.274024	2569.425704
778.598359	2563.530074
778.922647	2562.088304
779.246889	2564.520661
779.571086	2560.969168
779.895236	2565.627194
780.219339	2566.733728
780.543397	2564.664334
780.867409	2566.688357
781.191374	2568.495611
781.515294	2567.033676
781.839167	2569.367731
782.162995	2565.228943
782.486776	2566.274983
782.810511	2566.030487
783.134201	2565.533933
783.457844	2566.491752
783.781441	2565.836402
784.104993	2564.936556
784.428498	2564.379509
784.751958	2564.986968
785.075372	2563.439334
785.398739	2559.542522
785.722061	2562.436144
786.045337	2562.610064
786.368568	2565.055023
786.691752	2563.416648
787.014891	2570.554922
787.337983	2571.900910
787.661030	2576.810994
787.984031	2585.549834
788.306987	2585.882551
788.629897	2589.176945
788.952760	2586.230390
789.275579	2581.675708
789.598351	2583.861048
789.921078	2577.158834
790.243759	2576.193453
790.566395	2573.791343
790.888984	2570.118862
791.211529	2567.865467
791.534027	2565.286917
791.856480	2562.698284
792.178888	2564.954200
792.501249	2563.101576
792.823566	2560.644014
793.145836	2562.305074
793.468062	2557.465566
793.790241	2562.627708
794.112375	2561.894220
794.434464	2560.573438
794.756507	2563.441854
795.078505	2566.579973
795.400457	2568.228430
795.722364	2566.688357
796.044226	2571.265725
796.366042	2571.384192
796.687812	2569.892011
797.009538	2574.822259
797.331218	2573.037691
797.652852	2572.730180
797.974442	2573.738411
798.295986	2570.943091
798.617484	2570.877556
798.938938	2570.620457
799.260346	2568.551064
799.581709	2570.340673
799.903026	2566.635425
800.224299	2564.785322
800.545526	2564.828172
800.866708	2560.777604
801.187845	2562.456309
801.508936	2558.509085
801.829983	2560.928839
802.150984	2559.512275
802.471940	2558.725855
802.792851	2556.898437
803.113717	2558.352809
803.434538	2558.042778
803.755314	2557.137891
804.076045	2556.502706
804.396731	2559.540001
804.717372	2556.469938
805.037967	2554.337530
805.358518	2554.450956
805.679024	2560.157542
805.999485	2557.122768
806.319901	2558.070505
806.640272	2559.542522
806.960598	2560.323901
807.280879	2561.022100
807.601115	2559.673592
807.921306	2560.250804
808.241453	2559.156873
808.561554	2560.233160
808.881611	2561.143088
809.201623	2561.400187
809.521590	2556.101934
809.841513	2558.695608
810.161390	2557.276523
810.481223	2556.911039
810.801011	2556.759805
811.120755	2557.337017
811.440453	2558.491441
811.760107	2556.376677
812.079716	2553.014227
812.399281	2551.890050
812.718801	2551.910215
813.038276	2551.189330
813.357707	2556.424568
813.677093	2554.206460
813.996434	2553.848538
814.315731	2555.549928
814.634983	2555.617983
814.954191	2552.585729
815.273354	2557.347099
815.592473	2557.720145
815.911547	2560.568397
816.230577	2561.939590
816.549562	2561.806000
816.868502	2562.804148
817.187399	2563.134344
817.506250	2565.541495
817.825058	2565.181052
818.143821	2568.210786
818.462539	2575.165057
818.781213	2581.216963
819.099843	2586.326172
819.418429	2598.208172
819.736970	2608.534975
820.055466	2620.416975
820.373919	2636.339459
820.692327	2662.523212
821.010691	2710.923331
821.329011	2813.500729
821.647286	2968.488483
821.965517	3134.949904
822.283704	3231.452712
822.601847	3261.757608
822.919945	3189.096937
823.237999	3109.111470
823.556010	3027.396887
823.873976	2949.148097
824.191897	2879.996069
824.509775	2829.987823
824.827609	2783.203394
825.145398	2754.925042
825.463144	2742.816190
825.780845	2742.170923
826.098502	2762.126330
826.416116	2801.051600
826.733685	2836.717763
827.051210	2846.106912
827.368692	2826.600167
827.686129	2785.844959
828.003522	2744.794843
828.320872	2702.723894
828.638177	2677.616427
828.955439	2654.112047
829.272656	2635.429531
829.589830	2616.938579
829.906960	2607.320057
830.224046	2596.393356
830.541088	2591.019486
830.858086	2582.119329
831.175041	2577.602455
831.491952	2580.377611
831.808819	2581.620255
832.125642	2584.357602
832.442421	2593.421596
832.759157	2616.925976
833.075849	2649.149031
833.392497	2683.809485
833.709101	2704.533668
834.025662	2698.086032
834.342179	2683.002900
834.658653	2657.860145
834.975083	2637.032618
835.291469	2624.465022
835.607811	2606.654625
835.924110	2597.673809
836.240366	2585.154104
836.556578	2576.006930
836.872746	2570.136507
837.188871	2563.777091
837.504952	2559.512275
837.820990	2554.599670
838.136984	2551.698486
838.452935	2549.714792
838.768842	2556.026317
839.084706	2558.037737
839.400526	2573.773699
839.716303	2589.371029
840.032037	2603.425766
840.347727	2600.630446
840.663373	2590.197778
840.978977	2577.403330
841.294537	2568.861095
841.610054	2561.443037
841.925527	2553.888868
842.240957	2551.277550
842.556344	2547.095913
842.871687	2544.408978
843.186987	2538.972093
843.502244	2536.287679
843.817458	2533.575538
844.132629	2534.921526
844.447756	2534.838347
844.762840	2526.535567
845.077881	2528.486493
845.392879	2525.907943
845.707833	2529.368695
846.022745	2525.978519
846.337613	2528.181504
846.652438	2527.082532
846.967221	2524.466173
847.281960	2528.368026
847.596656	2525.986081
847.911309	2524.272089
848.225919	2526.676719
848.540485	2525.597912
848.855009	2525.494569
849.169490	2524.892151
849.483928	2526.706966
849.798323	2526.195289
850.112675	2522.835360
850.426984	2526.046575
850.741251	2523.379805
851.055474	2523.644465
851.369654	2526.507841
851.683792	2524.703107
851.997887	2524.294774
852.311938	2525.550021
852.625947	2526.303674
852.939914	2523.140350
853.253837	2525.250073
853.567718	2525.247552
853.881555	2524.786287
854.195350	2526.192768
854.509103	2525.282840
854.822812	2524.829136
855.136479	2525.519774
855.450103	2525.199661
855.763685	2525.101359
856.077224	2522.280833
856.390720	2521.544825
856.704173	2524.246883
857.017584	2526.434744
857.330953	2526.414579
857.644278	2526.013807
857.957561	2528.070598
858.270802	2529.346010
858.584000	2524.209074
858.897155	2525.885258
859.210268	2523.833508
859.523339	2524.708149
859.836367	2522.941224
860.149352	2526.028931
860.462295	2524.466173
860.775195	2522.046419
861.088054	2522.517767
861.400869	2521.146573
861.713642	2521.325534
862.026373	2522.540453
862.339062	2525.413910
862.651708	2523.465504
862.964312	2524.365350
863.276873	2524.710669
863.589392	2526.215454
863.901869	2528.224353
864.214303	2529.212420
864.526696	2528.171421
864.839045	2531.276772
865.151353	2529.441792
865.463619	2527.286699
865.775842	2531.851464
866.088023	2529.643438
866.400162	2531.259128
866.712258	2528.305012
867.024313	2531.664941
867.336325	2530.008922
867.648296	2530.984385
867.960224	2530.823068
868.272110	2529.880372
868.583954	2531.470857
868.895755	2531.100332
869.207515	2531.911958
869.519233	2529.376257
869.830909	2532.922709
870.142542	2532.511855
870.454134	2531.569159
870.765684	2533.136958
871.077191	2533.799870
871.388657	2535.080323
871.700081	2535.042514
872.011463	2537.316074
872.322803	2536.564943
872.634101	2538.997299
872.945357	2535.655014
873.256571	2536.753986
873.567744	2535.546629
873.878874	2538.362114
874.189963	2539.047711
874.501010	2541.409491
874.812015	2539.163657
875.122979	2541.192722
875.433900	2537.497556
875.744780	2541.714481
876.055618	2539.607279
876.366415	2540.411343
876.677169	2541.464944
876.987882	2544.224976
877.298554	2541.396888
877.609183	2542.079965
877.919771	2541.711961
878.230317	2547.383259
878.540822	2558.950186
878.851285	2560.696946
879.161707	2569.035014
879.472087	2580.256623
879.782425	2604.398709
880.092722	2636.067237
880.402977	2693.007070
880.713191	2754.920001
881.023363	2814.571974
881.333494	2848.388034
881.643583	2865.270858
881.953631	2857.646113
882.263637	2837.065603
882.573602	2816.578353
882.883526	2788.960392
883.193408	2764.568769
883.503248	2738.916858
883.813048	2715.271326
884.122806	2694.458922
884.432522	2673.575942
884.742197	2651.094917
885.051831	2632.689664
885.361424	2619.688528
885.670975	2607.380551
885.980485	2595.896803
886.289954	2585.428847
886.599382	2576.080027
886.908768	2573.342680
887.218113	2565.523851
887.527417	2561.669889
887.836680	2558.478838
888.145901	2554.662685
888.455082	2552.653785
888.764221	2548.552806
889.073319	2546.710265
889.382376	2545.767569
889.691392	2542.072403
890.000366	2544.103988
890.309300	2544.590459
890.618193	2543.632640
890.927044	2542.246323
891.235855	2543.143648
891.544625	2544.897970
891.853353	2545.404606
892.162041	2548.618341
892.470687	2554.798796
892.779293	2556.694270
893.087858	2560.921277
893.396381	2568.840930
893.704864	2586.570668
894.013306	2600.441403
894.321707	2622.561986
894.630068	2633.889459
894.938387	2639.943884
895.246665	2631.792339
895.554903	2624.732203
895.863100	2616.023609
896.171256	2604.663369
896.479371	2597.789756
896.787446	2588.491348
897.095480	2583.099834
897.403473	2577.650346
897.711425	2573.899728
898.019336	2566.093501
898.327207	2563.013356
898.635038	2558.877089
898.942827	2556.999260
899.250576	2549.492982
899.558284	2549.561037
899.865952	2544.857641
900.173579	2544.217414
900.481165	2541.313709
900.788711	2540.910417
901.096216	2541.545603
901.403681	2536.363296
901.711105	2538.039480
902.018489	2538.392361
902.325832	2538.959491
902.633135	2543.025181
902.940397	2551.365770
903.247619	2566.020404
903.554800	2594.205496
903.861941	2626.363016
904.169041	2649.479227
904.476101	2659.261586
904.783121	2651.634320
905.090100	2641.158802
905.397039	2626.632718
905.703938	2612.860285
906.010796	2598.951742
906.317614	2589.791965
906.624391	2581.844586
906.931129	2572.704974
907.237826	2566.733728
907.544483	2560.079405
907.851099	2550.934752
908.157675	2546.629606
908.464211	2539.811446
908.770707	2533.706608
909.077163	2530.810465
909.383578	2526.202851
909.689954	2524.380474
909.996289	2523.037006
910.302584	2524.945083
910.608839	2523.909126
910.915054	2527.319466
911.221229	2523.445340
911.527363	2524.771163
911.833458	2525.484486
912.139513	2526.225536
912.445527	2525.429034
912.751502	2526.628828
913.057436	2529.257790
913.363331	2534.079654
913.669186	2536.685930
913.975000	2542.611807
914.280775	2548.946016
914.586510	2561.448078
914.892205	2578.419122
915.197859	2594.991916
915.503475	2618.569392
915.809050	2639.694347
916.114585	2649.869916
916.420081	2655.447953
916.725536	2650.966367
917.030952	2644.551499
917.336328	2638.113946
917.641665	2628.878552
917.946961	2619.028137
918.252218	2612.693927
918.557435	2601.704212
918.862612	2593.035948
919.167750	2587.445308
919.472848	2577.229410
919.777906	2571.812690
920.082925	2564.238357
920.387904	2557.513457
920.692843	2551.610266
920.997743	2546.533824
921.302603	2544.749256
921.607423	2542.984852
921.912204	2542.692465
922.216946	2536.012936
922.521647	2532.917668
922.826310	2531.052441
923.130932	2531.105373
923.435516	2527.861390
923.740059	2528.788963
924.044564	2525.776873
924.349028	2524.889630
924.653454	2520.481141
924.957840	2519.823271
925.262186	2518.966274
925.566493	2520.345030
925.870761	2515.185409
926.174989	2516.962416
926.479178	2517.259844
926.783328	2515.523166
927.087438	2515.858403
927.391509	2518.265554
927.695541	2514.557785
927.999533	2514.335975
928.303486	2513.574760
928.607400	2515.737415
928.911275	2515.797909
929.215110	2514.361180
929.518906	2512.879081
929.822663	2513.834380
930.126381	2511.931344
930.430060	2512.596777
930.733699	2513.519308
931.037299	2512.826149
931.340861	2512.848834
931.644383	2514.174658
931.947866	2513.776407
932.251309	2510.645850
932.554714	2510.045953
932.858080	2514.862775
933.161407	2510.655932
933.464694	2513.282373
933.767943	2512.667353
934.071153	2513.042919
934.374323	2511.868330
934.677455	2511.346570
934.980548	2510.557630
935.283602	2511.427229
935.586617	2513.403361
935.889593	2511.623834
936.192530	2511.250788
936.495428	2512.105264
936.798287	2511.785151
937.101108	2511.341529
937.403890	2515.044257
937.706632	2516.758249
938.009336	2515.888650
938.312002	2521.726306
938.614628	2520.276974
938.917216	2522.401821
939.219765	2523.939373
939.522275	2523.422654
939.824747	2525.164373
940.127179	2519.795544
940.429573	2518.215142
940.731929	2520.337468
941.034246	2516.733043
941.336524	2522.043899
941.638763	2520.889475
941.940964	2522.338806
942.243126	2521.096162
942.545250	2520.801254
942.847335	2516.901922
943.149381	2516.717920
943.451389	2518.545338
943.753359	2519.367046
944.055290	2514.099040
944.357182	2514.847652
944.659036	2515.031654
944.960851	2515.008969
945.262628	2513.136180
945.564367	2516.130625
945.866067	2514.068793
946.167729	2513.665501
946.469352	2515.213135
946.770937	2513.993176
947.072484	2515.056860
947.373992	2515.074504
947.675462	2514.787158
947.976893	2514.913187
948.278286	2515.094668
948.579641	2513.211797
948.880958	2511.472599
949.182236	2513.229441
949.483476	2513.229441
949.784678	2513.698269
950.085841	2514.041067
950.386967	2517.980729
950.688054	2511.933865
950.989103	2512.881602
951.290114	2514.915707
951.591087	2513.592404
951.892021	2517.015348
952.192917	2516.791017
952.493776	2517.600122
952.794596	2517.527025
953.095378	2518.489885
953.396122	2518.126922
953.696828	2518.631038
953.997496	2517.690863
954.298126	2515.956706
954.598718	2513.148783
954.899272	2513.035357
955.199788	2514.565347
955.500266	2513.758763
955.800706	2512.269102
956.101108	2508.762979
956.401472	2508.934378
956.701798	2508.654594
957.002087	2503.721825
957.302337	2509.274656
957.602550	2509.355315
957.902724	2508.493277
958.202861	2507.772392
958.502960	2505.145951
958.803022	2504.193173
959.103045	2505.594614
959.403031	2504.306599
959.702979	2504.798112
960.002889	2504.966990
960.302762	2500.361896
960.602596	2503.908348
960.902393	2503.938595
961.202153	2502.597648
961.501875	2504.145282
961.801559	2503.754593
962.101205	2507.999244
962.400814	2504.949346
962.700385	2500.956752
962.999918	2501.380209
963.299414	2500.417349
963.598873	2502.978255
963.898293	2503.943636
964.197677	2501.077740
964.497022	2503.585714
964.796331	2502.494304
965.095601	2503.547905
965.394835	2503.971362
965.694030	2502.353152
965.993189	2504.558657
966.292309	2503.038749
966.591393	2503.011022
966.890439	2503.348780
967.189447	2502.774088
967.488419	2502.121259
967.787353	2502.617813
968.086249	2501.168481
968.385108	2502.758965
968.683930	2501.796104
968.982714	2505.203924
969.281462	2502.040600
969.580172	2500.785353
969.878844	2503.114366
970.177480	2501.793584
970.476078	2504.684686
970.774639	2503.008502
971.073162	2502.975734
971.371649	2498.141268
971.670098	2500.220744
971.968510	2500.974396
972.266885	2498.753768
972.565223	2503.999089
972.863524	2501.486073
973.161788	2504.079747
973.460014	2503.815087
973.758204	2504.195694
974.056356	2505.294665
974.354471	2503.719305
974.652550	2503.671414
974.950591	2504.840961
975.248595	2504.167967
975.546563	2503.731908
975.844493	2502.637977
976.142386	2503.772237
976.440243	2501.009684
976.738062	2504.631753
977.035845	2502.874911
977.333590	2504.374655
977.631299	2501.765857
977.928971	2502.469098
978.226606	2502.464057
978.524204	2500.371978
978.821765	2503.237874
979.119290	2503.641167
979.416777	2503.116887
979.714228	2502.007833
980.011642	2504.977073
980.309020	2503.368944
980.606360	2503.174860
980.903664	2504.868688
981.200931	2506.007988
981.498162	2504.445231
981.795356	2507.913545
982.092513	2511.195336
982.389633	2511.548217
982.686717	2516.546521
982.983764	2516.826305
983.280775	2521.285205
983.577749	2518.862931
983.874686	2520.791172
984.171587	2515.427384
984.468451	2516.864113
984.765279	2513.322703
985.062070	2512.382527
985.358824	2512.357322
985.655543	2512.518639
985.952224	2509.771210
986.248869	2505.740807
986.545478	2504.198214
986.842050	2502.176712
987.138586	2500.767709
987.435086	2500.722339
987.731549	2496.684374
988.027975	2501.440703
988.324366	2499.978768
988.620719	2500.916423
988.917037	2501.375168
989.213318	2502.229644
989.509563	2500.382061
989.805772	2500.082112
990.101944	2498.151350
990.398080	2498.786536
990.694180	2498.365599
990.990244	2499.749396
991.286271	2496.518016
991.582262	2502.534633
991.878217	2500.029180
992.174136	2500.389623
992.470019	2499.822493
992.765865	2499.663696
993.061676	2500.576145
993.357450	2502.068327
993.653188	2499.290651
993.948890	2499.094046
994.244556	2501.881804
994.540186	2502.592607
994.835780	2503.989006
995.131337	2505.576970
995.426859	2504.893893
995.722345	2505.289624
996.017795	2507.051507
996.313208	2508.102588
996.608586	2510.832373
996.903928	2507.225427
997.199234	2508.621827
997.494504	2510.696262
997.789738	2505.811383
998.084936	2507.868174
998.380099	2505.380365
998.675225	2506.597803
998.970316	2505.130828
999.265371	2502.784171
999.560390	2502.348111
999.855373	2503.338698
1000.150320	2499.933398
1000.445232	2501.082781
1000.740108	2499.741834
1001.034948	2500.281238
1001.329752	2499.464571
1001.624521	2500.956752
1001.919254	2496.679333
1002.213951	2500.039262
1002.508613	2496.099601
1002.803239	2496.578510
1003.097829	2493.125320
1003.392384	2497.712770
1003.686903	2498.960455
1003.981386	2496.691936
1004.275834	2497.909375
1004.570246	2498.191679
1004.864623	2497.501041
1005.158964	2496.656648
1005.453270	2496.535660
1005.747540	2496.102121
1006.041775	2496.671772
1006.335974	2496.986844
1006.630138	2499.643532
1006.924266	2499.005826
1007.218359	2498.438696
1007.512416	2498.471463
1007.806438	2497.170846
1008.100425	2496.767553
1008.394376	2497.092708
1008.688292	2497.871566
1008.982172	2497.269148
1009.276017	2497.357368
1009.569827	2496.729745
1009.863602	2500.003974
1010.157341	2494.703201
1010.451045	2495.550115
1010.744714	2497.382574
1011.038347	2498.388284
1011.331945	2496.699498
1011.625508	2495.061123
1011.919036	2494.385608
1012.212528	2495.424086
1012.505986	2497.579179
1012.799408	2497.838799
1013.092795	2495.030876
1013.386147	2496.303767
1013.679464	2497.372492
1013.972745	2496.286123
1014.265992	2496.399549
1014.559204	2498.700836
1014.852380	2496.296206
1015.145521	2497.538850
1015.438628	2498.973058
1015.731699	2495.998778
1016.024736	2494.168839
1016.317737	2497.385095
1016.610703	2495.081287
1016.903635	2494.085660
1017.196531	2491.338231
1017.489393	2495.295537
1017.782219	2492.215392
1018.075011	2494.073057
1018.367768	2497.715290
1018.660490	2497.705208
1018.953177	2497.705208
1019.245829	2497.705208
