Dividing Wavelength (nm)	Counts (n)	Blue Motor Position (mm): 0.000000	Red Motor Position (mm): 46.000000	
326.493990	2077.492268
326.888308	2077.492268
327.282561	2077.492268
327.676750	2053.766077
328.070874	2054.854966
328.464933	2061.970555
328.858929	2069.925496
329.252859	2082.553586
329.646726	2099.534713
330.040528	2114.980808
330.434265	2135.510907
330.827938	2153.351551
331.221547	2172.344098
331.615091	2193.290092
332.008571	2214.883874
332.401986	2235.855074
332.795338	2255.626480
333.188625	2274.412340
333.581847	2289.603857
333.975006	2313.829122
334.368100	2329.739003
334.761129	2347.380521
335.154095	2362.239322
335.546996	2404.809346
335.939833	2487.829588
336.332606	2501.498676
336.725315	2513.388238
337.117960	2519.843435
337.510540	2529.174611
337.903056	2539.962680
338.295508	2545.134904
338.687896	2550.952396
339.080220	2558.904816
339.472480	2563.867832
339.864676	2567.444530
340.256807	2570.098698
340.648875	2571.174984
341.040879	2574.403843
341.432818	2574.247567
341.824694	2576.894173
342.216506	2575.192784
342.608253	2574.822259
342.999937	2574.219841
343.391557	2571.946281
343.783113	2572.122721
344.174605	2570.844789
344.566033	2571.036352
344.957397	2565.647359
345.348697	2564.971844
345.739934	2565.803635
346.131106	2563.613253
346.522215	2561.458160
346.913260	2559.771894
347.304241	2556.842984
347.695159	2554.153528
348.086012	2556.505227
348.476802	2553.931717
348.867528	2551.637992
349.258191	2554.481203
349.648789	2552.757129
350.039324	2551.695966
350.429796	2549.606408
350.820203	2549.712272
351.210548	2548.399051
351.600828	2545.714637
351.991045	2552.265616
352.381198	2548.250337
352.771288	2548.295708
353.161314	2546.889226
353.551276	2547.781510
353.941175	2549.049360
354.331010	2547.834442
354.720782	2547.539534
355.110490	2548.807385
355.500135	2549.424926
355.889717	2550.954916
356.279235	2546.982487
356.668689	2548.051212
357.058080	2551.360729
357.447408	2550.244113
357.836672	2549.596325
358.225873	2550.274360
358.615010	2549.172868
359.004084	2553.959444
359.393095	2552.729402
359.782043	2554.846687
360.170927	2555.058415
360.559748	2558.347768
360.948505	2557.400031
361.337199	2559.509754
361.725830	2558.458674
362.114398	2560.422203
362.502903	2564.276165
362.891344	2565.112997
363.279722	2561.329611
363.668037	2564.545867
364.056289	2564.865980
364.444478	2568.868656
364.832603	2565.770867
365.220665	2568.324212
365.608665	2567.925961
365.996601	2571.195149
366.384474	2572.241188
366.772284	2574.182033
367.160031	2571.923596
367.547715	2574.580284
367.935336	2573.912331
368.322893	2573.672876
368.710388	2576.095150
369.097820	2578.905594
369.485189	2575.255798
369.872495	2581.287539
370.259738	2582.255440
370.646918	2581.900039
371.034035	2585.443970
371.421090	2590.235587
371.808081	2591.077460
372.195010	2594.966710
372.581875	2599.420569
372.968678	2607.413319
373.355418	2611.857096
373.742096	2621.122737
374.128710	2632.062040
374.515262	2641.241982
374.901751	2652.871923
375.288177	2670.011847
375.674540	2681.588856
376.060841	2702.754141
376.447079	2723.163252
376.833254	2746.607138
377.219367	2768.170674
377.605417	2800.560087
377.991404	2823.721668
378.377329	2859.902030
378.763191	2893.342524
379.148991	2939.506890
379.534727	2989.991525
379.920402	3029.259593
380.306013	3077.818508
380.691563	3136.459730
381.077049	3187.577030
381.462474	3240.597365
381.847835	3307.594300
382.233134	3374.029146
382.618371	3433.209771
383.003545	3517.182792
383.388657	3592.643823
383.773706	3677.269673
384.158693	3747.566043
384.543618	3836.625587
384.928480	3908.777102
385.313280	4010.316022
385.698017	4107.489304
386.082692	4224.507088
386.467305	4283.750728
386.851856	4406.994336
387.236344	4549.490112
387.620770	4612.252477
388.005133	4727.349581
388.389435	4864.584912
388.773674	4945.999547
389.157851	5074.392694
389.541965	5200.978588
389.926018	5226.557402
390.310008	5393.059152
390.693936	5513.051217
391.077802	5627.303927
391.461606	5756.445686
391.845348	5866.239496
392.229027	5983.595037
392.612645	6196.427511
392.996200	6317.034597
393.379694	6484.700853
393.763125	6693.659200
394.146494	6785.738396
394.529801	6917.115906
394.913047	7152.905795
395.296230	7155.691033
395.679351	7207.927469
396.062410	7458.750078
396.445408	7359.177208
396.828343	7514.502719
397.211217	7652.085890
397.594028	7540.114302
397.976778	7735.522028
398.359466	7900.221565
398.742092	7882.998463
399.124656	8019.775049
399.507158	8210.991055
399.889598	8243.733350
400.271977	8447.224566
400.654294	8474.671128
401.036549	8671.550871
401.418742	8698.909213
401.800874	8995.787804
402.182944	9080.501874
402.564952	9440.031925
402.946898	9278.611658
403.328783	9331.576541
403.710606	9522.641313
404.092367	9777.154047
404.474067	10133.261155
404.855705	9940.842833
405.237282	9889.632272
405.618797	10311.546602
406.000250	10554.557943
406.381642	10913.982130
406.762972	10861.246620
407.144240	10682.895638
407.525447	10932.949472
407.906593	10878.071471
408.287677	11135.097220
408.668700	11278.608788
409.049661	11269.648137
409.430560	11433.543610
409.811399	11408.549570
410.192176	11568.921276
410.572891	11654.585604
410.953545	12123.896862
411.334138	11614.445416
411.714669	12197.848068
412.095139	11543.894468
412.475547	12019.136644
412.855894	11889.263918
413.236180	12210.604708
413.616405	11904.896536
413.996568	12186.308867
414.376670	12153.622026
414.756711	12044.418031
415.136691	12328.229951
415.516609	12494.146927
415.896466	12577.273033
416.276262	12870.592570
416.655997	13324.157784
417.035670	13368.845093
417.415283	13980.263957
417.794834	14081.455038
418.174324	13824.376357
418.553753	13740.456269
418.933121	14217.220873
419.312428	14049.668043
419.691674	13965.405156
420.070859	14426.685857
420.449983	14082.596860
420.829045	14643.949505
421.208047	14399.309871
421.586988	14848.116236
421.965867	15091.674543
422.344686	15094.268217
422.723444	15663.139743
423.102141	14366.227299
423.480777	15563.914712
423.859352	15058.667588
424.237866	16163.653223
424.616319	15883.894390
424.994712	16531.506219
425.373044	16326.316134
425.751314	17017.889345
426.129524	16142.082126
426.507673	17227.465234
426.885762	16955.966332
427.263789	17130.488558
427.641756	17312.721228
428.019662	17365.239969
428.397508	17428.866892
428.775292	17714.312146
429.153016	17701.865537
429.530679	17773.986805
429.908282	17819.601685
430.285824	17536.944189
430.663305	18264.342360
431.040726	17869.690590
431.418086	17710.627063
431.795385	18333.600252
432.172624	18786.835271
432.549802	18345.235235
432.926920	18554.125527
433.303977	18435.096323
433.680974	18693.485705
434.057910	19000.580194
434.434786	19038.950937
434.811601	18960.250963
435.188355	20013.731129
435.565050	19681.932466
435.941683	19641.469644
436.318257	20548.784075
436.694770	20344.209011
437.071222	20950.170827
437.447614	20009.068062
437.823946	20042.944616
438.200218	20224.025383
438.576429	19996.371916
438.952580	20308.119391
439.328670	20269.163874
439.704700	20701.901562
440.080670	20263.142216
440.456580	20879.050228
440.832429	21057.476828
441.208218	20061.987575
441.583947	20493.936321
441.959616	20622.284098
442.335224	20874.535875
442.710773	21011.675424
443.086261	21568.241494
443.461689	20911.669014
443.837057	21062.512940
444.212365	21721.830328
444.587612	21730.443140
444.962800	21325.497333
445.337927	21759.412130
445.712995	20460.783173
446.088002	22377.031614
446.462949	22574.118044
446.837837	22754.893821
447.212664	22779.603037
447.587431	25741.220428
447.962139	28723.294821
448.336786	31059.587324
448.711374	29398.716175
449.085901	25652.821274
449.460369	25659.374774
449.834776	25650.151983
450.209124	28210.009577
450.583412	27690.110340
450.957640	28197.434419
451.331808	26850.269233
451.705917	25451.338958
452.079965	25485.429761
452.453954	25884.696707
452.827883	25810.465717
453.201752	25594.001091
453.575562	25756.253148
453.949311	26896.249597
454.323001	26975.204148
454.696632	26750.696362
455.070202	28355.847638
455.443713	28541.883858
455.817164	29132.200453
456.190556	29684.065647
456.563888	29105.716752
456.937160	29553.091429
457.310373	27836.316404
457.683526	28264.073432
458.056619	28283.320557
458.429653	28259.289377
458.802628	28874.572286
459.175542	29002.163890
459.548398	30392.138555
459.921194	32024.932997
460.293930	32767.994033
460.666607	34865.648395
461.039224	36670.598242
461.411782	37020.827364
461.784280	35737.762970
462.156719	35195.390268
462.529099	34630.390348
462.901419	33286.663229
463.273680	32223.415827
463.645882	32357.901209
464.018024	32352.182020
464.390106	33303.414983
464.762130	36198.776489
465.134094	40536.875896
465.505999	46053.682772
465.877845	50609.431476
466.249631	51628.034420
466.621358	49797.924174
466.993026	47570.344154
467.364634	45420.181133
467.736184	43436.605562
468.107674	42168.699917
468.479105	41376.810265
468.850477	40644.333132
469.221790	39177.468268
469.593043	37392.219250
469.964238	36502.561461
470.335373	36428.179236
470.706449	38300.083167
471.077467	41067.356515
471.448425	45770.483352
471.819324	48559.950380
472.190164	46565.569096
472.560945	42923.950462
472.931667	39746.070092
473.302330	38640.189652
473.672934	37785.646020
474.043479	38333.228754
474.413965	37526.631535
474.784393	37166.420928
475.154761	38083.999149
475.525070	38144.384610
475.895321	37657.038624
476.265513	38281.148593
476.635645	39292.998911
477.005719	39127.331472
477.375734	39645.970421
477.745691	40370.464887
478.115588	41752.671134
478.485427	43869.164288
478.855207	47354.822224
479.224928	50009.582060
479.594591	51577.151533
479.964194	50478.752166
480.333739	50640.338791
480.703226	50701.883717
481.072653	51357.831094
481.442022	51828.556396
481.811333	52041.673696
482.180584	50779.020933
482.549777	50239.839282
482.918912	49722.750488
483.287988	49392.438965
483.657005	48575.832535
484.025964	47897.925893
484.394864	47886.379130
484.763706	47448.194476
485.132489	46559.295380
485.501213	46395.911583
485.869879	46541.046403
486.238487	46137.383570
486.607036	46327.838362
486.975527	45771.030317
487.343959	45990.345715
487.712333	46065.229535
488.080648	45956.199460
488.448905	46411.123265
488.817104	46230.730616
489.185244	47235.987104
489.553326	49021.402480
489.921350	51758.249944
490.289315	54588.114258
490.657222	55111.191943
491.025070	55341.063517
491.392861	54423.069402
491.760593	53171.673536
492.128267	51502.164370
492.495883	49944.541093
492.863440	48527.934012
493.230939	47125.338819
493.598380	46038.725669
493.965763	45697.603391
494.333088	44868.565476
494.700354	44379.074479
495.067563	44086.004480
495.434713	43940.423518
495.801805	44014.455383
496.168839	43610.298517
496.535815	43269.324954
496.902733	43280.004638
497.269593	42847.720655
497.636395	42799.013026
498.003139	43192.192779
498.369825	42631.709733
498.736453	42948.145480
499.103023	42468.767038
499.469535	42345.352030
499.835989	42421.440685
500.202385	42080.038623
500.568723	42097.125614
500.935003	42300.548775
501.301226	42088.235540
501.667390	42717.129564
502.033497	42950.202271
502.399546	42378.933676
502.765537	41667.478154
503.131470	42030.789071
503.497345	42421.561673
503.863163	41034.934334
504.228923	41689.114787
504.594625	42118.179993
504.960269	41345.527385
505.325856	42059.483319
505.691385	41429.329006
506.056856	41555.793912
506.422270	42009.449867
506.787625	41546.452653
507.152924	41757.379572
507.518164	41858.646270
507.883347	41052.711963
508.248472	41284.690740
508.613540	41790.056331
508.978550	42093.110335
509.343503	41838.446367
509.708398	42039.122098
510.073236	42575.316865
510.438016	42563.344125
510.802738	42023.292875
511.167403	42652.131447
511.532010	42875.799882
511.896561	43183.960575
512.261053	44032.669072
512.625488	43583.129219
512.989866	43442.665029
513.354186	43293.010815
513.718449	43272.838638
514.082655	43955.720900
514.446803	43616.814209
514.810894	44164.795194
515.174927	44054.703955
515.538904	43968.386799
515.902822	44646.994162
516.266684	44075.700361
516.630488	44518.893402
516.994235	44356.275861
517.357925	44937.359582
517.721558	45103.503410
518.085133	45411.621254
518.448651	45527.547628
518.812112	45290.648685
519.175516	45388.167286
519.538863	45732.238638
519.902152	45695.597012
520.265385	46166.612180
520.628560	46176.273552
520.991678	45969.921481
521.354739	46200.924794
521.717743	46512.697474
522.080690	46396.599701
522.443580	46941.248483
522.806413	46989.305803
523.169189	46938.531301
523.531908	47115.700133
523.894569	46968.427864
524.257174	47135.101013
524.619722	47404.104544
524.982213	47392.845127
525.344647	47318.967017
525.707025	47357.695682
526.069345	47758.540509
526.431608	47682.237605
526.793815	47990.320160
527.155964	47518.372378
527.518057	47676.374743
527.880093	47457.485322
528.242072	47983.985950
528.603995	47660.626178
528.965860	47676.430195
529.327669	47749.544570
529.689421	47653.566042
530.051117	47608.969475
530.412755	47755.213348
530.774337	47830.152620
531.135862	47618.121689
531.497331	47811.802820
531.858743	47706.029330
532.220098	48043.380825
532.581396	47765.164585
532.942638	47393.881084
533.303824	47720.041217
533.664953	47693.706230
534.026025	47399.196981
534.387040	47879.119868
534.747999	47819.568718
535.108902	47965.653794
535.469748	47472.823033
535.830537	47580.970906
536.191270	47776.050957
536.551947	47423.228161
536.912567	47726.209069
537.273131	47856.941312
537.633638	47342.083228
537.994089	47688.256742
538.354483	47249.683919
538.714821	47848.096607
539.075103	48179.560034
539.435328	47940.074980
539.795497	47803.149680
540.155609	47816.304571
540.515665	48285.837640
540.875665	47711.430927
541.235609	48041.147594
541.595496	48013.224643
541.955328	48687.829330
542.315102	48032.935554
542.674821	47802.963157
543.034483	47850.866721
543.394090	47817.043100
543.753640	47769.696583
544.113134	48768.157596
544.472571	47760.607382
544.831953	49009.031488
545.191278	48218.187876
545.550548	47924.896066
545.909761	48396.218744
546.268918	48557.830575
546.628019	48887.852232
546.987064	48436.643757
547.346053	47697.850058
547.704986	48578.892516
548.063863	48117.339593
548.422684	48301.119898
548.781449	48136.934558
549.140158	48540.148728
549.498811	48362.690030
549.857408	47794.889749
550.215949	48636.492740
550.574434	48546.861024
550.932864	48302.163417
551.291237	49029.319612
551.649555	48620.829875
552.007817	48849.176500
552.366022	48512.208133
552.724173	48668.350311
553.082267	49068.892670
553.440305	49330.919244
553.798288	48620.814751
554.156215	48948.157035
554.514086	49149.268827
554.871902	48882.415348
555.229661	48893.954549
555.587365	48702.700734
555.945014	48814.921859
556.302606	48745.845449
556.660143	48951.090987
557.017625	49027.714004
557.375050	48810.092434
557.732421	49133.270725
558.089735	49117.260020
558.446994	49021.573879
558.804197	49486.529581
559.161345	49396.033307
559.518437	48635.822266
559.875474	48951.612746
560.232455	49122.903592
560.589381	49284.550711
560.946251	48979.384463
561.303065	49642.754938
561.659825	49411.340771
562.016528	49088.538046
562.373177	48804.239654
562.729770	49280.580802
563.086307	48793.620464
563.442789	49242.346171
563.799216	49263.458523
564.155587	49071.055325
564.511904	49079.743753
564.868164	49156.477677
565.224370	49387.682636
565.580520	49110.242734
565.936615	49314.220422
566.292654	49008.061066
566.648638	49271.814235
567.004567	49228.659438
567.360441	49268.051014
567.716260	49113.184247
568.072023	49395.614892
568.427732	49355.494869
568.783385	48890.496317
569.138982	49292.727462
569.494525	49238.189739
569.850013	48980.927056
570.205445	48959.776895
570.560823	48874.987208
570.916145	48758.836502
571.271412	48800.209252
571.626625	48526.482160
571.981782	48570.529242
572.336884	48229.540554
572.691931	48548.295233
573.046923	48133.851893
573.401860	47972.441708
573.756743	47931.119370
574.111570	48047.270075
574.466342	47889.779388
574.821059	47989.836209
575.175722	47494.482350
575.530330	47522.730456
575.884882	47218.615288
576.239380	47157.317378
576.593823	47126.767986
576.948211	47062.374807
577.302544	46565.987511
577.656823	46564.389466
578.011047	46787.430276
578.365216	46521.509411
578.719330	46292.106664
579.073389	46144.231978
579.427394	46201.474280
579.781344	46154.848648
580.135239	45803.112220
580.489080	45878.492594
580.842866	45350.691348
581.196597	45786.864582
581.550273	45720.021402
581.903895	45588.364108
582.257463	45992.520973
582.610975	45356.544128
582.964434	45647.184291
583.317837	45259.154076
583.671186	45090.661071
584.024481	45309.510162
584.377721	44818.060677
584.730906	45095.838336
585.084037	45130.372760
585.437113	44838.812586
585.790135	44857.941245
586.143103	44435.255618
586.496016	44557.942179
586.848874	44574.111680
587.201679	44582.757259
587.554428	44046.076021
587.907124	44244.795785
588.259765	43983.608563
588.612352	44219.582454
588.964884	43591.089201
589.317362	43885.903439
589.669786	43805.900328
590.022155	43576.588322
590.374470	43985.004962
590.726731	43494.843492
591.078937	43005.423070
591.431090	43107.710602
591.783188	42742.529418
592.135232	42404.656164
592.487222	42665.477902
592.839157	42739.300559
593.191038	42393.227868
593.542866	42135.571974
593.894639	41544.892416
594.246358	41822.221413
594.598022	41784.206072
594.949633	41388.727553
595.301190	41327.240599
595.652692	41161.275732
596.004141	41489.520383
596.355535	40472.414662
596.706876	40428.380183
597.058162	40247.571639
597.409395	40720.797353
597.760573	40789.062138
598.111698	40387.564481
598.462768	40387.498946
598.813785	40412.276217
599.164748	39866.571313
599.515657	40238.124516
599.866511	39733.232794
600.217312	40350.653152
600.568060	39309.886776
600.918753	40060.310417
601.269392	40006.334783
601.619978	39652.841514
601.970510	39870.374864
602.320988	40045.375999
602.671412	40347.681392
603.021783	40101.138722
603.372100	39721.454138
603.722363	39844.055000
604.072572	39903.069267
604.422728	39916.655177
604.772830	39724.226773
605.122878	39829.788534
605.472872	39744.761913
605.822813	40019.996310
606.172701	39844.526348
606.522534	40087.517525
606.872314	40349.657525
607.222041	40097.171334
607.571714	40496.118167
607.921333	39918.013768
608.270899	40211.277852
608.620411	40545.387884
608.969870	40345.551505
609.319276	40361.005162
609.668627	40389.659080
610.017926	40889.728939
610.367171	41041.281147
610.716362	41127.048818
611.065500	41066.436505
611.414585	41237.248441
611.763616	41544.468959
612.112594	41476.327683
612.461518	41687.141175
612.810389	41977.529281
613.159207	41845.090607
613.507971	41922.568101
613.856682	42401.807912
614.205340	42283.834829
614.553945	42965.729025
614.902496	42417.788369
615.250994	42894.205134
615.599439	42953.978095
615.947830	43161.572811
616.296169	43216.624731
616.644454	43317.992253
616.992686	43496.945653
617.340864	44010.046894
617.688990	43709.848703
618.037063	44347.330333
618.385082	44294.879648
618.733048	44594.183034
619.080961	44591.165904
619.428821	44596.877531
619.776628	44711.652001
620.124382	44549.916662
620.472083	44670.198593
620.819731	44795.004959
621.167326	44439.575887
621.514868	44437.362820
621.862357	43976.699661
622.209793	44026.881827
622.557176	43659.689222
622.904506	43403.752362
623.251783	43056.394177
623.599007	42828.279445
623.946179	42608.212915
624.293297	42544.200343
624.640363	41960.674183
624.987376	41949.921402
625.334336	41712.808210
625.681243	41354.709846
626.028097	41312.318784
626.374899	41165.411999
626.721647	41150.268373
627.068343	41028.411081
627.414987	40795.406430
627.761577	40577.242936
628.108115	40921.921748
628.454600	40350.849757
628.801032	40537.495958
629.147412	40497.010452
629.493739	40495.099854
629.840014	40145.057255
630.186236	40490.890491
630.532405	40068.340975
630.878521	40298.091562
631.224585	40160.384883
631.570597	39866.523422
631.916556	40028.962002
632.262462	39963.593360
632.608316	39981.131534
632.954117	39862.026713
633.299866	39867.882013
633.645562	39790.827977
633.991206	39289.797778
634.336797	38847.154224
634.682336	38839.443779
635.027823	38593.506047
635.373257	38397.634535
635.718639	38156.700149
636.063968	38031.661889
636.409245	37448.465924
636.754470	37491.109045
637.099642	37237.891887
637.444762	36766.092819
637.789829	36915.200068
638.134845	36569.639054
638.479808	36514.826588
638.824719	36416.647596
639.169577	36032.685593
639.514383	36113.487727
639.859137	35778.757633
640.203839	36018.487183
640.548489	35667.184295
640.893086	35731.708544
641.237632	35475.507023
641.582125	35578.056695
641.926566	35505.683370
642.270955	35469.712217
642.615292	35485.612016
642.959576	35451.909382
643.303809	35452.458868
643.647990	35605.530984
643.992118	35569.353143
644.336195	35543.136623
644.680219	35634.207587
645.024192	35938.519360
645.368112	36444.101720
645.711981	36462.885059
646.055797	37316.244021
646.399562	37236.006496
646.743274	38191.307670
647.086935	38618.280798
647.430544	38502.016667
647.774101	38603.323694
648.117606	38845.528452
648.461059	39129.405907
648.804460	38731.676512
649.147810	38110.835731
649.491108	37837.847168
649.834354	37495.464602
650.177548	36657.148443
650.520690	36223.281538
650.863781	36228.294965
651.206820	36068.956695
651.549807	35647.012118
651.892742	35147.985778
652.235626	34959.204649
652.578458	34817.583514
652.921238	34200.639545
653.263967	34532.899474
653.606644	34211.505752
653.949269	34157.724202
654.291843	33744.699947
654.634365	34133.075480
654.976836	33739.741972
655.319255	33719.201791
655.661622	33714.276583
656.003938	33510.790408
656.346203	33374.207907
656.688416	33577.250460
657.030577	33380.872312
657.372687	33213.405181
657.714746	33467.933039
658.056753	33585.059207
658.398708	33043.815725
658.740612	33072.197421
659.082465	33338.178780
659.424266	33171.785415
659.766016	33309.023267
660.107715	33160.031965
660.449362	33278.730973
660.790958	33241.998606
661.132503	33267.511885
661.473996	33290.363436
661.815438	33399.423758
662.156829	33580.859926
662.498168	33346.985676
662.839456	33364.407903
663.180693	33512.607744
663.521879	33672.293854
663.863013	33622.260402
664.204097	33607.157105
664.545129	34041.825554
664.886110	33998.146477
665.227040	34069.342693
665.567918	34176.159702
665.908746	34213.060948
666.249522	34375.456678
666.590248	34379.575300
666.930922	34471.959486
667.271545	34446.378151
667.612118	34511.439282
667.952639	34280.110814
668.293109	34320.762679
668.633528	34230.122733
668.973896	34137.194103
669.314213	34177.535937
669.654480	33902.097373
669.994695	33914.629681
670.334859	33807.878207
670.674973	33684.203580
671.015035	33825.746577
671.355047	33779.458702
671.695008	33712.577714
672.034918	33630.646362
672.374777	33690.245403
672.714585	33507.685057
673.054342	33729.717638
673.394049	33485.647653
673.733705	33759.941875
674.073310	33409.667383
674.412864	33477.072651
674.752368	33083.441714
675.091820	33374.366703
675.431223	32946.095478
675.770574	32658.792558
676.109875	32515.280991
676.449125	32231.852198
676.788324	32159.544408
677.127473	31627.611936
677.466571	31540.667156
677.805619	31203.668542
678.144616	31189.381912
678.483562	31098.739445
678.822458	30774.749529
679.161303	30708.680166
679.500098	30610.256679
679.838842	30493.984986
680.177535	30643.540897
680.516179	30922.646900
680.854771	31143.958595
681.193314	31978.793837
681.531805	33087.187292
681.870247	33815.097140
682.208638	34510.612533
682.546978	34702.161256
682.885268	34790.033608
683.223508	34270.512458
683.561697	33931.600726
683.899836	33727.554983
684.237925	33225.299784
684.575963	33056.894998
684.913951	32592.937445
685.251889	32733.958683
685.589776	32716.440673
685.927614	32714.159551
686.265401	32832.856039
686.603137	32914.089192
686.940824	33398.828902
687.278460	33741.115686
687.616046	33848.628374
687.953582	34409.328190
688.291068	34258.171713
688.628504	34529.496695
688.965889	34451.542813
689.303224	34071.457457
689.640510	33731.252669
689.977745	32993.459639
690.314930	32193.592361
690.652065	31682.250482
690.989150	30978.303759
691.326185	30089.765106
691.663170	29411.830737
692.000105	28681.967442
692.336990	28009.376695
692.673825	27566.496207
693.010610	27068.576400
693.347345	26506.454979
693.684030	25860.776432
694.020665	25578.824698
694.357251	24920.560911
694.693786	24867.714495
695.030272	24639.728312
695.366707	24088.296658
695.703093	23825.108098
696.039429	23807.620335
696.375716	23547.199368
696.711952	23510.494727
697.048139	23340.237318
697.384276	23160.396675
697.720363	23276.418831
698.056400	23071.349733
698.392388	22845.420342
698.728326	22811.924395
699.064214	22594.874995
699.400053	22545.330535
699.735842	22187.695958
700.071581	21908.340418
700.407270	21639.309160
700.742910	21434.323242
701.078501	21184.314779
701.414042	20914.844941
701.749533	20620.378542
702.084974	20264.556260
702.420366	20468.980089
702.755709	20041.112157
703.091002	19744.042002
703.426246	19758.101780
703.761440	19655.983126
704.096584	19388.494462
704.431679	19334.904476
704.766725	19241.892667
705.101721	19185.517443
705.436668	19265.054248
705.771565	18942.271688
706.106413	19280.762484
706.441212	19255.004708
706.775961	19369.650629
707.110661	19426.920657
707.445311	19771.798595
707.779913	19606.917576
708.114465	19836.161526
708.448967	20099.150961
708.783421	20747.145917
709.117825	20993.623052
709.452180	21169.090494
709.786485	21555.535266
710.120742	22304.885141
710.454949	22303.854225
710.789107	22737.695925
711.123216	23385.569894
711.457275	23483.247291
711.791286	23981.971161
712.125247	24038.026272
712.459159	23721.461975
712.793023	24346.479352
713.126837	23279.473770
713.460602	23525.227499
713.794318	23163.716275
714.127985	22788.268780
714.461602	21927.839601
714.795171	21891.397100
715.128691	20929.912950
715.462162	20408.980276
715.795584	20021.350833
716.128957	19763.334497
716.462281	19374.139776
716.795556	19154.756323
717.128782	18666.238268
717.461960	18148.327766
717.795088	18061.440959
718.128167	17669.340013
718.461198	17230.368939
718.794180	17095.258454
719.127113	16751.197183
719.459997	16571.054071
719.792833	16226.733181
720.125619	16201.323245
720.458357	15884.181736
720.791046	15726.557458
721.123686	15571.184056
721.456278	15338.975907
721.788821	15299.748168
722.121315	15054.853955
722.453761	15120.467093
722.786158	15039.153282
723.118506	15044.980855
723.450805	14922.027113
723.783056	15062.198916
724.115259	14958.953565
724.447412	14878.814342
724.779518	15102.369351
725.111574	15113.722029
725.443582	15304.993488
725.775542	15278.774447
726.107453	15703.426124
726.439315	15586.352887
726.771129	15947.319667
727.102895	16278.082374
727.434612	16463.183461
727.766281	16562.635344
728.097901	16782.240609
728.429473	16813.861246
728.760996	16786.165147
729.092471	16866.475769
729.423897	16756.921413
729.755276	16621.384951
730.086606	16718.858181
730.417887	17187.337649
730.749120	17661.017068
731.080305	17811.533319
731.411442	18119.449516
731.742530	18161.462492
732.073570	18249.685205
732.404562	18516.500875
732.735506	18341.774483
733.066401	18048.162560
733.397249	17537.115588
733.728048	16957.859285
734.058798	16208.688371
734.389501	15574.664972
734.720156	15148.367359
735.050762	14666.826261
735.381320	14335.808976
735.711831	14114.832518
736.042293	13784.924287
736.372707	13798.311071
736.703073	13596.238940
737.033391	13762.970062
737.363661	13726.308271
737.693883	13809.729284
738.024056	13962.080515
738.354182	14114.283032
738.684260	14369.166291
739.014290	14557.839036
739.344272	14717.225197
739.674207	14961.191837
740.004093	15060.558021
740.333931	15039.165884
740.663722	15084.115333
740.993464	15057.959306
741.323159	14885.209046
741.652806	14618.675680
741.982405	14430.514613
742.311956	14115.180358
742.641460	14004.902597
742.970915	13720.334503
743.300323	13415.969799
743.629683	13228.214544
743.958996	12952.508799
744.288260	12692.980117
744.617477	12419.411821
744.946647	12347.280471
745.275768	12097.448448
745.604842	11930.498036
745.933869	11778.343410
746.262847	11729.434135
746.591778	11664.564568
746.920662	11563.713764
747.249498	11559.033053
747.578286	11659.374700
747.907027	11777.930035
748.235720	11962.887449
748.564365	11978.709111
748.892963	11891.209803
749.221514	11933.250506
749.550017	11809.500261
749.878473	11764.397058
750.206881	11564.071686
750.535242	11484.618061
750.863555	11397.506922
751.191821	11306.388066
751.520039	11315.951135
751.848210	11227.012578
752.176334	11253.269428
752.504411	11168.580564
752.832440	11015.195897
753.160421	11061.014944
753.488356	10954.255908
753.816243	10874.910667
754.144082	10742.177087
754.471875	10671.527836
754.799620	10629.164500
755.127318	10592.898439
755.454969	10562.535569
755.782572	10507.657569
756.110129	10516.688796
756.437638	10440.007805
756.765100	10434.742319
757.092515	10429.166803
757.419882	10437.230129
757.747203	10433.600498
758.074477	10508.617908
758.401703	10459.406165
758.728882	10598.955385
759.056014	10630.434871
759.383099	10721.571370
759.710138	10814.890690
760.037129	10881.988448
760.364073	10890.177802
760.690970	10879.914013
761.017820	10870.164421
761.344623	11034.027127
761.671379	11317.118162
761.998088	11858.628826
762.324751	13273.121143
762.651366	15787.126922
762.977935	18957.415314
763.304456	20826.521405
763.630931	21181.625323
763.957359	20125.158273
764.283740	18438.859544
764.610074	16793.600849
764.936362	14956.783348
765.262602	13643.275426
765.588796	12320.585041
765.914943	11454.928185
766.241044	10721.820907
766.567097	10163.687039
766.893104	9685.707516
767.219064	9366.932673
767.544978	9035.708701
767.870845	8758.987164
768.196665	8593.435671
768.522438	8421.504599
768.848165	8269.801156
769.173846	8120.280533
769.499479	8016.760439
769.825066	7872.102009
770.150607	7706.371555
770.476101	7643.314283
770.801548	7547.550003
771.126949	7425.493587
771.452303	7343.055598
771.777611	7202.278856
772.102872	7180.097779
772.428087	7073.318579
772.753256	6968.518032
773.078378	6894.743266
773.403453	6766.987824
773.728482	6670.994173
774.053465	6615.569207
774.378401	6538.500047
774.703291	6456.619105
775.028135	6366.392534
775.352932	6336.344736
775.677683	6261.808756
776.002388	6186.254463
776.327046	6179.700963
776.651658	6107.065498
776.976224	6038.578902
777.300743	6024.481315
777.625216	5962.351615
777.949643	5927.426501
778.274024	5928.659063
778.598359	5864.558271
778.922647	5868.787799
779.246889	5829.940668
779.571086	5835.180947
779.895236	5838.742523
780.219339	5841.774777
780.543397	5834.999466
780.867409	5877.632504
781.191374	5873.922215
781.515294	5842.815775
781.839167	5877.511516
782.162995	5850.448082
782.486776	5812.788142
782.810511	5772.806751
783.134201	5709.462132
783.457844	5695.737591
783.781441	5653.205376
784.104993	5607.114106
784.428498	5587.224234
784.751958	5572.841822
785.075372	5548.782915
785.398739	5514.891238
785.722061	5533.553589
786.045337	5527.211818
786.368568	5617.577021
786.691752	5638.926308
787.014891	5853.172825
787.337983	6091.460606
787.661030	6460.152954
787.984031	6811.342416
788.306987	7014.871441
788.629897	7069.646098
788.952760	6990.875549
789.275579	6838.806623
789.598351	6588.336894
789.921078	6367.138625
790.243759	6129.468385
790.566395	5955.447755
790.888984	5792.991531
791.211529	5677.198747
791.534027	5545.317122
791.856480	5427.631385
792.178888	5372.438312
792.501249	5319.206248
792.823566	5231.540583
793.145836	5223.129418
793.468062	5206.788518
793.790241	5175.150236
794.112375	5208.116862
794.434464	5286.965549
794.756507	5311.634435
795.078505	5409.846194
795.400457	5590.203556
795.722364	5786.551457
796.044226	5943.260765
796.366042	6069.042595
796.687812	6020.518968
797.009538	6041.051588
797.331218	5961.464372
797.652852	5899.967336
797.974442	5793.556140
798.295986	5736.386935
798.617484	5630.684021
798.938938	5536.822777
799.260346	5480.810517
799.581709	5363.500347
799.903026	5318.311443
800.224299	5255.533955
800.545526	5164.994832
800.866708	5113.227223
801.187845	5069.389349
801.508936	5004.905429
801.829983	4981.844671
802.150984	4896.424840
802.471940	4869.101786
802.792851	4853.254919
803.113717	4837.723124
803.434538	4814.599351
803.755314	4790.394251
804.076045	4780.291779
804.396731	4751.020319
804.717372	4765.627062
805.037967	4770.206950
805.358518	4787.427532
805.679024	4833.891847
805.999485	4843.280996
806.319901	4855.972101
806.640272	4865.421744
806.960598	4903.820212
807.280879	4894.680601
807.601115	4921.849899
807.921306	4888.573243
808.241453	4876.802148
808.561554	4886.428232
808.881611	4861.255230
809.201623	4854.487481
809.521590	4816.842665
809.841513	4800.136281
810.161390	4810.881500
810.481223	4736.862238
810.801011	4728.216659
811.120755	4705.586920
811.440453	4656.196215
811.760107	4631.968430
812.079716	4610.409935
812.399281	4568.434768
812.718801	4561.984611
813.038276	4528.763408
813.357707	4504.744830
813.677093	4518.388713
813.996434	4465.242348
814.315731	4482.067199
814.634983	4477.787260
814.954191	4482.026870
815.273354	4529.706103
815.592473	4562.513933
815.911547	4618.432932
816.230577	4659.278881
816.549562	4725.106267
816.868502	4763.285446
817.187399	4805.605933
817.506250	4867.412999
817.825058	4884.124424
818.143821	4999.927290
818.462539	5134.478207
818.781213	5314.926309
819.099843	5606.065546
819.418429	6106.707576
819.736970	6591.648932
820.055466	7135.092878
820.373919	7863.383333
820.692327	9023.700673
821.010691	11211.362316
821.329011	16387.961884
821.647286	24465.132990
821.965517	33131.186483
822.283704	37504.667228
822.601847	38391.254955
822.919945	34208.617171
823.237999	29813.086418
823.556010	25499.219837
823.873976	21707.979758
824.191897	18349.368981
824.509775	15882.608896
824.827609	13729.474115
825.145398	12479.971202
825.463144	11892.102088
825.780845	12148.253197
826.098502	13195.900748
826.416116	15106.979486
826.733685	16843.130185
827.051210	17152.339439
827.368692	15951.476099
827.686129	13964.321308
828.003522	12028.528314
828.320872	10342.595068
828.638177	9080.635464
828.955439	8122.639793
829.272656	7300.369627
829.589830	6644.175234
829.906960	6078.532567
830.224046	5669.372356
830.541088	5355.056414
830.858086	5150.796422
831.175041	4996.083410
831.491952	4948.880566
831.808819	4972.384946
832.125642	5159.028626
832.442421	5590.024595
832.759157	6466.714016
833.075849	7856.754216
833.392497	9271.254094
833.709101	10088.286501
834.025662	9839.641670
834.342179	8992.569027
834.658653	7989.520564
834.975083	7143.861965
835.291469	6470.686445
835.607811	5918.705305
835.924110	5519.829048
836.240366	5149.437831
836.556578	4805.147188
836.872746	4538.581055
837.188871	4323.427129
837.504952	4163.867048
837.820990	4039.857184
838.136984	3951.102629
838.452935	3915.086106
838.768842	3940.785908
839.084706	4171.574972
839.400526	4755.340588
839.716303	5434.938538
840.032037	5838.772769
840.347727	5693.567374
840.663373	5229.085541
840.978977	4800.428668
841.294537	4469.038337
841.610054	4222.563723
841.925527	4046.481260
842.240957	3892.365625
842.556344	3753.068462
842.871687	3630.467601
843.186987	3519.665560
843.502244	3429.086108
843.817458	3366.565718
844.132629	3312.867347
844.447756	3277.909465
844.762840	3245.144486
845.077881	3212.747511
845.392879	3184.854807
845.707833	3167.954338
846.022745	3147.547747
846.337613	3139.907879
846.652438	3119.309724
846.967221	3112.305041
847.281960	3098.482197
847.596656	3091.570775
847.911309	3081.075093
848.225919	3070.528999
848.540485	3066.191086
848.855009	3059.811506
849.169490	3050.129970
849.483928	3046.739794
849.798323	3041.562529
850.112675	3031.066847
850.426984	3033.708411
850.741251	3026.862524
851.055474	3022.060825
851.369654	3024.120137
851.683792	3024.576361
851.997887	3025.143491
852.311938	3025.519057
852.625947	3024.480579
852.939914	3018.010258
853.253837	3025.110723
853.567718	3020.939169
853.881555	3016.152593
854.195350	3017.924559
854.509103	3018.025382
854.822812	3012.921213
855.136479	3010.632530
855.450103	3016.734846
855.763685	3008.479957
856.077224	3010.211593
856.390720	3014.541944
856.704173	3023.971423
857.017584	3025.138450
857.330953	3032.783360
857.644278	3036.952394
857.957561	3035.563556
858.270802	3036.357538
858.584000	3034.343597
858.897155	3031.480221
859.210268	3023.883203
859.523339	3013.505987
859.836367	3013.521111
860.149352	3005.036849
860.462295	3003.058196
860.775195	2998.001919
861.088054	2994.946979
861.400869	2993.643841
861.713642	2992.287771
862.026373	2997.059223
862.339062	3000.691374
862.651708	3009.180677
862.964312	3019.774662
863.276873	3026.280271
863.589392	3046.974208
863.901869	3064.966086
864.214303	3082.592480
864.526696	3096.800972
864.839045	3108.320009
865.151353	3117.530197
865.463619	3117.436936
865.775842	3112.055504
866.088023	3121.343830
866.400162	3110.948971
866.712258	3114.886112
867.024313	3112.834362
867.336325	3108.408229
867.648296	3108.665328
867.960224	3107.853702
868.272110	3111.669856
868.583954	3109.870164
868.895755	3115.604476
869.207515	3112.892335
869.519233	3125.318780
869.830909	3130.249028
870.142542	3134.917137
870.454134	3141.087509
870.765684	3150.643016
871.077191	3160.871517
871.388657	3172.161181
871.700081	3187.430836
872.011463	3201.094884
872.322803	3214.151472
872.634101	3224.871486
872.945357	3245.623396
873.256571	3263.350613
873.567744	3274.620113
873.878874	3277.193622
874.189963	3287.170065
874.501010	3288.974798
874.812015	3286.071093
875.122979	3294.807413
875.433900	3293.461425
875.744780	3294.265489
876.055618	3299.346972
876.366415	3295.727424
876.677169	3296.450829
876.987882	3309.754434
877.298554	3321.696928
877.609183	3347.928572
877.919771	3381.406874
878.230317	3429.859925
878.540822	3499.863907
878.851285	3607.716873
879.161707	3769.167387
879.472087	4035.741082
879.782425	4492.499867
880.092722	5399.763887
880.402977	6920.054899
880.713191	8858.131536
881.023363	10756.395661
881.333494	11769.665064
881.643583	12042.378884
881.953631	11604.564755
882.263637	10880.161029
882.573602	10068.547863
882.883526	9315.475096
883.193408	8579.310358
883.503248	7885.970223
883.813048	7260.705829
884.122806	6694.659869
884.432522	6118.360203
884.742197	5622.103977
885.051831	5201.477662
885.361424	4837.193803
885.670975	4544.224626
885.980485	4307.108914
886.289954	4112.555664
886.599382	3960.577478
886.908768	3833.318590
887.218113	3712.620764
887.527417	3614.746762
887.836680	3527.575130
888.145901	3457.989563
888.455082	3402.473856
888.764221	3354.620703
889.073319	3312.398519
889.382376	3290.086373
889.691392	3271.010646
890.000366	3268.207765
890.309300	3264.852877
890.618193	3266.808845
890.927044	3262.715428
891.235855	3269.687343
891.544625	3274.930143
891.853353	3299.301602
892.162041	3344.036801
892.470687	3413.002306
892.779293	3497.015656
893.087858	3619.636682
893.396381	3823.324503
893.704864	4127.694249
894.013306	4539.599368
894.321707	4948.172284
894.630068	5186.381927
894.938387	5195.365263
895.246665	5050.474940
895.554903	4818.841482
895.863100	4577.773505
896.171256	4388.994897
896.479371	4221.031212
896.787446	4064.475659
897.095480	3924.601284
897.403473	3825.265347
897.711425	3722.798854
898.019336	3636.869866
898.327207	3552.087741
898.635038	3476.210814
898.942827	3401.410173
899.250576	3346.338088
899.558284	3285.924900
899.865952	3245.424270
900.173579	3202.138402
900.481165	3173.769309
900.788711	3141.115235
901.096216	3119.254272
901.403681	3098.353648
901.711105	3092.352154
902.018489	3090.769232
902.325832	3114.681945
902.633135	3156.669715
902.940397	3280.893828
903.247619	3579.829210
903.554800	4146.558246
903.861941	4850.913303
904.169041	5343.466801
904.476101	5465.117405
904.783121	5242.449640
905.090100	4937.459832
905.397039	4644.848578
905.703938	4392.833735
906.010796	4164.713962
906.317614	3990.988239
906.624391	3823.677384
906.931129	3682.681352
907.237826	3556.549162
907.544483	3439.123045
907.851099	3317.676608
908.157675	3203.396170
908.464211	3103.354472
908.770707	3029.937628
909.077163	2974.099288
909.383578	2933.465067
909.689954	2901.126065
909.996289	2883.862634
910.302584	2865.228009
910.608839	2857.021010
910.915054	2853.570340
911.221229	2846.240503
911.527363	2848.483816
911.833458	2857.308356
912.139513	2866.024511
912.445527	2871.814276
912.751502	2898.247566
913.057436	2927.919798
913.363331	2964.793318
913.669186	3027.180117
913.975000	3111.256481
914.280775	3244.481574
914.586510	3435.208589
914.892205	3708.585321
915.197859	4069.428592
915.503475	4490.528776
915.809050	4838.338145
916.114585	5033.241755
916.420081	5065.023710
916.725536	5012.121841
917.030952	4836.523329
917.336328	4684.083878
917.641665	4530.797513
917.946961	4376.177763
918.252218	4230.851380
918.557435	4075.356989
918.862612	3934.512192
919.167750	3816.047597
919.472848	3679.533151
919.777906	3562.023855
920.082925	3452.756845
920.387904	3343.242819
920.692843	3267.252466
920.997743	3195.607588
921.302603	3129.455046
921.607423	3086.902667
921.912204	3042.212838
922.216946	3006.513907
922.521647	2972.909575
922.826310	2946.504012
923.130932	2920.395876
923.435516	2892.155332
923.740059	2873.687065
924.044564	2853.656040
924.349028	2837.857064
924.653454	2813.974597
924.957840	2798.009263
925.262186	2783.263888
925.566493	2768.490787
925.870761	2752.472521
926.174989	2745.394741
926.479178	2738.690006
926.783328	2724.652913
927.087438	2718.356512
927.391509	2709.962991
927.695541	2699.709284
927.999533	2695.290712
928.303486	2691.656041
928.607400	2685.979701
928.911275	2680.757066
929.215110	2676.235151
929.518906	2675.055521
929.822663	2672.774399
930.126381	2675.814215
930.430060	2677.273629
930.733699	2678.773372
931.037299	2679.232117
931.340861	2680.986438
931.644383	2681.750173
931.947866	2681.155317
932.251309	2678.120542
932.554714	2678.486026
932.858080	2678.425532
933.161407	2674.621982
933.464694	2672.696261
933.767943	2669.096877
934.071153	2668.587721
934.374323	2664.622853
934.677455	2663.521361
934.980548	2659.811072
935.283602	2659.861483
935.586617	2659.203613
935.889593	2661.996412
936.192530	2661.961124
936.495428	2664.665703
936.798287	2670.412618
937.101108	2680.406706
937.403890	2691.744261
937.706632	2710.870398
938.009336	2733.835375
938.312002	2751.403796
938.614628	2769.783843
938.917216	2779.664504
939.219765	2786.545679
939.522275	2794.268727
939.824747	2790.490382
940.127179	2786.364198
940.429573	2780.581994
940.731929	2782.530400
941.034246	2777.234668
941.336524	2775.361880
941.638763	2769.473812
941.940964	2767.767381
942.243126	2755.431678
942.545250	2753.198447
942.847335	2743.126221
943.149381	2729.978892
943.451389	2721.580330
943.753359	2713.330482
944.055290	2708.906869
944.357182	2704.571477
944.659036	2697.256762
944.960851	2697.836495
945.262628	2694.136288
945.564367	2692.898685
945.866067	2694.153932
946.167729	2692.414734
946.469352	2693.082687
946.770937	2692.097142
947.072484	2685.629341
947.373992	2687.076152
947.675462	2684.237983
947.976893	2679.093485
948.278286	2676.772034
948.579641	2675.264729
948.880958	2674.314471
949.182236	2670.669717
949.483476	2669.754748
949.784678	2671.136024
950.085841	2667.753410
950.386967	2674.868998
950.688054	2674.725325
950.989103	2681.374607
951.290114	2683.564989
951.591087	2695.726772
951.892021	2704.069882
952.192917	2713.716130
952.493776	2718.621172
952.794596	2720.652757
953.095378	2721.338354
953.396122	2721.184599
953.696828	2719.762994
953.997496	2715.772921
954.298126	2710.154555
954.598718	2705.191539
954.899272	2699.265662
955.199788	2690.811647
955.500266	2679.645492
955.800706	2671.617454
956.101108	2661.265445
956.401472	2653.307983
956.701798	2643.013947
957.002087	2635.588327
957.302337	2629.551546
957.602550	2622.635083
957.902724	2615.804319
958.202861	2609.079420
958.502960	2602.404932
958.803022	2598.956783
959.103045	2593.121647
959.403031	2588.146029
959.702979	2584.009762
960.002889	2582.373907
960.302762	2578.189750
960.602596	2575.747311
960.902393	2574.169430
961.202153	2572.195818
961.501875	2569.866805
961.801559	2567.747000
962.101205	2565.365054
962.400814	2565.244067
962.700385	2563.991340
962.999918	2563.767009
963.299414	2563.910682
963.598873	2559.749209
963.898293	2557.440361
964.197677	2557.803324
964.497022	2558.191493
964.796331	2558.511606
965.095601	2554.776111
965.394835	2557.594116
965.694030	2557.279044
965.993189	2557.006821
966.292309	2555.517160
966.591393	2554.680329
966.890439	2558.007490
967.189447	2555.219732
967.488419	2557.405072
967.787353	2552.462221
968.086249	2554.062788
968.385108	2555.915412
968.683930	2555.623025
968.982714	2556.812737
969.281462	2558.869528
969.580172	2557.326935
969.878844	2559.396328
970.177480	2559.431616
970.476078	2563.956052
970.774639	2565.213820
971.073162	2566.053172
971.371649	2567.426886
971.670098	2566.469067
971.968510	2566.786660
972.266885	2569.488718
972.565223	2572.765468
972.863524	2570.333112
973.161788	2575.144893
973.460014	2574.524831
973.758204	2573.861919
974.056356	2573.803946
974.354471	2576.387537
974.652550	2574.252609
974.950591	2574.746642
975.248595	2574.769327
975.546563	2573.204049
975.844493	2572.359655
976.142386	2571.880746
976.440243	2567.250446
976.738062	2568.677092
977.035845	2566.244736
977.333590	2563.734241
977.631299	2563.177194
977.928971	2563.761967
978.226606	2560.568397
978.524204	2560.152501
978.821765	2560.417162
979.119290	2557.291647
979.416777	2556.114537
979.714228	2558.955227
980.011642	2562.156360
980.309020	2565.024777
980.606360	2566.632905
980.903664	2573.209090
981.200931	2578.991293
981.498162	2594.011411
981.795356	2612.220059
982.092513	2640.430356
982.389633	2672.303051
982.686717	2700.616692
982.983764	2722.061760
983.280775	2737.202866
983.577749	2734.195817
983.874686	2726.218191
984.171587	2715.553630
984.468451	2705.176415
984.765279	2691.512368
985.062070	2677.573577
985.358824	2666.288954
985.655543	2652.004845
985.952224	2638.670993
986.248869	2618.113168
986.545478	2600.338059
986.842050	2587.425144
987.138586	2569.501321
987.435086	2564.180383
987.731549	2554.390463
988.027975	2553.566234
988.324366	2550.599515
988.620719	2548.346119
988.917037	2544.373690
989.213318	2543.272198
989.509563	2538.523431
989.805772	2537.565612
990.101944	2538.422608
990.398080	2541.228010
990.694180	2535.607123
990.990244	2537.593338
991.286271	2537.593338
991.582262	2538.170550
991.878217	2539.511497
992.174136	2539.037628
992.470019	2541.144831
992.765865	2535.929757
993.061676	2541.265818
993.357450	2543.264636
993.653188	2544.421581
993.948890	2550.927190
994.244556	2553.692263
994.540186	2562.872204
994.835780	2566.653069
995.131337	2577.138669
995.426859	2589.481934
995.722345	2600.461567
996.017795	2615.181737
996.313208	2623.650875
996.608586	2632.576238
996.903928	2632.835857
997.199234	2632.145219
997.494504	2628.500465
997.789738	2623.799589
998.084936	2618.004783
998.380099	2609.409616
998.675225	2601.026177
998.970316	2589.514702
999.265371	2581.864751
999.560390	2572.238668
999.855373	2564.407235
1000.150320	2557.652089
1000.445232	2554.874413
1000.740108	2549.016593
1001.034948	2546.110367
1001.329752	2540.552495
1001.624521	2539.163657
1001.919254	2531.483459
1002.213951	2530.893644
1002.508613	2527.470701
1002.803239	2528.476411
1003.097829	2524.536749
1003.392384	2532.090918
1003.686903	2528.264683
1003.981386	2524.743437
1004.275834	2527.329549
1004.570246	2529.303160
1004.864623	2525.723941
1005.158964	2522.273271
1005.453270	2521.703621
1005.747540	2522.971471
1006.041775	2521.678415
1006.335974	2522.505164
1006.630138	2522.563138
1006.924266	2521.254958
1007.218359	2519.780421
1007.512416	2522.500123
1007.806438	2522.048940
1008.100425	2522.595905
1008.394376	2520.947448
1008.688292	2523.657068
1008.982172	2520.624814
1009.276017	2518.809999
1009.569827	2520.929804
1009.863602	2523.881399
1010.157341	2520.027437
1010.451045	2520.294618
1010.744714	2517.665657
1011.038347	2521.867458
1011.331945	2520.448374
1011.625508	2519.674557
1011.919036	2520.211439
1012.212528	2519.432581
1012.505986	2518.585667
1012.799408	2516.105420
1013.092795	2518.308404
1013.386147	2518.746984
1013.679464	2518.946110
1013.972745	2517.796727
1014.265992	2517.504340
1014.559204	2518.835204
1014.852380	2517.718589
1015.145521	2519.654392
1015.438628	2517.058198
1015.731699	2516.503671
1016.024736	2517.224556
1016.317737	2516.044926
1016.610703	2519.878723
1016.903635	2515.545852
1017.196531	2512.450583
1017.489393	2517.713548
1017.782219	2515.064421
1018.075011	2517.932838
1018.367768	2518.593229
1018.660490	2518.305883
1018.953177	2518.305883
1019.245829	2518.305883
