Dividing Wavelength (nm)	Counts (n)	Blue Motor Position (mm): 0.000000	Red Motor Position (mm): 5.500000	
326.493990	2088.900399
326.888308	2088.900399
327.282561	2088.900399
327.676750	2063.563559
328.070874	2066.147151
328.464933	2072.493963
328.858929	2084.653227
329.252859	2096.943560
329.646726	2106.839345
330.040528	2125.332818
330.434265	2142.807977
330.827938	2162.937305
331.221547	2184.011848
331.615091	2204.279807
332.008571	2223.080791
332.401986	2246.280181
332.795338	2265.837337
333.188625	2282.672270
333.581847	2303.010805
333.975006	2322.661223
334.368100	2340.748883
334.761129	2356.978878
335.154095	2372.719881
335.546996	2391.319218
335.939833	2401.870353
336.332606	2418.503640
336.725315	2425.994795
337.117960	2438.476692
337.510540	2442.275201
337.903056	2454.714248
338.295508	2456.493775
338.687896	2465.898048
339.080220	2471.662607
339.472480	2477.021354
339.864676	2480.454380
340.256807	2483.665595
340.648875	2484.701552
341.040879	2489.558703
341.432818	2486.201295
341.824694	2489.246152
342.216506	2489.551142
342.608253	2486.700369
342.999937	2485.755153
343.391557	2485.034268
343.783113	2484.159628
344.174605	2482.765749
344.566033	2482.213742
344.957397	2480.842548
345.348697	2478.450521
345.739934	2478.233751
346.131106	2475.728298
346.522215	2473.613534
346.913260	2472.101188
347.304241	2471.536578
347.695159	2468.577421
348.086012	2467.256639
348.476802	2465.666155
348.867528	2468.194293
349.258191	2461.255145
349.648789	2462.144909
350.039324	2463.838737
350.429796	2459.314301
350.820203	2461.275310
351.210548	2459.684826
351.600828	2457.675926
351.991045	2461.096349
352.381198	2458.096862
352.771288	2458.817747
353.161314	2459.198354
353.551276	2460.274641
353.941175	2457.527212
354.331010	2460.912347
354.720782	2459.596606
355.110490	2459.178190
355.500135	2458.850515
355.889717	2460.216667
356.279235	2460.491410
356.668689	2463.954683
357.058080	2459.808334
357.447408	2457.018055
357.836672	2457.549897
358.225873	2459.369754
358.615010	2458.127109
359.004084	2463.929477
359.393095	2464.794035
359.782043	2462.018880
360.170927	2464.403346
360.559748	2465.948459
360.948505	2467.750672
361.337199	2465.993830
361.725830	2464.884776
362.114398	2467.574232
362.502903	2465.618264
362.891344	2469.424335
363.279722	2466.316464
363.668037	2469.961218
364.056289	2469.414253
364.444478	2470.482977
364.832603	2467.773357
365.220665	2471.251753
365.608665	2469.610858
365.996601	2468.577421
366.384474	2470.011629
366.772284	2471.234109
367.160031	2471.269397
367.547715	2474.140334
367.935336	2473.754686
368.322893	2472.010447
368.710388	2473.986579
369.097820	2478.780717
369.485189	2473.865592
369.872495	2476.156796
370.259738	2475.761065
370.646918	2476.749132
371.034035	2480.895481
371.421090	2481.918835
371.808081	2486.274392
372.195010	2487.297746
372.581875	2491.565083
372.968678	2498.519354
373.355418	2498.617657
373.742096	2509.136024
374.128710	2517.264885
374.515262	2527.798376
374.901751	2539.486291
375.288177	2552.815102
375.674540	2572.011816
376.060841	2587.034454
376.447079	2605.928699
376.833254	2631.986423
377.219367	2652.461069
377.605417	2680.174813
377.991404	2700.102494
378.377329	2736.315622
378.763191	2759.835126
379.148991	2798.878862
379.534727	2835.971672
379.920402	2868.071219
380.306013	2906.278124
380.691563	2950.032819
381.077049	2988.605208
381.462474	3024.399921
381.847835	3074.778692
382.233134	3118.571195
382.618371	3150.154024
383.003545	3197.944162
383.388657	3242.008888
383.773706	3287.457411
384.158693	3320.933193
384.543618	3362.192517
384.928480	3392.666292
385.313280	3436.680606
385.698017	3476.457830
386.082692	3526.443391
386.467305	3531.993702
386.851856	3576.713777
387.236344	3630.996922
387.620770	3636.693426
388.005133	3661.816016
388.389435	3700.073332
388.773674	3704.691029
389.157851	3730.484093
389.541965	3754.096858
389.926018	3724.613669
390.310008	3759.311931
390.693936	3771.206534
391.077802	3772.464302
391.461606	3781.505611
391.845348	3773.364148
392.229027	3770.241153
392.612645	3798.489258
392.996200	3789.649595
393.379694	3795.323414
393.763125	3812.748162
394.146494	3782.491157
394.529801	3768.872480
394.913047	3778.717853
395.296230	3718.735684
395.679351	3677.304961
396.062410	3678.691278
396.445408	3595.560131
396.828343	3568.277406
397.211217	3538.968138
397.594028	3461.556179
397.976778	3438.997016
398.359466	3413.088006
398.742092	3357.078266
399.124656	3323.617607
399.507158	3298.800007
399.889598	3251.516504
400.271977	3226.691342
400.654294	3177.827438
401.036549	3151.144611
401.418742	3106.265739
401.800874	3088.863676
402.182944	3049.703993
402.564952	3030.272865
402.946898	2977.345791
403.328783	2937.538319
403.710606	2912.718198
404.092367	2891.686505
404.474067	2872.792260
404.855705	2827.805003
405.237282	2795.866773
405.618797	2784.201543
406.000250	2765.783687
406.381642	2745.679566
406.762972	2721.086297
407.144240	2697.223995
407.525447	2679.174144
407.906593	2657.353509
408.287677	2646.903197
408.668700	2632.525827
409.049661	2620.220370
409.430560	2606.964656
409.811399	2597.966196
410.192176	2589.804568
410.572891	2580.317117
410.953545	2577.307548
411.334138	2564.235836
411.714669	2561.062430
412.095139	2552.356357
412.475547	2548.494833
412.855894	2544.691283
413.236180	2544.678680
413.616405	2541.964018
413.996568	2534.916485
414.376670	2534.435055
414.756711	2530.959179
415.136691	2533.724252
415.516609	2533.467153
415.896466	2529.577903
416.276262	2528.433561
416.655997	2526.696884
417.035670	2523.911646
417.415283	2525.930628
417.794834	2522.071625
418.174324	2522.903416
418.553753	2524.617408
418.933121	2525.260155
419.312428	2522.507685
419.691674	2523.455422
420.070859	2521.406193
420.449983	2520.735719
420.829045	2521.300329
421.208047	2518.063908
421.586988	2520.450894
421.965867	2521.507016
422.344686	2521.025586
422.723444	2521.691018
423.102141	2516.044926
423.480777	2521.522139
423.859352	2518.419309
424.237866	2522.013652
424.616319	2521.391069
424.994712	2524.241842
425.373044	2521.595236
425.751314	2524.083046
426.129524	2520.700431
426.507673	2524.761081
426.885762	2522.116996
427.263789	2523.659589
427.641756	2523.619259
428.019662	2522.444671
428.397508	2523.019362
428.775292	2526.386853
429.153016	2525.671009
429.530679	2525.683612
429.908282	2524.561955
430.285824	2521.645648
430.663305	2523.170597
431.040726	2523.359640
431.418086	2523.830988
431.795385	2525.575227
432.172624	2525.683612
432.549802	2524.826616
432.926920	2526.666637
433.303977	2530.513037
433.680974	2527.372398
434.057910	2525.547501
434.434786	2529.829961
434.811601	2527.569003
435.188355	2527.064888
435.565050	2528.400794
435.941683	2529.053623
436.318257	2527.569003
436.694770	2524.312418
437.071222	2529.530012
437.447614	2523.112623
437.823946	2526.144877
438.200218	2525.975999
438.576429	2528.922553
438.952580	2528.388191
439.328670	2531.538912
439.704700	2531.634694
440.080670	2529.918181
440.456580	2529.963552
440.832429	2530.379447
441.208218	2528.821730
441.583947	2528.501617
441.959616	2530.266021
442.335224	2532.262318
442.710773	2531.402801
443.086261	2535.115611
443.461689	2530.119827
443.837057	2531.105373
444.212365	2536.877494
444.587612	2534.182997
444.962800	2534.006557
445.337927	2534.049407
445.712995	2530.760054
446.088002	2536.433873
446.462949	2535.564273
446.837837	2534.881197
447.212664	2534.999664
447.587431	2542.029553
447.962139	2543.972918
448.336786	2549.041798
448.711374	2545.346632
449.085901	2540.136600
449.460369	2539.599717
449.834776	2539.047711
450.209124	2543.688093
450.583412	2542.942002
450.957640	2541.288504
451.331808	2541.114584
451.705917	2539.652649
452.079965	2540.907897
452.453954	2538.722556
452.827883	2537.928575
453.201752	2537.321116
453.575562	2538.402443
453.949311	2541.220448
454.323001	2536.857329
454.696632	2541.671631
455.070202	2540.214738
455.443713	2542.090047
455.817164	2540.270191
456.190556	2539.060314
456.563888	2538.616692
456.937160	2540.121477
457.310373	2538.725077
457.683526	2540.827238
458.056619	2542.231199
458.429653	2539.685417
458.802628	2540.691127
459.175542	2539.035108
459.548398	2542.780685
459.921194	2544.076262
460.293930	2547.635316
460.666607	2547.383259
461.039224	2551.761501
461.411782	2551.496840
461.784280	2547.186654
462.156719	2548.646068
462.529099	2549.447611
462.901419	2543.859492
463.273680	2544.489636
463.645882	2542.072403
464.018024	2544.608103
464.390106	2545.097095
464.762130	2548.106664
465.134094	2557.248797
465.505999	2562.113510
465.877845	2567.951166
466.249631	2568.878739
466.621358	2563.782132
466.993026	2566.254818
467.364634	2566.138872
467.736184	2559.595454
468.107674	2555.706204
468.479105	2555.048333
468.850477	2552.215205
469.221790	2554.602191
469.593043	2551.206974
469.964238	2546.246478
470.335373	2549.094730
470.706449	2550.402910
471.077467	2552.568085
471.448425	2557.354661
471.819324	2563.376319
472.190164	2556.795093
472.560945	2556.069167
472.931667	2548.610780
473.302330	2547.998279
473.672934	2546.032229
474.043479	2545.351674
474.413965	2545.586087
474.784393	2539.713143
475.154761	2544.681200
475.525070	2540.784388
475.895321	2540.572660
476.265513	2540.330684
476.635645	2545.344112
477.005719	2541.185160
477.375734	2545.344112
477.745691	2544.179605
478.115588	2545.485264
478.485427	2545.144986
478.855207	2553.014227
479.224928	2550.738147
479.594591	2555.786862
479.964194	2551.113712
480.333739	2551.859803
480.703226	2554.216543
481.072653	2554.463559
481.442022	2555.744012
481.811333	2553.334341
482.180584	2553.296532
482.549777	2551.194371
482.918912	2548.814946
483.287988	2552.452139
483.657005	2548.593136
484.025964	2546.556509
484.394864	2548.157076
484.763706	2547.468958
485.132489	2545.694472
485.501213	2548.517518
485.869879	2546.921993
486.238487	2544.819832
486.607036	2545.679349
486.975527	2548.729247
487.343959	2547.395862
487.712333	2546.528783
488.080648	2546.433001
488.448905	2545.941489
488.817104	2544.983669
489.185244	2548.043650
489.553326	2547.710934
489.921350	2551.655637
490.289315	2552.212684
490.657222	2553.961964
491.025070	2551.824515
491.392861	2553.483055
491.760593	2551.358208
492.128267	2551.080945
492.495883	2545.999462
492.863440	2547.970553
493.230939	2543.403268
493.598380	2544.222455
493.965763	2540.920499
494.333088	2543.536858
494.700354	2539.960160
495.067563	2543.173895
495.434713	2538.362114
495.801805	2544.429143
496.168839	2542.155582
496.535815	2543.264636
496.902733	2543.587270
497.269593	2542.886549
497.636395	2541.492670
498.003139	2542.054759
498.369825	2543.811601
498.736453	2542.052238
499.103023	2542.034594
499.469535	2540.524769
499.835989	2538.435211
500.202385	2540.860006
500.568723	2540.804553
500.935003	2543.277239
501.301226	2538.276414
501.667390	2541.979142
502.033497	2543.526776
502.399546	2542.049718
502.765537	2538.001671
503.131470	2539.637526
503.497345	2540.199614
503.863163	2541.596014
504.228923	2539.098122
504.594625	2537.825231
504.960269	2536.411187
505.325856	2534.888759
505.691385	2537.361445
506.056856	2537.605941
506.422270	2536.040663
506.787625	2539.148534
507.152924	2537.066537
507.518164	2539.718184
507.883347	2536.711136
508.248472	2538.619213
508.613540	2537.396733
508.978550	2537.074099
509.343503	2536.096115
509.708398	2539.945036
510.073236	2536.736342
510.438016	2541.026364
510.802738	2536.199459
511.167403	2538.631816
511.532010	2537.626105
511.896561	2535.534027
512.261053	2538.941847
512.625488	2533.820034
512.989866	2533.918337
513.354186	2535.508821
513.718449	2533.048738
514.082655	2536.764068
514.446803	2535.899510
514.810894	2538.873791
515.174927	2537.827752
515.538904	2539.151054
515.902822	2536.554860
516.266684	2538.936805
516.630488	2538.193235
516.994235	2538.432690
517.357925	2536.569984
517.721558	2538.530993
518.085133	2536.023018
518.448651	2538.165509
518.812112	2538.594007
519.175516	2535.045035
519.538863	2537.326157
519.902152	2535.463450
520.265385	2538.495704
520.628560	2536.234747
520.991678	2534.931609
521.354739	2535.725590
521.717743	2537.575694
522.080690	2540.068544
522.443580	2536.872453
522.806413	2536.796836
523.169189	2537.152237
523.531908	2536.401105
523.894569	2536.275076
524.257174	2535.266845
524.619722	2534.435055
524.982213	2534.437576
525.344647	2534.321629
525.707025	2533.981351
526.069345	2535.004705
526.431608	2537.351363
526.793815	2536.968235
527.155964	2537.812628
527.518057	2534.150230
527.880093	2537.212731
528.242072	2532.219468
528.603995	2536.474202
528.965860	2534.417411
529.327669	2532.501773
529.689421	2533.275590
530.051117	2534.954294
530.412755	2535.218954
530.774337	2535.118131
531.135862	2534.740045
531.497331	2531.538912
531.858743	2530.949097
532.220098	2532.963038
532.581396	2531.107893
532.942638	2531.236443
533.303824	2532.562266
533.664953	2534.878677
534.026025	2534.931609
534.387040	2535.554191
534.747999	2530.470188
535.108902	2531.944725
535.469748	2533.053779
535.830537	2534.588810
536.191270	2533.262987
536.551947	2535.917154
536.912567	2530.818027
537.273131	2535.710467
537.633638	2532.269879
537.994089	2533.580579
538.354483	2533.814993
538.714821	2533.681403
539.075103	2533.328522
539.435328	2531.622091
539.795497	2531.112935
540.155609	2535.471012
540.515665	2530.898686
540.875665	2533.759540
541.235609	2532.950435
541.595496	2532.393388
541.955328	2531.974972
542.315102	2533.630991
542.674821	2532.481608
543.034483	2531.402801
543.394090	2531.818696
543.753640	2533.804911
544.113134	2532.915147
544.472571	2531.526309
544.831953	2532.332894
545.191278	2531.629653
545.550548	2532.093439
545.909761	2531.581762
546.268918	2530.825589
546.628019	2532.786598
546.987064	2530.276103
547.346053	2531.329704
547.704986	2532.355579
548.063863	2530.487832
548.422684	2532.436237
548.781449	2529.963552
549.140158	2530.099663
549.498811	2531.891793
549.857408	2531.223840
550.215949	2530.991947
550.574434	2529.572862
550.932864	2528.287368
551.291237	2526.522964
551.649555	2531.886752
552.007817	2531.390198
552.366022	2531.077647
552.724173	2530.361803
553.082267	2529.237625
553.440305	2531.654859
553.798288	2530.316432
554.156215	2532.300126
554.514086	2531.715353
554.871902	2530.876000
555.229661	2533.618388
555.587365	2530.601258
555.945014	2528.849457
556.302606	2528.090763
556.660143	2531.105373
557.017625	2531.813655
557.375050	2530.613860
557.732421	2531.773326
558.089735	2533.522606
558.446994	2529.605630
558.804197	2531.947246
559.161345	2530.061854
559.518437	2532.070754
559.875474	2532.501772
560.232455	2528.035310
560.589381	2529.890455
560.946251	2532.907585
561.303065	2527.153108
561.659825	2532.262318
562.016528	2529.845084
562.373177	2530.145033
562.729770	2530.008922
563.086307	2528.327697
563.442789	2528.461288
563.799216	2529.771988
564.155587	2529.093952
564.511904	2532.574869
564.868164	2529.444313
565.224370	2528.917512
565.580520	2529.734179
565.936615	2527.397604
566.292654	2534.298944
566.648638	2530.006401
567.004567	2528.736031
567.360441	2532.030425
567.716260	2531.475898
568.072023	2530.694519
568.427732	2528.201668
568.783385	2527.077491
569.138982	2524.786287
569.494525	2529.250228
569.850013	2526.517923
570.205445	2529.809796
570.560823	2527.442975
570.916145	2533.431865
571.271412	2527.629497
571.626625	2532.292565
571.981782	2530.170239
572.336884	2527.695032
572.691931	2530.634025
573.046923	2528.189065
573.401860	2530.833151
573.756743	2530.008922
574.111570	2528.952800
574.466342	2529.484642
574.821059	2528.110927
575.175722	2528.289888
575.530330	2528.236956
575.884882	2529.098994
576.239380	2527.400125
576.593823	2530.117307
576.948211	2528.234436
577.302544	2529.439272
577.656823	2531.183511
578.011047	2527.178314
578.365216	2530.152595
578.719330	2526.946421
579.073389	2530.989426
579.427394	2528.889786
579.781344	2527.140505
580.135239	2527.301822
580.489080	2528.037831
580.842866	2526.132275
581.196597	2531.735517
581.550273	2526.253262
581.903895	2527.158149
582.257463	2529.129241
582.610975	2529.255269
582.964434	2528.615043
583.317837	2525.539939
583.671186	2529.197296
584.024481	2527.853829
584.377721	2531.233922
584.730906	2527.102697
585.084037	2529.895496
585.437113	2528.045392
585.790135	2528.897347
586.143103	2525.902902
586.496016	2528.317615
586.848874	2526.822913
587.201679	2525.187058
587.554428	2522.747140
587.907124	2524.854342
588.259765	2523.057171
588.612352	2528.113448
588.964884	2528.509179
589.317362	2526.611184
589.669786	2527.163191
590.022155	2527.059847
590.374470	2524.521626
590.726731	2526.278468
591.078937	2525.315608
591.431090	2528.579755
591.783188	2529.227543
592.135232	2523.100021
592.487222	2526.936339
592.839157	2528.647810
593.191038	2526.865762
593.542866	2526.893489
593.894639	2528.914992
594.246358	2527.816020
594.598022	2524.748478
594.949633	2526.717048
595.301190	2527.432892
595.652692	2526.059178
596.004141	2526.301153
596.355535	2528.453726
596.706876	2524.861904
597.058162	2525.159332
597.409395	2525.297964
597.760573	2526.094466
598.111698	2526.235618
598.462768	2528.322656
598.813785	2525.038344
599.164748	2528.748633
599.515657	2525.870135
599.866511	2527.410207
600.217312	2525.340813
600.568060	2527.281658
600.918753	2528.189065
601.269392	2527.586648
601.619978	2525.965917
601.970510	2524.869466
602.320988	2525.126564
602.671412	2527.836185
603.021783	2526.555732
603.372100	2526.943900
603.722363	2525.187058
604.072572	2526.028931
604.422728	2528.579755
604.772830	2523.548683
605.122878	2522.336286
605.472872	2522.979033
605.822813	2523.447860
606.172701	2523.707480
606.522534	2523.775535
606.872314	2525.383663
607.222041	2525.444157
607.571714	2525.353416
607.921333	2526.172604
608.270899	2525.970958
608.620411	2525.943231
608.969870	2522.479959
609.319276	2524.675381
609.668627	2524.521626
610.017926	2525.597912
610.367171	2523.808303
610.716362	2525.509692
611.065500	2526.407018
611.414585	2525.746626
611.763616	2526.422141
612.112594	2526.311236
612.461518	2525.325690
612.810389	2523.957017
613.159207	2528.834333
613.507971	2525.023221
613.856682	2527.513551
614.205340	2525.633200
614.553945	2523.914167
614.902496	2529.532533
615.250994	2526.832995
615.599439	2524.340144
615.947830	2530.329035
616.296169	2526.555732
616.644454	2526.452388
616.992686	2522.608508
617.340864	2525.895340
617.688990	2525.731503
618.037063	2525.970958
618.385082	2527.206040
618.733048	2526.507841
619.080961	2524.990453
619.428821	2523.112623
619.776628	2529.242667
620.124382	2524.758560
620.472083	2527.100176
620.819731	2528.267203
621.167326	2527.629497
621.514868	2528.262162
621.862357	2523.435257
622.209793	2525.698735
622.557176	2524.566996
622.904506	2523.778056
623.251783	2525.040865
623.599007	2521.993487
623.946179	2519.135153
624.293297	2523.203364
624.640363	2525.459281
624.987376	2524.539270
625.334336	2523.737727
625.681243	2525.739065
626.028097	2525.033303
626.374899	2524.871986
626.721647	2523.765453
627.068343	2524.700587
627.414987	2526.497758
627.761577	2527.004394
628.108115	2524.866945
628.454600	2521.955679
628.801032	2523.437778
629.147412	2526.709487
629.493739	2525.857532
629.840014	2522.714372
630.186236	2527.029600
630.532405	2522.825278
630.878521	2522.510206
631.224585	2523.926770
631.570597	2523.919208
631.916556	2523.972140
632.262462	2527.344672
632.608316	2525.587830
632.954117	2523.324352
633.299866	2523.170597
633.645562	2522.190092
633.991206	2524.403159
634.336797	2524.395597
634.682336	2525.033303
635.027823	2524.183869
635.373257	2524.259486
635.718639	2521.212108
636.063968	2524.070443
636.409245	2523.226049
636.754470	2523.422654
637.099642	2522.527850
637.444762	2522.777387
637.789829	2522.671522
638.134845	2523.226049
638.479808	2521.471728
638.824719	2523.800741
639.169577	2522.638755
639.514383	2521.796882
639.859137	2522.724455
640.203839	2524.055319
640.548489	2521.945596
640.893086	2519.094824
641.237632	2517.194309
641.582125	2521.353261
641.926566	2518.792355
642.270955	2523.662109
642.615292	2521.779238
642.959576	2523.838550
643.303809	2522.779907
643.647990	2522.273271
643.992118	2521.126409
644.336195	2520.614732
644.680219	2520.713034
645.024192	2521.953158
645.368112	2522.240504
645.711981	2521.007942
646.055797	2521.590195
646.399562	2520.622293
646.743274	2523.528519
647.086935	2523.392408
647.430544	2519.843435
647.774101	2522.976512
648.117606	2524.168745
648.461059	2519.835873
648.804460	2523.571368
649.147810	2521.265041
649.491108	2522.406862
649.834354	2523.389887
650.177548	2519.248579
650.520690	2523.707480
650.863781	2522.900895
651.206820	2523.379805
651.549807	2522.941224
651.892742	2520.806296
652.235626	2518.673888
652.578458	2520.526512
652.921238	2522.762263
653.263967	2522.605987
653.606644	2520.980215
653.949269	2523.188241
654.291843	2518.691532
654.634365	2520.771007
654.976836	2521.708662
655.319255	2520.619773
655.661622	2520.980215
656.003938	2521.875020
656.346203	2517.572395
656.688416	2522.558097
657.030577	2522.936183
657.372687	2521.675895
657.714746	2520.632376
658.056753	2519.971985
658.398708	2514.643485
658.740612	2519.172962
659.082465	2516.806140
659.424266	2519.843435
659.766016	2518.759587
660.107715	2520.904598
660.449362	2519.956861
660.790958	2521.045750
661.132503	2521.212108
661.473996	2519.732530
661.815438	2524.325021
662.156829	2521.819568
662.498168	2521.133971
662.839456	2522.031296
663.180693	2520.619773
663.521879	2519.639268
663.863013	2520.468538
664.204097	2521.691018
664.545129	2518.714217
664.886110	2521.302849
665.227040	2522.437109
665.567918	2521.086080
665.908746	2519.765297
666.249522	2521.254958
666.590248	2520.632376
666.930922	2523.735206
667.271545	2520.229083
667.612118	2521.680936
667.952639	2518.003414
668.293109	2519.031809
668.633528	2520.692870
668.973896	2516.627179
669.314213	2518.376459
669.654480	2521.436440
669.994695	2521.378467
670.334859	2522.946265
670.674973	2520.677746
671.015035	2520.191275
671.355047	2522.548014
671.695008	2519.102386
672.034918	2519.697242
672.374777	2520.276974
672.714585	2523.858714
673.054342	2519.561131
673.394049	2519.609022
673.733705	2522.076666
674.073310	2521.892664
674.412864	2517.126253
674.752368	2520.715555
675.091820	2518.958713
675.431223	2517.844618
675.770574	2520.886954
676.109875	2516.659947
676.449125	2517.365708
676.788324	2516.831346
677.127473	2518.653723
677.466571	2515.104751
677.805619	2521.149094
678.144616	2520.821419
678.483562	2518.522653
678.822458	2519.493075
679.161303	2519.515760
679.500098	2517.658095
679.838842	2518.396624
680.177535	2519.046933
680.516179	2517.380832
680.854771	2518.794875
681.193314	2521.683456
681.531805	2519.500637
681.870247	2520.009793
682.208638	2520.491223
682.546978	2519.548528
682.885268	2520.448374
683.223508	2521.600277
683.561697	2520.955010
683.899836	2521.675895
684.237925	2520.665143
684.575963	2520.065246
684.913951	2519.949299
685.251889	2520.191275
685.589776	2517.653054
685.927614	2521.519619
686.265401	2519.324196
686.603137	2519.563651
686.940824	2520.004752
687.278460	2519.046933
687.616046	2519.336799
687.953582	2519.714886
688.291068	2520.622293
688.628504	2519.382170
688.965889	2518.134484
689.303224	2520.314783
689.640510	2522.157325
689.977745	2519.641789
690.314930	2519.392252
690.652065	2518.948630
690.989150	2519.135153
691.326185	2522.056502
691.663170	2516.375121
692.000105	2518.169772
692.336990	2517.731192
692.673825	2517.753877
693.010610	2517.872344
693.347345	2515.467714
693.684030	2516.357477
694.020665	2515.747498
694.357251	2512.715244
694.693786	2517.022910
695.030272	2518.741943
695.366707	2518.991480
695.703093	2520.700431
696.039429	2515.661798
696.375716	2517.045595
696.711952	2516.967457
697.048139	2515.694566
697.384276	2518.197498
697.720363	2516.181037
698.056400	2517.010307
698.392388	2518.119361
698.728326	2516.798578
699.064214	2516.324710
699.400053	2520.140863
699.735842	2517.834535
700.071581	2519.092303
700.407270	2518.797396
700.742910	2517.632889
701.078501	2514.719102
701.414042	2516.722961
701.749533	2516.191119
702.084974	2520.289577
702.420366	2518.373939
702.755709	2517.824453
703.091002	2518.008455
703.426246	2516.705317
703.761440	2515.273629
704.096584	2517.201871
704.431679	2519.309073
704.766725	2519.677077
705.101721	2518.510050
705.436668	2516.327230
705.771565	2514.908146
706.106413	2515.170286
706.441212	2513.105933
706.775961	2517.537107
707.110661	2518.079031
707.445311	2516.165913
707.779913	2514.106602
708.114465	2515.883609
708.448967	2517.741274
708.783421	2515.639113
709.117825	2516.095337
709.452180	2517.199350
709.786485	2517.267406
710.120742	2515.389576
710.454949	2514.681294
710.789107	2513.075686
711.123216	2513.272291
711.457275	2512.843793
711.791286	2512.624503
712.125247	2516.354957
712.459159	2519.566172
712.793023	2514.711541
713.126837	2517.138856
713.460602	2518.452077
713.794318	2516.992663
714.127985	2517.801768
714.461602	2515.480317
714.795171	2516.896881
715.128691	2515.215656
715.462162	2516.032323
715.795584	2516.581809
716.128957	2516.785975
716.462281	2517.390914
716.795556	2517.292611
717.128782	2514.552744
717.461960	2515.853362
717.795088	2515.528207
718.128167	2514.948475
718.461198	2516.468383
718.794180	2514.509894
719.127113	2514.797240
719.459997	2516.788496
719.792833	2515.145080
720.125619	2517.199350
720.458357	2517.348064
720.791046	2517.960564
721.123686	2512.684997
721.456278	2515.976870
721.788821	2515.583660
722.121315	2516.322189
722.453761	2514.698938
722.786158	2515.008969
723.118506	2516.072652
723.450805	2514.212466
723.783056	2514.555265
724.115259	2517.562313
724.447412	2517.295132
724.779518	2513.534431
725.111574	2513.887312
725.443582	2513.683145
725.775542	2515.157683
726.107453	2514.028464
726.439315	2515.470234
726.771129	2520.387880
727.102895	2515.984432
727.434612	2516.899401
727.766281	2516.579288
728.097901	2513.688186
728.429473	2514.449401
728.760996	2512.748011
729.092471	2511.157527
729.423897	2516.228928
729.755276	2514.308248
730.086606	2515.324041
730.417887	2514.091479
730.749120	2517.322858
731.080305	2517.945441
731.411442	2516.274298
731.742530	2517.705986
732.073570	2517.030471
732.404562	2517.073321
732.735506	2516.208763
733.066401	2516.266737
733.397249	2514.376304
733.728048	2517.327899
734.058798	2516.123064
734.389501	2516.256654
734.720156	2516.380163
735.050762	2516.274298
735.381320	2512.800943
735.711831	2515.928979
736.042293	2513.176509
736.372707	2512.556447
736.703073	2518.227745
737.033391	2513.854544
737.363661	2515.376973
737.693883	2514.819925
738.024056	2516.690193
738.354182	2512.974863
738.684260	2515.374452
739.014290	2514.053670
739.344272	2512.584174
739.674207	2516.743126
740.004093	2513.680625
740.333931	2515.104751
740.663722	2515.066942
740.993464	2516.327230
741.323159	2515.825636
741.652806	2514.194822
741.982405	2517.123733
742.311956	2512.793382
742.641460	2517.887467
742.970915	2513.400841
743.300323	2513.577281
743.629683	2514.489730
743.958996	2514.588032
744.288260	2516.022241
744.617477	2515.588701
744.946647	2510.076200
745.275768	2511.399503
745.604842	2511.409585
745.933869	2510.842455
746.262847	2514.033505
746.591778	2515.195491
746.920662	2511.994359
747.249498	2516.236490
747.578286	2514.305728
747.907027	2517.514422
748.235720	2515.324041
748.564365	2515.293794
748.892963	2514.220028
749.221514	2513.509225
749.550017	2512.669873
749.878473	2513.678104
750.206881	2512.664832
750.535242	2513.491581
750.863555	2515.349247
751.191821	2513.572240
751.520039	2511.281035
751.848210	2514.693897
752.176334	2513.226921
752.504411	2515.082065
752.832440	2515.666839
753.160421	2510.827332
753.488356	2515.235821
753.816243	2513.116015
754.144082	2516.738084
754.471875	2516.483506
754.799620	2513.970491
755.127318	2510.555109
755.454969	2515.359329
755.782572	2511.845645
756.110129	2512.604338
756.437638	2515.157683
756.765100	2515.906294
757.092515	2513.612569
757.419882	2512.463186
757.747203	2515.591222
758.074477	2510.476971
758.401703	2514.603156
758.728882	2514.746829
759.056014	2514.799761
759.383099	2512.130470
759.710138	2511.704492
760.037129	2514.386386
760.364073	2513.932682
760.690970	2514.020902
761.017820	2511.694410
761.344623	2514.560306
761.671379	2514.298166
761.998088	2508.369769
762.324751	2511.812877
762.651366	2513.786489
762.977935	2516.410409
763.304456	2511.117198
763.630931	2516.443177
763.957359	2514.303207
764.283740	2516.619617
764.610074	2514.444359
764.936362	2517.927797
765.262602	2513.993176
765.588796	2515.714730
765.914943	2513.128618
766.241044	2515.452590
766.567097	2511.036539
766.893104	2513.562158
767.219064	2511.064266
767.544978	2511.495284
767.870845	2513.300017
768.196665	2514.925790
768.522438	2513.531911
768.848165	2514.542662
769.173846	2512.090141
769.499479	2512.884122
769.825066	2512.977384
770.150607	2513.549555
770.476101	2512.662312
770.801548	2513.766324
771.126949	2513.766324
771.452303	2511.182733
771.777611	2511.263391
772.102872	2513.620131
772.428087	2513.196674
772.753256	2513.211797
773.078378	2509.708195
773.403453	2513.526869
773.728482	2509.224245
774.053465	2512.773217
774.378401	2510.769358
774.703291	2509.693072
775.028135	2511.795233
775.352932	2511.523011
775.677683	2511.487723
776.002388	2510.663494
776.327046	2509.685510
776.651658	2515.069462
776.976224	2512.054853
777.300743	2511.848165
777.625216	2510.575274
777.949643	2512.574091
778.274024	2513.877230
778.598359	2511.979235
778.922647	2508.848679
779.246889	2510.146776
779.571086	2508.682321
779.895236	2508.067300
780.219339	2511.457476
780.543397	2511.454955
780.867409	2512.909328
781.191374	2513.751201
781.515294	2511.200377
781.839167	2510.081241
782.162995	2513.196674
782.486776	2513.063083
782.810511	2512.072497
783.134201	2513.713392
783.457844	2510.260202
783.781441	2510.865140
784.104993	2511.220542
784.428498	2513.877230
784.751958	2513.733557
785.075372	2511.391941
785.398739	2508.657115
785.722061	2510.945799
786.045337	2511.664163
786.368568	2510.282887
786.691752	2512.279184
787.014891	2512.702641
787.337983	2509.264574
787.661030	2511.573422
787.984031	2512.836231
788.306987	2511.079389
788.629897	2511.898577
788.952760	2512.858917
789.275579	2511.780110
789.598351	2512.967301
789.921078	2513.116015
790.243759	2512.286746
790.566395	2511.296159
790.888984	2512.518639
791.211529	2510.295490
791.534027	2513.632734
791.856480	2511.986797
792.178888	2510.166940
792.501249	2511.404544
792.823566	2513.463855
793.145836	2511.064266
793.468062	2510.759276
793.790241	2512.009482
794.112375	2509.894718
794.434464	2512.324554
794.756507	2514.925790
795.078505	2511.389420
795.400457	2509.385562
795.722364	2508.400016
796.044226	2509.388082
796.366042	2507.328771
796.687812	2508.750376
797.009538	2511.638957
797.331218	2511.933865
797.652852	2510.209790
797.974442	2511.409585
798.295986	2511.220542
798.617484	2512.785820
798.938938	2513.541993
799.260346	2508.435304
799.581709	2512.284225
799.903026	2512.642147
800.224299	2512.526200
800.545526	2511.281035
800.866708	2509.378000
801.187845	2511.034019
801.508936	2508.687362
801.829983	2512.170799
802.150984	2513.400841
802.471940	2510.580315
802.792851	2509.877074
803.113717	2512.017044
803.434538	2512.707682
803.755314	2508.959584
804.076045	2510.799605
804.396731	2511.969153
804.717372	2512.967301
805.037967	2508.914214
805.358518	2510.330778
805.679024	2511.558299
805.999485	2509.289780
806.319901	2511.621313
806.640272	2511.495284
806.960598	2510.053514
807.280879	2510.189626
807.601115	2509.733401
807.921306	2511.737260
808.241453	2509.874553
808.561554	2511.938906
808.881611	2513.156345
809.201623	2509.887156
809.521590	2511.586025
809.841513	2510.565192
810.161390	2511.727177
810.481223	2508.967146
810.801011	2510.973525
811.120755	2513.436129
811.440453	2511.127280
811.760107	2509.067969
812.079716	2508.634430
812.399281	2505.423215
812.718801	2506.353308
813.038276	2506.106291
813.357707	2510.686179
813.677093	2511.611231
813.996434	2509.806498
814.315731	2510.444204
814.634983	2509.882115
814.954191	2510.081241
815.273354	2509.897239
815.592473	2510.406395
815.911547	2509.307424
816.230577	2510.608041
816.549562	2510.393792
816.868502	2509.360356
817.187399	2511.361694
817.506250	2512.296828
817.825058	2510.928155
818.143821	2512.334637
818.462539	2510.940757
818.781213	2511.860768
819.099843	2511.737260
819.418429	2507.779954
819.736970	2512.886643
820.055466	2510.537465
820.373919	2514.083917
820.692327	2512.148114
821.010691	2514.824967
821.329011	2516.624658
821.647286	2519.104906
821.965517	2523.326873
822.283704	2526.452388
822.601847	2524.080525
822.919945	2523.765453
823.237999	2520.324865
823.556010	2517.806809
823.873976	2520.221522
824.191897	2517.650533
824.509775	2516.591891
824.827609	2516.619617
825.145398	2513.645337
825.463144	2516.160872
825.780845	2514.204905
826.098502	2515.840759
826.416116	2513.605007
826.733685	2516.622138
827.051210	2516.392765
827.368692	2516.763290
827.686129	2514.646006
828.003522	2513.935203
828.320872	2510.948319
828.638177	2510.166940
828.955439	2507.230468
829.272656	2510.073679
829.589830	2506.557474
829.906960	2513.292456
830.224046	2510.194667
830.541088	2511.102074
830.858086	2509.259533
831.175041	2510.169461
831.491952	2511.865809
831.808819	2508.057218
832.125642	2513.254647
832.442421	2510.461848
832.759157	2511.432270
833.075849	2510.265243
833.392497	2511.981756
833.709101	2513.617610
834.025662	2510.300531
834.342179	2513.809174
834.658653	2512.803464
834.975083	2511.465037
835.291469	2517.524504
835.607811	2508.858761
835.924110	2510.822290
836.240366	2511.182733
836.556578	2509.173833
836.872746	2512.513597
837.188871	2510.827332
837.504952	2511.691889
837.820990	2509.496467
838.136984	2509.904800
838.452935	2506.686024
838.768842	2509.120901
839.084706	2510.177023
839.400526	2509.907321
839.716303	2510.310613
840.032037	2508.694923
840.347727	2511.142404
840.663373	2510.053514
840.978977	2512.264060
841.294537	2509.186436
841.610054	2512.468227
841.925527	2511.956550
842.240957	2510.429080
842.556344	2509.478823
842.871687	2508.662156
843.186987	2508.967146
843.502244	2507.074193
843.817458	2507.406909
844.132629	2507.658966
844.447756	2511.384379
844.762840	2503.862978
845.077881	2508.815911
845.392879	2505.947495
845.707833	2508.843638
846.022745	2505.140910
846.337613	2508.745335
846.652438	2510.010665
846.967221	2510.837414
847.281960	2507.656446
847.596656	2509.662825
847.911309	2507.132166
848.225919	2509.047804
848.540485	2509.819101
848.855009	2510.151817
849.169490	2506.065962
849.483928	2507.167454
849.798323	2508.818432
850.112675	2506.683503
850.426984	2507.842968
850.741251	2510.313134
851.055474	2507.648884
851.369654	2508.669718
851.683792	2509.718278
851.997887	2509.569564
852.311938	2507.522855
852.625947	2510.212311
852.939914	2508.281549
853.253837	2510.136693
853.567718	2507.835407
853.881555	2509.451097
854.195350	2506.623009
854.509103	2507.994203
854.822812	2506.229799
855.136479	2511.225583
855.450103	2505.655108
855.763685	2510.857578
856.077224	2507.991683
856.390720	2508.503360
856.704173	2507.795078
857.017584	2507.331291
857.330953	2510.514780
857.644278	2509.161230
857.957561	2510.784482
858.270802	2510.983607
858.584000	2507.792557
858.897155	2509.531755
859.210268	2510.461848
859.523339	2506.890190
859.836367	2507.805160
860.149352	2508.450428
860.462295	2509.378000
860.775195	2504.178050
861.088054	2505.085457
861.400869	2506.731394
861.713642	2503.552947
862.026373	2507.989162
862.339062	2513.055522
862.651708	2508.120232
862.964312	2508.006806
863.276873	2508.780623
863.589392	2510.678617
863.901869	2508.498318
864.214303	2507.253153
864.526696	2507.918586
864.839045	2508.977228
865.151353	2506.638133
865.463619	2507.759789
865.775842	2506.197032
866.088023	2509.388082
866.400162	2506.320540
866.712258	2507.275839
867.024313	2507.021260
867.336325	2509.468741
867.648296	2510.865140
867.960224	2506.575118
868.272110	2508.251302
868.583954	2508.331960
868.895755	2509.854389
869.207515	2506.801970
869.519233	2511.754904
869.830909	2505.324912
870.142542	2507.737104
870.454134	2507.422032
870.765684	2508.102588
871.077191	2508.397495
871.388657	2509.009996
871.700081	2507.288442
872.011463	2509.536796
872.322803	2507.996724
872.634101	2506.539830
872.945357	2506.736435
873.256571	2509.156189
873.567744	2508.246261
873.878874	2509.201559
874.189963	2508.480674
874.501010	2507.938750
874.812015	2507.371621
875.122979	2509.292300
875.433900	2507.669049
875.744780	2508.667197
876.055618	2507.326250
876.366415	2509.733401
876.677169	2507.689213
876.987882	2507.422032
877.298554	2505.798781
877.609183	2508.820952
877.919771	2505.856754
878.230317	2505.594614
878.540822	2510.552589
878.851285	2507.943792
879.161707	2509.380520
879.472087	2510.073679
879.782425	2508.934378
880.092722	2510.106447
880.402977	2509.453617
880.713191	2511.311282
881.023363	2513.741118
881.333494	2515.248423
881.643583	2512.581653
881.953631	2516.695235
882.263637	2514.585512
882.573602	2513.962929
882.883526	2513.151303
883.193408	2510.547547
883.503248	2514.220028
883.813048	2513.252127
884.122806	2510.603000
884.432522	2511.288597
884.742197	2509.609893
885.051831	2510.981087
885.361424	2509.811539
885.670975	2508.120232
885.980485	2507.848010
886.289954	2508.493277
886.599382	2509.378000
886.908768	2506.789367
887.218113	2509.229286
887.527417	2508.485716
887.836680	2508.795747
888.145901	2510.053514
888.455082	2508.095026
888.764221	2505.766013
889.073319	2507.563184
889.382376	2510.303052
889.691392	2507.464882
890.000366	2510.403875
890.309300	2508.644512
890.618193	2510.787002
890.927044	2510.015706
891.235855	2508.747856
891.544625	2507.200221
891.853353	2508.352125
892.162041	2505.176198
892.470687	2510.668535
892.779293	2507.008658
893.087858	2507.316168
893.396381	2502.325426
893.704864	2506.774244
894.013306	2504.984634
894.321707	2513.020233
894.630068	2508.034532
894.938387	2510.870181
895.246665	2509.675428
895.554903	2509.647702
895.863100	2512.022085
896.171256	2508.563853
896.479371	2508.447907
896.787446	2507.038904
897.095480	2504.379696
897.403473	2507.686693
897.711425	2506.864985
898.019336	2507.452279
898.327207	2509.625016
898.635038	2506.491939
898.942827	2510.098885
899.250576	2509.204080
899.558284	2505.345077
899.865952	2507.351456
900.173579	2506.814573
900.481165	2508.258864
900.788711	2507.815242
901.096216	2506.605365
901.403681	2508.553771
901.711105	2508.944461
902.018489	2508.873884
902.325832	2509.012516
902.633135	2507.548061
902.940397	2506.857423
903.247619	2505.831548
903.554800	2507.835407
903.861941	2511.250788
904.169041	2509.985459
904.476101	2509.463699
904.783121	2509.383041
905.090100	2509.645181
905.397039	2512.012003
905.703938	2507.676610
906.010796	2506.872546
906.317614	2507.250633
906.624391	2506.360869
906.931129	2510.615603
907.237826	2506.219717
907.544483	2506.607886
907.851099	2507.749707
908.157675	2509.388082
908.464211	2507.187618
908.770707	2499.903151
909.077163	2507.727022
909.383578	2503.250477
909.689954	2503.956239
909.996289	2501.697802
910.302584	2507.656446
910.608839	2505.324912
910.915054	2509.693072
911.221229	2507.792557
911.527363	2506.801970
911.833458	2506.691065
912.139513	2507.401868
912.445527	2507.694254
912.751502	2505.705519
913.057436	2508.521004
913.363331	2507.560664
913.669186	2508.324399
913.975000	2507.548061
914.280775	2509.476302
914.586510	2507.699296
914.892205	2509.509070
915.197859	2509.350273
915.503475	2509.312465
915.809050	2508.213493
916.114585	2508.614265
916.420081	2506.118894
916.725536	2510.071158
917.030952	2511.533093
917.336328	2506.837258
917.641665	2506.290293
917.946961	2507.187618
918.252218	2507.691734
918.557435	2508.798267
918.862612	2509.080572
919.167750	2504.949346
919.472848	2511.107116
919.777906	2506.058400
920.082925	2507.059069
920.387904	2508.838596
920.692843	2506.053359
920.997743	2507.636281
921.302603	2504.218379
921.607423	2506.033194
921.912204	2508.100067
922.216946	2506.159223
922.521647	2506.814573
922.826310	2507.616117
923.130932	2507.875736
923.435516	2505.390447
923.740059	2505.564367
924.044564	2506.444048
924.349028	2504.969511
924.653454	2503.946157
924.957840	2508.279028
925.262186	2504.402381
925.566493	2505.713081
925.870761	2500.906341
926.174989	2507.721981
926.479178	2507.870695
926.783328	2508.203411
927.087438	2507.595952
927.391509	2507.106960
927.695541	2505.274501
927.999533	2505.844151
928.303486	2505.614778
928.607400	2506.345746
928.911275	2506.113853
929.215110	2507.636281
929.518906	2506.189470
929.822663	2505.536641
930.126381	2504.674603
930.430060	2506.617968
930.733699	2505.745848
931.037299	2505.874398
931.340861	2507.308606
931.644383	2504.833400
931.947866	2505.647546
932.251309	2506.807011
932.554714	2506.907834
932.858080	2507.406909
933.161407	2509.032681
933.464694	2507.981600
933.767943	2508.780623
934.071153	2504.296517
934.374323	2506.486898
934.677455	2507.321209
934.980548	2504.546054
935.283602	2506.907834
935.586617	2504.236023
935.889593	2504.404902
936.192530	2507.520335
936.495428	2504.704850
936.798287	2507.326250
937.101108	2508.846158
937.403890	2503.404233
937.706632	2506.169305
938.009336	2504.722494
938.312002	2506.537310
938.614628	2505.937412
938.917216	2505.541682
939.219765	2507.911024
939.522275	2508.604183
939.824747	2510.003103
940.127179	2503.195025
940.429573	2503.172339
940.731929	2504.881291
941.034246	2502.375837
941.336524	2504.765344
941.638763	2503.202586
941.940964	2507.094357
942.243126	2507.757269
942.545250	2507.414470
942.847335	2505.435818
943.149381	2505.251815
943.451389	2505.269459
943.753359	2504.803153
944.055290	2505.594614
944.357182	2504.049500
944.659036	2504.036897
944.960851	2507.553102
945.262628	2505.992865
945.564367	2507.169974
945.866067	2505.849192
946.167729	2509.985459
946.469352	2507.177536
946.770937	2507.885818
947.072484	2504.775426
947.373992	2504.041938
947.675462	2504.654439
947.976893	2504.440190
948.278286	2504.062103
948.579641	2505.065293
948.880958	2506.222238
949.182236	2505.108143
949.483476	2505.095540
949.784678	2508.231137
950.085841	2506.640653
950.386967	2506.892711
950.688054	2506.542351
950.989103	2505.297186
951.290114	2502.640498
951.591087	2506.413801
951.892021	2503.918430
952.192917	2508.294152
952.493776	2506.451610
952.794596	2504.203255
953.095378	2506.272649
953.396122	2506.849861
953.696828	2506.156702
953.997496	2508.780623
954.298126	2501.516320
954.598718	2508.647033
954.899272	2506.255005
955.199788	2506.761641
955.500266	2504.150323
955.800706	2504.961949
956.101108	2501.102946
956.401472	2502.547236
956.701798	2500.997082
957.002087	2504.735097
957.302337	2506.194511
957.602550	2507.079234
957.902724	2502.330467
958.202861	2504.261229
958.502960	2505.526558
958.803022	2505.299706
959.103045	2505.955056
959.403031	2502.779129
959.702979	2506.617968
960.002889	2506.224758
960.302762	2505.153513
960.602596	2507.159892
960.902393	2505.196363
961.202153	2505.554285
961.501875	2504.157885
961.801559	2508.168123
962.101205	2506.678462
962.400814	2504.311640
962.700385	2504.956908
962.999918	2507.454800
963.299414	2504.856085
963.598873	2507.810201
963.898293	2506.600324
964.197677	2503.051352
964.497022	2507.792557
964.796331	2505.385406
965.095601	2506.083606
965.394835	2506.522186
965.694030	2507.207783
965.993189	2505.917248
966.292309	2502.239726
966.591393	2503.474809
966.890439	2503.038749
967.189447	2505.455982
967.488419	2505.539161
967.787353	2504.230982
968.086249	2504.674603
968.385108	2504.200735
968.683930	2507.001096
968.982714	2504.427587
969.281462	2507.752228
969.580172	2505.246774
969.878844	2503.794922
970.177480	2504.782988
970.476078	2505.128307
970.774639	2506.083606
971.073162	2503.268121
971.371649	2504.132679
971.670098	2503.273163
971.968510	2503.618482
972.266885	2499.537668
972.565223	2505.665190
972.863524	2505.955056
973.161788	2508.647033
973.460014	2506.038235
973.758204	2505.710560
974.056356	2505.793739
974.354471	2503.948677
974.652550	2505.579490
974.950591	2506.867505
975.248595	2501.624705
975.546563	2505.670231
975.844493	2503.530261
976.142386	2503.678975
976.440243	2505.234171
976.738062	2506.199552
977.035845	2503.666373
977.333590	2503.578152
977.631299	2503.716784
977.928971	2504.099912
978.226606	2505.224089
978.524204	2504.477998
978.821765	2505.647546
979.119290	2505.516476
979.416777	2506.368431
979.714228	2506.623009
980.011642	2504.631753
980.309020	2507.543020
980.606360	2505.297186
980.903664	2502.607730
981.200931	2504.077227
981.498162	2504.379696
981.795356	2505.428256
982.092513	2506.451610
982.389633	2505.992865
982.686717	2505.027484
982.983764	2506.635612
983.280775	2504.588904
983.577749	2503.373986
983.874686	2502.516989
984.171587	2506.287772
984.468451	2508.241220
984.765279	2506.423884
985.062070	2503.593276
985.358824	2506.219717
985.655543	2506.517145
985.952224	2507.031343
986.248869	2503.731908
986.545478	2502.995899
986.842050	2504.873729
987.138586	2499.091525
987.435086	2502.693430
987.731549	2501.196207
988.027975	2505.070334
988.324366	2502.537154
988.620719	2505.534120
988.917037	2503.522700
989.213318	2504.503204
989.509563	2503.384068
989.805772	2503.414315
990.101944	2503.542864
990.398080	2504.490601
990.694180	2505.841630
990.990244	2504.079747
991.286271	2506.587721
991.582262	2500.656804
991.878217	2507.485047
992.174136	2503.384068
992.470019	2503.517658
992.765865	2505.738287
993.061676	2504.109994
993.357450	2504.127638
993.653188	2503.368944
993.948890	2504.011692
994.244556	2503.505056
994.540186	2505.075375
994.835780	2504.742659
995.131337	2504.039418
995.426859	2502.983296
995.722345	2503.240395
996.017795	2502.627895
996.313208	2506.554954
996.608586	2502.602689
996.903928	2504.936743
997.199234	2506.287773
997.494504	2505.919768
997.789738	2502.222082
998.084936	2503.394150
998.380099	2504.402381
998.675225	2503.857936
998.970316	2504.301558
999.265371	2505.193842
999.560390	2502.821979
999.855373	2501.813748
1000.150320	2501.889366
1000.445232	2506.922958
1000.740108	2507.169974
1001.034948	2504.195694
1001.329752	2503.976403
1001.624521	2508.044615
1001.919254	2503.084119
1002.213951	2503.568070
1002.508613	2500.034221
1002.803239	2504.200735
1003.097829	2499.704026
1003.392384	2503.673934
1003.686903	2503.734428
1003.981386	2506.406240
1004.275834	2503.575632
1004.570246	2507.535458
1004.864623	2504.299037
1005.158964	2503.792401
1005.453270	2501.733090
1005.747540	2502.756444
1006.041775	2501.196207
1006.335974	2505.355159
1006.630138	2505.380365
1006.924266	2503.983965
1007.218359	2505.934892
1007.512416	2503.288286
1007.806438	2503.807525
1008.100425	2505.975221
1008.394376	2502.995899
1008.688292	2506.441528
1008.982172	2503.195025
1009.276017	2505.491270
1009.569827	2505.400529
1009.863602	2505.720643
1010.157341	2501.377689
1010.451045	2506.096209
1010.744714	2502.617813
1011.038347	2504.248626
1011.331945	2500.734942
1011.625508	2504.379696
1011.919036	2502.524551
1012.212528	2502.842144
1012.505986	2504.097391
1012.799408	2503.923471
1013.092795	2505.854233
1013.386147	2503.099243
1013.679464	2504.651918
1013.972745	2505.035046
1014.265992	2503.966321
1014.559204	2503.784840
1014.852380	2505.352638
1015.145521	2500.792915
1015.438628	2504.835920
1015.731699	2504.057062
1016.024736	2501.841475
1016.317737	2506.154182
1016.610703	2506.743997
1016.903635	2498.516834
1017.196531	2501.307112
1017.489393	2500.989520
1017.782219	2497.269148
1018.075011	2503.051352
1018.367768	2502.408605
1018.660490	2502.958090
1018.953177	2502.958090
1019.245829	2502.958090
