Dividing Wavelength (nm)	Counts (n)	Blue Motor Position (mm): 0.000000	Red Motor Position (mm): 12.000000	
326.493990	2127.296347
326.888308	2127.296347
327.282561	2127.296347
327.676750	2095.469022
328.070874	2094.904413
328.464933	2098.713005
328.858929	2101.853643
329.252859	2114.486775
329.646726	2125.295009
330.040528	2133.771709
330.434265	2156.870276
330.827938	2173.145641
331.221547	2190.976202
331.615091	2209.091589
332.008571	2229.067161
332.401986	2246.159193
332.795338	2265.507141
333.188625	2286.596808
333.581847	2307.290745
333.975006	2321.514361
334.368100	2343.284583
334.761129	2361.127748
335.154095	2376.956971
335.546996	2395.062275
335.939833	2408.653225
336.332606	2422.281985
336.725315	2436.054417
337.117960	2445.249482
337.510540	2455.104937
337.903056	2465.318315
338.295508	2472.070941
338.687896	2481.702065
339.080220	2487.701038
339.472480	2495.073726
339.864676	2502.375837
340.256807	2504.031856
340.648875	2507.520335
341.040879	2511.641478
341.432818	2509.350273
341.824694	2514.078876
342.216506	2511.449914
342.608253	2513.988135
342.999937	2511.618793
343.391557	2514.706499
343.783113	2511.074348
344.174605	2512.173320
344.566033	2508.173164
344.957397	2510.292969
345.348697	2505.985303
345.739934	2505.133348
346.131106	2504.152844
346.522215	2499.807369
346.913260	2498.015239
347.304241	2495.981133
347.695159	2496.137409
348.086012	2493.521050
348.476802	2492.371667
348.867528	2489.546101
349.258191	2487.209526
349.648789	2487.769094
350.039324	2487.315390
350.429796	2487.814464
350.820203	2484.971253
351.210548	2485.041830
351.600828	2483.111068
351.991045	2485.429998
352.381198	2480.444297
352.771288	2482.349853
353.161314	2484.462097
353.551276	2480.388845
353.941175	2483.295070
354.331010	2481.064359
354.720782	2481.528145
355.110490	2482.715337
355.500135	2481.583598
355.889717	2479.572178
356.279235	2480.378762
356.668689	2484.605770
357.058080	2481.649133
357.447408	2480.537559
357.836672	2479.410861
358.225873	2484.300780
358.615010	2481.172744
359.004084	2485.399752
359.393095	2484.129381
359.782043	2483.902529
360.170927	2485.868579
360.559748	2485.661892
360.948505	2487.098620
361.337199	2491.802017
361.725830	2487.980822
362.114398	2489.099958
362.502903	2489.687253
362.891344	2491.010556
363.279722	2490.627428
363.668037	2491.287819
364.056289	2490.909733
364.444478	2492.669095
364.832603	2492.096924
365.220665	2494.541884
365.608665	2491.887717
365.996601	2495.363592
366.384474	2494.113386
366.772284	2498.204282
367.160031	2496.308808
367.547715	2501.541526
367.935336	2499.908192
368.322893	2506.423884
368.710388	2509.093175
369.097820	2516.181037
369.485189	2513.766324
369.872495	2524.201513
370.259738	2530.175280
370.646918	2538.155427
371.034035	2542.634492
371.421090	2557.452963
371.808081	2565.957390
372.195010	2572.473081
372.581875	2586.122005
372.968678	2598.891248
373.355418	2608.366097
373.742096	2629.382667
374.128710	2644.397744
374.515262	2658.306287
374.901751	2672.260201
375.288177	2682.191274
375.674540	2708.412836
376.060841	2727.533932
376.447079	2746.208887
376.833254	2766.612957
377.219367	2778.542848
377.605417	2813.261274
377.991404	2823.799806
378.377329	2846.669001
378.763191	2863.123327
379.148991	2901.289903
379.534727	2926.276382
379.920402	2951.988787
380.306013	2966.613174
380.691563	3013.914321
381.077049	3035.132537
381.462474	3054.319169
381.847835	3091.220415
382.233134	3110.303703
382.618371	3115.644805
383.003545	3179.765762
383.388657	3184.620393
383.773706	3214.935372
384.158693	3231.876169
384.543618	3257.757453
384.928480	3286.277781
385.313280	3330.009790
385.698017	3320.973522
386.082692	3370.046634
386.467305	3367.258876
386.851856	3390.760735
387.236344	3407.940988
387.620770	3427.145263
388.005133	3438.825617
388.389435	3454.894295
388.773674	3448.118984
389.157851	3475.011019
389.541965	3471.106645
389.926018	3426.709203
390.310008	3468.263435
390.693936	3469.753096
391.077802	3484.511073
391.461606	3451.171403
391.845348	3482.333295
392.229027	3460.878144
392.612645	3443.465999
392.996200	3477.524034
393.379694	3478.769199
393.763125	3497.686129
394.146494	3442.457768
394.529801	3455.055612
394.913047	3454.415385
395.296230	3399.847415
395.679351	3402.173908
396.062410	3382.702451
396.445408	3333.480625
396.828343	3314.815753
397.211217	3294.981333
397.594028	3223.817885
397.976778	3213.962429
398.359466	3196.152032
398.742092	3170.182528
399.124656	3110.444855
399.507158	3107.977210
399.889598	3087.956268
400.271977	3071.285172
400.654294	3030.555170
401.036549	2998.001919
401.418742	2960.810806
401.800874	2959.036320
402.182944	2930.959614
402.564952	2915.667273
402.946898	2888.550907
403.328783	2856.118644
403.710606	2817.241265
404.092367	2819.759322
404.474067	2796.587658
404.855705	2775.099740
405.237282	2744.293248
405.618797	2736.227402
406.000250	2722.069322
406.381642	2708.188505
406.762972	2689.024558
407.144240	2672.988648
407.525447	2656.922491
407.906593	2647.215749
408.287677	2635.595889
408.668700	2618.208950
409.049661	2612.920779
409.430560	2602.036928
409.811399	2591.170721
410.192176	2587.326841
410.572891	2577.148752
410.953545	2569.249263
411.334138	2562.221895
411.714669	2560.296174
412.095139	2551.995914
412.475547	2551.806871
412.855894	2547.899977
413.236180	2542.805891
413.616405	2539.415715
413.996568	2539.594676
414.376670	2537.079140
414.756711	2533.023532
415.136691	2533.872966
415.516609	2533.794828
415.896466	2530.102183
416.276262	2530.515558
416.655997	2527.732841
417.035670	2529.003212
417.415283	2529.635877
417.794834	2525.668488
418.174324	2528.327697
418.553753	2527.478263
418.933121	2527.311905
419.312428	2526.401976
419.691674	2529.212420
420.070859	2526.091945
420.449983	2527.047244
420.829045	2525.814682
421.208047	2526.641431
421.586988	2526.848118
421.965867	2527.382481
422.344686	2526.936339
422.723444	2528.829292
423.102141	2525.376102
423.480777	2524.927439
423.859352	2527.143026
424.237866	2524.708149
424.616319	2527.856349
424.994712	2528.504138
425.373044	2525.305525
425.751314	2529.971113
426.129524	2527.364837
426.507673	2528.678057
426.885762	2526.344003
427.263789	2527.916843
427.641756	2528.925074
428.019662	2528.854498
428.397508	2527.533715
428.775292	2526.883407
429.153016	2529.978675
429.530679	2529.323325
429.908282	2524.698066
430.285824	2526.994312
430.663305	2531.392719
431.040726	2529.691329
431.418086	2528.163860
431.795385	2529.925743
432.172624	2528.932636
432.549802	2527.828623
432.926920	2529.701412
433.303977	2530.281144
433.680974	2528.635208
434.057910	2530.011442
434.434786	2529.444313
434.811601	2532.418593
435.188355	2530.893644
435.565050	2528.841895
435.941683	2530.437420
436.318257	2528.637728
436.694770	2527.488345
437.071222	2528.562111
437.447614	2526.449867
437.823946	2527.861390
438.200218	2529.618232
438.576429	2533.628470
438.952580	2529.109076
439.328670	2531.735517
439.704700	2532.786598
440.080670	2531.027235
440.456580	2529.416586
440.832429	2530.349200
441.208218	2531.281813
441.583947	2533.026053
441.959616	2530.266021
442.335224	2529.330887
442.710773	2528.904909
443.086261	2531.428007
443.461689	2530.013963
443.837057	2532.088398
444.212365	2531.037317
444.587612	2531.644776
444.962800	2533.908254
445.337927	2532.837009
445.712995	2533.336083
446.088002	2531.914478
446.462949	2530.621422
446.837837	2533.018491
447.212664	2532.471526
447.587431	2535.407998
447.962139	2534.056968
448.336786	2538.863709
448.711374	2534.374561
449.085901	2535.844057
449.460369	2534.004036
449.834776	2535.458409
450.209124	2534.392205
450.583412	2538.004192
450.957640	2536.151568
451.331808	2535.128214
451.705917	2535.768440
452.079965	2536.902700
452.453954	2536.343132
452.827883	2536.469161
453.201752	2536.406146
453.575562	2538.200797
453.949311	2536.852288
454.323001	2536.151568
454.696632	2533.837678
455.070202	2534.636701
455.443713	2534.866074
455.817164	2534.780374
456.190556	2533.426824
456.563888	2532.892462
456.937160	2535.085364
457.310373	2536.796836
457.683526	2539.108205
458.056619	2536.542257
458.429653	2536.617875
458.802628	2535.833975
459.175542	2536.801877
459.548398	2538.760365
459.921194	2537.860519
460.293930	2538.145344
460.666607	2538.588966
461.039224	2539.314892
461.411782	2542.710109
461.784280	2541.827907
462.156719	2540.343287
462.529099	2541.157434
462.901419	2540.365972
463.273680	2540.376055
463.645882	2539.153575
464.018024	2540.696168
464.390106	2540.943185
464.762130	2543.118442
465.134094	2541.999306
465.505999	2542.594162
465.877845	2550.677653
466.249631	2548.514998
466.621358	2547.383259
466.993026	2549.858465
467.364634	2550.841490
467.736184	2546.846376
468.107674	2546.765717
468.479105	2546.238917
468.850477	2545.591128
469.221790	2545.775131
469.593043	2543.859492
469.964238	2543.380583
470.335373	2543.937630
470.706449	2544.103988
471.077467	2545.379400
471.448425	2547.695810
471.819324	2550.286963
472.190164	2550.539021
472.560945	2546.082641
472.931667	2546.516180
473.302330	2543.597352
473.672934	2542.155582
474.043479	2544.686241
474.413965	2543.083154
474.784393	2541.054090
475.154761	2543.607434
475.525070	2541.197763
475.895321	2541.732125
476.265513	2539.146013
476.635645	2545.505429
477.005719	2546.942158
477.375734	2546.964843
477.745691	2548.020965
478.115588	2543.642723
478.485427	2546.501057
478.855207	2548.951057
479.224928	2549.298897
479.594591	2549.092210
479.964194	2548.608259
480.333739	2551.380894
480.703226	2548.267981
481.072653	2550.228990
481.442022	2549.291335
481.811333	2551.212015
482.180584	2549.936603
482.549777	2551.146480
482.918912	2546.611962
483.287988	2551.978270
483.657005	2549.845862
484.025964	2549.152704
484.394864	2548.635985
484.763706	2550.140770
485.132489	2550.644885
485.501213	2549.024154
485.869879	2549.563558
486.238487	2548.572971
486.607036	2546.629606
486.975527	2546.909390
487.343959	2548.726726
487.712333	2549.397200
488.080648	2548.202446
488.448905	2550.405430
488.817104	2548.562889
489.185244	2546.813608
489.553326	2550.039947
489.921350	2551.353167
490.289315	2550.632282
490.657222	2552.366439
491.025070	2555.933056
491.392861	2552.013558
491.760593	2553.954403
492.128267	2552.144628
492.495883	2551.650595
492.863440	2551.184289
493.230939	2547.854607
493.598380	2548.726726
493.965763	2546.324616
494.333088	2546.372507
494.700354	2543.761190
495.067563	2547.766386
495.434713	2542.589121
495.801805	2553.041954
496.168839	2551.093548
496.535815	2549.553475
496.902733	2548.920811
497.269593	2548.719164
497.636395	2552.137067
498.003139	2549.717313
498.369825	2549.263609
498.736453	2549.187992
499.103023	2549.233362
499.469535	2548.746891
499.835989	2549.931562
500.202385	2549.414844
500.568723	2547.375697
500.935003	2548.613300
501.301226	2551.171686
501.667390	2550.375183
502.033497	2548.338557
502.399546	2550.279402
502.765537	2549.729916
503.131470	2551.237221
503.497345	2550.806202
503.863163	2550.365101
504.228923	2546.680018
504.594625	2549.843342
504.960269	2551.461552
505.325856	2547.728578
505.691385	2548.154555
506.056856	2549.371994
506.422270	2549.195553
506.787625	2550.803682
507.152924	2548.827549
507.518164	2549.092210
507.883347	2549.772766
508.248472	2549.916438
508.613540	2550.909546
508.978550	2550.377704
509.343503	2549.843342
509.708398	2550.728064
510.073236	2552.242931
510.438016	2553.571275
510.802738	2549.659340
511.167403	2548.252858
511.532010	2548.482230
511.896561	2552.910884
512.261053	2550.990204
512.625488	2547.476520
512.989866	2548.199926
513.354186	2547.678166
513.718449	2545.676828
514.082655	2549.485420
514.446803	2550.576830
514.810894	2554.294681
515.174927	2552.588250
515.538904	2551.209494
515.902822	2551.164124
516.266684	2551.514484
516.630488	2552.444577
516.994235	2552.709238
517.357925	2553.851059
517.721558	2550.486089
518.085133	2551.978270
518.448651	2551.491799
518.812112	2548.343598
519.175516	2552.989022
519.538863	2551.012889
519.902152	2550.712941
520.265385	2553.561193
520.628560	2551.627910
520.991678	2552.822664
521.354739	2551.015410
521.717743	2553.480534
522.080690	2552.028682
522.443580	2553.903991
522.806413	2551.723692
523.169189	2551.174206
523.531908	2551.627910
523.894569	2550.556665
524.257174	2551.816953
524.619722	2551.111192
524.982213	2551.209494
525.344647	2552.293343
525.707025	2552.671429
526.069345	2552.477345
526.431608	2553.798127
526.793815	2552.447098
527.155964	2553.987170
527.518057	2553.959444
527.880093	2552.920966
528.242072	2553.432643
528.603995	2552.013558
528.965860	2552.787376
529.327669	2548.938455
529.689421	2551.764021
530.051117	2555.318035
530.412755	2552.063970
530.774337	2552.283260
531.135862	2553.770401
531.497331	2550.397869
531.858743	2547.796633
532.220098	2548.814946
532.581396	2547.801674
532.942638	2548.663712
533.303824	2554.007335
533.664953	2552.096737
534.026025	2554.829043
534.387040	2553.034392
534.747999	2552.621018
535.108902	2551.264947
535.469748	2552.346275
535.830537	2552.250493
536.191270	2555.315514
536.551947	2555.365926
536.912567	2552.197561
537.273131	2553.498178
537.633638	2553.967006
537.994089	2552.149670
538.354483	2551.726213
538.714821	2553.591440
539.075103	2551.353167
539.435328	2555.625545
539.795497	2553.188147
540.155609	2552.653785
540.515665	2552.628579
540.875665	2552.684032
541.235609	2555.255020
541.595496	2550.702858
541.955328	2553.460370
542.315102	2551.847200
542.674821	2551.635472
543.034483	2555.345761
543.394090	2552.137067
543.753640	2553.886347
544.113134	2553.417520
544.472571	2554.004814
544.831953	2554.229146
545.191278	2552.716799
545.550548	2551.496840
545.909761	2550.312169
546.268918	2553.719989
546.628019	2553.689742
546.987064	2556.233004
547.346053	2551.048178
547.704986	2552.442057
548.063863	2552.552962
548.422684	2555.323076
548.781449	2552.956254
549.140158	2552.558003
549.498811	2552.099258
549.857408	2550.607077
550.215949	2551.106151
550.574434	2548.499874
550.932864	2549.684545
551.291237	2545.447456
551.649555	2550.654967
552.007817	2553.074721
552.366022	2553.901471
552.724173	2550.032385
553.082267	2551.655637
553.440305	2553.533466
553.798288	2550.682694
554.156215	2553.127653
554.514086	2554.292160
554.871902	2551.370811
555.229661	2552.719320
555.587365	2554.576985
555.945014	2549.855945
556.302606	2554.095555
556.660143	2553.591440
557.017625	2553.641851
557.375050	2554.980277
557.732421	2556.752243
558.089735	2555.572613
558.446994	2553.914073
558.804197	2554.362736
559.161345	2555.282747
559.518437	2553.004145
559.875474	2549.485420
560.232455	2553.697304
560.589381	2554.491286
560.946251	2553.402396
561.303065	2552.744526
561.659825	2552.709238
562.016528	2553.379711
562.373177	2552.011038
562.729770	2553.926676
563.086307	2555.451625
563.442789	2554.960113
563.799216	2552.026161
564.155587	2553.016748
564.511904	2552.172355
564.868164	2552.573127
565.224370	2555.363405
565.580520	2553.551110
565.936615	2553.253682
566.292654	2551.461552
566.648638	2551.615307
567.004567	2550.775955
567.360441	2552.505071
567.716260	2552.384083
568.072023	2553.019269
568.427732	2549.523228
568.783385	2552.457180
569.138982	2550.355019
569.494525	2550.231511
569.850013	2546.430481
570.205445	2553.523384
570.560823	2552.126984
570.916145	2552.321069
571.271412	2549.281253
571.626625	2552.709238
571.981782	2550.566747
572.336884	2552.668908
572.691931	2553.548590
573.046923	2551.249824
573.401860	2553.024310
573.756743	2551.232180
574.111570	2551.690925
574.466342	2553.213353
574.821059	2552.016079
575.175722	2552.779814
575.530330	2555.983467
575.884882	2552.326110
576.239380	2557.183262
576.593823	2554.254351
576.948211	2551.743857
577.302544	2553.835936
577.656823	2553.291491
578.011047	2554.682849
578.365216	2553.636810
578.719330	2550.685214
579.073389	2553.281409
579.427394	2553.866183
579.781344	2547.960471
580.135239	2550.445760
580.489080	2552.237890
580.842866	2552.268137
581.196597	2552.696635
581.550273	2549.193033
581.903895	2550.579350
582.257463	2549.792930
582.610975	2553.548590
582.964434	2553.641851
583.317837	2552.500030
583.671186	2553.830894
584.024481	2551.774104
584.377721	2552.331151
584.730906	2549.848383
585.084037	2550.904505
585.437113	2550.783517
585.790135	2552.104299
586.143103	2552.762170
586.496016	2553.016748
586.848874	2546.256561
587.201679	2549.132539
587.554428	2547.216901
587.907124	2550.796120
588.259765	2545.268495
588.612352	2554.345092
588.964884	2551.945503
589.317362	2550.879299
589.669786	2552.709238
590.022155	2550.087838
590.374470	2553.939279
590.726731	2550.362581
591.078937	2549.871068
591.431090	2551.464073
591.783188	2551.834598
592.135232	2549.656819
592.487222	2552.673950
592.839157	2552.873075
593.191038	2552.971378
593.542866	2551.093548
593.894639	2549.717313
594.246358	2551.116233
594.598022	2548.802343
594.949633	2550.874258
595.301190	2549.495502
595.652692	2549.636654
596.004141	2553.412479
596.355535	2552.437015
596.706876	2550.682694
597.058162	2551.282591
597.409395	2549.898794
597.760573	2547.206818
598.111698	2551.333003
598.462768	2551.275029
598.813785	2550.748229
599.164748	2549.855945
599.515657	2548.232693
599.866511	2550.055070
600.217312	2550.188661
600.568060	2548.787220
600.918753	2553.286450
601.269392	2550.281922
601.619978	2549.755122
601.970510	2552.991542
602.320988	2551.199412
602.671412	2550.599515
603.021783	2551.164124
603.372100	2547.559699
603.722363	2552.026161
604.072572	2550.297046
604.422728	2553.377191
604.772830	2546.808567
605.122878	2546.591797
605.472872	2546.410316
605.822813	2544.986190
606.172701	2549.034237
606.522534	2548.593136
606.872314	2550.934752
607.222041	2549.485420
607.571714	2551.688404
607.921333	2551.645554
608.270899	2550.465924
608.620411	2548.736808
608.969870	2550.513815
609.319276	2551.882488
609.668627	2556.104455
610.017926	2557.079918
610.367171	2557.072356
610.716362	2557.228632
611.065500	2555.940617
611.414585	2551.645554
611.763616	2552.099258
612.112594	2549.387117
612.461518	2553.218394
612.810389	2552.058929
613.159207	2551.040616
613.507971	2550.271840
613.856682	2551.214536
614.205340	2550.833928
614.553945	2551.600184
614.902496	2550.871737
615.250994	2551.413661
615.599439	2550.269319
615.947830	2549.838301
616.296169	2551.885009
616.644454	2552.928528
616.992686	2550.203784
617.340864	2552.938610
617.688990	2550.488609
618.037063	2549.772766
618.385082	2551.665719
618.733048	2549.145142
619.080961	2552.489948
619.428821	2549.495502
619.776628	2550.813764
620.124382	2549.568599
620.472083	2549.573640
620.819731	2548.520039
621.167326	2549.787889
621.514868	2548.583053
621.862357	2548.767055
622.209793	2551.915256
622.557176	2551.363250
622.904506	2548.308310
623.251783	2545.157589
623.599007	2545.802857
623.946179	2542.911755
624.293297	2545.155069
624.640363	2549.974412
624.987376	2548.817467
625.334336	2548.464586
625.681243	2548.325954
626.028097	2547.937786
626.374899	2549.278732
626.721647	2549.619010
627.068343	2547.191695
627.414987	2546.841335
627.761577	2548.784699
628.108115	2546.803526
628.454600	2547.723537
628.801032	2548.315872
629.147412	2546.808567
629.493739	2549.417364
629.840014	2549.583722
630.186236	2549.797971
630.532405	2548.273022
630.878521	2547.771427
631.224585	2549.165307
631.570597	2549.586243
631.916556	2549.818136
632.262462	2548.472148
632.608316	2547.307641
632.954117	2547.342929
633.299866	2544.416540
633.645562	2546.027188
633.991206	2546.375028
634.336797	2546.581715
634.682336	2547.148845
635.027823	2547.191695
635.373257	2547.045501
635.718639	2544.335881
636.063968	2545.122301
636.409245	2544.537527
636.754470	2547.627755
637.099642	2545.898639
637.444762	2549.263609
637.789829	2545.480223
638.134845	2546.649771
638.479808	2544.771941
638.824719	2543.652805
639.169577	2547.358053
639.514383	2546.564071
639.859137	2546.617003
640.203839	2545.218083
640.548489	2543.947712
640.893086	2543.612476
641.237632	2541.719522
641.582125	2542.576518
641.926566	2538.626774
642.270955	2543.899821
642.615292	2545.152548
642.959576	2547.466438
643.303809	2545.313865
643.647990	2546.783361
643.992118	2543.425953
644.336195	2544.240099
644.680219	2545.762528
645.024192	2543.748587
645.368112	2539.839172
645.711981	2544.219935
646.055797	2543.655325
646.399562	2547.065666
646.743274	2545.084493
647.086935	2545.265974
647.430544	2548.051212
647.774101	2546.259081
648.117606	2548.278063
648.461059	2544.088865
648.804460	2547.597508
649.147810	2543.710778
649.491108	2546.115408
649.834354	2544.338402
650.177548	2545.646581
650.520690	2545.911242
650.863781	2544.172044
651.206820	2546.838814
651.549807	2545.150027
651.892742	2546.473330
652.235626	2545.936447
652.578458	2545.006355
652.921238	2542.319420
653.263967	2542.914276
653.606644	2543.047866
653.949269	2544.126673
654.291843	2546.430481
654.634365	2544.615665
654.976836	2543.436035
655.319255	2545.510470
655.661622	2546.571633
656.003938	2541.774975
656.346203	2543.370500
656.688416	2543.907383
657.030577	2544.109029
657.372687	2544.010727
657.714746	2542.813453
658.056753	2544.207332
658.398708	2539.511497
658.740612	2538.752803
659.082465	2539.924872
659.424266	2541.036446
659.766016	2541.285983
660.107715	2543.027702
660.449362	2544.098947
660.790958	2543.330171
661.132503	2544.141797
661.473996	2543.496529
661.815438	2541.777496
662.156829	2541.810263
662.498168	2543.791437
662.839456	2545.921324
663.180693	2544.598021
663.521879	2542.765562
663.863013	2542.624409
664.204097	2541.263298
664.545129	2541.185160
664.886110	2541.331353
665.227040	2543.811601
665.567918	2545.054246
665.908746	2541.530479
666.249522	2545.896118
666.590248	2543.380582
666.930922	2545.492826
667.271545	2542.387475
667.612118	2545.558361
667.952639	2541.747249
668.293109	2542.155582
668.633528	2543.614996
668.973896	2541.530479
669.314213	2540.479398
669.654480	2544.494677
669.994695	2546.032229
670.334859	2544.401416
670.674973	2542.637012
671.015035	2542.775644
671.355047	2542.092568
671.695008	2545.694472
672.034918	2542.175747
672.374777	2544.227496
672.714585	2544.635830
673.054342	2541.964018
673.394049	2542.977290
673.733705	2543.194060
674.073310	2545.596170
674.412864	2546.160779
674.752368	2542.480737
675.091820	2541.739687
675.431223	2543.998124
675.770574	2542.183308
676.109875	2538.147865
676.449125	2539.939995
676.788324	2538.601569
677.127473	2543.622558
677.466571	2538.357073
677.805619	2542.818494
678.144616	2540.794471
678.483562	2542.148020
678.822458	2545.011396
679.161303	2543.824204
679.500098	2542.964687
679.838842	2542.100129
680.177535	2543.962836
680.516179	2542.647095
680.854771	2543.362938
681.193314	2541.875798
681.531805	2543.587270
681.870247	2545.845707
682.208638	2541.989224
682.546978	2543.534338
682.885268	2545.061807
683.223508	2544.063659
683.561697	2543.304965
683.899836	2544.260264
684.237925	2542.815973
684.575963	2544.351005
684.913951	2544.653474
685.251889	2544.081303
685.589776	2543.433515
685.927614	2543.922507
686.265401	2542.894111
686.603137	2542.727753
686.940824	2542.198432
687.278460	2540.970911
687.616046	2543.148689
687.953582	2543.604914
688.291068	2542.069883
688.628504	2542.732794
688.965889	2542.090047
689.303224	2542.074924
689.640510	2542.326981
689.977745	2544.993752
690.314930	2540.900335
690.652065	2540.164326
690.989150	2543.229348
691.326185	2541.462423
691.663170	2543.098278
692.000105	2542.684903
692.336990	2543.322609
692.673825	2542.324461
693.010610	2542.102650
693.347345	2540.197094
693.684030	2537.744573
694.020665	2540.025695
694.357251	2537.192566
694.693786	2538.949408
695.030272	2541.661549
695.366707	2542.253885
695.703093	2542.238761
696.039429	2539.569470
696.375716	2540.829759
696.711952	2541.129707
697.048139	2541.091899
697.384276	2542.057280
697.720363	2540.731456
698.056400	2538.780530
698.392388	2539.602238
698.728326	2540.562577
699.064214	2542.591642
699.400053	2538.069727
699.735842	2538.407484
700.071581	2540.960829
700.407270	2541.933771
700.742910	2540.222300
701.078501	2539.917310
701.414042	2540.302958
701.749533	2541.124666
702.084974	2539.496373
702.420366	2540.053421
702.755709	2539.960160
703.091002	2538.833462
703.426246	2539.057793
703.761440	2540.945705
704.096584	2538.044521
704.431679	2543.035263
704.766725	2543.995603
705.101721	2538.583925
705.436668	2539.665252
705.771565	2538.251208
706.106413	2540.189532
706.441212	2540.565098
706.775961	2541.865716
707.110661	2542.321940
707.445311	2541.943854
707.779913	2540.562577
708.114465	2541.291024
708.448967	2538.281455
708.783421	2541.777496
709.117825	2537.535365
709.452180	2541.817825
709.786485	2539.584594
710.120742	2539.279604
710.454949	2539.917310
710.789107	2538.672145
711.123216	2535.103008
711.457275	2539.670293
711.791286	2536.572504
712.125247	2538.750283
712.459159	2538.609130
712.793023	2540.436549
713.126837	2538.762886
713.460602	2540.804553
713.794318	2540.360931
714.127985	2540.686086
714.461602	2539.461085
714.795171	2537.789943
715.128691	2541.001158
715.462162	2541.575849
715.795584	2539.267001
716.128957	2541.235572
716.462281	2538.120138
716.795556	2537.064017
717.128782	2540.590304
717.461960	2539.718184
717.795088	2538.891435
718.128167	2540.076106
718.461198	2538.969573
718.794180	2540.963349
719.127113	2540.139121
719.459997	2538.178112
719.792833	2540.340767
720.125619	2538.485622
720.458357	2538.152906
720.791046	2536.091074
721.123686	2540.842362
721.456278	2539.957639
721.788821	2538.490663
722.121315	2540.771785
722.453761	2537.432021
722.786158	2539.312371
723.118506	2538.130221
723.450805	2537.951260
723.783056	2536.217103
724.115259	2538.155427
724.447412	2540.524769
724.779518	2538.649460
725.111574	2537.568132
725.443582	2539.395550
725.775542	2538.495704
726.107453	2535.841537
726.439315	2539.524100
726.771129	2541.316230
727.102895	2537.971424
727.434612	2539.284645
727.766281	2538.473019
728.097901	2536.512010
728.429473	2535.642411
728.760996	2534.082174
729.092471	2533.285672
729.423897	2538.674665
729.755276	2537.772299
730.086606	2540.091230
730.417887	2536.023018
730.749120	2538.266332
731.080305	2540.444110
731.411442	2539.617361
731.742530	2540.950746
732.073570	2537.124511
732.404562	2539.791281
732.735506	2539.425797
733.066401	2539.221631
733.397249	2540.285314
733.728048	2537.643749
734.058798	2538.147865
734.389501	2542.301776
734.720156	2538.112577
735.050762	2539.219110
735.381320	2535.909593
735.711831	2537.502597
736.042293	2539.264480
736.372707	2537.772299
736.703073	2541.137269
737.033391	2539.718184
737.363661	2537.777340
737.693883	2535.518903
738.024056	2543.473844
738.354182	2541.119625
738.684260	2541.064172
739.014290	2539.564429
739.344272	2535.995292
739.674207	2538.606610
740.004093	2538.909079
740.333931	2539.864378
740.663722	2539.556867
740.993464	2539.700540
741.323159	2536.874973
741.652806	2540.297917
741.982405	2540.907897
742.311956	2536.443955
742.641460	2539.985365
742.970915	2538.296579
743.300323	2536.809438
743.629683	2537.951260
743.958996	2536.910262
744.288260	2534.147709
744.617477	2536.925385
744.946647	2533.762061
745.275768	2537.031249
745.604842	2530.608819
745.933869	2534.903882
746.262847	2533.343645
746.591778	2536.232226
746.920662	2536.902700
747.249498	2540.297917
747.578286	2537.890766
747.907027	2537.351363
748.235720	2536.920344
748.564365	2538.316743
748.892963	2537.807587
749.221514	2540.174409
749.550017	2535.032432
749.878473	2540.010571
750.206881	2534.944212
750.535242	2536.902700
750.863555	2536.025539
751.191821	2535.216434
751.520039	2537.096784
751.848210	2537.079140
752.176334	2536.328008
752.504411	2538.346990
752.832440	2538.084850
753.160421	2537.290869
753.488356	2538.173071
753.816243	2537.578214
754.144082	2540.159285
754.471875	2537.099305
754.799620	2535.105528
755.127318	2536.239788
755.454969	2536.164171
755.782572	2535.566794
756.110129	2536.423790
756.437638	2538.440252
756.765100	2537.820190
757.092515	2536.940508
757.419882	2535.546629
757.747203	2540.676003
758.074477	2536.328008
758.401703	2538.089892
758.728882	2536.428831
759.056014	2536.345652
759.383099	2539.382948
759.710138	2537.666435
760.037129	2537.058976
760.364073	2538.417567
760.690970	2538.082330
761.017820	2536.015457
761.344623	2537.832793
761.671379	2537.595858
761.998088	2530.757533
762.324751	2536.151568
762.651366	2534.598893
762.977935	2538.404964
763.304456	2537.416897
763.630931	2541.449821
763.957359	2540.635674
764.283740	2541.696837
764.610074	2538.478060
764.936362	2537.961342
765.262602	2535.012267
765.588796	2539.836651
765.914943	2538.793133
766.241044	2535.647452
766.567097	2534.261135
766.893104	2535.763399
767.219064	2536.590148
767.544978	2536.368337
767.870845	2533.550332
768.196665	2536.940508
768.522438	2536.093595
768.848165	2537.240457
769.173846	2532.680733
769.499479	2536.655683
769.825066	2536.378420
770.150607	2535.201310
770.476101	2534.808100
770.801548	2537.822710
771.126949	2531.755682
771.452303	2535.912113
771.777611	2538.384799
772.102872	2536.015457
772.428087	2534.611495
772.753256	2534.649304
773.078378	2535.841537
773.403453	2534.722401
773.728482	2534.697195
774.053465	2535.488656
774.378401	2536.708615
774.703291	2534.137627
775.028135	2535.095446
775.352932	2531.720394
775.677683	2537.905889
776.002388	2536.285158
776.327046	2536.259953
776.651658	2537.069058
776.976224	2534.888759
777.300743	2534.031763
777.625216	2534.382123
777.949643	2534.699716
778.274024	2536.489325
778.598359	2531.354910
778.922647	2532.063192
779.246889	2533.457071
779.571086	2531.894313
779.895236	2533.215096
780.219339	2534.130065
780.543397	2535.624767
780.867409	2535.239119
781.191374	2536.189377
781.515294	2536.577545
781.839167	2534.606454
782.162995	2534.697195
782.486776	2534.195600
782.810511	2533.928419
783.134201	2535.997813
783.457844	2533.515044
783.781441	2534.056968
784.104993	2533.169725
784.428498	2534.021680
784.751958	2534.581248
785.075372	2534.397246
785.398739	2534.866074
785.722061	2536.116280
786.045337	2534.621578
786.368568	2534.205683
786.691752	2536.310364
787.014891	2535.355066
787.337983	2534.180477
787.661030	2536.753986
787.984031	2534.871115
788.306987	2537.008564
788.629897	2533.547812
788.952760	2536.650642
789.275579	2532.141330
789.598351	2536.055786
789.921078	2534.331711
790.243759	2533.089067
790.566395	2536.280117
790.888984	2534.533357
791.211529	2533.073943
791.534027	2532.360620
791.856480	2532.862215
792.178888	2533.913296
792.501249	2531.695188
792.823566	2537.386651
793.145836	2532.718542
793.468062	2534.787936
793.790241	2533.036135
794.112375	2535.707946
794.434464	2535.181146
794.756507	2533.144520
795.078505	2533.371372
795.400457	2532.534540
795.722364	2531.405322
796.044226	2531.420445
796.366042	2531.271731
796.687812	2530.318953
797.009538	2535.166022
797.331218	2534.878677
797.652852	2534.341794
797.974442	2534.485467
798.295986	2535.397915
798.617484	2533.767102
798.938938	2532.698378
799.260346	2534.462781
799.581709	2535.634850
799.903026	2534.331711
800.224299	2533.517565
800.545526	2535.108049
800.866708	2534.208203
801.187845	2534.616537
801.508936	2535.458409
801.829983	2534.760209
802.150984	2535.748276
802.471940	2533.341125
802.792851	2531.571680
803.113717	2536.118800
803.434538	2535.415559
803.755314	2535.718029
804.076045	2535.498738
804.396731	2535.229037
804.717372	2535.856660
805.037967	2531.244005
805.358518	2532.821886
805.679024	2534.470343
805.999485	2534.548481
806.319901	2533.837678
806.640272	2532.446320
806.960598	2534.309026
807.280879	2533.908254
807.601115	2537.593338
807.921306	2532.537061
808.241453	2531.244005
808.561554	2532.360620
808.881611	2534.417411
809.201623	2534.563604
809.521590	2535.569315
809.841513	2535.425642
810.161390	2533.550332
810.481223	2534.286341
810.801011	2534.240971
811.120755	2534.329191
811.440453	2535.276928
811.760107	2533.661238
812.079716	2531.637215
812.399281	2530.797863
812.718801	2532.252235
813.038276	2527.531195
813.357707	2536.282638
813.677093	2535.299613
813.996434	2531.629653
814.315731	2533.441948
814.634983	2532.000178
814.954191	2531.453212
815.273354	2535.108049
815.592473	2532.549663
815.911547	2532.952956
816.230577	2534.442617
816.549562	2535.178625
816.868502	2533.593182
817.187399	2533.315919
817.506250	2533.051258
817.825058	2534.293903
818.143821	2534.230888
818.462539	2533.641073
818.781213	2533.704088
819.099843	2534.223327
819.418429	2533.444468
819.736970	2535.244160
820.055466	2534.190559
820.373919	2536.522093
820.692327	2538.767927
821.010691	2533.386495
821.329011	2539.952598
821.647286	2548.603218
821.965517	2550.304607
822.283704	2555.817109
822.601847	2557.120247
822.919945	2553.583878
823.237999	2548.595656
823.556010	2547.161448
823.873976	2543.105840
824.191897	2540.708771
824.509775	2540.565098
824.827609	2538.941847
825.145398	2535.481094
825.463144	2538.800694
825.780845	2539.042670
826.098502	2536.988399
826.416116	2540.721374
826.733685	2541.767413
827.051210	2541.580891
827.368692	2540.915458
827.686129	2540.923020
828.003522	2539.619882
828.320872	2534.916485
828.638177	2532.549663
828.955439	2532.655528
829.272656	2532.690816
829.589830	2530.913809
829.906960	2533.878007
830.224046	2534.366999
830.541088	2535.334901
830.858086	2535.037473
831.175041	2535.481094
831.491952	2532.335414
831.808819	2534.616537
832.125642	2533.376413
832.442421	2533.688964
832.759157	2534.520755
833.075849	2534.354397
833.392497	2537.414377
833.709101	2535.077802
834.025662	2537.071578
834.342179	2536.731301
834.658653	2536.191897
834.975083	2534.873635
835.291469	2540.670962
835.607811	2534.379602
835.924110	2533.041176
836.240366	2534.548481
836.556578	2535.506300
836.872746	2534.447658
837.188871	2534.286341
837.504952	2531.617050
837.820990	2534.732483
838.136984	2530.336597
838.452935	2534.228368
838.768842	2532.940353
839.084706	2533.000847
839.400526	2535.168543
839.716303	2533.910775
840.032037	2533.996475
840.347727	2534.162833
840.663373	2534.462781
840.978977	2533.870446
841.294537	2530.389529
841.610054	2535.584438
841.925527	2534.031763
842.240957	2534.402288
842.556344	2532.748789
842.871687	2532.491690
843.186987	2532.642925
843.502244	2533.026053
843.817458	2530.598737
844.132629	2533.850281
844.447756	2533.021011
844.762840	2525.560104
845.077881	2528.574714
845.392879	2528.299971
845.707833	2529.920702
846.022745	2525.368540
846.337613	2532.723583
846.652438	2530.848274
846.967221	2529.441792
847.281960	2532.385826
847.596656	2531.417924
847.911309	2533.310878
848.225919	2530.485311
848.540485	2533.711649
848.855009	2533.073943
849.169490	2532.791639
849.483928	2529.219981
849.798323	2533.363810
850.112675	2536.738862
850.426984	2532.030425
850.741251	2532.148892
851.055474	2531.352389
851.369654	2531.450692
851.683792	2529.451874
851.997887	2533.424304
852.311938	2529.063706
852.625947	2530.129910
852.939914	2530.870959
853.253837	2531.261649
853.567718	2529.146885
853.881555	2533.527647
854.195350	2531.022194
854.509103	2532.766433
854.822812	2530.122348
855.136479	2530.850795
855.450103	2533.356248
855.763685	2532.418593
856.077224	2531.468336
856.390720	2531.647297
856.704173	2531.438089
857.017584	2532.615198
857.330953	2532.920188
857.644278	2531.450692
857.957561	2534.654345
858.270802	2532.262318
858.584000	2531.531350
858.897155	2534.263656
859.210268	2530.944056
859.523339	2534.094777
859.836367	2531.387677
860.149352	2533.588141
860.462295	2533.109232
860.775195	2528.557070
861.088054	2525.902902
861.400869	2529.035979
861.713642	2528.201668
862.026373	2530.946577
862.339062	2532.161495
862.651708	2533.696526
862.964312	2531.286854
863.276873	2529.973634
863.589392	2529.572862
863.901869	2533.141999
864.214303	2531.397760
864.526696	2531.236443
864.839045	2530.419776
865.151353	2533.696526
865.463619	2527.710156
865.775842	2529.164529
866.088023	2532.990764
866.400162	2531.065044
866.712258	2530.147554
867.024313	2532.481608
867.336325	2533.000847
867.648296	2532.340456
867.960224	2529.078829
868.272110	2532.297606
868.583954	2530.147554
868.895755	2531.422966
869.207515	2531.304498
869.519233	2530.608819
869.830909	2532.249715
870.142542	2534.092257
870.454134	2531.158305
870.765684	2533.058820
871.077191	2532.108563
871.388657	2533.129396
871.700081	2530.291227
872.011463	2531.783408
872.322803	2532.179139
872.634101	2530.190403
872.945357	2530.119827
873.256571	2534.140148
873.567744	2533.275590
873.878874	2531.914478
874.189963	2533.633512
874.501010	2532.741227
874.812015	2534.112421
875.122979	2533.152081
875.433900	2532.605116
875.744780	2532.796680
876.055618	2528.950280
876.366415	2532.471526
876.677169	2531.990095
876.987882	2528.093283
877.298554	2525.981040
877.609183	2530.233253
877.919771	2527.238808
878.230317	2529.383819
878.540822	2533.643594
878.851285	2530.455064
879.161707	2532.153933
879.472087	2531.012112
879.782425	2531.087729
880.092722	2534.631660
880.402977	2534.596372
880.713191	2539.113246
881.023363	2539.534182
881.333494	2542.889070
881.643583	2543.579708
881.953631	2543.652805
882.263637	2542.510983
882.573602	2541.255736
882.883526	2541.117104
883.193408	2539.156096
883.503248	2535.952442
883.813048	2537.797505
884.122806	2535.793646
884.432522	2534.745086
884.742197	2535.229037
885.051831	2533.144520
885.361424	2534.377082
885.670975	2530.775177
885.980485	2531.281813
886.289954	2531.833820
886.599382	2532.532019
886.908768	2531.417924
887.218113	2530.387008
887.527417	2532.932791
887.836680	2529.865249
888.145901	2531.445651
888.455082	2530.487832
888.764221	2533.008408
889.073319	2531.047400
889.382376	2531.102852
889.691392	2531.506145
890.000366	2529.633356
890.309300	2533.840199
890.618193	2533.056299
890.927044	2531.400280
891.235855	2533.636032
891.544625	2529.703932
891.853353	2531.710311
892.162041	2532.282482
892.470687	2530.949097
892.779293	2530.056813
893.087858	2529.008253
893.396381	2530.192924
893.704864	2527.634538
894.013306	2529.877852
894.321707	2532.632842
894.630068	2535.851619
894.938387	2533.633512
895.246665	2536.784233
895.554903	2532.935312
895.863100	2533.895652
896.171256	2535.528985
896.479371	2531.168387
896.787446	2533.736855
897.095480	2530.623943
897.403473	2532.274921
897.711425	2531.680064
898.019336	2533.212575
898.327207	2531.223840
898.635038	2528.292409
898.942827	2531.009591
899.250576	2528.945238
899.558284	2532.579910
899.865952	2533.847761
900.173579	2531.042358
900.481165	2532.642925
900.788711	2530.228212
901.096216	2529.444313
901.403681	2531.954807
901.711105	2529.207378
902.018489	2531.261649
902.325832	2531.664941
902.633135	2532.544622
902.940397	2532.781557
903.247619	2532.975641
903.554800	2531.609488
903.861941	2533.598223
904.169041	2536.302803
904.476101	2534.122503
904.783121	2536.181815
905.090100	2534.855991
905.397039	2535.468492
905.703938	2531.450692
906.010796	2533.336083
906.317614	2533.232740
906.624391	2530.886083
906.931129	2529.731658
907.237826	2532.209386
907.544483	2531.894313
907.851099	2529.242667
908.157675	2531.811134
908.464211	2529.214940
908.770707	2526.880886
909.077163	2528.610002
909.383578	2526.197810
909.689954	2526.936339
909.996289	2527.321987
910.302584	2533.147040
910.608839	2531.586803
910.915054	2532.287523
911.221229	2528.912471
911.527363	2529.567821
911.833458	2531.561597
912.139513	2529.277955
912.445527	2531.337266
912.751502	2530.681916
913.057436	2530.807945
913.363331	2527.064888
913.669186	2530.069416
913.975000	2531.400280
914.280775	2533.023532
914.586510	2530.230733
914.892205	2532.227030
915.197859	2531.191073
915.503475	2533.147040
915.809050	2535.367668
916.114585	2535.697864
916.420081	2536.864891
916.725536	2535.753317
917.030952	2535.455889
917.336328	2536.685930
917.641665	2534.031763
917.946961	2534.833306
918.252218	2532.773995
918.557435	2531.732997
918.862612	2531.150743
919.167750	2528.844415
919.472848	2530.278624
919.777906	2531.251566
920.082925	2529.003212
920.387904	2529.265352
920.692843	2530.117307
920.997743	2530.351720
921.302603	2530.840712
921.607423	2530.961700
921.912204	2531.478418
922.216946	2529.033459
922.521647	2531.884231
922.826310	2532.499252
923.130932	2532.486649
923.435516	2530.671834
923.740059	2533.280631
924.044564	2530.863398
924.349028	2530.787780
924.653454	2525.197141
924.957840	2527.437933
925.262186	2523.732685
925.566493	2528.342821
925.870761	2524.264527
926.174989	2530.525640
926.479178	2529.812317
926.783328	2530.374406
927.087438	2528.063037
927.391509	2531.284334
927.695541	2529.487162
927.999533	2530.424817
928.303486	2527.541277
928.607400	2528.983047
928.911275	2529.754344
929.215110	2530.699560
929.518906	2528.942718
929.822663	2529.363654
930.126381	2528.368026
930.430060	2531.002029
930.733699	2528.093283
931.037299	2528.904909
931.340861	2530.626463
931.644383	2529.638397
931.947866	2525.313087
932.251309	2531.395239
932.554714	2528.221833
932.858080	2530.334076
933.161407	2528.151257
933.464694	2532.806762
933.767943	2529.532533
934.071153	2529.388860
934.374323	2527.206040
934.677455	2528.060516
934.980548	2529.018335
935.283602	2528.199148
935.586617	2529.081350
935.889593	2528.635207
936.192530	2530.931453
936.495428	2529.794673
936.798287	2527.339631
937.101108	2527.440454
937.403890	2530.331556
937.706632	2528.836854
938.009336	2528.993129
938.312002	2529.703932
938.614628	2531.160826
938.917216	2527.132944
939.219765	2530.104704
939.522275	2529.308202
939.824747	2529.335928
940.127179	2524.355268
940.429573	2524.740916
940.731929	2527.586648
941.034246	2523.732685
941.336524	2528.173942
941.638763	2529.235105
941.940964	2530.986906
942.243126	2530.127389
942.545250	2527.528674
942.847335	2528.945238
943.149381	2529.638397
943.451389	2529.524971
943.753359	2529.779549
944.055290	2528.529343
944.357182	2526.843077
944.659036	2528.027748
944.960851	2530.858356
945.262628	2525.189579
945.564367	2530.180321
945.866067	2529.487162
946.167729	2526.981709
946.469352	2528.269724
946.770937	2529.784591
947.072484	2528.819210
947.373992	2528.244518
947.675462	2527.546318
947.976893	2529.777029
948.278286	2528.073119
948.579641	2530.639066
948.880958	2527.395084
949.182236	2530.863398
949.483476	2529.242667
949.784678	2533.205013
950.085841	2528.703263
950.386967	2530.571011
950.688054	2528.068078
950.989103	2530.387008
951.290114	2528.070598
951.591087	2528.763757
951.892021	2530.558408
952.192917	2529.288037
952.493776	2527.649662
952.794596	2529.552698
953.095378	2527.659744
953.396122	2530.835671
953.696828	2529.436751
953.997496	2527.871473
954.298126	2528.078160
954.598718	2528.350382
954.899272	2530.891124
955.199788	2529.240146
955.500266	2530.455064
955.800706	2526.916174
956.101108	2526.480114
956.401472	2528.095804
956.701798	2523.704959
957.002087	2525.716379
957.302337	2524.902233
957.602550	2530.805424
957.902724	2526.979188
958.202861	2528.788963
958.502960	2529.923222
958.803022	2529.945908
959.103045	2528.350382
959.403031	2529.058664
959.702979	2529.993798
960.002889	2529.222502
960.302762	2528.426000
960.602596	2526.964065
960.902393	2527.523633
961.202153	2530.576052
961.501875	2525.925587
961.801559	2528.499096
962.101205	2529.169570
962.400814	2529.144364
962.700385	2526.961544
962.999918	2529.620753
963.299414	2526.737213
963.598873	2530.051772
963.898293	2528.312574
964.197677	2527.606812
964.497022	2526.976668
964.796331	2527.574045
965.095601	2530.013963
965.394835	2527.894158
965.694030	2527.316946
965.993189	2529.693850
966.292309	2526.976668
966.591393	2525.401307
966.890439	2528.272244
967.189447	2527.100176
967.488419	2526.560773
967.787353	2527.818541
968.086249	2527.100176
968.385108	2529.290558
968.683930	2528.310053
968.982714	2527.632018
969.281462	2528.935156
969.580172	2528.554549
969.878844	2526.180166
970.177480	2527.185876
970.476078	2528.378109
970.774639	2530.046731
971.073162	2528.839374
971.371649	2526.578417
971.670098	2523.261337
971.968510	2526.086904
972.266885	2524.972809
972.565223	2528.766277
972.863524	2528.189065
973.161788	2527.639580
973.460014	2529.010773
973.758204	2527.964734
974.056356	2529.177132
974.354471	2528.925074
974.652550	2525.900382
974.950591	2529.310722
975.248595	2527.395084
975.546563	2525.267717
975.844493	2525.066071
976.142386	2527.747964
976.440243	2530.654190
976.738062	2526.898530
977.035845	2526.470032
977.333590	2529.630835
977.631299	2529.202337
977.928971	2527.160670
978.226606	2527.437933
978.524204	2528.874662
978.821765	2527.591689
979.119290	2528.708304
979.416777	2527.200999
979.714228	2524.871986
980.011642	2527.309384
980.309020	2530.893644
980.606360	2525.930628
980.903664	2527.805938
981.200931	2527.505989
981.498162	2525.605474
981.795356	2528.413397
982.092513	2526.089425
982.389633	2527.034641
982.686717	2526.747295
982.983764	2527.702594
983.280775	2527.939528
983.577749	2527.551359
983.874686	2526.888448
984.171587	2529.005732
984.468451	2527.463139
984.765279	2527.947090
985.062070	2527.720238
985.358824	2527.581606
985.655543	2529.237625
985.952224	2524.740916
986.248869	2525.474404
986.545478	2522.792510
986.842050	2525.711338
987.138586	2524.065402
987.435086	2523.533560
987.731549	2522.991636
988.027975	2526.538088
988.324366	2527.460619
988.620719	2526.369209
988.917037	2526.810310
989.213318	2525.534898
989.509563	2527.160670
989.805772	2526.548170
990.101944	2526.608664
990.398080	2527.516071
990.694180	2526.558252
990.990244	2527.899199
991.286271	2526.908612
991.582262	2528.168901
991.878217	2527.964734
992.174136	2525.325690
992.470019	2528.128572
992.765865	2530.003881
993.061676	2526.790145
993.357450	2531.735517
993.653188	2525.363499
993.948890	2527.810979
994.244556	2525.973478
994.540186	2527.974816
994.835780	2526.621267
995.131337	2527.412728
995.426859	2525.880217
995.722345	2527.589168
996.017795	2525.865093
996.313208	2527.795855
996.608586	2526.570855
996.903928	2527.400125
997.199234	2528.516740
997.494504	2524.503982
997.789738	2525.907943
998.084936	2526.941380
998.380099	2526.102028
998.675225	2523.566327
998.970316	2527.195958
999.265371	2524.909795
999.560390	2527.364837
999.855373	2527.047244
1000.150320	2525.897861
1000.445232	2529.214940
1000.740108	2524.907274
1001.034948	2526.752337
1001.329752	2526.369209
1001.624521	2524.783766
1001.919254	2521.028106
1002.213951	2524.438447
1002.508613	2522.336286
1002.803239	2526.480114
1003.097829	2521.988446
1003.392384	2526.361647
1003.686903	2528.627646
1003.981386	2529.308202
1004.275834	2526.268386
1004.570246	2525.121523
1004.864623	2528.123530
1005.158964	2524.803931
1005.453270	2526.235618
1005.747540	2524.072963
1006.041775	2525.610515
1006.335974	2524.637573
1006.630138	2528.708304
1006.924266	2529.056144
1007.218359	2528.962882
1007.512416	2526.860721
1007.806438	2525.625639
1008.100425	2527.198479
1008.394376	2528.317615
1008.688292	2525.870135
1008.982172	2526.477594
1009.276017	2529.966072
1009.569827	2526.651513
1009.863602	2529.527492
1010.157341	2527.266534
1010.451045	2525.819723
1010.744714	2526.845598
1011.038347	2529.734179
1011.331945	2524.987933
1011.625508	2526.134795
1011.919036	2525.950793
1012.212528	2528.468849
1012.505986	2526.510361
1012.799408	2527.200999
1013.092795	2527.339631
1013.386147	2527.178314
1013.679464	2524.640093
1013.972745	2525.625639
1014.265992	2527.405166
1014.559204	2527.110258
1014.852380	2524.594723
1015.145521	2528.267203
1015.438628	2524.534229
1015.731699	2525.512213
1016.024736	2527.180835
1016.317737	2522.966430
1016.610703	2528.458767
1016.903635	2522.351409
1017.196531	2524.292253
1017.489393	2523.039527
1017.782219	2520.652540
1018.075011	2524.781245
1018.367768	2528.524302
1018.660490	2525.797038
1018.953177	2525.797038
1019.245829	2525.797038
