Dividing Wavelength (nm)	Counts (n)	Blue Motor Position (mm): 0.000000	Red Motor Position (mm): 7.500000	
326.493990	2122.325769
326.888308	2122.325769
327.282561	2122.325769
327.676750	1991.255769
328.070874	2081.996538
328.464933	2044.187885
328.858929	2051.749615
329.252859	2124.846346
329.646726	2084.517115
330.040528	2039.146731
330.434265	2079.475962
330.827938	2039.146731
331.221547	2205.504808
331.615091	2190.381346
332.008571	2228.190000
332.401986	2192.901923
332.795338	2192.901923
333.188625	2255.916346
333.581847	2329.013077
333.975006	2248.354615
334.368100	2336.574808
334.761129	2356.739423
335.154095	2311.369038
335.546996	2404.630385
335.939833	2318.930769
336.332606	2346.657115
336.725315	2361.780577
337.117960	2485.288846
337.510540	2397.068654
337.903056	2394.548077
338.295508	2397.068654
338.687896	2399.589231
339.080220	2371.862885
339.472480	2492.850577
339.864676	2452.521346
340.256807	2427.315577
340.648875	2404.630385
341.040879	2465.124231
341.432818	2450.000769
341.824694	2510.494615
342.216506	2472.685962
342.608253	2462.603654
342.999937	2487.809423
343.391557	2490.330000
343.783113	2434.877308
344.174605	2495.371154
344.566033	2409.671538
344.957397	2412.192115
345.348697	2379.424615
345.739934	2462.603654
346.131106	2497.891731
346.522215	2460.083077
346.913260	2455.041923
347.304241	2470.165385
347.695159	2480.247692
348.086012	2482.768269
348.476802	2414.712692
348.867528	2482.768269
349.258191	2429.836154
349.648789	2470.165385
350.039324	2429.836154
350.429796	2563.426731
350.820203	2470.165385
351.210548	2334.054231
351.600828	2389.506923
351.991045	2505.453462
352.381198	2439.918462
352.771288	2485.288846
353.161314	2376.904038
353.551276	2359.260000
353.941175	2472.685962
354.331010	2475.206538
354.720782	2482.768269
355.110490	2447.480192
355.500135	2500.412308
355.889717	2429.836154
356.279235	2316.410192
356.668689	2399.589231
357.058080	2462.603654
357.447408	2455.041923
357.836672	2434.877308
358.225873	2422.274423
358.615010	2505.453462
359.004084	2545.782692
359.393095	2397.068654
359.782043	2422.274423
360.170927	2344.136538
360.559748	2442.439038
360.948505	2523.097500
361.337199	2452.521346
361.725830	2414.712692
362.114398	2507.974038
362.502903	2419.753846
362.891344	2515.535769
363.279722	2475.206538
363.668037	2381.945192
364.056289	2432.356731
364.444478	2495.371154
364.832603	2386.986346
365.220665	2427.315577
365.608665	2414.712692
365.996601	2404.630385
366.384474	2432.356731
366.772284	2427.315577
367.160031	2417.233269
367.547715	2437.397885
367.935336	2452.521346
368.322893	2470.165385
368.710388	2386.986346
369.097820	2482.768269
369.485189	2427.315577
369.872495	2369.342308
370.259738	2500.412308
370.646918	2412.192115
371.034035	2475.206538
371.421090	2407.150962
371.808081	2444.959615
372.195010	2364.301154
372.581875	2399.589231
372.968678	2467.644808
373.355418	2422.274423
373.742096	2381.945192
374.128710	2497.891731
374.515262	2455.041923
374.901751	2492.850577
375.288177	2515.535769
375.674540	2444.959615
376.060841	2452.521346
376.447079	2492.850577
376.833254	2429.836154
377.219367	2407.150962
377.605417	2528.138654
377.991404	2480.247692
378.377329	2500.412308
378.763191	2424.795000
379.148991	2462.603654
379.534727	2523.097500
379.920402	2500.412308
380.306013	2480.247692
380.691563	2558.385577
381.077049	2439.918462
381.462474	2535.700385
381.847835	2460.083077
382.233134	2505.453462
382.618371	2457.562500
383.003545	2520.576923
383.388657	2417.233269
383.773706	2424.795000
384.158693	2507.974038
384.543618	2487.809423
384.928480	2389.506923
385.313280	2462.603654
385.698017	2492.850577
386.082692	2402.109808
386.467305	2457.562500
386.851856	2490.330000
387.236344	2545.782692
387.620770	2434.877308
388.005133	2414.712692
388.389435	2452.521346
388.773674	2455.041923
389.157851	2492.850577
389.541965	2467.644808
389.926018	2462.603654
390.310008	2510.494615
390.693936	2412.192115
391.077802	2505.453462
391.461606	2457.562500
391.845348	2505.453462
392.229027	2505.453462
392.612645	2490.330000
392.996200	2487.809423
393.379694	2462.603654
393.763125	2553.344423
394.146494	2452.521346
394.529801	2424.795000
394.913047	2412.192115
395.296230	2455.041923
395.679351	2500.412308
396.062410	2404.630385
396.445408	2452.521346
396.828343	2480.247692
397.211217	2447.480192
397.594028	2419.753846
397.976778	2502.932885
398.359466	2429.836154
398.742092	2384.465769
399.124656	2502.932885
399.507158	2419.753846
399.889598	2379.424615
400.271977	2490.330000
400.654294	2497.891731
401.036549	2520.576923
401.418742	2414.712692
401.800874	2480.247692
402.182944	2475.206538
402.564952	2502.932885
402.946898	2450.000769
403.328783	2427.315577
403.710606	2500.412308
404.092367	2442.439038
404.474067	2520.576923
404.855705	2460.083077
405.237282	2538.220962
405.618797	2434.877308
406.000250	2535.700385
406.381642	2414.712692
406.762972	2470.165385
407.144240	2432.356731
407.525447	2548.303269
407.906593	2568.467885
408.287677	2533.179808
408.668700	2475.206538
409.049661	2419.753846
409.430560	2477.727115
409.811399	2402.109808
410.192176	2460.083077
410.572891	2472.685962
410.953545	2480.247692
411.334138	2467.644808
411.714669	2475.206538
412.095139	2505.453462
412.475547	2455.041923
412.855894	2399.589231
413.236180	2497.891731
413.616405	2513.015192
413.996568	2492.850577
414.376670	2452.521346
414.756711	2485.288846
415.136691	2472.685962
415.516609	2470.165385
415.896466	2475.206538
416.276262	2460.083077
416.655997	2518.056346
417.035670	2455.041923
417.415283	2419.753846
417.794834	2502.932885
418.174324	2480.247692
418.553753	2548.303269
418.933121	2472.685962
419.312428	2505.453462
419.691674	2399.589231
420.070859	2540.741538
420.449983	2422.274423
420.829045	2485.288846
421.208047	2533.179808
421.586988	2505.453462
421.965867	2460.083077
422.344686	2596.194231
422.723444	2482.768269
423.102141	2480.247692
423.480777	2447.480192
423.859352	2485.288846
424.237866	2507.974038
424.616319	2444.959615
424.994712	2480.247692
425.373044	2457.562500
425.751314	2457.562500
426.129524	2472.685962
426.507673	2422.274423
426.885762	2520.576923
427.263789	2437.397885
427.641756	2492.850577
428.019662	2510.494615
428.397508	2515.535769
428.775292	2470.165385
429.153016	2492.850577
429.530679	2495.371154
429.908282	2510.494615
430.285824	2533.179808
430.663305	2500.412308
431.040726	2429.836154
431.418086	2417.233269
431.795385	2495.371154
432.172624	2460.083077
432.549802	2470.165385
432.926920	2485.288846
433.303977	2402.109808
433.680974	2518.056346
434.057910	2576.029615
434.434786	2455.041923
434.811601	2513.015192
435.188355	2581.070769
435.565050	2523.097500
435.941683	2497.891731
436.318257	2437.397885
436.694770	2485.288846
437.071222	2475.206538
437.447614	2545.782692
437.823946	2487.809423
438.200218	2477.727115
438.576429	2417.233269
438.952580	2553.344423
439.328670	2447.480192
439.704700	2462.603654
440.080670	2482.768269
440.456580	2457.562500
440.832429	2389.506923
441.208218	2467.644808
441.583947	2465.124231
441.959616	2560.906154
442.335224	2497.891731
442.710773	2490.330000
443.086261	2462.603654
443.461689	2492.850577
443.837057	2510.494615
444.212365	2492.850577
444.587612	2450.000769
444.962800	2570.988462
445.337927	2394.548077
445.712995	2485.288846
446.088002	2455.041923
446.462949	2505.453462
446.837837	2455.041923
447.212664	2513.015192
447.587431	2528.138654
447.962139	2482.768269
448.336786	2467.644808
448.711374	2467.644808
449.085901	2455.041923
449.460369	2533.179808
449.834776	2535.700385
450.209124	2457.562500
450.583412	2497.891731
450.957640	2422.274423
451.331808	2535.700385
451.705917	2492.850577
452.079965	2497.891731
452.453954	2437.397885
452.827883	2505.453462
453.201752	2467.644808
453.575562	2480.247692
453.949311	2482.768269
454.323001	2523.097500
454.696632	2538.220962
455.070202	2407.150962
455.443713	2389.506923
455.817164	2404.630385
456.190556	2500.412308
456.563888	2482.768269
456.937160	2497.891731
457.310373	2439.918462
457.683526	2523.097500
458.056619	2495.371154
458.429653	2495.371154
458.802628	2462.603654
459.175542	2530.659231
459.548398	2424.795000
459.921194	2442.439038
460.293930	2462.603654
460.666607	2535.700385
461.039224	2480.247692
461.411782	2477.727115
461.784280	2439.918462
462.156719	2500.412308
462.529099	2482.768269
462.901419	2520.576923
463.273680	2472.685962
463.645882	2515.535769
464.018024	2495.371154
464.390106	2409.671538
464.762130	2535.700385
465.134094	2465.124231
465.505999	2437.397885
465.877845	2538.220962
466.249631	2444.959615
466.621358	2523.097500
466.993026	2568.467885
467.364634	2452.521346
467.736184	2487.809423
468.107674	2427.315577
468.479105	2465.124231
468.850477	2497.891731
469.221790	2465.124231
469.593043	2482.768269
469.964238	2563.426731
470.335373	2386.986346
470.706449	2492.850577
471.077467	2507.974038
471.448425	2576.029615
471.819324	2591.153077
472.190164	2533.179808
472.560945	2424.795000
472.931667	2507.974038
473.302330	2558.385577
473.672934	2419.753846
474.043479	2444.959615
474.413965	2578.550192
474.784393	2442.439038
475.154761	2437.397885
475.525070	2439.918462
475.895321	2502.932885
476.265513	2538.220962
476.635645	2510.494615
477.005719	2487.809423
477.375734	2505.453462
477.745691	2520.576923
478.115588	2553.344423
478.485427	2434.877308
478.855207	2477.727115
479.224928	2513.015192
479.594591	2505.453462
479.964194	2555.865000
480.333739	2492.850577
480.703226	2497.891731
481.072653	2500.412308
481.442022	2452.521346
481.811333	2583.591346
482.180584	2515.535769
482.549777	2518.056346
482.918912	2414.712692
483.287988	2535.700385
483.657005	2490.330000
484.025964	2568.467885
484.394864	2568.467885
484.763706	2397.068654
485.132489	2492.850577
485.501213	2495.371154
485.869879	2507.974038
486.238487	2432.356731
486.607036	2538.220962
486.975527	2450.000769
487.343959	2518.056346
487.712333	2507.974038
488.080648	2545.782692
488.448905	2487.809423
488.817104	2576.029615
489.185244	2462.603654
489.553326	2467.644808
489.921350	2563.426731
490.289315	2472.685962
490.657222	2502.932885
491.025070	2530.659231
491.392861	2507.974038
491.760593	2470.165385
492.128267	2505.453462
492.495883	2475.206538
492.863440	2439.918462
493.230939	2482.768269
493.598380	2545.782692
493.965763	2507.974038
494.333088	2507.974038
494.700354	2555.865000
495.067563	2429.836154
495.434713	2543.262115
495.801805	2447.480192
496.168839	2583.591346
496.535815	2558.385577
496.902733	2555.865000
497.269593	2520.576923
497.636395	2538.220962
498.003139	2530.659231
498.369825	2538.220962
498.736453	2502.932885
499.103023	2455.041923
499.469535	2462.603654
499.835989	2394.548077
500.202385	2513.015192
500.568723	2465.124231
500.935003	2467.644808
501.301226	2439.918462
501.667390	2487.809423
502.033497	2490.330000
502.399546	2412.192115
502.765537	2618.879423
503.131470	2480.247692
503.497345	2502.932885
503.863163	2485.288846
504.228923	2414.712692
504.594625	2513.015192
504.960269	2535.700385
505.325856	2505.453462
505.691385	2507.974038
506.056856	2482.768269
506.422270	2570.988462
506.787625	2523.097500
507.152924	2593.673654
507.518164	2381.945192
507.883347	2480.247692
508.248472	2450.000769
508.613540	2520.576923
508.978550	2404.630385
509.343503	2434.877308
509.708398	2616.358846
510.073236	2470.165385
510.438016	2485.288846
510.802738	2558.385577
511.167403	2477.727115
511.532010	2528.138654
511.896561	2465.124231
512.261053	2513.015192
512.625488	2437.397885
512.989866	2507.974038
513.354186	2558.385577
513.718449	2492.850577
514.082655	2490.330000
514.446803	2513.015192
514.810894	2513.015192
515.174927	2507.974038
515.538904	2586.111923
515.902822	2606.276538
516.266684	2475.206538
516.630488	2475.206538
516.994235	2502.932885
517.357925	2583.591346
517.721558	2593.673654
518.085133	2513.015192
518.448651	2497.891731
518.812112	2485.288846
519.175516	2530.659231
519.538863	2485.288846
519.902152	2515.535769
520.265385	2513.015192
520.628560	2558.385577
520.991678	2475.206538
521.354739	2513.015192
521.717743	2482.768269
522.080690	2450.000769
522.443580	2513.015192
522.806413	2568.467885
523.169189	2490.330000
523.531908	2570.988462
523.894569	2500.412308
524.257174	2465.124231
524.619722	2497.891731
524.982213	2500.412308
525.344647	2460.083077
525.707025	2490.330000
526.069345	2487.809423
526.431608	2412.192115
526.793815	2550.823846
527.155964	2555.865000
527.518057	2475.206538
527.880093	2518.056346
528.242072	2465.124231
528.603995	2424.795000
528.965860	2528.138654
529.327669	2497.891731
529.689421	2543.262115
530.051117	2492.850577
530.412755	2558.385577
530.774337	2513.015192
531.135862	2548.303269
531.497331	2555.865000
531.858743	2510.494615
532.220098	2533.179808
532.581396	2540.741538
532.942638	2457.562500
533.303824	2482.768269
533.664953	2470.165385
534.026025	2490.330000
534.387040	2525.618077
534.747999	2457.562500
535.108902	2535.700385
535.469748	2470.165385
535.830537	2520.576923
536.191270	2558.385577
536.551947	2467.644808
536.912567	2558.385577
537.273131	2525.618077
537.633638	2510.494615
537.994089	2492.850577
538.354483	2427.315577
538.714821	2447.480192
539.075103	2523.097500
539.435328	2444.959615
539.795497	2505.453462
540.155609	2462.603654
540.515665	2502.932885
540.875665	2490.330000
541.235609	2507.974038
541.595496	2497.891731
541.955328	2450.000769
542.315102	2560.906154
542.674821	2460.083077
543.034483	2543.262115
543.394090	2502.932885
543.753640	2389.506923
544.113134	2505.453462
544.472571	2520.576923
544.831953	2560.906154
545.191278	2525.618077
545.550548	2520.576923
545.909761	2513.015192
546.268918	2505.453462
546.628019	2490.330000
546.987064	2507.974038
547.346053	2505.453462
547.704986	2475.206538
548.063863	2477.727115
548.422684	2510.494615
548.781449	2452.521346
549.140158	2513.015192
549.498811	2583.591346
549.857408	2578.550192
550.215949	2550.823846
550.574434	2460.083077
550.932864	2515.535769
551.291237	2485.288846
551.649555	2568.467885
552.007817	2520.576923
552.366022	2485.288846
552.724173	2467.644808
553.082267	2497.891731
553.440305	2518.056346
553.798288	2555.865000
554.156215	2497.891731
554.514086	2417.233269
554.871902	2513.015192
555.229661	2558.385577
555.587365	2442.439038
555.945014	2538.220962
556.302606	2482.768269
556.660143	2500.412308
557.017625	2593.673654
557.375050	2535.700385
557.732421	2603.755962
558.089735	2455.041923
558.446994	2444.959615
558.804197	2434.877308
559.161345	2533.179808
559.518437	2490.330000
559.875474	2523.097500
560.232455	2507.974038
560.589381	2588.632500
560.946251	2460.083077
561.303065	2465.124231
561.659825	2485.288846
562.016528	2548.303269
562.373177	2538.220962
562.729770	2530.659231
563.086307	2558.385577
563.442789	2422.274423
563.799216	2502.932885
564.155587	2482.768269
564.511904	2465.124231
564.868164	2513.015192
565.224370	2550.823846
565.580520	2555.865000
565.936615	2530.659231
566.292654	2467.644808
566.648638	2450.000769
567.004567	2480.247692
567.360441	2422.274423
567.716260	2520.576923
568.072023	2603.755962
568.427732	2520.576923
568.783385	2465.124231
569.138982	2505.453462
569.494525	2475.206538
569.850013	2460.083077
570.205445	2515.535769
570.560823	2442.439038
570.916145	2477.727115
571.271412	2462.603654
571.626625	2495.371154
571.981782	2523.097500
572.336884	2480.247692
572.691931	2477.727115
573.046923	2535.700385
573.401860	2548.303269
573.756743	2485.288846
574.111570	2591.153077
574.466342	2523.097500
574.821059	2407.150962
575.175722	2603.755962
575.530330	2447.480192
575.884882	2505.453462
576.239380	2424.795000
576.593823	2543.262115
576.948211	2500.412308
577.302544	2442.439038
577.656823	2523.097500
578.011047	2568.467885
578.365216	2500.412308
578.719330	2490.330000
579.073389	2500.412308
579.427394	2530.659231
579.781344	2523.097500
580.135239	2505.453462
580.489080	2565.947308
580.842866	2490.330000
581.196597	2550.823846
581.550273	2465.124231
581.903895	2523.097500
582.257463	2553.344423
582.610975	2545.782692
582.964434	2465.124231
583.317837	2513.015192
583.671186	2495.371154
584.024481	2530.659231
584.377721	2543.262115
584.730906	2472.685962
585.084037	2500.412308
585.437113	2477.727115
585.790135	2500.412308
586.143103	2576.029615
586.496016	2434.877308
586.848874	2450.000769
587.201679	2518.056346
587.554428	2525.618077
587.907124	2563.426731
588.259765	2513.015192
588.612352	2475.206538
588.964884	2523.097500
589.317362	2578.550192
589.669786	2545.782692
590.022155	2596.194231
590.374470	2477.727115
590.726731	2520.576923
591.078937	2578.550192
591.431090	2548.303269
591.783188	2593.673654
592.135232	2477.727115
592.487222	2480.247692
592.839157	2578.550192
593.191038	2472.685962
593.542866	2525.618077
593.894639	2422.274423
594.246358	2525.618077
594.598022	2497.891731
594.949633	2465.124231
595.301190	2518.056346
595.652692	2495.371154
596.004141	2513.015192
596.355535	2437.397885
596.706876	2497.891731
597.058162	2472.685962
597.409395	2477.727115
597.760573	2520.576923
598.111698	2487.809423
598.462768	2513.015192
598.813785	2576.029615
599.164748	2487.809423
599.515657	2565.947308
599.866511	2487.809423
600.217312	2550.823846
600.568060	2452.521346
600.918753	2432.356731
601.269392	2573.509038
601.619978	2543.262115
601.970510	2520.576923
602.320988	2565.947308
602.671412	2540.741538
603.021783	2485.288846
603.372100	2475.206538
603.722363	2409.671538
604.072572	2507.974038
604.422728	2495.371154
604.772830	2437.397885
605.122878	2538.220962
605.472872	2520.576923
605.822813	2412.192115
606.172701	2523.097500
606.522534	2492.850577
606.872314	2467.644808
607.222041	2470.165385
607.571714	2535.700385
607.921333	2510.494615
608.270899	2470.165385
608.620411	2603.755962
608.969870	2525.618077
609.319276	2487.809423
609.668627	2545.782692
610.017926	2550.823846
610.367171	2475.206538
610.716362	2523.097500
611.065500	2568.467885
611.414585	2447.480192
611.763616	2465.124231
612.112594	2497.891731
612.461518	2500.412308
612.810389	2437.397885
613.159207	2593.673654
613.507971	2442.439038
613.856682	2513.015192
614.205340	2475.206538
614.553945	2392.027500
614.902496	2515.535769
615.250994	2570.988462
615.599439	2470.165385
615.947830	2467.644808
616.296169	2550.823846
616.644454	2492.850577
616.992686	2480.247692
617.340864	2429.836154
617.688990	2442.439038
618.037063	2475.206538
618.385082	2419.753846
618.733048	2530.659231
619.080961	2515.535769
619.428821	2500.412308
619.776628	2397.068654
620.124382	2530.659231
620.472083	2485.288846
620.819731	2563.426731
621.167326	2495.371154
621.514868	2573.509038
621.862357	2591.153077
622.209793	2487.809423
622.557176	2550.823846
622.904506	2472.685962
623.251783	2485.288846
623.599007	2545.782692
623.946179	2538.220962
624.293297	2414.712692
624.640363	2520.576923
624.987376	2538.220962
625.334336	2417.233269
625.681243	2502.932885
626.028097	2548.303269
626.374899	2505.453462
626.721647	2507.974038
627.068343	2487.809423
627.414987	2540.741538
627.761577	2492.850577
628.108115	2492.850577
628.454600	2583.591346
628.801032	2513.015192
629.147412	2460.083077
629.493739	2485.288846
629.840014	2505.453462
630.186236	2404.630385
630.532405	2485.288846
630.878521	2565.947308
631.224585	2472.685962
631.570597	2523.097500
631.916556	2497.891731
632.262462	2412.192115
632.608316	2507.974038
632.954117	2535.700385
633.299866	2475.206538
633.645562	2497.891731
633.991206	2505.453462
634.336797	2563.426731
634.682336	2507.974038
635.027823	2563.426731
635.373257	2432.356731
635.718639	2533.179808
636.063968	2465.124231
636.409245	2528.138654
636.754470	2485.288846
637.099642	2510.494615
637.444762	2470.165385
637.789829	2482.768269
638.134845	2507.974038
638.479808	2417.233269
638.824719	2470.165385
639.169577	2530.659231
639.514383	2465.124231
639.859137	2487.809423
640.203839	2442.439038
640.548489	2525.618077
640.893086	2500.412308
641.237632	2518.056346
641.582125	2578.550192
641.926566	2460.083077
642.270955	2538.220962
642.615292	2450.000769
642.959576	2538.220962
643.303809	2472.685962
643.647990	2450.000769
643.992118	2482.768269
644.336195	2510.494615
644.680219	2472.685962
645.024192	2490.330000
645.368112	2570.988462
645.711981	2510.494615
646.055797	2520.576923
646.399562	2505.453462
646.743274	2429.836154
647.086935	2495.371154
647.430544	2520.576923
647.774101	2525.618077
648.117606	2477.727115
648.461059	2429.836154
648.804460	2583.591346
649.147810	2455.041923
649.491108	2477.727115
649.834354	2487.809423
650.177548	2550.823846
650.520690	2429.836154
650.863781	2492.850577
651.206820	2467.644808
651.549807	2492.850577
651.892742	2525.618077
652.235626	2495.371154
652.578458	2394.548077
652.921238	2558.385577
653.263967	2535.700385
653.606644	2457.562500
653.949269	2452.521346
654.291843	2477.727115
654.634365	2472.685962
654.976836	2492.850577
655.319255	2543.262115
655.661622	2565.947308
656.003938	2497.891731
656.346203	2560.906154
656.688416	2525.618077
657.030577	2399.589231
657.372687	2573.509038
657.714746	2502.932885
658.056753	2450.000769
658.398708	2543.262115
658.740612	2470.165385
659.082465	2485.288846
659.424266	2480.247692
659.766016	2555.865000
660.107715	2450.000769
660.449362	2505.453462
660.790958	2467.644808
661.132503	2576.029615
661.473996	2563.426731
661.815438	2444.959615
662.156829	2543.262115
662.498168	2518.056346
662.839456	2472.685962
663.180693	2540.741538
663.521879	2513.015192
663.863013	2455.041923
664.204097	2457.562500
664.545129	2450.000769
664.886110	2525.618077
665.227040	2480.247692
665.567918	2487.809423
665.908746	2457.562500
666.249522	2455.041923
666.590248	2573.509038
666.930922	2505.453462
667.271545	2502.932885
667.612118	2543.262115
667.952639	2452.521346
668.293109	2505.453462
668.633528	2482.768269
668.973896	2550.823846
669.314213	2434.877308
669.654480	2500.412308
669.994695	2442.439038
670.334859	2480.247692
670.674973	2475.206538
671.015035	2502.932885
671.355047	2490.330000
671.695008	2540.741538
672.034918	2576.029615
672.374777	2477.727115
672.714585	2500.412308
673.054342	2540.741538
673.394049	2495.371154
673.733705	2462.603654
674.073310	2563.426731
674.412864	2434.877308
674.752368	2409.671538
675.091820	2548.303269
675.431223	2480.247692
675.770574	2460.083077
676.109875	2467.644808
676.449125	2475.206538
676.788324	2528.138654
677.127473	2495.371154
677.466571	2505.453462
677.805619	2482.768269
678.144616	2553.344423
678.483562	2427.315577
678.822458	2477.727115
679.161303	2452.521346
679.500098	2550.823846
679.838842	2460.083077
680.177535	2467.644808
680.516179	2482.768269
680.854771	2495.371154
681.193314	2495.371154
681.531805	2485.288846
681.870247	2477.727115
682.208638	2485.288846
682.546978	2502.932885
682.885268	2472.685962
683.223508	2548.303269
683.561697	2528.138654
683.899836	2492.850577
684.237925	2500.412308
684.575963	2384.465769
684.913951	2497.891731
685.251889	2482.768269
685.589776	2591.153077
685.927614	2485.288846
686.265401	2523.097500
686.603137	2507.974038
686.940824	2500.412308
687.278460	2450.000769
687.616046	2563.426731
687.953582	2545.782692
688.291068	2502.932885
688.628504	2444.959615
688.965889	2450.000769
689.303224	2485.288846
689.640510	2518.056346
689.977745	2540.741538
690.314930	2492.850577
690.652065	2525.618077
690.989150	2492.850577
691.326185	2548.303269
691.663170	2581.070769
692.000105	2565.947308
692.336990	2533.179808
692.673825	2565.947308
693.010610	2472.685962
693.347345	2495.371154
693.684030	2447.480192
694.020665	2500.412308
694.357251	2502.932885
694.693786	2495.371154
695.030272	2482.768269
695.366707	2543.262115
695.703093	2505.453462
696.039429	2520.576923
696.375716	2502.932885
696.711952	2530.659231
697.048139	2535.700385
697.384276	2457.562500
697.720363	2520.576923
698.056400	2505.453462
698.392388	2505.453462
698.728326	2523.097500
699.064214	2412.192115
699.400053	2490.330000
699.735842	2472.685962
700.071581	2533.179808
700.407270	2500.412308
700.742910	2520.576923
701.078501	2444.959615
701.414042	2525.618077
701.749533	2460.083077
702.084974	2515.535769
702.420366	2475.206538
702.755709	2467.644808
703.091002	2427.315577
703.426246	2495.371154
703.761440	2477.727115
704.096584	2573.509038
704.431679	2462.603654
704.766725	2573.509038
705.101721	2507.974038
705.436668	2467.644808
705.771565	2505.453462
706.106413	2495.371154
706.441212	2490.330000
706.775961	2472.685962
707.110661	2356.739423
707.445311	2407.150962
707.779913	2518.056346
708.114465	2505.453462
708.448967	2540.741538
708.783421	2452.521346
709.117825	2528.138654
709.452180	2467.644808
709.786485	2568.467885
710.120742	2510.494615
710.454949	2475.206538
710.789107	2407.150962
711.123216	2457.562500
711.457275	2492.850577
711.791286	2500.412308
712.125247	2533.179808
712.459159	2593.673654
712.793023	2553.344423
713.126837	2439.918462
713.460602	2525.618077
713.794318	2520.576923
714.127985	2540.741538
714.461602	2414.712692
714.795171	2530.659231
715.128691	2573.509038
715.462162	2444.959615
715.795584	2520.576923
716.128957	2412.192115
716.462281	2444.959615
716.795556	2500.412308
717.128782	2492.850577
717.461960	2550.823846
717.795088	2505.453462
718.128167	2487.809423
718.461198	2520.576923
718.794180	2470.165385
719.127113	2429.836154
719.459997	2492.850577
719.792833	2467.644808
720.125619	2495.371154
720.458357	2495.371154
720.791046	2500.412308
721.123686	2465.124231
721.456278	2588.632500
721.788821	2397.068654
722.121315	2528.138654
722.453761	2515.535769
722.786158	2608.797115
723.118506	2568.467885
723.450805	2417.233269
723.783056	2507.974038
724.115259	2538.220962
724.447412	2518.056346
724.779518	2482.768269
725.111574	2563.426731
725.443582	2533.179808
725.775542	2477.727115
726.107453	2432.356731
726.439315	2510.494615
726.771129	2525.618077
727.102895	2520.576923
727.434612	2482.768269
727.766281	2480.247692
728.097901	2530.659231
728.429473	2386.986346
728.760996	2515.535769
729.092471	2470.165385
729.423897	2455.041923
729.755276	2515.535769
730.086606	2467.644808
730.417887	2518.056346
730.749120	2565.947308
731.080305	2487.809423
731.411442	2518.056346
731.742530	2538.220962
732.073570	2583.591346
732.404562	2563.426731
732.735506	2442.439038
733.066401	2492.850577
733.397249	2467.644808
733.728048	2535.700385
734.058798	2485.288846
734.389501	2485.288846
734.720156	2525.618077
735.050762	2412.192115
735.381320	2487.809423
735.711831	2502.932885
736.042293	2452.521346
736.372707	2427.315577
736.703073	2475.206538
737.033391	2427.315577
737.363661	2530.659231
737.693883	2525.618077
738.024056	2538.220962
738.354182	2497.891731
738.684260	2518.056346
739.014290	2465.124231
739.344272	2543.262115
739.674207	2452.521346
740.004093	2462.603654
740.333931	2376.904038
740.663722	2402.109808
740.993464	2540.741538
741.323159	2500.412308
741.652806	2495.371154
741.982405	2497.891731
742.311956	2581.070769
742.641460	2465.124231
742.970915	2470.165385
743.300323	2507.974038
743.629683	2548.303269
743.958996	2530.659231
744.288260	2472.685962
744.617477	2530.659231
744.946647	2487.809423
745.275768	2518.056346
745.604842	2460.083077
745.933869	2505.453462
746.262847	2525.618077
746.591778	2492.850577
746.920662	2502.932885
747.249498	2530.659231
747.578286	2472.685962
747.907027	2578.550192
748.235720	2444.959615
748.564365	2500.412308
748.892963	2581.070769
749.221514	2500.412308
749.550017	2518.056346
749.878473	2538.220962
750.206881	2460.083077
750.535242	2399.589231
750.863555	2505.453462
751.191821	2457.562500
751.520039	2492.850577
751.848210	2460.083077
752.176334	2470.165385
752.504411	2492.850577
752.832440	2528.138654
753.160421	2455.041923
753.488356	2455.041923
753.816243	2485.288846
754.144082	2490.330000
754.471875	2462.603654
754.799620	2427.315577
755.127318	2462.603654
755.454969	2462.603654
755.782572	2505.453462
756.110129	2450.000769
756.437638	2502.932885
756.765100	2490.330000
757.092515	2470.165385
757.419882	2477.727115
757.747203	2510.494615
758.074477	2444.959615
758.401703	2490.330000
758.728882	2505.453462
759.056014	2502.932885
759.383099	2500.412308
759.710138	2437.397885
760.037129	2530.659231
760.364073	2573.509038
760.690970	2480.247692
761.017820	2535.700385
761.344623	2543.262115
761.671379	2429.836154
761.998088	2505.453462
762.324751	2465.124231
762.651366	2528.138654
762.977935	2515.535769
763.304456	2525.618077
763.630931	2518.056346
763.957359	2573.509038
764.283740	2528.138654
764.610074	2452.521346
764.936362	2497.891731
765.262602	2513.015192
765.588796	2470.165385
765.914943	2492.850577
766.241044	2510.494615
766.567097	2598.714808
766.893104	2576.029615
767.219064	2485.288846
767.544978	2495.371154
767.870845	2450.000769
768.196665	2573.509038
768.522438	2467.644808
768.848165	2518.056346
769.173846	2397.068654
769.499479	2480.247692
769.825066	2520.576923
770.150607	2538.220962
770.476101	2417.233269
770.801548	2507.974038
771.126949	2470.165385
771.452303	2555.865000
771.777611	2492.850577
772.102872	2502.932885
772.428087	2452.521346
772.753256	2555.865000
773.078378	2502.932885
773.403453	2495.371154
773.728482	2530.659231
774.053465	2460.083077
774.378401	2563.426731
774.703291	2576.029615
775.028135	2452.521346
775.352932	2439.918462
775.677683	2434.877308
776.002388	2480.247692
776.327046	2442.439038
776.651658	2621.400000
776.976224	2520.576923
777.300743	2518.056346
777.625216	2500.412308
777.949643	2530.659231
778.274024	2550.823846
778.598359	2485.288846
778.922647	2523.097500
779.246889	2535.700385
779.571086	2439.918462
779.895236	2530.659231
780.219339	2548.303269
780.543397	2500.412308
780.867409	2492.850577
781.191374	2485.288846
781.515294	2520.576923
781.839167	2563.426731
782.162995	2475.206538
782.486776	2596.194231
782.810511	2477.727115
783.134201	2495.371154
783.457844	2545.782692
783.781441	2492.850577
784.104993	2538.220962
784.428498	2523.097500
784.751958	2507.974038
785.075372	2477.727115
785.398739	2520.576923
785.722061	2482.768269
786.045337	2485.288846
786.368568	2553.344423
786.691752	2442.439038
787.014891	2626.441154
787.337983	2414.712692
787.661030	2447.480192
787.984031	2444.959615
788.306987	2505.453462
788.629897	2467.644808
788.952760	2487.809423
789.275579	2477.727115
789.598351	2553.344423
789.921078	2442.439038
790.243759	2518.056346
790.566395	2497.891731
790.888984	2452.521346
791.211529	2515.535769
791.534027	2540.741538
791.856480	2492.850577
792.178888	2437.397885
792.501249	2465.124231
792.823566	2452.521346
793.145836	2606.276538
793.468062	2475.206538
793.790241	2528.138654
794.112375	2528.138654
794.434464	2540.741538
794.756507	2513.015192
795.078505	2447.480192
795.400457	2518.056346
795.722364	2477.727115
796.044226	2444.959615
796.366042	2495.371154
796.687812	2533.179808
797.009538	2482.768269
797.331218	2467.644808
797.652852	2452.521346
797.974442	2447.480192
798.295986	2475.206538
798.617484	2419.753846
798.938938	2427.315577
799.260346	2475.206538
799.581709	2533.179808
799.903026	2437.397885
800.224299	2495.371154
800.545526	2467.644808
800.866708	2492.850577
801.187845	2495.371154
801.508936	2482.768269
801.829983	2472.685962
802.150984	2518.056346
802.471940	2490.330000
802.792851	2513.015192
803.113717	2485.288846
803.434538	2505.453462
803.755314	2543.262115
804.076045	2450.000769
804.396731	2505.453462
804.717372	2417.233269
805.037967	2492.850577
805.358518	2465.124231
805.679024	2555.865000
805.999485	2518.056346
806.319901	2518.056346
806.640272	2505.453462
806.960598	2558.385577
807.280879	2507.974038
807.601115	2533.179808
807.921306	2452.521346
808.241453	2518.056346
808.561554	2472.685962
808.881611	2548.303269
809.201623	2505.453462
809.521590	2495.371154
809.841513	2467.644808
810.161390	2505.453462
810.481223	2492.850577
810.801011	2507.974038
811.120755	2462.603654
811.440453	2467.644808
811.760107	2583.591346
812.079716	2545.782692
812.399281	2397.068654
812.718801	2475.206538
813.038276	2422.274423
813.357707	2414.712692
813.677093	2528.138654
813.996434	2507.974038
814.315731	2376.904038
814.634983	2480.247692
814.954191	2462.603654
815.273354	2558.385577
815.592473	2528.138654
815.911547	2502.932885
816.230577	2424.795000
816.549562	2520.576923
816.868502	2457.562500
817.187399	2477.727115
817.506250	2480.247692
817.825058	2477.727115
818.143821	2480.247692
818.462539	2533.179808
818.781213	2502.932885
819.099843	2480.247692
819.418429	2538.220962
819.736970	2480.247692
820.055466	2530.659231
820.373919	2515.535769
820.692327	2485.288846
821.010691	2492.850577
821.329011	2616.358846
821.647286	2439.918462
821.965517	2452.521346
822.283704	2507.974038
822.601847	2500.412308
822.919945	2437.397885
823.237999	2414.712692
823.556010	2490.330000
823.873976	2513.015192
824.191897	2485.288846
824.509775	2558.385577
824.827609	2447.480192
825.145398	2480.247692
825.463144	2485.288846
825.780845	2502.932885
826.098502	2528.138654
826.416116	2412.192115
826.733685	2505.453462
827.051210	2538.220962
827.368692	2434.877308
827.686129	2543.262115
828.003522	2485.288846
828.320872	2497.891731
828.638177	2452.521346
828.955439	2528.138654
829.272656	2525.618077
829.589830	2528.138654
829.906960	2482.768269
830.224046	2485.288846
830.541088	2548.303269
830.858086	2442.439038
831.175041	2528.138654
831.491952	2480.247692
831.808819	2593.673654
832.125642	2523.097500
832.442421	2525.618077
832.759157	2513.015192
833.075849	2439.918462
833.392497	2470.165385
833.709101	2570.988462
834.025662	2528.138654
834.342179	2510.494615
834.658653	2470.165385
834.975083	2444.959615
835.291469	2485.288846
835.607811	2518.056346
835.924110	2444.959615
836.240366	2485.288846
836.556578	2583.591346
836.872746	2422.274423
837.188871	2467.644808
837.504952	2507.974038
837.820990	2528.138654
838.136984	2555.865000
838.452935	2540.741538
838.768842	2528.138654
839.084706	2502.932885
839.400526	2533.179808
839.716303	2487.809423
840.032037	2515.535769
840.347727	2472.685962
840.663373	2596.194231
840.978977	2480.247692
841.294537	2518.056346
841.610054	2487.809423
841.925527	2404.630385
842.240957	2543.262115
842.556344	2530.659231
842.871687	2457.562500
843.186987	2568.467885
843.502244	2502.932885
843.817458	2570.988462
844.132629	2455.041923
844.447756	2482.768269
844.762840	2482.768269
845.077881	2455.041923
845.392879	2500.412308
845.707833	2497.891731
846.022745	2490.330000
846.337613	2515.535769
846.652438	2487.809423
846.967221	2439.918462
847.281960	2487.809423
847.596656	2475.206538
847.911309	2513.015192
848.225919	2422.274423
848.540485	2485.288846
848.855009	2523.097500
849.169490	2462.603654
849.483928	2369.342308
849.798323	2555.865000
850.112675	2482.768269
850.426984	2485.288846
850.741251	2480.247692
851.055474	2495.371154
851.369654	2598.714808
851.683792	2465.124231
851.997887	2538.220962
852.311938	2485.288846
852.625947	2462.603654
852.939914	2412.192115
853.253837	2492.850577
853.567718	2477.727115
853.881555	2568.467885
854.195350	2455.041923
854.509103	2525.618077
854.822812	2525.618077
855.136479	2482.768269
855.450103	2497.891731
855.763685	2447.480192
856.077224	2538.220962
856.390720	2412.192115
856.704173	2530.659231
857.017584	2437.397885
857.330953	2472.685962
857.644278	2502.932885
857.957561	2520.576923
858.270802	2414.712692
858.584000	2482.768269
858.897155	2525.618077
859.210268	2434.877308
859.523339	2510.494615
859.836367	2502.932885
860.149352	2490.330000
860.462295	2553.344423
860.775195	2462.603654
861.088054	2560.906154
861.400869	2434.877308
861.713642	2424.795000
862.026373	2581.070769
862.339062	2495.371154
862.651708	2525.618077
862.964312	2361.780577
863.276873	2513.015192
863.589392	2550.823846
863.901869	2437.397885
864.214303	2497.891731
864.526696	2505.453462
864.839045	2540.741538
865.151353	2409.671538
865.463619	2437.397885
865.775842	2533.179808
866.088023	2447.480192
866.400162	2485.288846
866.712258	2490.330000
867.024313	2523.097500
867.336325	2565.947308
867.648296	2608.797115
867.960224	2538.220962
868.272110	2480.247692
868.583954	2429.836154
868.895755	2507.974038
869.207515	2507.974038
869.519233	2507.974038
869.830909	2475.206538
870.142542	2450.000769
870.454134	2412.192115
870.765684	2482.768269
871.077191	2452.521346
871.388657	2492.850577
871.700081	2520.576923
872.011463	2460.083077
872.322803	2495.371154
872.634101	2485.288846
872.945357	2500.412308
873.256571	2485.288846
873.567744	2515.535769
873.878874	2573.509038
874.189963	2497.891731
874.501010	2460.083077
874.812015	2452.521346
875.122979	2472.685962
875.433900	2510.494615
875.744780	2477.727115
876.055618	2480.247692
876.366415	2450.000769
876.677169	2505.453462
876.987882	2550.823846
877.298554	2523.097500
877.609183	2591.153077
877.919771	2455.041923
878.230317	2477.727115
878.540822	2475.206538
878.851285	2495.371154
879.161707	2470.165385
879.472087	2492.850577
879.782425	2447.480192
880.092722	2548.303269
880.402977	2477.727115
880.713191	2545.782692
881.023363	2535.700385
881.333494	2462.603654
881.643583	2538.220962
881.953631	2543.262115
882.263637	2467.644808
882.573602	2482.768269
882.883526	2535.700385
883.193408	2588.632500
883.503248	2545.782692
883.813048	2467.644808
884.122806	2555.865000
884.432522	2513.015192
884.742197	2563.426731
885.051831	2502.932885
885.361424	2492.850577
885.670975	2477.727115
885.980485	2460.083077
886.289954	2460.083077
886.599382	2424.795000
886.908768	2419.753846
887.218113	2442.439038
887.527417	2515.535769
887.836680	2495.371154
888.145901	2603.755962
888.455082	2535.700385
888.764221	2520.576923
889.073319	2482.768269
889.382376	2462.603654
889.691392	2520.576923
890.000366	2417.233269
890.309300	2500.412308
890.618193	2475.206538
890.927044	2495.371154
891.235855	2470.165385
891.544625	2543.262115
891.853353	2490.330000
892.162041	2457.562500
892.470687	2513.015192
892.779293	2455.041923
893.087858	2545.782692
893.396381	2434.877308
893.704864	2477.727115
894.013306	2455.041923
894.321707	2518.056346
894.630068	2543.262115
894.938387	2528.138654
895.246665	2528.138654
895.554903	2513.015192
895.863100	2437.397885
896.171256	2439.918462
896.479371	2518.056346
896.787446	2492.850577
897.095480	2475.206538
897.403473	2452.521346
897.711425	2475.206538
898.019336	2467.644808
898.327207	2480.247692
898.635038	2492.850577
898.942827	2520.576923
899.250576	2427.315577
899.558284	2492.850577
899.865952	2414.712692
900.173579	2520.576923
900.481165	2535.700385
900.788711	2447.480192
901.096216	2455.041923
901.403681	2472.685962
901.711105	2545.782692
902.018489	2477.727115
902.325832	2507.974038
902.633135	2578.550192
902.940397	2480.247692
903.247619	2452.521346
903.554800	2533.179808
903.861941	2523.097500
904.169041	2462.603654
904.476101	2439.918462
904.783121	2555.865000
905.090100	2444.959615
905.397039	2540.741538
905.703938	2570.988462
906.010796	2490.330000
906.317614	2507.974038
906.624391	2553.344423
906.931129	2530.659231
907.237826	2490.330000
907.544483	2455.041923
907.851099	2543.262115
908.157675	2520.576923
908.464211	2495.371154
908.770707	2565.947308
909.077163	2533.179808
909.383578	2505.453462
909.689954	2439.918462
909.996289	2442.439038
910.302584	2553.344423
910.608839	2485.288846
910.915054	2477.727115
911.221229	2495.371154
911.527363	2389.506923
911.833458	2490.330000
912.139513	2507.974038
912.445527	2472.685962
912.751502	2543.262115
913.057436	2490.330000
913.363331	2414.712692
913.669186	2548.303269
913.975000	2581.070769
914.280775	2450.000769
914.586510	2525.618077
914.892205	2548.303269
915.197859	2467.644808
915.503475	2530.659231
915.809050	2465.124231
916.114585	2507.974038
916.420081	2452.521346
916.725536	2487.809423
917.030952	2500.412308
917.336328	2482.768269
917.641665	2543.262115
917.946961	2470.165385
918.252218	2482.768269
918.557435	2490.330000
918.862612	2434.877308
919.167750	2455.041923
919.472848	2535.700385
919.777906	2500.412308
920.082925	2520.576923
920.387904	2563.426731
920.692843	2528.138654
920.997743	2553.344423
921.302603	2485.288846
921.607423	2520.576923
921.912204	2480.247692
922.216946	2543.262115
922.521647	2465.124231
922.826310	2568.467885
923.130932	2535.700385
923.435516	2485.288846
923.740059	2560.906154
924.044564	2538.220962
924.349028	2523.097500
924.653454	2558.385577
924.957840	2548.303269
925.262186	2475.206538
925.566493	2502.932885
925.870761	2480.247692
926.174989	2462.603654
926.479178	2553.344423
926.783328	2452.521346
927.087438	2490.330000
927.391509	2470.165385
927.695541	2485.288846
927.999533	2490.330000
928.303486	2520.576923
928.607400	2485.288846
928.911275	2500.412308
929.215110	2462.603654
929.518906	2460.083077
929.822663	2409.671538
930.126381	2447.480192
930.430060	2429.836154
930.733699	2495.371154
931.037299	2450.000769
931.340861	2470.165385
931.644383	2538.220962
931.947866	2510.494615
932.251309	2452.521346
932.554714	2500.412308
932.858080	2470.165385
933.161407	2467.644808
933.464694	2505.453462
933.767943	2444.959615
934.071153	2434.877308
934.374323	2429.836154
934.677455	2568.467885
934.980548	2528.138654
935.283602	2528.138654
935.586617	2447.480192
935.889593	2505.453462
936.192530	2583.591346
936.495428	2487.809423
936.798287	2553.344423
937.101108	2487.809423
937.403890	2482.768269
937.706632	2439.918462
938.009336	2528.138654
938.312002	2555.865000
938.614628	2427.315577
938.917216	2535.700385
939.219765	2389.506923
939.522275	2507.974038
939.824747	2462.603654
940.127179	2502.932885
940.429573	2452.521346
940.731929	2414.712692
941.034246	2492.850577
941.336524	2535.700385
941.638763	2535.700385
941.940964	2591.153077
942.243126	2507.974038
942.545250	2444.959615
942.847335	2472.685962
943.149381	2457.562500
943.451389	2419.753846
943.753359	2462.603654
944.055290	2523.097500
944.357182	2465.124231
944.659036	2467.644808
944.960851	2480.247692
945.262628	2540.741538
945.564367	2525.618077
945.866067	2482.768269
946.167729	2507.974038
946.469352	2409.671538
946.770937	2495.371154
947.072484	2472.685962
947.373992	2510.494615
947.675462	2397.068654
947.976893	2450.000769
948.278286	2528.138654
948.579641	2525.618077
948.880958	2535.700385
949.182236	2437.397885
949.483476	2525.618077
949.784678	2507.974038
950.085841	2533.179808
950.386967	2447.480192
950.688054	2452.521346
950.989103	2452.521346
951.290114	2492.850577
951.591087	2495.371154
951.892021	2442.439038
952.192917	2505.453462
952.493776	2475.206538
952.794596	2520.576923
953.095378	2482.768269
953.396122	2450.000769
953.696828	2371.862885
953.997496	2437.397885
954.298126	2455.041923
954.598718	2455.041923
954.899272	2540.741538
955.199788	2455.041923
955.500266	2492.850577
955.800706	2487.809423
956.101108	2507.974038
956.401472	2515.535769
956.701798	2543.262115
957.002087	2434.877308
957.302337	2573.509038
957.602550	2538.220962
957.902724	2553.344423
958.202861	2450.000769
958.502960	2467.644808
958.803022	2439.918462
959.103045	2487.809423
959.403031	2455.041923
959.702979	2510.494615
960.002889	2543.262115
960.302762	2414.712692
960.602596	2492.850577
960.902393	2482.768269
961.202153	2490.330000
961.501875	2540.741538
961.801559	2538.220962
962.101205	2490.330000
962.400814	2490.330000
962.700385	2505.453462
962.999918	2560.906154
963.299414	2462.603654
963.598873	2455.041923
963.898293	2500.412308
964.197677	2452.521346
964.497022	2530.659231
964.796331	2414.712692
965.095601	2407.150962
965.394835	2495.371154
965.694030	2510.494615
965.993189	2455.041923
966.292309	2528.138654
966.591393	2472.685962
966.890439	2507.974038
967.189447	2444.959615
967.488419	2477.727115
967.787353	2462.603654
968.086249	2565.947308
968.385108	2523.097500
968.683930	2487.809423
968.982714	2568.467885
969.281462	2475.206538
969.580172	2487.809423
969.878844	2565.947308
970.177480	2507.974038
970.476078	2417.233269
970.774639	2528.138654
971.073162	2563.426731
971.371649	2482.768269
971.670098	2412.192115
971.968510	2492.850577
972.266885	2402.109808
972.565223	2525.618077
972.863524	2455.041923
973.161788	2495.371154
973.460014	2576.029615
973.758204	2404.630385
974.056356	2533.179808
974.354471	2573.509038
974.652550	2427.315577
974.950591	2513.015192
975.248595	2513.015192
975.546563	2586.111923
975.844493	2409.671538
976.142386	2507.974038
976.440243	2505.453462
976.738062	2455.041923
977.035845	2538.220962
977.333590	2525.618077
977.631299	2462.603654
977.928971	2553.344423
978.226606	2613.838269
978.524204	2447.480192
978.821765	2467.644808
979.119290	2540.741538
979.416777	2460.083077
979.714228	2480.247692
980.011642	2467.644808
980.309020	2538.220962
980.606360	2450.000769
980.903664	2510.494615
981.200931	2465.124231
981.498162	2477.727115
981.795356	2487.809423
982.092513	2485.288846
982.389633	2475.206538
982.686717	2553.344423
982.983764	2518.056346
983.280775	2603.755962
983.577749	2417.233269
983.874686	2548.303269
984.171587	2500.412308
984.468451	2422.274423
984.765279	2591.153077
985.062070	2563.426731
985.358824	2452.521346
985.655543	2495.371154
985.952224	2470.165385
986.248869	2490.330000
986.545478	2490.330000
986.842050	2530.659231
987.138586	2437.397885
987.435086	2490.330000
987.731549	2525.618077
988.027975	2429.836154
988.324366	2500.412308
988.620719	2477.727115
988.917037	2455.041923
989.213318	2472.685962
989.509563	2535.700385
989.805772	2490.330000
990.101944	2442.439038
990.398080	2528.138654
990.694180	2596.194231
990.990244	2452.521346
991.286271	2460.083077
991.582262	2444.959615
991.878217	2467.644808
992.174136	2523.097500
992.470019	2525.618077
992.765865	2485.288846
993.061676	2553.344423
993.357450	2447.480192
993.653188	2570.988462
993.948890	2457.562500
994.244556	2422.274423
994.540186	2500.412308
994.835780	2497.891731
995.131337	2515.535769
995.426859	2492.850577
995.722345	2404.630385
996.017795	2495.371154
996.313208	2502.932885
996.608586	2518.056346
996.903928	2545.782692
997.199234	2573.509038
997.494504	2477.727115
997.789738	2540.741538
998.084936	2427.315577
998.380099	2523.097500
998.675225	2434.877308
998.970316	2477.727115
999.265371	2495.371154
999.560390	2558.385577
999.855373	2434.877308
1000.150320	2472.685962
1000.445232	2402.109808
1000.740108	2553.344423
1001.034948	2477.727115
1001.329752	2487.809423
1001.624521	2460.083077
1001.919254	2525.618077
1002.213951	2515.535769
1002.508613	2457.562500
1002.803239	2568.467885
1003.097829	2485.288846
1003.392384	2507.974038
1003.686903	2427.315577
1003.981386	2467.644808
1004.275834	2412.192115
1004.570246	2472.685962
1004.864623	2593.673654
1005.158964	2432.356731
1005.453270	2518.056346
1005.747540	2540.741538
1006.041775	2485.288846
1006.335974	2555.865000
1006.630138	2530.659231
1006.924266	2472.685962
1007.218359	2409.671538
1007.512416	2523.097500
1007.806438	2513.015192
1008.100425	2505.453462
1008.394376	2414.712692
1008.688292	2525.618077
1008.982172	2419.753846
1009.276017	2455.041923
1009.569827	2386.986346
1009.863602	2548.303269
1010.157341	2507.974038
1010.451045	2576.029615
1010.744714	2492.850577
1011.038347	2533.179808
1011.331945	2462.603654
1011.625508	2507.974038
1011.919036	2392.027500
1012.212528	2525.618077
1012.505986	2480.247692
1012.799408	2475.206538
1013.092795	2467.644808
1013.386147	2510.494615
1013.679464	2442.439038
1013.972745	2444.959615
1014.265992	2538.220962
1014.559204	2533.179808
1014.852380	2480.247692
1015.145521	2439.918462
1015.438628	2492.850577
1015.731699	2467.644808
1016.024736	2414.712692
1016.317737	2450.000769
1016.610703	2485.288846
1016.903635	2434.877308
1017.196531	2502.932885
1017.489393	2533.179808
1017.782219	2500.412308
1018.075011	2462.603654
1018.367768	2558.385577
1018.660490	2450.000769
1018.953177	2450.000769
1019.245829	2450.000769
