Dividing Wavelength (nm)	Counts (n)	Blue Motor Position (mm): 0.000000	Red Motor Position (mm): 15.500000	
326.493990	2130.996554
326.888308	2130.996554
327.282561	2130.996554
327.676750	2095.905082
328.070874	2093.026583
328.464933	2099.549836
328.858929	2105.495877
329.252859	2115.903339
329.646726	2125.436161
330.040528	2138.535599
330.434265	2156.918167
330.827938	2172.334015
331.221547	2191.800431
331.615091	2209.656198
332.008571	2230.292161
332.401986	2251.333937
332.795338	2270.281114
333.188625	2287.282405
333.581847	2306.597586
333.975006	2326.023673
334.368100	2344.174347
334.761129	2361.878879
335.154095	2376.145345
335.546996	2396.816596
335.939833	2410.460479
336.332606	2425.213416
336.725315	2437.607093
337.117960	2445.614965
337.510540	2454.817592
337.903056	2468.108594
338.295508	2474.581435
338.687896	2477.812815
339.080220	2491.045844
339.472480	2496.707060
339.864676	2503.195025
340.256807	2504.099912
340.648875	2508.946981
341.040879	2510.562671
341.432818	2512.495953
341.824694	2514.875378
342.216506	2514.272960
342.608253	2515.563496
342.999937	2512.942096
343.391557	2515.762621
343.783113	2515.316479
344.174605	2514.751870
344.566033	2508.558812
344.957397	2509.534276
345.348697	2506.630571
345.739934	2505.168636
346.131106	2503.409274
346.522215	2504.447751
346.913260	2500.578666
347.304241	2502.007833
347.695159	2499.000785
348.086012	2496.374343
348.476802	2493.349651
348.867528	2493.316884
349.258191	2492.230515
349.648789	2488.542911
350.039324	2489.253714
350.429796	2486.559217
350.820203	2486.508805
351.210548	2486.521408
351.600828	2485.931593
351.991045	2484.449494
352.381198	2482.687611
352.771288	2484.870430
353.161314	2483.418578
353.551276	2483.569813
353.941175	2483.297590
354.331010	2482.826242
354.720782	2481.029071
355.110490	2482.289360
355.500135	2483.975626
355.889717	2484.951089
356.279235	2484.308342
356.668689	2484.225163
357.058080	2484.550317
357.447408	2480.824904
357.836672	2479.350367
358.225873	2481.863382
358.615010	2481.966726
359.004084	2487.718682
359.393095	2486.521408
359.782043	2487.164155
360.170927	2485.750112
360.559748	2487.151553
360.948505	2487.741368
361.337199	2490.750936
361.725830	2488.900833
362.114398	2492.094404
362.502903	2491.297902
362.891344	2494.405773
363.279722	2492.911071
363.668037	2495.955928
364.056289	2492.094404
364.444478	2496.555825
364.832603	2497.364930
365.220665	2495.913078
365.608665	2494.506596
365.996601	2498.794097
366.384474	2497.609426
366.772284	2500.150168
367.160031	2501.539006
367.547715	2503.875580
367.935336	2505.735766
368.322893	2507.752228
368.710388	2513.284894
369.097820	2518.424350
369.485189	2518.557941
369.872495	2528.073119
370.259738	2531.778367
370.646918	2542.468134
371.034035	2546.369987
371.421090	2556.928683
371.808081	2570.081054
372.195010	2577.915007
372.581875	2592.229363
372.968678	2603.100612
373.355418	2614.985132
373.742096	2632.417442
374.128710	2646.023516
374.515262	2662.840805
374.901751	2676.915707
375.288177	2687.779393
375.674540	2714.063969
376.060841	2730.480487
376.447079	2749.304155
376.833254	2769.834254
377.219367	2781.348250
377.605417	2819.396358
377.991404	2828.261227
378.377329	2851.329547
378.763191	2867.761188
379.148991	2903.442475
379.534727	2930.097576
379.920402	2958.723768
380.306013	2970.270531
380.691563	3019.275588
381.077049	3043.674773
381.462474	3059.199006
381.847835	3097.610077
382.233134	3121.074128
382.618371	3118.656895
383.003545	3187.461083
383.388657	3195.844522
383.773706	3226.298132
384.158693	3243.296903
384.543618	3270.325049
384.928480	3306.092036
385.313280	3350.234900
385.698017	3350.323120
386.082692	3399.698701
386.467305	3408.031728
386.851856	3440.521965
387.236344	3460.540387
387.620770	3491.530880
388.005133	3517.969212
388.389435	3544.208417
388.773674	3554.666291
389.157851	3594.055347
389.541965	3614.424129
389.926018	3577.553129
390.310008	3649.744973
390.693936	3666.065709
391.077802	3710.957184
391.461606	3694.129812
391.845348	3759.889143
392.229027	3762.069443
392.612645	3771.458592
392.996200	3846.755786
393.379694	3883.873802
393.763125	3950.595993
394.146494	3912.812545
394.529801	3971.725990
394.913047	4016.846837
395.296230	3980.507680
395.679351	4032.000546
396.062410	4050.236920
396.445408	4024.685832
396.828343	4051.736663
397.211217	4065.902305
397.594028	3981.236127
397.976778	4031.231770
398.359466	4046.236764
398.742092	4061.098086
399.124656	3975.474088
399.507158	4032.111451
399.889598	4043.441444
400.271977	4079.490736
400.654294	4036.240156
401.036549	4018.235675
401.418742	3975.789160
401.800874	4040.162174
402.182944	4032.686143
402.564952	4064.150504
402.946898	4029.374105
403.328783	3996.888909
403.710606	3897.384094
404.092367	4018.361704
404.474067	3957.701500
404.855705	3935.429682
405.237282	3851.239892
405.618797	3895.362591
406.000250	3879.500601
406.381642	3900.287799
406.762972	3836.917974
407.144240	3804.493273
407.525447	3769.721914
407.906593	3765.898199
408.287677	3750.999069
408.668700	3670.012932
409.049661	3657.432733
409.430560	3636.169146
409.811399	3556.549162
410.192176	3594.130964
410.572891	3526.153525
410.953545	3527.199564
411.334138	3435.899227
411.714669	3420.155703
412.095139	3343.797346
412.475547	3350.323120
412.855894	3304.110863
413.236180	3268.331273
413.616405	3217.322358
413.996568	3208.759958
414.376670	3154.086124
414.756711	3107.142899
415.136691	3078.791450
415.516609	3064.013308
415.896466	3044.236861
416.276262	3015.512367
416.655997	2979.223621
417.035670	2982.124805
417.415283	2969.123669
417.794834	2927.889551
418.174324	2893.912174
418.553753	2853.877851
418.933121	2853.043540
419.312428	2832.150478
419.691674	2799.655200
420.070859	2793.245373
420.449983	2763.278234
420.829045	2751.797006
421.208047	2730.301526
421.586988	2713.355687
421.965867	2698.766588
422.344686	2687.124043
422.723444	2667.231650
423.102141	2643.933958
423.480777	2646.643578
423.859352	2628.082049
424.237866	2625.153139
424.616319	2613.422374
424.994712	2610.422887
425.373044	2596.683223
425.751314	2591.868921
426.129524	2579.739905
426.507673	2579.233269
426.885762	2573.166240
427.263789	2567.994016
427.641756	2562.607543
428.019662	2562.973027
428.397508	2556.409445
428.775292	2556.817778
429.153016	2554.526574
429.530679	2551.070863
429.908282	2546.937117
430.285824	2544.519883
430.663305	2546.231355
431.040726	2540.844882
431.418086	2542.465613
431.795385	2542.299255
432.172624	2540.791950
432.549802	2537.492515
432.926920	2536.880015
433.303977	2541.250695
433.680974	2541.137269
434.057910	2537.537885
434.434786	2538.394881
434.811601	2537.840354
435.188355	2538.427649
435.565050	2537.545447
435.941683	2537.873122
436.318257	2536.486805
436.694770	2534.621578
437.071222	2535.854140
437.447614	2532.179139
437.823946	2533.578059
438.200218	2537.626105
438.576429	2537.701723
438.952580	2535.861702
439.328670	2538.878832
439.704700	2536.832124
440.080670	2538.604089
440.456580	2536.600231
440.832429	2537.628626
441.208218	2535.685261
441.583947	2538.977135
441.959616	2538.674665
442.335224	2536.121321
442.710773	2537.109387
443.086261	2539.350180
443.461689	2537.840354
443.837057	2539.508976
444.212365	2539.100643
444.587612	2536.764068
444.962800	2539.758513
445.337927	2538.047042
445.712995	2537.860519
446.088002	2538.064686
446.462949	2541.081816
446.837837	2540.350849
447.212664	2536.945550
447.587431	2540.174409
447.962139	2542.160623
448.336786	2543.650284
448.711374	2541.850592
449.085901	2541.245654
449.460369	2537.837834
449.834776	2536.595189
450.209124	2540.371014
450.583412	2544.988711
450.957640	2542.367311
451.331808	2542.682383
451.705917	2540.197094
452.079965	2541.548123
452.453954	2539.725746
452.827883	2543.945192
453.201752	2539.690458
453.575562	2539.264480
453.949311	2541.953936
454.323001	2541.659028
454.696632	2538.921682
455.070202	2546.503577
455.443713	2544.391334
455.817164	2540.166847
456.190556	2535.765920
456.563888	2541.527958
456.937160	2536.912782
457.310373	2546.405275
457.683526	2542.001827
458.056619	2543.713299
458.429653	2543.315047
458.802628	2543.647764
459.175542	2544.880326
459.548398	2543.889739
459.921194	2545.538196
460.293930	2547.176571
460.666607	2548.073897
461.039224	2548.835111
461.411782	2548.441901
461.784280	2551.874927
462.156719	2547.698331
462.529099	2551.915256
462.901419	2546.100285
463.273680	2550.765873
463.645882	2546.029709
464.018024	2549.009031
464.390106	2549.099772
464.762130	2551.060780
465.134094	2552.202602
465.505999	2555.212171
465.877845	2558.325083
466.249631	2561.127965
466.621358	2558.572100
466.993026	2560.802810
467.364634	2560.994374
467.736184	2555.476831
468.107674	2557.422717
468.479105	2555.560010
468.850477	2555.265103
469.221790	2556.963972
469.593043	2552.164793
469.964238	2552.966337
470.335373	2554.697973
470.706449	2554.337530
471.077467	2553.987170
471.448425	2557.742830
471.819324	2561.064950
472.190164	2563.038562
472.560945	2560.883469
472.931667	2558.582182
473.302330	2556.311142
473.672934	2554.385421
474.043479	2558.425906
474.413965	2556.033879
474.784393	2551.113713
475.154761	2557.279044
475.525070	2554.536656
475.895321	2553.349464
476.265513	2550.332334
476.635645	2558.042778
477.005719	2558.375495
477.375734	2559.792059
477.745691	2560.117213
478.115588	2560.170145
478.485427	2558.952707
478.855207	2562.337842
479.224928	2566.917730
479.594591	2565.362534
479.964194	2566.791701
480.333739	2566.746331
480.703226	2565.780950
481.072653	2566.136351
481.442022	2566.101063
481.811333	2567.142061
482.180584	2566.532082
482.549777	2566.249777
482.918912	2566.390929
483.287988	2567.174829
483.657005	2565.428069
484.025964	2563.545198
484.394864	2561.430434
484.763706	2564.568552
485.132489	2562.216854
485.501213	2562.582338
485.869879	2561.659806
486.238487	2561.148129
486.607036	2561.458160
486.975527	2561.957234
487.343959	2562.053016
487.712333	2564.145095
488.080648	2562.849519
488.448905	2562.226936
488.817104	2561.425393
489.185244	2560.966648
489.553326	2561.329611
489.921350	2564.162739
490.289315	2567.189952
490.657222	2567.023594
491.025070	2566.784139
491.392861	2568.762792
491.760593	2566.743810
492.128267	2564.462688
492.495883	2565.612071
492.863440	2566.655590
493.230939	2562.390774
493.598380	2561.876576
493.965763	2555.562531
494.333088	2558.793910
494.700354	2558.728375
495.067563	2559.580330
495.434713	2556.099414
495.801805	2561.964796
496.168839	2561.183417
496.535815	2560.444888
496.902733	2560.802810
497.269593	2561.861452
497.636395	2563.305743
498.003139	2562.736093
498.369825	2558.418344
498.736453	2561.997564
499.103023	2563.058727
499.469535	2561.324570
499.835989	2564.034190
500.202385	2564.084601
500.568723	2563.623336
500.935003	2561.836247
501.301226	2560.417162
501.667390	2562.403377
502.033497	2562.239539
502.399546	2561.231308
502.765537	2561.790876
503.131470	2561.833726
503.497345	2561.463201
503.863163	2564.692060
504.228923	2560.936401
504.594625	2565.145764
504.960269	2559.713921
505.325856	2561.533777
505.691385	2561.276679
506.056856	2562.925136
506.422270	2562.342883
506.787625	2562.259704
507.152924	2563.532595
507.518164	2562.678119
507.883347	2562.151319
508.248472	2562.839436
508.613540	2564.308933
508.978550	2561.596792
509.343503	2563.449416
509.708398	2562.363047
510.073236	2562.927657
510.438016	2568.999726
510.802738	2564.402194
511.167403	2564.250959
511.532010	2561.067471
511.896561	2568.485529
512.261053	2565.276834
512.625488	2559.340876
512.989866	2559.603016
513.354186	2562.385732
513.718449	2557.314332
514.082655	2561.964796
514.446803	2562.910012
514.810894	2565.579303
515.174927	2564.775239
515.538904	2564.543346
515.902822	2564.124931
516.266684	2566.811866
516.630488	2562.819272
516.994235	2562.141237
517.357925	2564.959242
517.721558	2566.521999
518.085133	2564.172822
518.448651	2564.303892
518.812112	2563.822461
519.175516	2565.481001
519.538863	2564.835733
519.902152	2564.455126
520.265385	2562.945301
520.628560	2565.128120
520.991678	2562.680640
521.354739	2564.245918
521.717743	2564.036710
522.080690	2565.092832
522.443580	2562.539488
522.806413	2563.918243
523.169189	2563.247770
523.531908	2565.488563
523.894569	2564.916392
524.257174	2563.456978
524.619722	2564.818089
524.982213	2564.543346
525.344647	2562.844477
525.707025	2565.173491
526.069345	2564.566032
526.431608	2562.448747
526.793815	2560.747357
527.155964	2565.959911
527.518057	2566.494273
527.880093	2566.121227
528.242072	2563.930846
528.603995	2565.407904
528.965860	2565.019735
529.327669	2563.376319
529.689421	2562.773901
530.051117	2565.455795
530.412755	2563.162070
530.774337	2564.598799
531.135862	2563.593089
531.497331	2561.712738
531.858743	2560.492779
532.220098	2561.906823
532.581396	2561.183417
532.942638	2560.754919
533.303824	2565.097873
533.664953	2564.160219
534.026025	2563.363716
534.387040	2565.430589
534.747999	2563.567883
535.108902	2562.189127
535.469748	2562.446226
535.830537	2561.581668
536.191270	2563.560321
536.551947	2565.183573
536.912567	2562.380691
537.273131	2565.891855
537.633638	2563.061247
537.994089	2561.453119
538.354483	2564.165260
538.714821	2563.381360
539.075103	2560.555794
539.435328	2563.630898
539.795497	2565.576783
540.155609	2563.761967
540.515665	2564.409756
540.875665	2563.209961
541.235609	2561.944632
541.595496	2564.689540
541.955328	2563.509910
542.315102	2564.752554
542.674821	2561.140568
543.034483	2568.528378
543.394090	2563.819941
543.753640	2564.974365
544.113134	2563.063768
544.472571	2561.954714
544.831953	2562.627708
545.191278	2565.072667
545.550548	2562.040413
545.909761	2563.577965
546.268918	2564.306412
546.628019	2562.990671
546.987064	2561.732903
547.346053	2563.502348
547.704986	2563.096535
548.063863	2564.016546
548.422684	2563.106617
548.781449	2564.437482
549.140158	2564.034190
549.498811	2563.494786
549.857408	2563.918243
550.215949	2559.429096
550.574434	2559.908005
550.932864	2558.640155
551.291237	2559.298026
551.649555	2563.283058
552.007817	2564.374468
552.366022	2563.991340
552.724173	2560.333983
553.082267	2563.081412
553.440305	2562.196689
553.798288	2563.585527
554.156215	2561.889179
554.514086	2562.657955
554.871902	2561.924467
555.229661	2562.300033
555.587365	2564.258521
555.945014	2562.736093
556.302606	2562.496638
556.660143	2561.596792
557.017625	2561.064950
557.375050	2561.833726
557.732421	2564.903789
558.089735	2563.242729
558.446994	2563.172152
558.804197	2562.292471
559.161345	2564.213151
559.518437	2564.266083
559.875474	2562.224416
560.232455	2562.519323
560.589381	2562.216854
560.946251	2566.030487
561.303065	2563.149467
561.659825	2564.389591
562.016528	2565.259190
562.373177	2563.514951
562.729770	2561.997564
563.086307	2561.513613
563.442789	2564.508058
563.799216	2563.562842
564.155587	2560.245763
564.511904	2564.843295
564.868164	2564.588717
565.224370	2562.234498
565.580520	2562.055537
565.936615	2562.302553
566.292654	2562.930177
566.648638	2565.649880
567.004567	2562.249621
567.360441	2564.319015
567.716260	2560.626370
568.072023	2562.196689
568.427732	2555.272664
568.783385	2561.259035
569.138982	2560.225598
569.494525	2560.265927
569.850013	2557.125288
570.205445	2563.313305
570.560823	2561.024621
570.916145	2561.944632
571.271412	2563.088973
571.626625	2559.073694
571.981782	2562.108469
572.336884	2562.587379
572.691931	2561.075032
573.046923	2560.727193
573.401860	2558.264589
573.756743	2561.342214
574.111570	2562.973027
574.466342	2561.576627
574.821059	2559.255176
575.175722	2560.238201
575.530330	2561.856411
575.884882	2560.092008
576.239380	2561.150650
576.593823	2562.204251
576.948211	2559.963458
577.302544	2562.032852
577.656823	2559.227450
578.011047	2560.928839
578.365216	2561.014539
578.719330	2562.226936
579.073389	2556.885834
579.427394	2558.355330
579.781344	2560.757440
580.135239	2559.734086
580.489080	2561.380022
580.842866	2559.121585
581.196597	2561.932029
581.550273	2561.995043
581.903895	2558.493962
582.257463	2560.805331
582.610975	2559.298026
582.964434	2561.841288
583.317837	2558.650238
583.671186	2560.467573
584.024481	2560.558314
584.377721	2559.877758
584.730906	2559.290464
585.084037	2559.958417
585.437113	2558.746019
585.790135	2563.151988
586.143103	2557.710062
586.496016	2560.523026
586.848874	2553.127653
587.201679	2558.589744
587.554428	2557.097562
587.907124	2557.170659
588.259765	2556.061605
588.612352	2561.075032
588.964884	2558.239383
589.317362	2558.178890
589.669786	2560.016390
590.022155	2560.722152
590.374470	2559.605536
590.726731	2563.709035
591.078937	2556.855587
591.431090	2558.642676
591.783188	2560.490259
592.135232	2559.340876
592.487222	2556.331307
592.839157	2558.672923
593.191038	2559.865156
593.542866	2555.643189
593.894639	2557.669733
594.246358	2555.570092
594.598022	2559.658468
594.949633	2556.371636
595.301190	2556.608570
595.652692	2556.575803
596.004141	2556.875751
596.355535	2555.839794
596.706876	2556.394321
597.058162	2553.722510
597.409395	2557.190823
597.760573	2554.748384
598.111698	2557.140412
598.462768	2559.577810
598.813785	2559.136709
599.164748	2557.291647
599.515657	2556.744681
599.866511	2555.335679
600.217312	2557.314332
600.568060	2559.658468
600.918753	2559.373643
601.269392	2555.882644
601.619978	2554.196378
601.970510	2555.693601
602.320988	2556.270813
602.671412	2555.549928
603.021783	2556.661502
603.372100	2558.554456
603.722363	2554.720658
604.072572	2554.879454
604.422728	2559.610577
604.772830	2554.844166
605.122878	2552.991542
605.472872	2551.960626
605.822813	2548.812426
606.172701	2557.072356
606.522534	2557.107644
606.872314	2554.100596
607.222041	2556.570762
607.571714	2555.431461
607.921333	2553.956923
608.270899	2558.703170
608.620411	2557.205947
608.969870	2557.594116
609.319276	2559.577810
609.668627	2561.662327
610.017926	2561.944632
610.367171	2565.642318
610.716362	2565.740620
611.065500	2560.694425
611.414585	2559.895402
611.763616	2559.315670
612.112594	2562.022769
612.461518	2559.164435
612.810389	2561.427913
613.159207	2557.379867
613.507971	2559.295505
613.856682	2559.592933
614.205340	2556.278375
614.553945	2560.563355
614.902496	2558.776266
615.250994	2560.782646
615.599439	2556.139743
615.947830	2554.725699
616.296169	2555.653272
616.644454	2556.049002
616.992686	2556.835422
617.340864	2557.473128
617.688990	2553.248641
618.037063	2556.737120
618.385082	2557.463046
618.733048	2557.503375
619.080961	2556.091852
619.428821	2555.862479
619.776628	2554.879454
620.124382	2560.230639
620.472083	2560.926318
620.819731	2558.935063
621.167326	2559.151832
621.514868	2557.846173
621.862357	2554.309804
622.209793	2556.260731
622.557176	2554.120761
622.904506	2555.242418
623.251783	2550.569268
623.599007	2555.116389
623.946179	2550.740667
624.293297	2552.613456
624.640363	2552.338713
624.987376	2554.362736
625.334336	2555.272664
625.681243	2552.343754
626.028097	2554.685370
626.374899	2557.427758
626.721647	2551.852242
627.068343	2554.506409
627.414987	2555.408776
627.761577	2553.969526
628.108115	2553.775442
628.454600	2554.879454
628.801032	2552.991542
629.147412	2554.115720
629.493739	2555.549928
629.840014	2554.153528
630.186236	2555.930535
630.532405	2555.466749
630.878521	2553.903991
631.224585	2554.758467
631.570597	2552.038764
631.916556	2554.193858
632.262462	2553.470452
632.608316	2553.810730
632.954117	2550.357539
633.299866	2551.438867
633.645562	2550.778476
633.991206	2555.277706
634.336797	2551.340564
634.682336	2557.344579
635.027823	2550.392827
635.373257	2550.077755
635.718639	2549.064483
636.063968	2551.680842
636.409245	2549.830739
636.754470	2551.481717
637.099642	2547.668084
637.444762	2554.602191
637.789829	2550.218908
638.134845	2549.283774
638.479808	2550.276881
638.824719	2547.710934
639.169577	2552.558003
639.514383	2553.125133
639.859137	2549.656819
640.203839	2552.938610
640.548489	2549.729916
640.893086	2549.150183
641.237632	2545.003834
641.582125	2547.189174
641.926566	2544.348484
642.270955	2550.130687
642.615292	2547.834442
642.959576	2549.722354
643.303809	2551.895091
643.647990	2551.254865
643.992118	2548.852755
644.336195	2551.350647
644.680219	2550.879299
645.024192	2550.498692
645.368112	2549.550955
645.711981	2548.033567
646.055797	2548.817467
646.399562	2553.417520
646.743274	2550.513815
647.086935	2554.357695
647.430544	2551.312838
647.774101	2551.965667
648.117606	2549.601366
648.461059	2551.794268
648.804460	2554.040102
649.147810	2550.627241
649.491108	2552.404248
649.834354	2551.196892
650.177548	2552.290822
650.520690	2552.961295
650.863781	2550.329813
651.206820	2553.261244
651.549807	2549.067004
651.892742	2551.494320
652.235626	2550.014741
652.578458	2550.034906
652.921238	2549.306459
653.263967	2551.980791
653.606644	2550.508774
653.949269	2547.683207
654.291843	2547.340409
654.634365	2550.365101
654.976836	2549.303938
655.319255	2549.518187
655.661622	2547.927703
656.003938	2548.845193
656.346203	2550.443239
656.688416	2549.172868
657.030577	2548.661191
657.372687	2550.511295
657.714746	2546.564071
658.056753	2551.385935
658.398708	2542.652136
658.740612	2545.512991
659.082465	2542.730274
659.424266	2543.625078
659.766016	2545.666746
660.107715	2546.735470
660.449362	2549.911397
660.790958	2551.937941
661.132503	2548.671273
661.473996	2546.584236
661.815438	2548.426778
662.156829	2547.166489
662.498168	2546.743032
662.839456	2548.071376
663.180693	2547.161448
663.521879	2549.251006
663.863013	2546.717826
664.204097	2548.777138
664.545129	2548.618341
664.886110	2548.991387
665.227040	2548.376366
665.567918	2548.754453
665.908746	2546.755635
666.249522	2546.400234
666.590248	2545.288659
666.930922	2547.658002
667.271545	2548.179761
667.612118	2550.327292
667.952639	2550.546583
668.293109	2547.592467
668.633528	2549.997097
668.973896	2547.632796
669.314213	2548.144473
669.654480	2550.009700
669.994695	2546.596839
670.334859	2548.633465
670.674973	2550.128167
671.015035	2547.479041
671.355047	2550.876778
671.695008	2547.151366
672.034918	2545.497867
672.374777	2546.569112
672.714585	2549.223280
673.054342	2551.585060
673.394049	2549.949206
673.733705	2552.376522
674.073310	2548.699000
674.412864	2549.578681
674.752368	2547.148845
675.091820	2548.451983
675.431223	2547.673125
675.770574	2549.243444
676.109875	2546.420398
676.449125	2544.013247
676.788324	2542.417722
677.127473	2547.756304
677.466571	2541.908566
677.805619	2548.388969
678.144616	2550.750749
678.483562	2548.126829
678.822458	2546.780841
679.161303	2547.206818
679.500098	2547.007693
679.838842	2548.144473
680.177535	2544.466951
680.516179	2544.817311
680.854771	2547.902498
681.193314	2547.675646
681.531805	2546.274205
681.870247	2548.608259
682.208638	2549.044319
682.546978	2550.576830
682.885268	2546.553989
683.223508	2549.903836
683.561697	2549.457693
683.899836	2546.513660
684.237925	2546.654812
684.575963	2548.424257
684.913951	2547.962991
685.251889	2547.872251
685.589776	2546.448125
685.927614	2548.149514
686.265401	2548.782179
686.603137	2546.916952
686.940824	2548.913249
687.278460	2548.078938
687.616046	2548.729247
687.953582	2550.044988
688.291068	2547.249668
688.628504	2550.876778
688.965889	2547.058104
689.303224	2546.523742
689.640510	2548.719164
689.977745	2549.026675
690.314930	2547.484082
690.652065	2547.937786
690.989150	2546.639688
691.326185	2545.938968
691.663170	2546.470810
692.000105	2547.325285
692.336990	2544.222455
692.673825	2548.230173
693.010610	2547.325285
693.347345	2541.275901
693.684030	2540.355890
694.020665	2541.926210
694.357251	2540.456713
694.693786	2542.871426
695.030272	2543.340253
695.366707	2544.414019
695.703093	2542.468134
696.039429	2543.841848
696.375716	2543.985521
696.711952	2543.715819
697.048139	2545.268495
697.384276	2543.637681
697.720363	2543.960315
698.056400	2543.897301
698.392388	2543.627599
698.728326	2545.719678
699.064214	2543.912424
699.400053	2545.560882
699.735842	2542.432846
700.071581	2544.174564
700.407270	2542.758000
700.742910	2544.509801
701.078501	2547.814277
701.414042	2544.471992
701.749533	2543.577187
702.084974	2544.023330
702.420366	2543.143648
702.755709	2544.613145
703.091002	2543.110881
703.426246	2544.761859
703.761440	2546.322096
704.096584	2540.184491
704.431679	2545.621375
704.766725	2542.485778
705.101721	2542.498381
705.436668	2542.742877
705.771565	2541.129707
706.106413	2543.519214
706.441212	2542.405119
706.775961	2544.167002
707.110661	2541.180119
707.445311	2545.601211
707.779913	2542.047197
708.114465	2544.109029
708.448967	2542.001827
708.783421	2544.608103
709.117825	2541.507794
709.452180	2542.783206
709.786485	2545.770089
710.120742	2543.894780
710.454949	2546.170861
710.789107	2541.991745
711.123216	2541.729605
711.457275	2545.568443
711.791286	2541.706919
712.125247	2541.724563
712.459159	2547.526932
712.793023	2548.227652
713.126837	2542.158103
713.460602	2545.230686
713.794318	2544.557692
714.127985	2545.482744
714.461602	2542.263967
714.795171	2546.357384
715.128691	2544.776982
715.462162	2544.315717
715.795584	2543.831766
716.128957	2542.516025
716.462281	2545.152548
716.795556	2543.367980
717.128782	2544.182126
717.461960	2540.945705
717.795088	2541.487629
718.128167	2543.622558
718.461198	2540.572660
718.794180	2542.987372
719.127113	2544.121632
719.459997	2542.969728
719.792833	2544.555171
720.125619	2544.272867
720.458357	2541.709440
720.791046	2541.046528
721.123686	2539.178781
721.456278	2543.264636
721.788821	2541.858154
722.121315	2544.088865
722.453761	2542.153062
722.786158	2543.075593
723.118506	2541.457382
723.450805	2544.459389
723.783056	2540.555016
724.115259	2544.154400
724.447412	2540.547454
724.779518	2540.870088
725.111574	2541.018802
725.443582	2542.052238
725.775542	2539.435880
726.107453	2543.194060
726.439315	2541.230530
726.771129	2544.403937
727.102895	2541.769934
727.434612	2545.076931
727.766281	2544.305634
728.097901	2538.760365
728.429473	2539.695499
728.760996	2538.873791
729.092471	2534.878677
729.423897	2541.104502
729.755276	2543.199101
730.086606	2543.662887
730.417887	2544.073741
730.749120	2540.789429
731.080305	2544.260264
731.411442	2540.353370
731.742530	2544.986190
732.073570	2544.782023
732.404562	2540.403781
732.735506	2542.352187
733.066401	2541.495191
733.397249	2542.412681
733.728048	2545.374359
734.058798	2542.815973
734.389501	2542.039636
734.720156	2544.416540
735.050762	2541.626261
735.381320	2542.727753
735.711831	2540.693647
736.042293	2540.930582
736.372707	2540.222300
736.703073	2541.621220
737.033391	2540.776827
737.363661	2541.848072
737.693883	2540.287835
738.024056	2544.421581
738.354182	2541.606096
738.684260	2540.923020
739.014290	2543.209183
739.344272	2544.242620
739.674207	2541.764893
740.004093	2538.939326
740.333931	2540.665921
740.663722	2542.740356
740.993464	2540.678524
741.323159	2544.144317
741.652806	2540.676003
741.982405	2540.751621
742.311956	2540.746580
742.641460	2542.846220
742.970915	2540.618030
743.300323	2541.709440
743.629683	2542.021992
743.958996	2542.929399
744.288260	2539.861857
744.617477	2539.549306
744.946647	2537.185004
745.275768	2540.086188
745.604842	2539.299768
745.933869	2532.605116
746.262847	2536.766589
746.591778	2541.487629
746.920662	2540.524769
747.249498	2542.581560
747.578286	2543.012578
747.907027	2539.876981
748.235720	2539.965201
748.564365	2543.020140
748.892963	2541.626261
749.221514	2543.143648
749.550017	2540.595345
749.878473	2539.272042
750.206881	2540.733977
750.535242	2539.425797
750.863555	2538.979655
751.191821	2543.027702
751.520039	2540.098791
751.848210	2542.125335
752.176334	2539.418236
752.504411	2539.977804
752.832440	2537.507638
753.160421	2539.826569
753.488356	2539.327495
753.816243	2541.386806
754.144082	2539.516538
754.471875	2539.685417
754.799620	2537.633667
755.127318	2538.737680
755.454969	2540.040818
755.782572	2539.231713
756.110129	2539.138452
756.437638	2538.954449
756.765100	2539.274563
757.092515	2541.084337
757.419882	2539.057793
757.747203	2539.072917
758.074477	2538.079809
758.401703	2540.091230
758.728882	2538.737680
759.056014	2540.050900
759.383099	2540.297917
759.710138	2540.549975
760.037129	2538.523431
760.364073	2540.544933
760.690970	2537.227854
761.017820	2537.553009
761.344623	2539.236754
761.671379	2537.066537
761.998088	2534.906403
762.324751	2538.868750
762.651366	2538.596528
762.977935	2544.774462
763.304456	2540.633154
763.630931	2547.635316
763.957359	2547.418547
764.283740	2545.455017
764.610074	2544.635830
764.936362	2541.487629
765.262602	2544.114070
765.588796	2540.983514
765.914943	2540.502084
766.241044	2539.627443
766.567097	2540.907897
766.893104	2539.599717
767.219064	2541.094419
767.544978	2536.779192
767.870845	2539.622402
768.196665	2537.941178
768.522438	2541.308668
768.848165	2536.506969
769.173846	2538.629295
769.499479	2538.835982
769.825066	2539.181301
770.150607	2537.008564
770.476101	2537.505118
770.801548	2538.941847
771.126949	2538.697351
771.452303	2537.250539
771.777611	2536.068389
772.102872	2538.142824
772.428087	2538.558719
772.753256	2536.600231
773.078378	2539.700540
773.403453	2534.525796
773.728482	2535.201310
774.053465	2536.577545
774.378401	2535.886907
774.703291	2536.300282
775.028135	2538.959491
775.352932	2537.815149
775.677683	2536.963194
776.002388	2539.718184
776.327046	2535.173584
776.651658	2537.845396
776.976224	2536.106197
777.300743	2533.636032
777.625216	2536.305323
777.949643	2537.689120
778.274024	2536.350693
778.598359	2536.005374
778.922647	2532.227030
779.246889	2534.182997
779.571086	2533.646114
779.895236	2534.563604
780.219339	2537.006043
780.543397	2538.135262
780.867409	2537.164840
781.191374	2537.028729
781.515294	2532.710980
781.839167	2536.784233
782.162995	2536.776671
782.486776	2536.005374
782.810511	2536.353214
783.134201	2535.738193
783.457844	2537.968904
783.781441	2536.103677
784.104993	2538.687268
784.428498	2537.006043
784.751958	2537.084181
785.075372	2536.537216
785.398739	2535.259284
785.722061	2536.237267
786.045337	2539.564429
786.368568	2537.701723
786.691752	2538.588966
787.014891	2537.442103
787.337983	2537.394212
787.661030	2539.816487
787.984031	2539.133410
788.306987	2537.789943
788.629897	2537.505118
788.952760	2537.805066
789.275579	2538.286497
789.598351	2537.406815
789.921078	2538.586445
790.243759	2536.834644
790.566395	2537.492515
790.888984	2537.164840
791.211529	2535.090405
791.534027	2538.795653
791.856480	2535.662576
792.178888	2535.541588
792.501249	2537.810107
792.823566	2534.404808
793.145836	2536.101156
793.468062	2535.622247
793.790241	2535.914634
794.112375	2536.017977
794.434464	2537.394212
794.756507	2535.062679
795.078505	2536.116280
795.400457	2535.208872
795.722364	2531.826258
796.044226	2535.400436
796.366042	2533.202493
796.687812	2535.944881
797.009538	2536.602751
797.331218	2537.157278
797.652852	2537.671476
797.974442	2536.486805
798.295986	2534.757689
798.617484	2535.753317
798.938938	2536.098636
799.260346	2539.272042
799.581709	2536.721218
799.903026	2540.557536
800.224299	2536.627957
800.545526	2535.927237
800.866708	2535.531506
801.187845	2538.178112
801.508936	2538.495704
801.829983	2536.254912
802.150984	2535.985210
802.471940	2537.416897
802.792851	2536.743903
803.113717	2536.552340
803.434538	2537.883204
803.755314	2535.574356
804.076045	2534.175436
804.396731	2534.467823
804.717372	2536.196938
805.037967	2537.389171
805.358518	2535.483615
805.679024	2537.764737
805.999485	2534.964376
806.319901	2537.295910
806.640272	2536.910262
806.960598	2537.774819
807.280879	2533.681402
807.601115	2537.936136
807.921306	2537.525282
808.241453	2536.338091
808.561554	2536.872453
808.881611	2536.433873
809.201623	2535.594520
809.521590	2537.379089
809.841513	2536.098636
810.161390	2538.747762
810.481223	2532.526978
810.801011	2536.385982
811.120755	2535.491177
811.440453	2535.743234
811.760107	2534.654345
812.079716	2533.434386
812.399281	2531.518748
812.718801	2534.460261
813.038276	2527.720238
813.357707	2535.163502
813.677093	2535.380271
813.996434	2536.408667
814.315731	2537.424459
814.634983	2533.091588
814.954191	2535.435724
815.273354	2534.243491
815.592473	2532.242153
815.911547	2534.901362
816.230577	2538.289017
816.549562	2535.818852
816.868502	2536.015457
817.187399	2535.203831
817.506250	2535.939839
817.825058	2538.084850
818.143821	2535.523944
818.462539	2539.365303
818.781213	2535.949922
819.099843	2537.646270
819.418429	2538.523431
819.736970	2537.825231
820.055466	2541.192722
820.373919	2540.071065
820.692327	2542.211035
821.010691	2543.360418
821.329011	2547.378217
821.647286	2560.709549
821.965517	2569.057700
822.283704	2576.619430
822.601847	2580.488516
822.919945	2570.680951
823.237999	2564.644169
823.556010	2560.943962
823.873976	2555.663354
824.191897	2551.554813
824.509775	2547.174051
824.827609	2547.867209
825.145398	2542.790768
825.463144	2546.072559
825.780845	2546.289328
826.098502	2545.581046
826.416116	2546.422919
826.733685	2552.673950
827.051210	2553.578837
827.368692	2552.719320
827.686129	2551.151521
828.003522	2546.064997
828.320872	2539.272042
828.638177	2539.781199
828.955439	2534.261135
829.272656	2534.276259
829.589830	2531.861546
829.906960	2535.423121
830.224046	2533.530168
830.541088	2538.094933
830.858086	2537.681558
831.175041	2537.326157
831.491952	2535.491177
831.808819	2537.613502
832.125642	2537.220292
832.442421	2537.346321
832.759157	2537.726928
833.075849	2540.053421
833.392497	2543.758669
833.709101	2544.535007
834.025662	2543.531817
834.342179	2539.768596
834.658653	2542.460572
834.975083	2538.495704
835.291469	2545.986859
835.607811	2537.311033
835.924110	2539.267001
836.240366	2536.391023
836.556578	2536.280117
836.872746	2536.806918
837.188871	2535.907072
837.504952	2535.667617
837.820990	2533.562935
838.136984	2533.850281
838.452935	2532.693336
838.768842	2536.080992
839.084706	2534.848430
839.400526	2537.071578
839.716303	2536.988399
840.032037	2538.967052
840.347727	2537.555529
840.663373	2535.728111
840.978977	2536.204500
841.294537	2535.939839
841.610054	2534.508152
841.925527	2535.745755
842.240957	2534.180477
842.556344	2535.546629
842.871687	2535.024870
843.186987	2535.450848
843.502244	2533.520086
843.817458	2533.774664
844.132629	2534.309026
844.447756	2531.700229
844.762840	2528.962883
845.077881	2529.751823
845.392879	2528.592358
845.707833	2533.278110
846.022745	2530.573531
846.337613	2536.398584
846.652438	2532.963038
846.967221	2531.097811
847.281960	2532.942873
847.596656	2533.260466
847.911309	2533.628470
848.225919	2534.079654
848.540485	2533.421783
848.855009	2533.341125
849.169490	2531.601927
849.483928	2532.010260
849.798323	2534.898841
850.112675	2530.180321
850.426984	2533.956145
850.741251	2534.606454
851.055474	2532.889941
851.369654	2535.463450
851.683792	2533.298275
851.997887	2535.387833
852.311938	2533.136958
852.625947	2533.613347
852.939914	2533.981351
853.253837	2535.198790
853.567718	2531.276772
853.881555	2534.631660
854.195350	2533.726773
854.509103	2533.557894
854.822812	2530.946577
855.136479	2532.032945
855.450103	2534.934129
855.763685	2534.999664
856.077224	2533.383974
856.390720	2532.206865
856.704173	2532.796680
857.017584	2534.742565
857.330953	2533.598223
857.644278	2533.189890
857.957561	2532.789118
858.270802	2534.697195
858.584000	2533.777184
858.897155	2532.612678
859.210268	2531.624612
859.523339	2533.731814
859.836367	2533.467153
860.149352	2533.280631
860.462295	2535.022349
860.775195	2529.711494
861.088054	2530.306350
861.400869	2534.150230
861.713642	2529.177132
862.026373	2532.952956
862.339062	2535.055117
862.651708	2534.132586
862.964312	2532.252235
863.276873	2534.540919
863.589392	2529.711494
863.901869	2535.657535
864.214303	2532.877338
864.526696	2533.320960
864.839045	2531.856505
865.151353	2532.196783
865.463619	2533.867925
865.775842	2535.292051
866.088023	2531.060002
866.400162	2532.882380
866.712258	2530.843233
867.024313	2534.901362
867.336325	2533.492359
867.648296	2534.238450
867.960224	2532.292565
868.272110	2535.503780
868.583954	2532.887421
868.895755	2532.811803
869.207515	2533.026052
869.519233	2535.962525
869.830909	2533.719211
870.142542	2534.808100
870.454134	2531.571680
870.765684	2534.286341
871.077191	2532.126207
871.388657	2535.478574
871.700081	2535.342463
872.011463	2533.431865
872.322803	2533.545291
872.634101	2533.615868
872.945357	2533.429345
873.256571	2535.420601
873.567744	2532.174097
873.878874	2534.792977
874.189963	2533.225178
874.501010	2535.768440
874.812015	2530.944056
875.122979	2533.961187
875.433900	2533.799870
875.744780	2534.591331
876.055618	2533.832637
876.366415	2533.895652
876.677169	2532.731145
876.987882	2532.239633
877.298554	2529.943387
877.609183	2531.135620
877.919771	2532.690816
878.230317	2533.446989
878.540822	2534.119983
878.851285	2536.547298
879.161707	2535.370189
879.472087	2534.407329
879.782425	2537.235416
880.092722	2536.945550
880.402977	2541.961498
880.713191	2546.954761
881.023363	2551.678322
881.333494	2559.227450
881.643583	2560.954045
881.953631	2559.106462
882.263637	2559.235011
882.573602	2554.224104
882.883526	2553.931717
883.193408	2548.136911
883.503248	2544.683721
883.813048	2544.875285
884.122806	2544.955943
884.432522	2541.580891
884.742197	2539.135931
885.051831	2539.965201
885.361424	2534.752648
885.670975	2539.319933
885.980485	2535.607123
886.289954	2536.270035
886.599382	2535.637370
886.908768	2535.299613
887.218113	2535.103008
887.527417	2533.673841
887.836680	2534.548481
888.145901	2534.470343
888.455082	2533.139478
888.764221	2532.945394
889.073319	2532.249715
889.382376	2533.179808
889.691392	2533.968748
890.000366	2532.209386
890.309300	2534.019160
890.618193	2533.333563
890.927044	2535.649973
891.235855	2535.138296
891.544625	2533.600744
891.853353	2531.027235
892.162041	2533.162164
892.470687	2534.679551
892.779293	2533.222657
893.087858	2534.757689
893.396381	2530.812986
893.704864	2535.947401
894.013306	2532.456402
894.321707	2534.518234
894.630068	2542.415202
894.938387	2540.018133
895.246665	2542.999975
895.554903	2544.098947
895.863100	2541.545603
896.171256	2538.205838
896.479371	2536.965714
896.787446	2536.436393
897.095480	2534.714839
897.403473	2535.574356
897.711425	2535.909592
898.019336	2534.651825
898.327207	2534.838347
898.635038	2534.228368
898.942827	2533.588141
899.250576	2532.025383
899.558284	2533.021011
899.865952	2532.476567
900.173579	2533.356248
900.481165	2533.157122
900.788711	2532.819365
901.096216	2533.845240
901.403681	2531.304498
901.711105	2532.882380
902.018489	2531.155784
902.325832	2536.743903
902.633135	2533.522606
902.940397	2534.127545
903.247619	2532.731145
903.554800	2535.869263
903.861941	2541.172557
904.169041	2542.485778
904.476101	2543.683052
904.783121	2542.165664
905.090100	2542.470654
905.397039	2539.635005
905.703938	2536.375899
906.010796	2535.896990
906.317614	2533.963707
906.624391	2535.143337
906.931129	2535.508821
907.237826	2532.060672
907.544483	2533.663758
907.851099	2535.191228
908.157675	2533.565456
908.464211	2534.704757
908.770707	2528.211751
909.077163	2531.002029
909.383578	2528.466329
909.689954	2530.389529
909.996289	2528.017666
910.302584	2533.121834
910.608839	2530.606299
910.915054	2534.334232
911.221229	2532.201824
911.527363	2530.613860
911.833458	2535.297092
912.139513	2533.517565
912.445527	2531.846422
912.751502	2532.418593
913.057436	2532.796680
913.363331	2531.997657
913.669186	2530.976823
913.975000	2531.236443
914.280775	2530.576052
914.586510	2534.545960
914.892205	2535.728111
915.197859	2538.470499
915.503475	2536.761547
915.809050	2541.485109
916.114585	2542.523586
916.420081	2543.504091
916.725536	2541.401930
917.030952	2543.229348
917.336328	2539.713143
917.641665	2539.022505
917.946961	2540.497042
918.252218	2536.383461
918.557435	2536.012936
918.862612	2535.186187
919.167750	2535.193749
919.472848	2535.115611
919.777906	2534.737524
920.082925	2534.031763
920.387904	2531.158305
920.692843	2533.641073
920.997743	2532.348017
921.302603	2532.761392
921.607423	2532.519417
921.912204	2534.354397
922.216946	2531.785929
922.521647	2530.175280
922.826310	2528.854498
923.130932	2536.635519
923.435516	2532.955476
923.740059	2530.437420
924.044564	2531.359951
924.349028	2532.524458
924.653454	2525.189579
924.957840	2526.981709
925.262186	2525.028262
925.566493	2528.806607
925.870761	2527.296781
926.174989	2530.971782
926.479178	2532.156453
926.783328	2529.512368
927.087438	2531.808614
927.391509	2529.441792
927.695541	2529.953469
927.999533	2531.894313
928.303486	2528.262162
928.607400	2531.077647
928.911275	2530.666792
929.215110	2530.195445
929.518906	2529.388860
929.822663	2529.116638
930.126381	2527.934487
930.430060	2530.180321
930.733699	2531.140661
931.037299	2530.863397
931.340861	2530.845753
931.644383	2529.381298
931.947866	2531.465815
932.251309	2532.219468
932.554714	2532.456402
932.858080	2532.101001
933.161407	2528.534384
933.464694	2531.054961
933.767943	2532.045548
934.071153	2532.340456
934.374323	2530.026566
934.677455	2530.109745
934.980548	2531.748120
935.283602	2532.332894
935.586617	2529.532533
935.889593	2528.761236
936.192530	2532.131248
936.495428	2529.562780
936.798287	2532.572349
937.101108	2532.574869
937.403890	2529.487163
937.706632	2532.201824
938.009336	2529.272913
938.312002	2533.033614
938.614628	2528.725948
938.917216	2531.070085
939.219765	2528.128572
939.522275	2528.698222
939.824747	2532.559746
940.127179	2528.662934
940.429573	2526.888448
940.731929	2528.592358
941.034246	2525.834847
941.336524	2531.294416
941.638763	2531.145702
941.940964	2532.093439
942.243126	2530.807945
942.545250	2529.411545
942.847335	2530.104704
943.149381	2526.757378
943.451389	2529.847605
943.753359	2530.649148
944.055290	2528.673016
944.357182	2530.162677
944.659036	2532.746268
944.960851	2531.911958
945.262628	2532.108563
945.564367	2529.567821
945.866067	2528.834333
946.167729	2530.429858
946.469352	2526.870804
946.770937	2530.790301
947.072484	2528.602440
947.373992	2530.946577
947.675462	2529.625794
947.976893	2528.148736
948.278286	2531.750641
948.579641	2529.668644
948.880958	2531.438089
949.182236	2530.714683
949.483476	2531.266690
949.784678	2530.132430
950.085841	2531.261649
950.386967	2529.535053
950.688054	2528.022707
950.989103	2530.339118
951.290114	2527.705115
951.591087	2531.226361
951.892021	2529.792152
952.192917	2528.408356
952.493776	2527.722759
952.794596	2532.015301
953.095378	2532.862215
953.396122	2531.279293
953.696828	2529.482121
953.997496	2530.308871
954.298126	2527.483304
954.598718	2530.679395
954.899272	2529.265352
955.199788	2529.855167
955.500266	2529.925743
955.800706	2523.715041
956.101108	2524.740916
956.401472	2528.168901
956.701798	2527.828623
957.002087	2527.626977
957.302337	2528.867101
957.602550	2530.956659
957.902724	2526.888448
958.202861	2529.285516
958.502960	2529.300640
958.803022	2527.218643
959.103045	2529.827440
959.403031	2529.318284
959.702979	2528.176462
960.002889	2530.233253
960.302762	2529.925743
960.602596	2531.801052
960.902393	2530.271062
961.202153	2529.522451
961.501875	2528.844415
961.801559	2529.829961
962.101205	2527.813499
962.400814	2528.990609
962.700385	2529.179652
962.999918	2529.411545
963.299414	2527.997502
963.598873	2531.821217
963.898293	2528.720907
964.197677	2528.105886
964.497022	2529.945907
964.796331	2527.871473
965.095601	2528.927594
965.394835	2529.734179
965.694030	2528.720907
965.993189	2530.172759
966.292309	2529.358613
966.591393	2530.737369
966.890439	2529.431710
967.189447	2527.866432
967.488419	2529.996319
967.787353	2529.393901
968.086249	2528.529343
968.385108	2529.109076
968.683930	2526.641431
968.982714	2528.889786
969.281462	2528.834333
969.580172	2528.491535
969.878844	2526.908612
970.177480	2526.873324
970.476078	2528.511699
970.774639	2527.309384
971.073162	2528.602440
971.371649	2526.069260
971.670098	2524.574558
971.968510	2526.434744
972.266885	2524.597243
972.565223	2531.738038
972.863524	2528.236956
973.161788	2528.516740
973.460014	2530.210568
973.758204	2527.518592
974.056356	2528.930115
974.354471	2530.278624
974.652550	2529.472039
974.950591	2530.089580
975.248595	2528.814168
975.546563	2527.601771
975.844493	2528.741072
976.142386	2527.453057
976.440243	2529.671165
976.738062	2529.908099
977.035845	2528.370547
977.333590	2526.855680
977.631299	2526.807789
977.928971	2529.729138
978.226606	2527.385001
978.524204	2528.738551
978.821765	2525.648324
979.119290	2528.809127
979.416777	2529.351051
979.714228	2529.502286
980.011642	2529.071267
980.309020	2531.044879
980.606360	2527.059847
980.903664	2527.531195
981.200931	2524.209074
981.498162	2526.464991
981.795356	2526.785104
982.092513	2530.649148
982.389633	2530.691998
982.686717	2529.449354
982.983764	2529.552697
983.280775	2530.550846
983.577749	2529.973634
983.874686	2531.256607
984.171587	2528.869621
984.468451	2530.364323
984.765279	2529.071267
985.062070	2530.029087
985.358824	2525.519774
985.655543	2525.953314
985.952224	2528.247039
986.248869	2530.323994
986.545478	2522.890813
986.842050	2526.701925
987.138586	2526.144878
987.435086	2525.020700
987.731549	2525.421472
988.027975	2529.676206
988.324366	2527.649662
988.620719	2528.952800
988.917037	2527.183355
989.213318	2529.532533
989.509563	2529.270393
989.805772	2527.100176
990.101944	2528.592358
990.398080	2528.042872
990.694180	2526.840557
990.990244	2527.984899
991.286271	2527.339631
991.582262	2529.701412
991.878217	2528.289888
992.174136	2527.873993
992.470019	2528.851977
992.765865	2527.130423
993.061676	2528.468849
993.357450	2528.489014
993.653188	2527.836185
993.948890	2528.730989
994.244556	2529.580424
994.540186	2527.984899
994.835780	2528.685619
995.131337	2528.443644
995.426859	2529.572862
995.722345	2529.502286
996.017795	2524.897192
996.313208	2529.532533
996.608586	2528.272244
996.903928	2529.411545
997.199234	2529.582944
997.494504	2527.808458
997.789738	2529.850126
998.084936	2527.561442
998.380099	2526.099507
998.675225	2525.466842
998.970316	2527.531195
999.265371	2527.231246
999.560390	2527.110258
999.855373	2528.209230
1000.150320	2528.738551
1000.445232	2528.960362
1000.740108	2526.654034
1001.034948	2526.901051
1001.329752	2526.182686
1001.624521	2526.492717
1001.919254	2526.969106
1002.213951	2524.660258
1002.508613	2524.491379
1002.803239	2526.112110
1003.097829	2523.445340
1003.392384	2526.089425
1003.686903	2527.221164
1003.981386	2527.059847
1004.275834	2527.226205
1004.570246	2528.405835
1004.864623	2529.162008
1005.158964	2527.324507
1005.453270	2529.983716
1005.747540	2527.591689
1006.041775	2524.816533
1006.335974	2529.209899
1006.630138	2527.069929
1006.924266	2527.316946
1007.218359	2527.591689
1007.512416	2526.956503
1007.806438	2529.454395
1008.100425	2528.587317
1008.394376	2529.961031
1008.688292	2528.758716
1008.982172	2524.619928
1009.276017	2527.347193
1009.569827	2527.458098
1009.863602	2527.785773
1010.157341	2527.261493
1010.451045	2527.206040
1010.744714	2526.764939
1011.038347	2526.555732
1011.331945	2525.280320
1011.625508	2527.994981
1011.919036	2525.824764
1012.212528	2527.818541
1012.505986	2525.953314
1012.799408	2528.433561
1013.092795	2526.144877
1013.386147	2526.661596
1013.679464	2525.234949
1013.972745	2526.467511
1014.265992	2528.123530
1014.559204	2527.148067
1014.852380	2526.838036
1015.145521	2527.563962
1015.438628	2525.920546
1015.731699	2529.749302
1016.024736	2528.940197
1016.317737	2527.589168
1016.610703	2527.977337
1016.903635	2526.666637
1017.196531	2525.701256
1017.489393	2524.166225
1017.782219	2524.604805
1018.075011	2525.597912
1018.367768	2526.172604
1018.660490	2528.473891
1018.953177	2528.473891
1019.245829	2528.473891
