Dividing Wavelength (nm)	Counts (n)	Blue Motor Position (mm): 0.000000	Red Motor Position (mm): 9.900000	
326.493990	2137.449231
326.888308	2137.449231
327.282561	2137.449231
327.676750	2092.078846
328.070874	2127.366923
328.464933	2036.626154
328.858929	2054.270192
329.252859	2114.764038
329.646726	2074.434808
330.040528	2051.749615
330.434265	2107.202308
330.827938	2124.846346
331.221547	2150.052115
331.615091	2200.463654
332.008571	2185.340192
332.401986	2142.490385
332.795338	2145.010962
333.188625	2248.354615
333.581847	2208.025385
333.975006	2371.862885
334.368100	2265.998654
334.761129	2316.410192
335.154095	2313.889615
335.546996	2379.424615
335.939833	2379.424615
336.332606	2381.945192
336.725315	2361.780577
337.117960	2422.274423
337.510540	2444.959615
337.903056	2460.083077
338.295508	2450.000769
338.687896	2414.712692
339.080220	2450.000769
339.472480	2528.138654
339.864676	2399.589231
340.256807	2465.124231
340.648875	2507.974038
341.040879	2520.576923
341.432818	2432.356731
341.824694	2510.494615
342.216506	2462.603654
342.608253	2563.426731
342.999937	2480.247692
343.391557	2530.659231
343.783113	2540.741538
344.174605	2530.659231
344.566033	2480.247692
344.957397	2510.494615
345.348697	2424.795000
345.739934	2455.041923
346.131106	2439.918462
346.522215	2485.288846
346.913260	2475.206538
347.304241	2467.644808
347.695159	2457.562500
348.086012	2500.412308
348.476802	2462.603654
348.867528	2422.274423
349.258191	2427.315577
349.648789	2467.644808
350.039324	2439.918462
350.429796	2540.741538
350.820203	2414.712692
351.210548	2437.397885
351.600828	2487.809423
351.991045	2384.465769
352.381198	2455.041923
352.771288	2467.644808
353.161314	2457.562500
353.551276	2437.397885
353.941175	2432.356731
354.331010	2341.615962
354.720782	2457.562500
355.110490	2407.150962
355.500135	2457.562500
355.889717	2419.753846
356.279235	2465.124231
356.668689	2502.932885
357.058080	2412.192115
357.447408	2361.780577
357.836672	2570.988462
358.225873	2402.109808
358.615010	2475.206538
359.004084	2439.918462
359.393095	2404.630385
359.782043	2530.659231
360.170927	2470.165385
360.559748	2386.986346
360.948505	2505.453462
361.337199	2407.150962
361.725830	2434.877308
362.114398	2424.795000
362.502903	2452.521346
362.891344	2452.521346
363.279722	2538.220962
363.668037	2402.109808
364.056289	2472.685962
364.444478	2570.988462
364.832603	2475.206538
365.220665	2402.109808
365.608665	2505.453462
365.996601	2460.083077
366.384474	2465.124231
366.772284	2507.974038
367.160031	2520.576923
367.547715	2507.974038
367.935336	2460.083077
368.322893	2452.521346
368.710388	2548.303269
369.097820	2455.041923
369.485189	2482.768269
369.872495	2460.083077
370.259738	2384.465769
370.646918	2497.891731
371.034035	2452.521346
371.421090	2490.330000
371.808081	2414.712692
372.195010	2417.233269
372.581875	2447.480192
372.968678	2429.836154
373.355418	2480.247692
373.742096	2477.727115
374.128710	2392.027500
374.515262	2533.179808
374.901751	2540.741538
375.288177	2434.877308
375.674540	2558.385577
376.060841	2414.712692
376.447079	2490.330000
376.833254	2455.041923
377.219367	2447.480192
377.605417	2432.356731
377.991404	2507.974038
378.377329	2429.836154
378.763191	2397.068654
379.148991	2482.768269
379.534727	2384.465769
379.920402	2472.685962
380.306013	2394.548077
380.691563	2392.027500
381.077049	2439.918462
381.462474	2402.109808
381.847835	2470.165385
382.233134	2477.727115
382.618371	2455.041923
383.003545	2455.041923
383.388657	2500.412308
383.773706	2500.412308
384.158693	2523.097500
384.543618	2543.262115
384.928480	2482.768269
385.313280	2434.877308
385.698017	2545.782692
386.082692	2515.535769
386.467305	2485.288846
386.851856	2460.083077
387.236344	2442.439038
387.620770	2472.685962
388.005133	2402.109808
388.389435	2442.439038
388.773674	2530.659231
389.157851	2439.918462
389.541965	2485.288846
389.926018	2480.247692
390.310008	2495.371154
390.693936	2490.330000
391.077802	2460.083077
391.461606	2462.603654
391.845348	2450.000769
392.229027	2492.850577
392.612645	2460.083077
392.996200	2465.124231
393.379694	2586.111923
393.763125	2460.083077
394.146494	2470.165385
394.529801	2450.000769
394.913047	2518.056346
395.296230	2462.603654
395.679351	2500.412308
396.062410	2460.083077
396.445408	2515.535769
396.828343	2437.397885
397.211217	2384.465769
397.594028	2424.795000
397.976778	2450.000769
398.359466	2477.727115
398.742092	2502.932885
399.124656	2462.603654
399.507158	2487.809423
399.889598	2510.494615
400.271977	2497.891731
400.654294	2434.877308
401.036549	2394.548077
401.418742	2523.097500
401.800874	2480.247692
402.182944	2447.480192
402.564952	2482.768269
402.946898	2533.179808
403.328783	2530.659231
403.710606	2505.453462
404.092367	2528.138654
404.474067	2419.753846
404.855705	2540.741538
405.237282	2470.165385
405.618797	2502.932885
406.000250	2447.480192
406.381642	2460.083077
406.762972	2525.618077
407.144240	2450.000769
407.525447	2414.712692
407.906593	2588.632500
408.287677	2475.206538
408.668700	2482.768269
409.049661	2424.795000
409.430560	2492.850577
409.811399	2432.356731
410.192176	2462.603654
410.572891	2535.700385
410.953545	2437.397885
411.334138	2485.288846
411.714669	2429.836154
412.095139	2601.235385
412.475547	2492.850577
412.855894	2528.138654
413.236180	2482.768269
413.616405	2470.165385
413.996568	2545.782692
414.376670	2510.494615
414.756711	2588.632500
415.136691	2439.918462
415.516609	2520.576923
415.896466	2492.850577
416.276262	2434.877308
416.655997	2412.192115
417.035670	2510.494615
417.415283	2424.795000
417.794834	2460.083077
418.174324	2507.974038
418.553753	2450.000769
418.933121	2530.659231
419.312428	2543.262115
419.691674	2510.494615
420.070859	2472.685962
420.449983	2480.247692
420.829045	2500.412308
421.208047	2470.165385
421.586988	2495.371154
421.965867	2455.041923
422.344686	2505.453462
422.723444	2505.453462
423.102141	2530.659231
423.480777	2533.179808
423.859352	2447.480192
424.237866	2482.768269
424.616319	2482.768269
424.994712	2374.383462
425.373044	2485.288846
425.751314	2447.480192
426.129524	2444.959615
426.507673	2470.165385
426.885762	2502.932885
427.263789	2538.220962
427.641756	2513.015192
428.019662	2457.562500
428.397508	2444.959615
428.775292	2465.124231
429.153016	2427.315577
429.530679	2434.877308
429.908282	2472.685962
430.285824	2492.850577
430.663305	2492.850577
431.040726	2487.809423
431.418086	2402.109808
431.795385	2520.576923
432.172624	2455.041923
432.549802	2525.618077
432.926920	2518.056346
433.303977	2505.453462
433.680974	2450.000769
434.057910	2442.439038
434.434786	2528.138654
434.811601	2462.603654
435.188355	2462.603654
435.565050	2515.535769
435.941683	2505.453462
436.318257	2462.603654
436.694770	2545.782692
437.071222	2399.589231
437.447614	2507.974038
437.823946	2477.727115
438.200218	2550.823846
438.576429	2452.521346
438.952580	2520.576923
439.328670	2563.426731
439.704700	2437.397885
440.080670	2555.865000
440.456580	2455.041923
440.832429	2369.342308
441.208218	2480.247692
441.583947	2437.397885
441.959616	2482.768269
442.335224	2432.356731
442.710773	2505.453462
443.086261	2515.535769
443.461689	2427.315577
443.837057	2424.795000
444.212365	2450.000769
444.587612	2457.562500
444.962800	2487.809423
445.337927	2513.015192
445.712995	2482.768269
446.088002	2414.712692
446.462949	2487.809423
446.837837	2533.179808
447.212664	2500.412308
447.587431	2586.111923
447.962139	2502.932885
448.336786	2402.109808
448.711374	2419.753846
449.085901	2510.494615
449.460369	2492.850577
449.834776	2525.618077
450.209124	2525.618077
450.583412	2515.535769
450.957640	2444.959615
451.331808	2530.659231
451.705917	2533.179808
452.079965	2487.809423
452.453954	2482.768269
452.827883	2538.220962
453.201752	2465.124231
453.575562	2505.453462
453.949311	2492.850577
454.323001	2455.041923
454.696632	2543.262115
455.070202	2528.138654
455.443713	2523.097500
455.817164	2485.288846
456.190556	2467.644808
456.563888	2555.865000
456.937160	2432.356731
457.310373	2555.865000
457.683526	2538.220962
458.056619	2502.932885
458.429653	2412.192115
458.802628	2550.823846
459.175542	2477.727115
459.548398	2452.521346
459.921194	2500.412308
460.293930	2444.959615
460.666607	2475.206538
461.039224	2482.768269
461.411782	2535.700385
461.784280	2480.247692
462.156719	2502.932885
462.529099	2457.562500
462.901419	2460.083077
463.273680	2543.262115
463.645882	2439.918462
464.018024	2480.247692
464.390106	2538.220962
464.762130	2439.918462
465.134094	2560.906154
465.505999	2444.959615
465.877845	2586.111923
466.249631	2437.397885
466.621358	2439.918462
466.993026	2570.988462
467.364634	2543.262115
467.736184	2518.056346
468.107674	2487.809423
468.479105	2495.371154
468.850477	2460.083077
469.221790	2535.700385
469.593043	2437.397885
469.964238	2533.179808
470.335373	2497.891731
470.706449	2535.700385
471.077467	2467.644808
471.448425	2497.891731
471.819324	2460.083077
472.190164	2507.974038
472.560945	2523.097500
472.931667	2507.974038
473.302330	2507.974038
473.672934	2525.618077
474.043479	2492.850577
474.413965	2470.165385
474.784393	2472.685962
475.154761	2492.850577
475.525070	2523.097500
475.895321	2439.918462
476.265513	2560.906154
476.635645	2611.317692
477.005719	2540.741538
477.375734	2535.700385
477.745691	2485.288846
478.115588	2465.124231
478.485427	2535.700385
478.855207	2444.959615
479.224928	2513.015192
479.594591	2437.397885
479.964194	2553.344423
480.333739	2528.138654
480.703226	2563.426731
481.072653	2540.741538
481.442022	2447.480192
481.811333	2490.330000
482.180584	2482.768269
482.549777	2520.576923
482.918912	2480.247692
483.287988	2518.056346
483.657005	2485.288846
484.025964	2525.618077
484.394864	2515.535769
484.763706	2465.124231
485.132489	2457.562500
485.501213	2523.097500
485.869879	2472.685962
486.238487	2452.521346
486.607036	2487.809423
486.975527	2507.974038
487.343959	2490.330000
487.712333	2495.371154
488.080648	2500.412308
488.448905	2553.344423
488.817104	2502.932885
489.185244	2485.288846
489.553326	2477.727115
489.921350	2475.206538
490.289315	2525.618077
490.657222	2480.247692
491.025070	2507.974038
491.392861	2472.685962
491.760593	2543.262115
492.128267	2593.673654
492.495883	2455.041923
492.863440	2507.974038
493.230939	2505.453462
493.598380	2409.671538
493.965763	2510.494615
494.333088	2513.015192
494.700354	2502.932885
495.067563	2442.439038
495.434713	2495.371154
495.801805	2434.877308
496.168839	2460.083077
496.535815	2555.865000
496.902733	2540.741538
497.269593	2513.015192
497.636395	2482.768269
498.003139	2500.412308
498.369825	2487.809423
498.736453	2470.165385
499.103023	2434.877308
499.469535	2480.247692
499.835989	2485.288846
500.202385	2462.603654
500.568723	2550.823846
500.935003	2462.603654
501.301226	2429.836154
501.667390	2462.603654
502.033497	2389.506923
502.399546	2570.988462
502.765537	2495.371154
503.131470	2495.371154
503.497345	2490.330000
503.863163	2510.494615
504.228923	2505.453462
504.594625	2427.315577
504.960269	2563.426731
505.325856	2495.371154
505.691385	2439.918462
506.056856	2437.397885
506.422270	2502.932885
506.787625	2565.947308
507.152924	2442.439038
507.518164	2490.330000
507.883347	2513.015192
508.248472	2460.083077
508.613540	2437.397885
508.978550	2470.165385
509.343503	2475.206538
509.708398	2455.041923
510.073236	2565.947308
510.438016	2477.727115
510.802738	2550.823846
511.167403	2452.521346
511.532010	2407.150962
511.896561	2533.179808
512.261053	2437.397885
512.625488	2500.412308
512.989866	2596.194231
513.354186	2497.891731
513.718449	2520.576923
514.082655	2412.192115
514.446803	2591.153077
514.810894	2492.850577
515.174927	2472.685962
515.538904	2475.206538
515.902822	2460.083077
516.266684	2434.877308
516.630488	2520.576923
516.994235	2576.029615
517.357925	2472.685962
517.721558	2545.782692
518.085133	2573.509038
518.448651	2455.041923
518.812112	2513.015192
519.175516	2510.494615
519.538863	2507.974038
519.902152	2555.865000
520.265385	2513.015192
520.628560	2540.741538
520.991678	2409.671538
521.354739	2497.891731
521.717743	2447.480192
522.080690	2510.494615
522.443580	2591.153077
522.806413	2465.124231
523.169189	2417.233269
523.531908	2492.850577
523.894569	2495.371154
524.257174	2439.918462
524.619722	2573.509038
524.982213	2533.179808
525.344647	2490.330000
525.707025	2553.344423
526.069345	2520.576923
526.431608	2530.659231
526.793815	2520.576923
527.155964	2495.371154
527.518057	2535.700385
527.880093	2490.330000
528.242072	2404.630385
528.603995	2500.412308
528.965860	2472.685962
529.327669	2472.685962
529.689421	2550.823846
530.051117	2568.467885
530.412755	2520.576923
530.774337	2465.124231
531.135862	2530.659231
531.497331	2455.041923
531.858743	2538.220962
532.220098	2439.918462
532.581396	2477.727115
532.942638	2611.317692
533.303824	2548.303269
533.664953	2528.138654
534.026025	2434.877308
534.387040	2457.562500
534.747999	2414.712692
535.108902	2523.097500
535.469748	2543.262115
535.830537	2497.891731
536.191270	2528.138654
536.551947	2553.344423
536.912567	2495.371154
537.273131	2439.918462
537.633638	2548.303269
537.994089	2502.932885
538.354483	2586.111923
538.714821	2492.850577
539.075103	2560.906154
539.435328	2462.603654
539.795497	2525.618077
540.155609	2417.233269
540.515665	2455.041923
540.875665	2490.330000
541.235609	2550.823846
541.595496	2427.315577
541.955328	2563.426731
542.315102	2386.986346
542.674821	2515.535769
543.034483	2450.000769
543.394090	2543.262115
543.753640	2465.124231
544.113134	2543.262115
544.472571	2538.220962
544.831953	2525.618077
545.191278	2480.247692
545.550548	2583.591346
545.909761	2520.576923
546.268918	2543.262115
546.628019	2583.591346
546.987064	2465.124231
547.346053	2490.330000
547.704986	2409.671538
548.063863	2510.494615
548.422684	2540.741538
548.781449	2472.685962
549.140158	2490.330000
549.498811	2424.795000
549.857408	2505.453462
550.215949	2510.494615
550.574434	2555.865000
550.932864	2515.535769
551.291237	2502.932885
551.649555	2487.809423
552.007817	2404.630385
552.366022	2422.274423
552.724173	2497.891731
553.082267	2495.371154
553.440305	2402.109808
553.798288	2533.179808
554.156215	2596.194231
554.514086	2487.809423
554.871902	2593.673654
555.229661	2515.535769
555.587365	2515.535769
555.945014	2533.179808
556.302606	2427.315577
556.660143	2465.124231
557.017625	2447.480192
557.375050	2462.603654
557.732421	2500.412308
558.089735	2497.891731
558.446994	2518.056346
558.804197	2528.138654
559.161345	2545.782692
559.518437	2424.795000
559.875474	2467.644808
560.232455	2437.397885
560.589381	2548.303269
560.946251	2548.303269
561.303065	2558.385577
561.659825	2472.685962
562.016528	2507.974038
562.373177	2523.097500
562.729770	2507.974038
563.086307	2568.467885
563.442789	2525.618077
563.799216	2558.385577
564.155587	2465.124231
564.511904	2417.233269
564.868164	2523.097500
565.224370	2432.356731
565.580520	2492.850577
565.936615	2467.644808
566.292654	2502.932885
566.648638	2439.918462
567.004567	2565.947308
567.360441	2565.947308
567.716260	2507.974038
568.072023	2444.959615
568.427732	2555.865000
568.783385	2477.727115
569.138982	2548.303269
569.494525	2502.932885
569.850013	2497.891731
570.205445	2422.274423
570.560823	2553.344423
570.916145	2487.809423
571.271412	2560.906154
571.626625	2437.397885
571.981782	2576.029615
572.336884	2465.124231
572.691931	2533.179808
573.046923	2520.576923
573.401860	2523.097500
573.756743	2533.179808
574.111570	2538.220962
574.466342	2465.124231
574.821059	2505.453462
575.175722	2500.412308
575.530330	2429.836154
575.884882	2518.056346
576.239380	2407.150962
576.593823	2467.644808
576.948211	2475.206538
577.302544	2510.494615
577.656823	2538.220962
578.011047	2452.521346
578.365216	2558.385577
578.719330	2477.727115
579.073389	2565.947308
579.427394	2523.097500
579.781344	2475.206538
580.135239	2442.439038
580.489080	2543.262115
580.842866	2523.097500
581.196597	2510.494615
581.550273	2588.632500
581.903895	2399.589231
582.257463	2429.836154
582.610975	2540.741538
582.964434	2530.659231
583.317837	2523.097500
583.671186	2434.877308
584.024481	2490.330000
584.377721	2520.576923
584.730906	2515.535769
585.084037	2530.659231
585.437113	2518.056346
585.790135	2520.576923
586.143103	2490.330000
586.496016	2578.550192
586.848874	2480.247692
587.201679	2442.439038
587.554428	2515.535769
587.907124	2450.000769
588.259765	2457.562500
588.612352	2490.330000
588.964884	2515.535769
589.317362	2452.521346
589.669786	2424.795000
590.022155	2518.056346
590.374470	2520.576923
590.726731	2528.138654
591.078937	2485.288846
591.431090	2563.426731
591.783188	2437.397885
592.135232	2485.288846
592.487222	2497.891731
592.839157	2528.138654
593.191038	2490.330000
593.542866	2492.850577
593.894639	2386.986346
594.246358	2538.220962
594.598022	2528.138654
594.949633	2465.124231
595.301190	2495.371154
595.652692	2467.644808
596.004141	2533.179808
596.355535	2553.344423
596.706876	2543.262115
597.058162	2462.603654
597.409395	2523.097500
597.760573	2515.535769
598.111698	2576.029615
598.462768	2515.535769
598.813785	2505.453462
599.164748	2535.700385
599.515657	2507.974038
599.866511	2467.644808
600.217312	2472.685962
600.568060	2447.480192
600.918753	2543.262115
601.269392	2452.521346
601.619978	2507.974038
601.970510	2480.247692
602.320988	2523.097500
602.671412	2495.371154
603.021783	2444.959615
603.372100	2457.562500
603.722363	2540.741538
604.072572	2540.741538
604.422728	2482.768269
604.772830	2507.974038
605.122878	2477.727115
605.472872	2379.424615
605.822813	2450.000769
606.172701	2560.906154
606.522534	2538.220962
606.872314	2528.138654
607.222041	2475.206538
607.571714	2495.371154
607.921333	2470.165385
608.270899	2467.644808
608.620411	2513.015192
608.969870	2477.727115
609.319276	2407.150962
609.668627	2586.111923
610.017926	2507.974038
610.367171	2515.535769
610.716362	2492.850577
611.065500	2442.439038
611.414585	2513.015192
611.763616	2543.262115
612.112594	2492.850577
612.461518	2480.247692
612.810389	2490.330000
613.159207	2475.206538
613.507971	2389.506923
613.856682	2500.412308
614.205340	2460.083077
614.553945	2520.576923
614.902496	2442.439038
615.250994	2374.383462
615.599439	2500.412308
615.947830	2434.877308
616.296169	2510.494615
616.644454	2581.070769
616.992686	2538.220962
617.340864	2591.153077
617.688990	2528.138654
618.037063	2495.371154
618.385082	2520.576923
618.733048	2442.439038
619.080961	2480.247692
619.428821	2578.550192
619.776628	2518.056346
620.124382	2535.700385
620.472083	2555.865000
620.819731	2480.247692
621.167326	2467.644808
621.514868	2477.727115
621.862357	2422.274423
622.209793	2497.891731
622.557176	2465.124231
622.904506	2523.097500
623.251783	2437.397885
623.599007	2530.659231
623.946179	2482.768269
624.293297	2538.220962
624.640363	2525.618077
624.987376	2548.303269
625.334336	2419.753846
625.681243	2475.206538
626.028097	2487.809423
626.374899	2513.015192
626.721647	2462.603654
627.068343	2490.330000
627.414987	2462.603654
627.761577	2533.179808
628.108115	2505.453462
628.454600	2460.083077
628.801032	2505.453462
629.147412	2515.535769
629.493739	2414.712692
629.840014	2558.385577
630.186236	2475.206538
630.532405	2457.562500
630.878521	2467.644808
631.224585	2452.521346
631.570597	2518.056346
631.916556	2528.138654
632.262462	2482.768269
632.608316	2452.521346
632.954117	2460.083077
633.299866	2538.220962
633.645562	2467.644808
633.991206	2535.700385
634.336797	2540.741538
634.682336	2530.659231
635.027823	2417.233269
635.373257	2558.385577
635.718639	2502.932885
636.063968	2525.618077
636.409245	2450.000769
636.754470	2558.385577
637.099642	2513.015192
637.444762	2525.618077
637.789829	2507.974038
638.134845	2465.124231
638.479808	2477.727115
638.824719	2460.083077
639.169577	2507.974038
639.514383	2608.797115
639.859137	2518.056346
640.203839	2543.262115
640.548489	2530.659231
640.893086	2523.097500
641.237632	2533.179808
641.582125	2492.850577
641.926566	2520.576923
642.270955	2550.823846
642.615292	2535.700385
642.959576	2500.412308
643.303809	2505.453462
643.647990	2555.865000
643.992118	2470.165385
644.336195	2452.521346
644.680219	2520.576923
645.024192	2402.109808
645.368112	2518.056346
645.711981	2500.412308
646.055797	2444.959615
646.399562	2450.000769
646.743274	2455.041923
647.086935	2457.562500
647.430544	2500.412308
647.774101	2502.932885
648.117606	2520.576923
648.461059	2472.685962
648.804460	2518.056346
649.147810	2414.712692
649.491108	2374.383462
649.834354	2434.877308
650.177548	2480.247692
650.520690	2477.727115
650.863781	2422.274423
651.206820	2407.150962
651.549807	2487.809423
651.892742	2460.083077
652.235626	2513.015192
652.578458	2495.371154
652.921238	2543.262115
653.263967	2437.397885
653.606644	2520.576923
653.949269	2500.412308
654.291843	2462.603654
654.634365	2394.548077
654.976836	2507.974038
655.319255	2450.000769
655.661622	2409.671538
656.003938	2515.535769
656.346203	2412.192115
656.688416	2513.015192
657.030577	2490.330000
657.372687	2505.453462
657.714746	2462.603654
658.056753	2455.041923
658.398708	2510.494615
658.740612	2510.494615
659.082465	2507.974038
659.424266	2515.535769
659.766016	2482.768269
660.107715	2455.041923
660.449362	2414.712692
660.790958	2543.262115
661.132503	2543.262115
661.473996	2525.618077
661.815438	2472.685962
662.156829	2502.932885
662.498168	2470.165385
662.839456	2596.194231
663.180693	2462.603654
663.521879	2545.782692
663.863013	2404.630385
664.204097	2586.111923
664.545129	2492.850577
664.886110	2450.000769
665.227040	2548.303269
665.567918	2543.262115
665.908746	2523.097500
666.249522	2505.453462
666.590248	2596.194231
666.930922	2442.439038
667.271545	2515.535769
667.612118	2535.700385
667.952639	2447.480192
668.293109	2437.397885
668.633528	2429.836154
668.973896	2447.480192
669.314213	2497.891731
669.654480	2528.138654
669.994695	2482.768269
670.334859	2560.906154
670.674973	2487.809423
671.015035	2553.344423
671.355047	2598.714808
671.695008	2540.741538
672.034918	2500.412308
672.374777	2513.015192
672.714585	2495.371154
673.054342	2528.138654
673.394049	2424.795000
673.733705	2505.453462
674.073310	2450.000769
674.412864	2457.562500
674.752368	2507.974038
675.091820	2477.727115
675.431223	2422.274423
675.770574	2535.700385
676.109875	2462.603654
676.449125	2507.974038
676.788324	2639.044038
677.127473	2510.494615
677.466571	2543.262115
677.805619	2550.823846
678.144616	2558.385577
678.483562	2568.467885
678.822458	2520.576923
679.161303	2510.494615
679.500098	2535.700385
679.838842	2462.603654
680.177535	2553.344423
680.516179	2510.494615
680.854771	2470.165385
681.193314	2437.397885
681.531805	2500.412308
681.870247	2565.947308
682.208638	2485.288846
682.546978	2540.741538
682.885268	2523.097500
683.223508	2485.288846
683.561697	2412.192115
683.899836	2482.768269
684.237925	2576.029615
684.575963	2505.453462
684.913951	2472.685962
685.251889	2500.412308
685.589776	2429.836154
685.927614	2523.097500
686.265401	2548.303269
686.603137	2490.330000
686.940824	2515.535769
687.278460	2576.029615
687.616046	2596.194231
687.953582	2502.932885
688.291068	2475.206538
688.628504	2543.262115
688.965889	2467.644808
689.303224	2593.673654
689.640510	2465.124231
689.977745	2538.220962
690.314930	2439.918462
690.652065	2437.397885
690.989150	2414.712692
691.326185	2548.303269
691.663170	2437.397885
692.000105	2560.906154
692.336990	2457.562500
692.673825	2452.521346
693.010610	2492.850577
693.347345	2427.315577
693.684030	2510.494615
694.020665	2467.644808
694.357251	2480.247692
694.693786	2455.041923
695.030272	2543.262115
695.366707	2601.235385
695.703093	2477.727115
696.039429	2470.165385
696.375716	2502.932885
696.711952	2540.741538
697.048139	2540.741538
697.384276	2518.056346
697.720363	2414.712692
698.056400	2505.453462
698.392388	2414.712692
698.728326	2419.753846
699.064214	2477.727115
699.400053	2523.097500
699.735842	2487.809423
700.071581	2553.344423
700.407270	2475.206538
700.742910	2427.315577
701.078501	2455.041923
701.414042	2533.179808
701.749533	2460.083077
702.084974	2513.015192
702.420366	2472.685962
702.755709	2477.727115
703.091002	2535.700385
703.426246	2505.453462
703.761440	2495.371154
704.096584	2530.659231
704.431679	2528.138654
704.766725	2472.685962
705.101721	2462.603654
705.436668	2462.603654
705.771565	2495.371154
706.106413	2502.932885
706.441212	2414.712692
706.775961	2490.330000
707.110661	2500.412308
707.445311	2462.603654
707.779913	2540.741538
708.114465	2497.891731
708.448967	2540.741538
708.783421	2480.247692
709.117825	2510.494615
709.452180	2460.083077
709.786485	2487.809423
710.120742	2560.906154
710.454949	2510.494615
710.789107	2550.823846
711.123216	2495.371154
711.457275	2492.850577
711.791286	2444.959615
712.125247	2480.247692
712.459159	2545.782692
712.793023	2502.932885
713.126837	2500.412308
713.460602	2507.974038
713.794318	2530.659231
714.127985	2573.509038
714.461602	2535.700385
714.795171	2500.412308
715.128691	2507.974038
715.462162	2450.000769
715.795584	2465.124231
716.128957	2457.562500
716.462281	2490.330000
716.795556	2578.550192
717.128782	2450.000769
717.461960	2437.397885
717.795088	2477.727115
718.128167	2439.918462
718.461198	2523.097500
718.794180	2455.041923
719.127113	2533.179808
719.459997	2492.850577
719.792833	2500.412308
720.125619	2540.741538
720.458357	2578.550192
720.791046	2414.712692
721.123686	2525.618077
721.456278	2475.206538
721.788821	2434.877308
722.121315	2548.303269
722.453761	2482.768269
722.786158	2422.274423
723.118506	2402.109808
723.450805	2407.150962
723.783056	2528.138654
724.115259	2545.782692
724.447412	2450.000769
724.779518	2480.247692
725.111574	2457.562500
725.443582	2427.315577
725.775542	2513.015192
726.107453	2525.618077
726.439315	2424.795000
726.771129	2548.303269
727.102895	2563.426731
727.434612	2485.288846
727.766281	2492.850577
728.097901	2402.109808
728.429473	2472.685962
728.760996	2455.041923
729.092471	2477.727115
729.423897	2485.288846
729.755276	2510.494615
730.086606	2510.494615
730.417887	2462.603654
730.749120	2462.603654
731.080305	2452.521346
731.411442	2480.247692
731.742530	2480.247692
732.073570	2369.342308
732.404562	2545.782692
732.735506	2560.906154
733.066401	2495.371154
733.397249	2475.206538
733.728048	2495.371154
734.058798	2553.344423
734.389501	2520.576923
734.720156	2467.644808
735.050762	2422.274423
735.381320	2487.809423
735.711831	2570.988462
736.042293	2520.576923
736.372707	2523.097500
736.703073	2520.576923
737.033391	2513.015192
737.363661	2470.165385
737.693883	2591.153077
738.024056	2424.795000
738.354182	2525.618077
738.684260	2515.535769
739.014290	2515.535769
739.344272	2505.453462
739.674207	2472.685962
740.004093	2487.809423
740.333931	2573.509038
740.663722	2507.974038
740.993464	2452.521346
741.323159	2520.576923
741.652806	2452.521346
741.982405	2444.959615
742.311956	2518.056346
742.641460	2470.165385
742.970915	2470.165385
743.300323	2465.124231
743.629683	2472.685962
743.958996	2588.632500
744.288260	2505.453462
744.617477	2565.947308
744.946647	2427.315577
745.275768	2500.412308
745.604842	2513.015192
745.933869	2523.097500
746.262847	2528.138654
746.591778	2507.974038
746.920662	2429.836154
747.249498	2515.535769
747.578286	2480.247692
747.907027	2533.179808
748.235720	2553.344423
748.564365	2555.865000
748.892963	2492.850577
749.221514	2510.494615
749.550017	2510.494615
749.878473	2576.029615
750.206881	2462.603654
750.535242	2545.782692
750.863555	2485.288846
751.191821	2490.330000
751.520039	2497.891731
751.848210	2460.083077
752.176334	2518.056346
752.504411	2553.344423
752.832440	2500.412308
753.160421	2523.097500
753.488356	2520.576923
753.816243	2442.439038
754.144082	2565.947308
754.471875	2404.630385
754.799620	2530.659231
755.127318	2525.618077
755.454969	2480.247692
755.782572	2492.850577
756.110129	2507.974038
756.437638	2515.535769
756.765100	2462.603654
757.092515	2429.836154
757.419882	2414.712692
757.747203	2482.768269
758.074477	2467.644808
758.401703	2485.288846
758.728882	2545.782692
759.056014	2482.768269
759.383099	2490.330000
759.710138	2472.685962
760.037129	2518.056346
760.364073	2553.344423
760.690970	2475.206538
761.017820	2485.288846
761.344623	2480.247692
761.671379	2472.685962
761.998088	2525.618077
762.324751	2528.138654
762.651366	2462.603654
762.977935	2444.959615
763.304456	2525.618077
763.630931	2563.426731
763.957359	2528.138654
764.283740	2570.988462
764.610074	2538.220962
764.936362	2518.056346
765.262602	2520.576923
765.588796	2407.150962
765.914943	2540.741538
766.241044	2543.262115
766.567097	2482.768269
766.893104	2510.494615
767.219064	2442.439038
767.544978	2535.700385
767.870845	2460.083077
768.196665	2565.947308
768.522438	2424.795000
768.848165	2470.165385
769.173846	2528.138654
769.499479	2460.083077
769.825066	2518.056346
770.150607	2558.385577
770.476101	2505.453462
770.801548	2447.480192
771.126949	2455.041923
771.452303	2563.426731
771.777611	2513.015192
772.102872	2457.562500
772.428087	2507.974038
772.753256	2447.480192
773.078378	2490.330000
773.403453	2455.041923
773.728482	2523.097500
774.053465	2518.056346
774.378401	2487.809423
774.703291	2470.165385
775.028135	2477.727115
775.352932	2540.741538
775.677683	2427.315577
776.002388	2528.138654
776.327046	2444.959615
776.651658	2472.685962
776.976224	2490.330000
777.300743	2608.797115
777.625216	2533.179808
777.949643	2477.727115
778.274024	2495.371154
778.598359	2490.330000
778.922647	2432.356731
779.246889	2475.206538
779.571086	2543.262115
779.895236	2452.521346
780.219339	2510.494615
780.543397	2545.782692
780.867409	2523.097500
781.191374	2530.659231
781.515294	2525.618077
781.839167	2515.535769
782.162995	2467.644808
782.486776	2550.823846
782.810511	2530.659231
783.134201	2477.727115
783.457844	2452.521346
783.781441	2452.521346
784.104993	2460.083077
784.428498	2565.947308
784.751958	2467.644808
785.075372	2540.741538
785.398739	2455.041923
785.722061	2515.535769
786.045337	2402.109808
786.368568	2548.303269
786.691752	2444.959615
787.014891	2457.562500
787.337983	2583.591346
787.661030	2460.083077
787.984031	2477.727115
788.306987	2528.138654
788.629897	2588.632500
788.952760	2450.000769
789.275579	2480.247692
789.598351	2502.932885
789.921078	2533.179808
790.243759	2568.467885
790.566395	2364.301154
790.888984	2545.782692
791.211529	2540.741538
791.534027	2520.576923
791.856480	2533.179808
792.178888	2507.974038
792.501249	2548.303269
792.823566	2444.959615
793.145836	2525.618077
793.468062	2485.288846
793.790241	2497.891731
794.112375	2523.097500
794.434464	2492.850577
794.756507	2482.768269
795.078505	2497.891731
795.400457	2492.850577
795.722364	2500.412308
796.044226	2530.659231
796.366042	2490.330000
796.687812	2543.262115
797.009538	2444.959615
797.331218	2429.836154
797.652852	2439.918462
797.974442	2540.741538
798.295986	2530.659231
798.617484	2402.109808
798.938938	2480.247692
799.260346	2480.247692
799.581709	2520.576923
799.903026	2470.165385
800.224299	2404.630385
800.545526	2505.453462
800.866708	2475.206538
801.187845	2480.247692
801.508936	2470.165385
801.829983	2502.932885
802.150984	2482.768269
802.471940	2487.809423
802.792851	2596.194231
803.113717	2490.330000
803.434538	2545.782692
803.755314	2485.288846
804.076045	2502.932885
804.396731	2407.150962
804.717372	2475.206538
805.037967	2472.685962
805.358518	2477.727115
805.679024	2535.700385
805.999485	2487.809423
806.319901	2578.550192
806.640272	2505.453462
806.960598	2528.138654
807.280879	2502.932885
807.601115	2513.015192
807.921306	2482.768269
808.241453	2543.262115
808.561554	2513.015192
808.881611	2490.330000
809.201623	2545.782692
809.521590	2500.412308
809.841513	2570.988462
810.161390	2495.371154
810.481223	2485.288846
810.801011	2497.891731
811.120755	2545.782692
811.440453	2465.124231
811.760107	2487.809423
812.079716	2518.056346
812.399281	2588.632500
812.718801	2558.385577
813.038276	2381.945192
813.357707	2538.220962
813.677093	2447.480192
813.996434	2386.986346
814.315731	2543.262115
814.634983	2470.165385
814.954191	2452.521346
815.273354	2548.303269
815.592473	2467.644808
815.911547	2505.453462
816.230577	2450.000769
816.549562	2565.947308
816.868502	2538.220962
817.187399	2427.315577
817.506250	2482.768269
817.825058	2439.918462
818.143821	2538.220962
818.462539	2518.056346
818.781213	2437.397885
819.099843	2485.288846
819.418429	2535.700385
819.736970	2497.891731
820.055466	2543.262115
820.373919	2528.138654
820.692327	2507.974038
821.010691	2502.932885
821.329011	2422.274423
821.647286	2520.576923
821.965517	2472.685962
822.283704	2513.015192
822.601847	2450.000769
822.919945	2510.494615
823.237999	2510.494615
823.556010	2475.206538
823.873976	2495.371154
824.191897	2510.494615
824.509775	2490.330000
824.827609	2530.659231
825.145398	2437.397885
825.463144	2533.179808
825.780845	2530.659231
826.098502	2444.959615
826.416116	2576.029615
826.733685	2457.562500
827.051210	2550.823846
827.368692	2495.371154
827.686129	2457.562500
828.003522	2598.714808
828.320872	2513.015192
828.638177	2419.753846
828.955439	2528.138654
829.272656	2487.809423
829.589830	2437.397885
829.906960	2505.453462
830.224046	2465.124231
830.541088	2513.015192
830.858086	2482.768269
831.175041	2457.562500
831.491952	2472.685962
831.808819	2523.097500
832.125642	2460.083077
832.442421	2465.124231
832.759157	2487.809423
833.075849	2586.111923
833.392497	2540.741538
833.709101	2500.412308
834.025662	2432.356731
834.342179	2437.397885
834.658653	2558.385577
834.975083	2460.083077
835.291469	2490.330000
835.607811	2419.753846
835.924110	2477.727115
836.240366	2553.344423
836.556578	2530.659231
836.872746	2444.959615
837.188871	2505.453462
837.504952	2422.274423
837.820990	2500.412308
838.136984	2465.124231
838.452935	2578.550192
838.768842	2507.974038
839.084706	2450.000769
839.400526	2550.823846
839.716303	2452.521346
840.032037	2482.768269
840.347727	2533.179808
840.663373	2500.412308
840.978977	2470.165385
841.294537	2500.412308
841.610054	2429.836154
841.925527	2525.618077
842.240957	2480.247692
842.556344	2490.330000
842.871687	2480.247692
843.186987	2515.535769
843.502244	2467.644808
843.817458	2505.453462
844.132629	2439.918462
844.447756	2444.959615
844.762840	2462.603654
845.077881	2548.303269
845.392879	2422.274423
845.707833	2500.412308
846.022745	2462.603654
846.337613	2500.412308
846.652438	2482.768269
846.967221	2475.206538
847.281960	2545.782692
847.596656	2495.371154
847.911309	2505.453462
848.225919	2434.877308
848.540485	2487.809423
848.855009	2432.356731
849.169490	2467.644808
849.483928	2558.385577
849.798323	2492.850577
850.112675	2432.356731
850.426984	2560.906154
850.741251	2412.192115
851.055474	2482.768269
851.369654	2465.124231
851.683792	2540.741538
851.997887	2520.576923
852.311938	2470.165385
852.625947	2535.700385
852.939914	2502.932885
853.253837	2414.712692
853.567718	2545.782692
853.881555	2520.576923
854.195350	2422.274423
854.509103	2540.741538
854.822812	2447.480192
855.136479	2477.727115
855.450103	2555.865000
855.763685	2409.671538
856.077224	2505.453462
856.390720	2366.821731
856.704173	2457.562500
857.017584	2472.685962
857.330953	2490.330000
857.644278	2487.809423
857.957561	2437.397885
858.270802	2543.262115
858.584000	2465.124231
858.897155	2475.206538
859.210268	2462.603654
859.523339	2492.850577
859.836367	2344.136538
860.149352	2543.262115
860.462295	2457.562500
860.775195	2495.371154
861.088054	2520.576923
861.400869	2523.097500
861.713642	2450.000769
862.026373	2472.685962
862.339062	2533.179808
862.651708	2480.247692
862.964312	2485.288846
863.276873	2485.288846
863.589392	2510.494615
863.901869	2409.671538
864.214303	2480.247692
864.526696	2437.397885
864.839045	2502.932885
865.151353	2455.041923
865.463619	2515.535769
865.775842	2515.535769
866.088023	2467.644808
866.400162	2490.330000
866.712258	2487.809423
867.024313	2528.138654
867.336325	2513.015192
867.648296	2548.303269
867.960224	2475.206538
868.272110	2543.262115
868.583954	2462.603654
868.895755	2455.041923
869.207515	2467.644808
869.519233	2578.550192
869.830909	2460.083077
870.142542	2520.576923
870.454134	2457.562500
870.765684	2442.439038
871.077191	2492.850577
871.388657	2530.659231
871.700081	2525.618077
872.011463	2593.673654
872.322803	2475.206538
872.634101	2450.000769
872.945357	2414.712692
873.256571	2523.097500
873.567744	2374.383462
873.878874	2588.632500
874.189963	2545.782692
874.501010	2427.315577
874.812015	2505.453462
875.122979	2467.644808
875.433900	2533.179808
875.744780	2538.220962
876.055618	2462.603654
876.366415	2513.015192
876.677169	2402.109808
876.987882	2500.412308
877.298554	2417.233269
877.609183	2414.712692
877.919771	2485.288846
878.230317	2450.000769
878.540822	2540.741538
878.851285	2427.315577
879.161707	2513.015192
879.472087	2462.603654
879.782425	2470.165385
880.092722	2540.741538
880.402977	2462.603654
880.713191	2404.630385
881.023363	2490.330000
881.333494	2444.959615
881.643583	2555.865000
881.953631	2555.865000
882.263637	2472.685962
882.573602	2545.782692
882.883526	2502.932885
883.193408	2568.467885
883.503248	2462.603654
883.813048	2565.947308
884.122806	2472.685962
884.432522	2560.906154
884.742197	2543.262115
885.051831	2530.659231
885.361424	2462.603654
885.670975	2495.371154
885.980485	2565.947308
886.289954	2545.782692
886.599382	2450.000769
886.908768	2505.453462
887.218113	2447.480192
887.527417	2563.426731
887.836680	2558.385577
888.145901	2500.412308
888.455082	2518.056346
888.764221	2472.685962
889.073319	2480.247692
889.382376	2558.385577
889.691392	2500.412308
890.000366	2513.015192
890.309300	2389.506923
890.618193	2429.836154
890.927044	2412.192115
891.235855	2505.453462
891.544625	2409.671538
891.853353	2505.453462
892.162041	2535.700385
892.470687	2490.330000
892.779293	2533.179808
893.087858	2409.671538
893.396381	2533.179808
893.704864	2518.056346
894.013306	2444.959615
894.321707	2455.041923
894.630068	2455.041923
894.938387	2500.412308
895.246665	2543.262115
895.554903	2452.521346
895.863100	2487.809423
896.171256	2437.397885
896.479371	2535.700385
896.787446	2455.041923
897.095480	2480.247692
897.403473	2487.809423
897.711425	2497.891731
898.019336	2381.945192
898.327207	2518.056346
898.635038	2460.083077
898.942827	2427.315577
899.250576	2538.220962
899.558284	2450.000769
899.865952	2553.344423
900.173579	2434.877308
900.481165	2513.015192
900.788711	2523.097500
901.096216	2500.412308
901.403681	2535.700385
901.711105	2472.685962
902.018489	2339.095385
902.325832	2419.753846
902.633135	2450.000769
902.940397	2583.591346
903.247619	2470.165385
903.554800	2465.124231
903.861941	2450.000769
904.169041	2515.535769
904.476101	2565.947308
904.783121	2444.959615
905.090100	2548.303269
905.397039	2490.330000
905.703938	2472.685962
906.010796	2417.233269
906.317614	2427.315577
906.624391	2472.685962
906.931129	2444.959615
907.237826	2485.288846
907.544483	2528.138654
907.851099	2442.439038
908.157675	2540.741538
908.464211	2497.891731
908.770707	2447.480192
909.077163	2422.274423
909.383578	2545.782692
909.689954	2475.206538
909.996289	2528.138654
910.302584	2513.015192
910.608839	2455.041923
910.915054	2523.097500
911.221229	2427.315577
911.527363	2482.768269
911.833458	2444.959615
912.139513	2452.521346
912.445527	2470.165385
912.751502	2407.150962
913.057436	2530.659231
913.363331	2487.809423
913.669186	2555.865000
913.975000	2404.630385
914.280775	2502.932885
914.586510	2480.247692
914.892205	2502.932885
915.197859	2528.138654
915.503475	2462.603654
915.809050	2455.041923
916.114585	2495.371154
916.420081	2465.124231
916.725536	2442.439038
917.030952	2530.659231
917.336328	2467.644808
917.641665	2593.673654
917.946961	2472.685962
918.252218	2520.576923
918.557435	2540.741538
918.862612	2492.850577
919.167750	2525.618077
919.472848	2485.288846
919.777906	2434.877308
920.082925	2470.165385
920.387904	2424.795000
920.692843	2553.344423
920.997743	2452.521346
921.302603	2502.932885
921.607423	2419.753846
921.912204	2452.521346
922.216946	2495.371154
922.521647	2510.494615
922.826310	2505.453462
923.130932	2480.247692
923.435516	2470.165385
923.740059	2563.426731
924.044564	2475.206538
924.349028	2497.891731
924.653454	2505.453462
924.957840	2480.247692
925.262186	2576.029615
925.566493	2427.315577
925.870761	2513.015192
926.174989	2442.439038
926.479178	2510.494615
926.783328	2472.685962
927.087438	2578.550192
927.391509	2520.576923
927.695541	2495.371154
927.999533	2439.918462
928.303486	2525.618077
928.607400	2588.632500
928.911275	2500.412308
929.215110	2376.904038
929.518906	2470.165385
929.822663	2422.274423
930.126381	2518.056346
930.430060	2470.165385
930.733699	2472.685962
931.037299	2560.906154
931.340861	2409.671538
931.644383	2523.097500
931.947866	2434.877308
932.251309	2465.124231
932.554714	2475.206538
932.858080	2419.753846
933.161407	2450.000769
933.464694	2497.891731
933.767943	2513.015192
934.071153	2528.138654
934.374323	2460.083077
934.677455	2550.823846
934.980548	2502.932885
935.283602	2465.124231
935.586617	2518.056346
935.889593	2434.877308
936.192530	2470.165385
936.495428	2495.371154
936.798287	2528.138654
937.101108	2487.809423
937.403890	2528.138654
937.706632	2540.741538
938.009336	2528.138654
938.312002	2477.727115
938.614628	2563.426731
938.917216	2442.439038
939.219765	2480.247692
939.522275	2482.768269
939.824747	2502.932885
940.127179	2475.206538
940.429573	2495.371154
940.731929	2460.083077
941.034246	2470.165385
941.336524	2444.959615
941.638763	2543.262115
941.940964	2492.850577
942.243126	2581.070769
942.545250	2480.247692
942.847335	2533.179808
943.149381	2444.959615
943.451389	2424.795000
943.753359	2570.988462
944.055290	2414.712692
944.357182	2520.576923
944.659036	2518.056346
944.960851	2528.138654
945.262628	2676.852692
945.564367	2432.356731
945.866067	2450.000769
946.167729	2417.233269
946.469352	2568.467885
946.770937	2452.521346
947.072484	2470.165385
947.373992	2455.041923
947.675462	2432.356731
947.976893	2558.385577
948.278286	2424.795000
948.579641	2495.371154
948.880958	2442.439038
949.182236	2535.700385
949.483476	2447.480192
949.784678	2492.850577
950.085841	2492.850577
950.386967	2475.206538
950.688054	2507.974038
950.989103	2533.179808
951.290114	2510.494615
951.591087	2455.041923
951.892021	2502.932885
952.192917	2472.685962
952.493776	2540.741538
952.794596	2475.206538
953.095378	2432.356731
953.396122	2495.371154
953.696828	2480.247692
953.997496	2495.371154
954.298126	2528.138654
954.598718	2429.836154
954.899272	2497.891731
955.199788	2520.576923
955.500266	2442.439038
955.800706	2467.644808
956.101108	2576.029615
956.401472	2528.138654
956.701798	2450.000769
957.002087	2465.124231
957.302337	2482.768269
957.602550	2437.397885
957.902724	2402.109808
958.202861	2455.041923
958.502960	2558.385577
958.803022	2424.795000
959.103045	2502.932885
959.403031	2429.836154
959.702979	2467.644808
960.002889	2523.097500
960.302762	2432.356731
960.602596	2540.741538
960.902393	2515.535769
961.202153	2487.809423
961.501875	2495.371154
961.801559	2500.412308
962.101205	2394.548077
962.400814	2376.904038
962.700385	2482.768269
962.999918	2432.356731
963.299414	2480.247692
963.598873	2538.220962
963.898293	2502.932885
964.197677	2450.000769
964.497022	2530.659231
964.796331	2450.000769
965.095601	2518.056346
965.394835	2450.000769
965.694030	2450.000769
965.993189	2500.412308
966.292309	2434.877308
966.591393	2457.562500
966.890439	2525.618077
967.189447	2510.494615
967.488419	2500.412308
967.787353	2442.439038
968.086249	2462.603654
968.385108	2371.862885
968.683930	2565.947308
968.982714	2394.548077
969.281462	2505.453462
969.580172	2429.836154
969.878844	2480.247692
970.177480	2452.521346
970.476078	2477.727115
970.774639	2477.727115
971.073162	2470.165385
971.371649	2465.124231
971.670098	2500.412308
971.968510	2538.220962
972.266885	2457.562500
972.565223	2550.823846
972.863524	2472.685962
973.161788	2530.659231
973.460014	2472.685962
973.758204	2482.768269
974.056356	2490.330000
974.354471	2530.659231
974.652550	2455.041923
974.950591	2434.877308
975.248595	2480.247692
975.546563	2480.247692
975.844493	2540.741538
976.142386	2513.015192
976.440243	2533.179808
976.738062	2510.494615
977.035845	2480.247692
977.333590	2450.000769
977.631299	2485.288846
977.928971	2525.618077
978.226606	2560.906154
978.524204	2470.165385
978.821765	2485.288846
979.119290	2437.397885
979.416777	2553.344423
979.714228	2490.330000
980.011642	2545.782692
980.309020	2467.644808
980.606360	2507.974038
980.903664	2616.358846
981.200931	2490.330000
981.498162	2492.850577
981.795356	2507.974038
982.092513	2523.097500
982.389633	2452.521346
982.686717	2485.288846
982.983764	2525.618077
983.280775	2457.562500
983.577749	2505.453462
983.874686	2505.453462
984.171587	2482.768269
984.468451	2513.015192
984.765279	2578.550192
985.062070	2523.097500
985.358824	2548.303269
985.655543	2460.083077
985.952224	2515.535769
986.248869	2482.768269
986.545478	2475.206538
986.842050	2462.603654
987.138586	2480.247692
987.435086	2518.056346
987.731549	2550.823846
988.027975	2452.521346
988.324366	2535.700385
988.620719	2525.618077
988.917037	2497.891731
989.213318	2475.206538
989.509563	2490.330000
989.805772	2553.344423
990.101944	2477.727115
990.398080	2548.303269
990.694180	2533.179808
990.990244	2450.000769
991.286271	2414.712692
991.582262	2538.220962
991.878217	2402.109808
992.174136	2560.906154
992.470019	2470.165385
992.765865	2563.426731
993.061676	2482.768269
993.357450	2470.165385
993.653188	2545.782692
993.948890	2525.618077
994.244556	2646.605769
994.540186	2545.782692
994.835780	2505.453462
995.131337	2412.192115
995.426859	2462.603654
995.722345	2447.480192
996.017795	2513.015192
996.313208	2412.192115
996.608586	2485.288846
996.903928	2450.000769
997.199234	2467.644808
997.494504	2429.836154
997.789738	2495.371154
998.084936	2472.685962
998.380099	2505.453462
998.675225	2502.932885
998.970316	2460.083077
999.265371	2477.727115
999.560390	2565.947308
999.855373	2457.562500
1000.150320	2601.235385
1000.445232	2439.918462
1000.740108	2492.850577
1001.034948	2538.220962
1001.329752	2447.480192
1001.624521	2419.753846
1001.919254	2429.836154
1002.213951	2495.371154
1002.508613	2467.644808
1002.803239	2467.644808
1003.097829	2565.947308
1003.392384	2525.618077
1003.686903	2472.685962
1003.981386	2492.850577
1004.275834	2442.439038
1004.570246	2472.685962
1004.864623	2462.603654
1005.158964	2520.576923
1005.453270	2444.959615
1005.747540	2455.041923
1006.041775	2439.918462
1006.335974	2470.165385
1006.630138	2560.906154
1006.924266	2502.932885
1007.218359	2513.015192
1007.512416	2510.494615
1007.806438	2500.412308
1008.100425	2465.124231
1008.394376	2450.000769
1008.688292	2404.630385
1008.982172	2490.330000
1009.276017	2560.906154
1009.569827	2507.974038
1009.863602	2434.877308
1010.157341	2432.356731
1010.451045	2450.000769
1010.744714	2429.836154
1011.038347	2538.220962
1011.331945	2497.891731
1011.625508	2596.194231
1011.919036	2439.918462
1012.212528	2560.906154
1012.505986	2447.480192
1012.799408	2502.932885
1013.092795	2452.521346
1013.386147	2515.535769
1013.679464	2465.124231
1013.972745	2366.821731
1014.265992	2555.865000
1014.559204	2520.576923
1014.852380	2518.056346
1015.145521	2553.344423
1015.438628	2452.521346
1015.731699	2477.727115
1016.024736	2485.288846
1016.317737	2492.850577
1016.610703	2465.124231
1016.903635	2450.000769
1017.196531	2442.439038
1017.489393	2502.932885
1017.782219	2490.330000
1018.075011	2412.192115
1018.367768	2470.165385
1018.660490	2500.412308
1018.953177	2500.412308
1019.245829	2500.412308
