Dividing Wavelength (nm)	Counts (n)	Blue Motor Position (mm): 0.000000	Red Motor Position (mm): 28.000000	
326.493990	2129.133848
326.888308	2129.133848
327.282561	2129.133848
327.676750	2093.984402
328.070874	2093.205544
328.464933	2095.746286
328.858929	2103.602924
329.252859	2111.232710
329.646726	2124.445574
330.040528	2137.749179
330.434265	2152.842394
330.827938	2171.618172
331.221547	2190.338496
331.615091	2209.673842
332.008571	2227.829558
332.401986	2246.522156
332.795338	2266.913623
333.188625	2285.596139
333.581847	2303.928295
333.975006	2321.897488
334.368100	2341.409274
334.761129	2357.724969
335.154095	2375.308513
335.546996	2393.552449
335.939833	2407.655077
336.332606	2423.743919
336.725315	2435.951073
337.117960	2446.043463
337.510540	2456.720627
337.903056	2466.379478
338.295508	2474.480612
338.687896	2483.935296
339.080220	2490.123313
339.472480	2498.559684
339.864676	2501.067658
340.256807	2507.109481
340.648875	2506.973369
341.040879	2513.665501
341.432818	2513.047960
341.824694	2516.004597
342.216506	2513.249606
342.608253	2514.809843
342.999937	2516.642303
343.391557	2513.637775
343.783113	2512.097702
344.174605	2512.972343
344.566033	2511.102074
344.957397	2509.032681
345.348697	2510.255161
345.739934	2507.495129
346.131106	2504.135200
346.522215	2505.297186
346.913260	2502.630415
347.304241	2499.920795
347.695159	2497.932060
348.086012	2498.055568
348.476802	2493.427789
348.867528	2493.447954
349.258191	2491.262613
349.648789	2491.983498
350.039324	2490.375370
350.429796	2485.785400
350.820203	2485.573671
351.210548	2486.339927
351.600828	2488.079125
351.991045	2484.043681
352.381198	2485.737509
352.771288	2484.688949
353.161314	2483.670636
353.551276	2483.181644
353.941175	2481.608804
354.331010	2485.830770
354.720782	2482.291880
355.110490	2483.471510
355.500135	2484.734319
355.889717	2484.351192
356.279235	2483.700883
356.668689	2486.839001
357.058080	2486.705410
357.447408	2487.287664
357.836672	2480.845069
358.225873	2483.980667
358.615010	2482.730461
359.004084	2487.680874
359.393095	2488.245483
359.782043	2487.191882
360.170927	2488.782366
360.559748	2492.107007
360.948505	2490.594661
361.337199	2491.587768
361.725830	2491.630618
362.114398	2493.621873
362.502903	2493.516009
362.891344	2494.889724
363.279722	2495.222440
363.668037	2495.963489
364.056289	2495.817296
364.444478	2495.953407
364.832603	2496.195383
365.220665	2498.277379
365.608665	2499.484735
365.996601	2498.484066
366.384474	2500.961793
366.772284	2500.394664
367.160031	2499.772081
367.547715	2505.125787
367.935336	2506.577639
368.322893	2509.753566
368.710388	2513.284894
369.097820	2520.425688
369.485189	2521.504495
369.872495	2528.816689
370.259738	2532.829447
370.646918	2541.837989
371.034035	2547.685728
371.421090	2560.006308
371.808081	2569.685323
372.195010	2580.433063
372.581875	2592.725917
372.968678	2605.727053
373.355418	2615.300204
373.742096	2633.725621
374.128710	2647.006541
374.515262	2663.407935
374.901751	2682.077848
375.288177	2692.190403
375.674540	2714.437015
376.060841	2733.787484
376.447079	2752.568302
376.833254	2775.195522
377.219367	2786.283539
377.605417	2823.404076
377.991404	2832.089984
378.377329	2854.588653
378.763191	2873.187991
379.148991	2908.365162
379.534727	2933.996909
379.920402	2962.489510
380.306013	2970.822538
380.691563	3025.050230
381.077049	3047.621996
381.462474	3063.269738
381.847835	3103.205758
382.233134	3123.534211
382.618371	3121.938686
383.003545	3190.551310
383.388657	3198.171014
383.773706	3233.753999
384.158693	3250.583891
384.543618	3275.220010
384.928480	3311.801143
385.313280	3357.864686
385.698017	3354.693800
386.082692	3410.655649
386.467305	3412.835948
386.851856	3448.323151
387.236344	3470.443734
387.620770	3500.115965
388.005133	3525.863658
388.389435	3554.000859
388.773674	3568.181624
389.157851	3607.061523
389.541965	3624.622383
389.926018	3588.830191
390.310008	3660.233094
390.693936	3676.314374
391.077802	3720.588308
391.461606	3706.737738
391.845348	3773.280969
392.229027	3771.365330
392.612645	3783.418729
392.996200	3860.167776
393.379694	3901.999270
393.763125	3968.507213
394.146494	3933.456070
394.529801	3992.727437
394.913047	4043.794325
395.296230	4010.772247
395.679351	4066.623190
396.062410	4088.867282
396.445408	4068.223757
396.828343	4104.895630
397.211217	4123.734422
397.594028	4046.695509
397.976778	4111.287813
398.359466	4138.489880
398.742092	4166.410310
399.124656	4087.115481
399.507158	4171.038089
399.889598	4194.522305
400.271977	4258.045884
400.654294	4228.345926
401.036549	4239.343203
401.418742	4209.708781
401.800874	4311.383813
402.182944	4330.711596
402.564952	4397.025455
402.946898	4383.507601
403.328783	4376.455026
403.710606	4291.922438
404.092367	4484.794464
404.474067	4448.218372
404.855705	4455.570895
405.237282	4388.132859
405.618797	4496.883151
406.000250	4528.728119
406.381642	4609.454637
406.762972	4569.009459
407.144240	4580.783074
407.525447	4577.418104
407.906593	4642.043176
408.287677	4680.814690
408.668700	4605.714100
409.049661	4659.346936
409.430560	4705.080284
409.811399	4630.261999
410.192176	4790.522800
410.572891	4730.364191
410.953545	4836.989636
411.334138	4720.168457
411.714669	4778.741624
412.095139	4675.660110
412.475547	4819.948015
412.855894	4803.067712
413.236180	4809.439730
413.616405	4762.284777
413.996568	4851.074620
414.376670	4793.562616
414.756711	4744.925564
415.136691	4776.732724
415.516609	4856.869426
415.896466	4894.547010
416.276262	4924.841824
416.655997	4908.682405
417.035670	5089.372483
417.415283	5178.497562
417.794834	5124.854644
418.174324	5077.830761
418.553753	4988.937575
418.933121	5169.836860
419.312428	5236.896809
419.691674	5176.024876
420.070859	5303.830729
420.449983	5220.692020
420.829045	5328.106405
421.208047	5236.213733
421.586988	5308.251821
421.965867	5319.634746
422.344686	5453.031239
422.723444	5306.850380
423.102141	5122.323985
423.480777	5424.155510
423.859352	5193.285787
424.237866	5452.476712
424.616319	5444.224343
424.994712	5556.460592
425.373044	5430.376293
425.751314	5571.694959
426.129524	5377.920567
426.507673	5570.175051
426.885762	5652.592876
427.263789	5584.423873
427.641756	5465.787879
428.019662	5584.721301
428.397508	5596.396613
428.775292	5545.049941
429.153016	5642.382018
429.530679	5568.307304
429.908282	5650.256301
430.285824	5519.450961
430.663305	5799.517304
431.040726	5528.094020
431.418086	5534.496285
431.795385	5638.520495
432.172624	5648.005426
432.549802	5645.610877
432.926920	5656.487167
433.303977	5667.108878
433.680974	5703.843766
434.057910	5722.879163
434.434786	5728.830245
434.811601	5696.203897
435.188355	5930.113436
435.565050	5803.600639
435.941683	5788.464575
436.318257	6000.795454
436.694770	5982.044882
437.071222	6016.808679
437.447614	5944.594150
437.823946	5863.386203
438.200218	6014.653586
438.576429	5878.355909
438.952580	5975.181351
439.328670	6024.531727
439.704700	5930.874650
440.080670	5917.591210
440.456580	6188.588517
440.832429	6069.224076
441.208218	5920.200007
441.583947	6070.479324
441.959616	6074.658440
442.335224	6003.994066
442.710773	6138.676053
443.086261	6166.155382
443.461689	5960.410771
443.837057	6110.170848
444.212365	6264.906545
444.587612	6153.353372
444.962800	6308.290715
445.337927	6289.968642
445.712995	5900.592439
446.088002	6475.896478
446.462949	6306.213760
446.837837	6231.539148
447.212664	6405.781589
447.587431	6546.006325
447.962139	7085.734941
448.336786	8004.369283
448.711374	7751.250428
449.085901	6822.924467
449.460369	6739.954637
449.834776	6671.901580
450.209124	7056.808800
450.583412	7208.003086
450.957640	7346.690270
451.331808	7112.765608
451.705917	6661.615106
452.079965	6583.290699
452.453954	6784.788138
452.827883	6662.698954
453.201752	6750.919146
453.575562	6539.508278
453.949311	6733.572536
454.323001	6622.072295
454.696632	6690.848757
455.070202	6810.860986
455.443713	6952.126720
455.817164	7042.814557
456.190556	7116.659899
456.563888	7178.368663
456.937160	7201.096705
457.310373	6867.831066
457.683526	6880.083590
458.056619	6759.232009
458.429653	6736.030098
458.802628	6660.647204
459.175542	6751.123313
459.548398	7071.186171
459.921194	7205.026285
460.293930	7188.118255
460.666607	7649.703945
461.039224	7913.628513
461.411782	8007.782144
461.784280	8007.502360
462.156719	7884.223463
462.529099	7749.034840
462.901419	7350.299736
463.273680	7234.456541
463.645882	7218.050106
464.018024	7069.948567
464.390106	7188.965169
464.762130	7498.136613
465.134094	7867.154116
465.505999	8676.050101
465.877845	9664.209516
466.249631	10186.349546
466.621358	9830.890227
466.993026	9252.236341
467.364634	9004.486315
467.736184	8643.249833
468.107674	8313.392013
468.479105	8276.236189
468.850477	8044.622896
469.221790	7810.050446
469.593043	7490.279975
469.964238	7324.814182
470.335373	7285.420086
470.706449	7270.765452
471.077467	7203.004782
471.448425	8114.243751
471.819324	8829.580962
472.190164	8798.570304
472.560945	7824.339597
472.931667	7186.855446
473.302330	7028.354007
473.672934	6718.411266
474.043479	6896.459778
474.413965	6795.523276
474.784393	6640.255737
475.154761	6690.382450
475.525070	6680.128743
475.895321	6505.256158
476.265513	6541.683535
476.635645	6587.769764
477.005719	6505.336816
477.375734	6502.985118
477.745691	6567.705972
478.115588	6563.403347
478.485427	6622.616740
478.855207	6836.628844
479.224928	7175.260792
479.594591	7425.319667
479.964194	7223.045889
480.333739	7113.531863
480.703226	6949.197809
481.072653	6904.737353
481.442022	6914.391163
481.811333	6918.474497
482.180584	6737.033288
482.549777	6494.256360
482.918912	6334.348439
483.287988	6248.444657
483.657005	6169.900960
484.025964	5942.484428
484.394864	5901.925824
484.763706	5798.168796
485.132489	5630.479854
485.501213	5529.825656
485.869879	5485.425693
486.238487	5326.939378
486.607036	5297.950223
486.975527	5142.594464
487.343959	5122.767606
487.712333	5063.158483
488.080648	4969.077949
488.448905	4900.818205
488.817104	4812.618178
489.185244	4808.418897
489.553326	4772.077218
489.921350	4846.063713
490.289315	5028.056928
490.657222	5038.693763
491.025070	4925.088841
491.392861	4827.035878
491.760593	4664.017565
492.128267	4507.270448
492.495883	4365.457749
492.863440	4236.235332
493.230939	4107.504428
493.598380	4036.615722
493.965763	3954.044143
494.333088	3893.704052
494.700354	3817.885098
495.067563	3785.137762
495.434713	3706.140361
495.801805	3677.753624
496.168839	3625.875110
496.535815	3569.739341
496.902733	3531.534957
497.269593	3476.503201
497.636395	3450.659725
498.003139	3406.012746
498.369825	3357.433667
498.736453	3333.059688
499.103023	3296.874286
499.469535	3261.545880
499.835989	3225.922566
500.202385	3191.632638
500.568723	3150.842142
500.935003	3142.403250
501.301226	3095.422217
501.667390	3092.004314
502.033497	3072.338773
502.399546	3035.676982
502.765537	3006.891993
503.131470	2983.196050
503.497345	2974.127014
503.863163	2933.525561
504.228923	2927.481218
504.594625	2909.721233
504.960269	2879.234855
505.325856	2868.847557
505.691385	2847.659587
506.056856	2838.494770
506.422270	2823.905671
506.787625	2808.562919
507.152924	2796.194448
507.518164	2786.810340
507.883347	2767.474994
508.248472	2757.145670
508.613540	2754.451173
508.978550	2743.196797
509.343503	2734.639439
509.708398	2726.939076
510.073236	2721.590412
510.438016	2713.963146
510.802738	2709.229503
511.167403	2703.343956
511.532010	2693.294416
511.896561	2694.201823
512.261053	2688.648992
512.625488	2681.178002
512.989866	2673.734739
513.354186	2668.257525
513.718449	2663.745692
514.082655	2667.357679
514.446803	2660.821823
514.810894	2660.557162
515.174927	2656.496513
515.538904	2652.854279
515.902822	2651.967036
516.266684	2649.217087
516.630488	2643.087044
516.994235	2644.554020
517.357925	2642.494708
517.721558	2642.187198
518.085133	2637.698050
518.448651	2637.740900
518.812112	2636.841054
519.175516	2634.232257
519.538863	2630.413583
519.902152	2629.188583
520.265385	2632.334263
520.628560	2628.636576
520.991678	2629.158336
521.354739	2626.476442
521.717743	2625.311935
522.080690	2627.383850
522.443580	2621.636934
522.806413	2622.451081
523.169189	2621.987294
523.531908	2620.096862
523.894569	2617.941768
524.257174	2618.733230
524.619722	2618.740791
524.982213	2618.932355
525.344647	2615.116202
525.707025	2616.593260
526.069345	2616.424381
526.431608	2615.940430
526.793815	2616.310955
527.155964	2617.016717
527.518057	2614.375152
527.880093	2614.574278
528.242072	2611.466406
528.603995	2611.728546
528.965860	2610.944647
529.327669	2612.709051
529.689421	2610.271653
530.051117	2611.882302
530.412755	2608.484564
530.774337	2609.223093
531.135862	2607.982969
531.497331	2606.763010
531.858743	2601.313522
532.220098	2605.149841
532.581396	2603.766044
532.942638	2603.965169
533.303824	2606.586569
533.664953	2606.916765
534.026025	2605.492639
534.387040	2605.401898
534.747999	2604.935592
535.108902	2605.850561
535.469748	2604.509614
535.830537	2605.749738
536.191270	2606.553802
536.551947	2604.980962
536.912567	2604.920468
537.273131	2603.697988
537.633638	2604.451641
537.994089	2605.908534
538.354483	2603.035077
538.714821	2607.320057
539.075103	2604.580190
539.435328	2603.703029
539.795497	2603.529110
540.155609	2605.555653
540.515665	2605.714450
540.875665	2601.905858
541.235609	2602.238574
541.595496	2602.893924
541.955328	2602.369644
542.315102	2604.537340
542.674821	2603.690427
543.034483	2602.919130
543.394090	2598.765219
543.753640	2599.286979
544.113134	2601.177411
544.472571	2604.202104
544.831953	2604.136569
545.191278	2600.169181
545.550548	2603.040118
545.909761	2602.203286
546.268918	2602.145313
546.628019	2602.440220
546.987064	2603.965169
547.346053	2600.809407
547.704986	2604.199583
548.063863	2602.936774
548.422684	2603.685385
548.781449	2602.964500
549.140158	2603.060282
549.498811	2603.945005
549.857408	2601.835282
550.215949	2600.433841
550.574434	2599.924685
550.932864	2601.245467
551.291237	2598.553491
551.649555	2601.565580
552.007817	2600.022987
552.366022	2601.615992
552.724173	2601.684047
553.082267	2601.190014
553.440305	2604.615478
553.798288	2603.244284
554.156215	2605.303596
554.514086	2605.439707
554.871902	2599.120621
555.229661	2601.810076
555.587365	2601.028697
555.945014	2600.529623
556.302606	2601.585745
556.660143	2602.480550
557.017625	2600.441403
557.375050	2602.442741
557.732421	2600.776640
558.089735	2602.228492
558.446994	2600.688419
558.804197	2602.052052
559.161345	2602.964500
559.518437	2601.913420
559.875474	2603.526589
560.232455	2602.684716
560.589381	2604.025663
560.946251	2602.820827
561.303065	2600.958121
561.659825	2601.938626
562.016528	2599.501228
562.373177	2601.202617
562.729770	2599.092894
563.086307	2605.167485
563.442789	2601.805035
563.799216	2603.239243
564.155587	2598.087184
564.511904	2602.258739
564.868164	2600.496856
565.224370	2601.588265
565.580520	2596.602564
565.936615	2600.592638
566.292654	2600.383430
566.648638	2602.304109
567.004567	2596.713470
567.360441	2599.808738
567.716260	2599.539036
568.072023	2601.253029
568.427732	2596.481577
568.783385	2595.140630
569.138982	2597.971237
569.494525	2597.787235
569.850013	2595.843871
570.205445	2601.484922
570.560823	2597.280599
570.916145	2599.334870
571.271412	2599.286979
571.626625	2599.448296
571.981782	2597.981320
572.336884	2599.012236
572.691931	2600.292689
573.046923	2595.939652
573.401860	2595.110383
573.756743	2598.392174
574.111570	2595.125506
574.466342	2596.920157
574.821059	2598.122472
575.175722	2599.057606
575.530330	2596.564756
575.884882	2597.688933
576.239380	2596.390836
576.593823	2598.097266
576.948211	2597.278079
577.302544	2595.019642
577.656823	2596.957966
578.011047	2597.121803
578.365216	2594.931422
578.719330	2597.053747
579.073389	2594.858325
579.427394	2591.909250
579.781344	2593.998808
580.135239	2593.373705
580.489080	2596.715990
580.842866	2592.206678
581.196597	2592.892275
581.550273	2595.392687
581.903895	2593.676174
582.257463	2595.150712
582.610975	2592.788931
582.964434	2593.784559
583.317837	2594.109714
583.671186	2595.458222
584.024481	2592.670464
584.377721	2592.428489
584.730906	2595.027204
585.084037	2594.329004
585.437113	2592.030238
585.790135	2593.028386
586.143103	2590.832964
586.496016	2589.973447
586.848874	2587.679722
587.201679	2588.917325
587.554428	2588.143508
587.907124	2588.987901
588.259765	2587.697366
588.612352	2592.799014
588.964884	2588.216605
589.317362	2590.500247
589.669786	2588.055288
590.022155	2591.944538
590.374470	2591.286668
590.726731	2590.515371
591.078937	2589.038313
591.431090	2591.034610
591.783188	2591.107707
592.135232	2588.221646
592.487222	2588.433374
592.839157	2588.456060
593.191038	2589.136615
593.542866	2587.833477
593.894639	2588.503951
594.246358	2589.519743
594.598022	2587.962027
594.949633	2589.207192
595.301190	2589.781883
595.652692	2589.118971
596.004141	2589.308015
596.355535	2587.712489
596.706876	2587.115113
597.058162	2583.263671
597.409395	2587.135277
597.760573	2583.447673
598.111698	2586.868096
598.462768	2589.010587
598.813785	2586.553024
599.164748	2585.890112
599.515657	2585.348188
599.866511	2583.525811
600.217312	2587.568817
600.568060	2583.041860
600.918753	2587.591502
601.269392	2586.021182
601.619978	2583.155286
601.970510	2584.297108
602.320988	2587.319279
602.671412	2587.127716
603.021783	2584.660071
603.372100	2588.468662
603.722363	2586.061512
604.072572	2586.674012
604.422728	2587.899012
604.772830	2579.553382
605.122878	2581.083372
605.472872	2582.963723
605.822813	2581.479103
606.172701	2582.431881
606.522534	2587.543611
606.872314	2588.839187
607.222041	2583.684607
607.571714	2584.344999
607.921333	2584.891964
608.270899	2586.084197
608.620411	2586.079156
608.969870	2586.515215
609.319276	2589.149218
609.668627	2591.296750
610.017926	2591.100145
610.367171	2592.962851
610.716362	2591.037130
611.065500	2592.262131
611.414585	2586.820205
611.763616	2589.678539
612.112594	2586.449680
612.461518	2586.852973
612.810389	2584.982705
613.159207	2588.582088
613.507971	2588.723241
613.856682	2588.085535
614.205340	2585.312900
614.553945	2591.687439
614.902496	2585.741398
615.250994	2586.850452
615.599439	2588.657706
615.947830	2588.874475
616.296169	2584.130750
616.644454	2585.209557
616.992686	2587.377253
617.340864	2587.215936
617.688990	2583.971953
618.037063	2586.094279
618.385082	2584.163517
618.733048	2588.377922
619.080961	2585.393559
619.428821	2587.415061
619.776628	2588.723241
620.124382	2586.089238
620.472083	2584.103023
620.819731	2587.977150
621.167326	2585.088569
621.514868	2586.159814
621.862357	2585.449011
622.209793	2584.357602
622.557176	2586.999166
622.904506	2581.060687
623.251783	2578.172106
623.599007	2580.402816
623.946179	2578.719071
624.293297	2579.729822
624.640363	2582.154617
624.987376	2583.319124
625.334336	2583.004052
625.681243	2580.836356
626.028097	2581.567323
626.374899	2580.077662
626.721647	2581.630337
627.068343	2579.785275
627.414987	2579.969277
627.761577	2581.645461
628.108115	2578.283011
628.454600	2579.160172
628.801032	2579.545820
629.147412	2580.949782
629.493739	2579.046746
629.840014	2578.857703
630.186236	2579.873495
630.532405	2578.139338
630.878521	2579.376942
631.224585	2581.340471
631.570597	2578.996334
631.916556	2577.794019
632.262462	2580.488516
632.608316	2575.669173
632.954117	2577.579770
633.299866	2578.456931
633.645562	2576.949626
633.991206	2579.727302
634.336797	2578.683783
634.682336	2577.851992
635.027823	2574.106415
635.373257	2573.277145
635.718639	2572.067268
636.063968	2573.022567
636.409245	2573.435942
636.754470	2577.254616
637.099642	2572.195818
637.444762	2572.427711
637.789829	2572.498287
638.134845	2570.660787
638.479808	2573.428380
638.824719	2573.998030
639.169577	2573.791343
639.514383	2573.443503
639.859137	2570.867474
640.203839	2571.769840
640.548489	2571.807649
640.893086	2568.477967
641.237632	2567.394119
641.582125	2569.531568
641.926566	2564.540826
642.270955	2571.270766
642.615292	2570.464182
642.959576	2569.287072
643.303809	2574.232444
643.647990	2571.623647
643.992118	2572.886456
644.336195	2569.823955
644.680219	2572.677248
645.024192	2571.457289
645.368112	2571.479974
645.711981	2570.895200
646.055797	2569.801270
646.399562	2571.520303
646.743274	2569.350087
647.086935	2575.948957
647.430544	2573.282187
647.774101	2576.533731
648.117606	2571.394274
648.461059	2577.763772
648.804460	2575.520459
649.147810	2573.929975
649.491108	2570.867474
649.834354	2571.588359
650.177548	2571.240519
650.520690	2570.527196
650.863781	2570.184398
651.206820	2572.505849
651.549807	2570.801939
651.892742	2570.713719
652.235626	2567.731876
652.578458	2571.863102
652.921238	2565.486042
653.263967	2568.132648
653.606644	2564.578634
653.949269	2569.899572
654.291843	2568.707339
654.634365	2568.616599
654.976836	2567.895714
655.319255	2566.653069
655.661622	2570.648184
656.003938	2566.330435
656.346203	2565.498645
656.688416	2568.583831
657.030577	2565.201217
657.372687	2568.301527
657.714746	2564.608881
658.056753	2566.635425
658.398708	2561.448078
658.740612	2566.395970
659.082465	2563.605692
659.424266	2564.097204
659.766016	2562.821792
660.107715	2567.124417
660.449362	2565.206258
660.790958	2570.159192
661.132503	2567.933522
661.473996	2569.221537
661.815438	2565.947308
662.156829	2567.716753
662.498168	2563.807338
662.839456	2568.036866
663.180693	2565.533933
663.521879	2567.194993
663.863013	2566.506876
664.204097	2566.388409
664.545129	2565.140723
664.886110	2569.279510
665.227040	2567.643656
665.567918	2568.379664
665.908746	2568.011660
666.249522	2567.835220
666.590248	2567.389078
666.930922	2567.900755
667.271545	2566.295147
667.612118	2567.192473
667.952639	2565.770867
668.293109	2570.965776
668.633528	2567.074006
668.973896	2564.916392
669.314213	2568.546022
669.654480	2567.575600
669.994695	2567.000909
670.334859	2570.421332
670.674973	2565.231464
671.015035	2567.913358
671.355047	2567.573080
671.695008	2565.768347
672.034918	2563.857749
672.374777	2567.752041
672.714585	2568.316650
673.054342	2568.843451
673.394049	2565.334807
673.733705	2569.118193
674.073310	2568.818245
674.412864	2566.708522
674.752368	2566.282544
675.091820	2566.290106
675.431223	2564.482852
675.770574	2567.683985
676.109875	2561.443037
676.449125	2561.468242
676.788324	2561.803479
677.127473	2563.242729
677.466571	2559.713921
677.805619	2564.223233
678.144616	2565.055023
678.483562	2564.591237
678.822458	2566.103583
679.161303	2561.972358
679.500098	2562.930177
679.838842	2562.421021
680.177535	2562.834395
680.516179	2562.781463
680.854771	2563.252811
681.193314	2565.559139
681.531805	2567.469736
681.870247	2567.210117
682.208638	2567.406722
682.546978	2568.041907
682.885268	2568.404870
683.223508	2568.825807
683.561697	2567.512586
683.899836	2565.614592
684.237925	2564.150136
684.575963	2567.046279
684.913951	2566.743810
685.251889	2568.483008
685.589776	2564.664334
685.927614	2566.867318
686.265401	2565.856567
686.603137	2566.348079
686.940824	2568.288924
687.278460	2567.830179
687.616046	2567.010991
687.953582	2567.764644
688.291068	2568.084757
688.628504	2569.433266
688.965889	2566.355641
689.303224	2569.077864
689.640510	2565.596947
689.977745	2565.107956
690.314930	2565.972513
690.652065	2565.365054
690.989150	2563.517472
691.326185	2562.068140
691.663170	2559.784497
692.000105	2561.276679
692.336990	2559.751730
692.673825	2561.800959
693.010610	2562.975548
693.347345	2557.500854
693.684030	2554.398024
694.020665	2554.836605
694.357251	2550.849052
694.693786	2558.695608
695.030272	2557.505896
695.366707	2558.824157
695.703093	2557.329455
696.039429	2558.756102
696.375716	2557.339537
696.711952	2557.841132
697.048139	2556.429609
697.384276	2557.999929
697.720363	2557.100083
698.056400	2561.581668
698.392388	2555.504557
698.728326	2558.987995
699.064214	2555.300391
699.400053	2558.186451
699.735842	2555.807027
700.071581	2556.676626
700.407270	2553.510781
700.742910	2553.916594
701.078501	2553.987170
701.414042	2555.126471
701.749533	2556.613611
702.084974	2555.474311
702.420366	2553.306614
702.755709	2557.226112
703.091002	2555.759136
703.426246	2554.634958
703.761440	2552.469783
704.096584	2553.669578
704.431679	2552.515153
704.766725	2554.871893
705.101721	2553.425082
705.436668	2552.568085
705.771565	2554.519012
706.106413	2555.116389
706.441212	2550.849052
706.775961	2554.675288
707.110661	2551.544731
707.445311	2553.404917
707.779913	2553.871224
708.114465	2553.707386
708.448967	2554.244269
708.783421	2552.777293
709.117825	2555.436502
709.452180	2555.370967
709.786485	2558.546894
710.120742	2557.203426
710.454949	2558.645196
710.789107	2557.102603
711.123216	2555.554969
711.457275	2557.848694
711.791286	2558.010011
712.125247	2557.107644
712.459159	2557.737789
712.793023	2558.196534
713.126837	2555.834753
713.460602	2558.161246
713.794318	2559.156873
714.127985	2557.810885
714.461602	2554.077911
714.795171	2559.761812
715.128691	2556.699311
715.462162	2554.287119
715.795584	2552.903322
716.128957	2555.643189
716.462281	2556.807696
716.795556	2555.882644
717.128782	2554.017417
717.461960	2552.963816
717.795088	2554.909701
718.128167	2555.307953
718.461198	2556.953889
718.794180	2553.767880
719.127113	2551.635472
719.459997	2551.353167
719.792833	2551.615307
720.125619	2551.580019
720.458357	2550.201264
720.791046	2549.286294
721.123686	2549.530790
721.456278	2551.464073
721.788821	2550.838970
722.121315	2553.324258
722.453761	2552.868034
722.786158	2549.843342
723.118506	2549.929041
723.450805	2546.753114
723.783056	2552.472303
724.115259	2550.717982
724.447412	2546.233876
724.779518	2550.256716
725.111574	2547.758825
725.443582	2550.879299
725.775542	2549.485420
726.107453	2550.932231
726.439315	2549.898794
726.771129	2554.171172
727.102895	2551.030533
727.434612	2554.140925
727.766281	2554.410627
728.097901	2550.788558
728.429473	2550.095399
728.760996	2552.258054
729.092471	2547.083310
729.423897	2552.237890
729.755276	2552.868034
730.086606	2554.566903
730.417887	2553.780483
730.749120	2554.428271
731.080305	2552.545400
731.411442	2554.798796
731.742530	2554.181255
732.073570	2553.568754
732.404562	2555.738971
732.735506	2554.340051
733.066401	2554.423230
733.397249	2552.404248
733.728048	2554.909701
734.058798	2548.819988
734.389501	2551.930379
734.720156	2548.840152
735.050762	2549.510626
735.381320	2548.308310
735.711831	2548.870399
736.042293	2549.987015
736.372707	2547.305121
736.703073	2547.859648
737.033391	2552.648744
737.363661	2549.742519
737.693883	2549.739998
738.024056	2551.970709
738.354182	2551.222097
738.684260	2552.865513
739.014290	2550.662529
739.344272	2549.775286
739.674207	2549.354350
740.004093	2553.362067
740.333931	2548.411654
740.663722	2551.688404
740.993464	2549.377035
741.323159	2549.031716
741.652806	2549.109854
741.982405	2550.324772
742.311956	2549.160265
742.641460	2552.494989
742.970915	2548.414175
743.300323	2547.635316
743.629683	2549.608928
743.958996	2548.557848
744.288260	2546.977446
744.617477	2551.355688
744.946647	2543.796478
745.275768	2546.874102
745.604842	2546.390151
745.933869	2545.414688
746.262847	2545.265974
746.591778	2548.893084
746.920662	2543.168854
747.249498	2547.771427
747.578286	2544.948381
747.907027	2549.225800
748.235720	2546.914431
748.564365	2549.719833
748.892963	2548.406613
749.221514	2547.945347
749.550017	2548.976263
749.878473	2548.653629
750.206881	2545.066848
750.535242	2549.737477
750.863555	2546.375028
751.191821	2546.637168
751.520039	2547.509287
751.848210	2544.746735
752.176334	2546.254040
752.504411	2548.583053
752.832440	2546.916952
753.160421	2548.520039
753.488356	2545.187836
753.816243	2547.095913
754.144082	2543.597352
754.471875	2544.477033
754.799620	2546.521221
755.127318	2547.620193
755.454969	2545.364277
755.782572	2548.220090
756.110129	2543.914945
756.437638	2546.042312
756.765100	2543.950233
757.092515	2545.192877
757.419882	2545.192877
757.747203	2547.683207
758.074477	2545.727240
758.401703	2545.336550
758.728882	2546.312013
759.056014	2546.569112
759.383099	2542.808412
759.710138	2543.675490
760.037129	2547.887374
760.364073	2550.523898
760.690970	2546.102806
761.017820	2548.220090
761.344623	2547.504246
761.671379	2547.632796
761.998088	2545.087013
762.324751	2547.123639
762.651366	2552.069011
762.977935	2558.733417
763.304456	2561.012018
763.630931	2565.259190
763.957359	2564.409756
764.283740	2558.761143
764.610074	2555.408776
764.936362	2549.263609
765.262602	2549.533311
765.588796	2549.006510
765.914943	2548.222611
766.241044	2548.343598
766.567097	2546.324616
766.893104	2543.877136
767.219064	2543.153731
767.544978	2547.605069
767.870845	2545.351674
768.196665	2544.265305
768.522438	2546.206149
768.848165	2542.382434
769.173846	2540.340767
769.499479	2543.521735
769.825066	2543.151210
770.150607	2543.846889
770.476101	2541.991745
770.801548	2542.775644
771.126949	2542.420243
771.452303	2543.007537
771.777611	2539.647608
772.102872	2540.996117
772.428087	2540.789429
772.753256	2540.086188
773.078378	2540.214738
773.403453	2539.687937
773.728482	2541.512835
774.053465	2540.091230
774.378401	2540.900335
774.703291	2540.318082
775.028135	2538.591486
775.352932	2539.433359
775.677683	2540.376055
776.002388	2540.146682
776.327046	2540.678524
776.651658	2539.524100
776.976224	2542.165664
777.300743	2541.298586
777.625216	2540.804553
777.949643	2542.992414
778.274024	2541.225489
778.598359	2535.314736
778.922647	2535.097967
779.246889	2536.348173
779.571086	2535.226516
779.895236	2538.215920
780.219339	2539.753472
780.543397	2539.332536
780.867409	2539.602238
781.191374	2540.653318
781.515294	2537.608461
781.839167	2539.158616
782.162995	2541.530479
782.486776	2539.698020
782.810511	2539.045190
783.134201	2540.391178
783.457844	2537.984027
783.781441	2539.541744
784.104993	2536.398584
784.428498	2537.933616
784.751958	2537.525282
785.075372	2539.214069
785.398739	2537.719367
785.722061	2542.556354
786.045337	2539.420756
786.368568	2538.697351
786.691752	2539.156096
787.014891	2541.464944
787.337983	2538.949408
787.661030	2542.271529
787.984031	2542.253885
788.306987	2543.057949
788.629897	2546.553989
788.952760	2543.614996
789.275579	2542.460572
789.598351	2542.584080
789.921078	2541.580891
790.243759	2541.099460
790.566395	2536.033101
790.888984	2539.720705
791.211529	2541.099460
791.534027	2538.498225
791.856480	2534.147709
792.178888	2537.890766
792.501249	2538.989737
792.823566	2539.985365
793.145836	2539.793802
793.468062	2538.538554
793.790241	2539.559388
794.112375	2538.087371
794.434464	2539.466127
794.756507	2538.150385
795.078505	2538.006713
795.400457	2535.856660
795.722364	2534.321629
796.044226	2537.923533
796.366042	2537.164840
796.687812	2538.974614
797.009538	2542.211035
797.331218	2541.099460
797.652852	2540.154244
797.974442	2540.015612
798.295986	2538.442772
798.617484	2539.788760
798.938938	2538.904038
799.260346	2540.950746
799.581709	2537.744573
799.903026	2541.996786
800.224299	2538.561239
800.545526	2538.904038
800.866708	2537.805066
801.187845	2539.090561
801.508936	2536.935467
801.829983	2536.988399
802.150984	2536.653163
802.471940	2539.652649
802.792851	2539.256919
803.113717	2538.031918
803.434538	2538.440252
803.755314	2538.059645
804.076045	2537.190046
804.396731	2535.960004
804.717372	2539.219110
805.037967	2538.011754
805.358518	2538.735159
805.679024	2536.741383
805.999485	2536.600231
806.319901	2541.515356
806.640272	2536.645601
806.960598	2536.015457
807.280879	2537.348842
807.601115	2534.883718
807.921306	2537.013605
808.241453	2538.815818
808.561554	2538.047042
808.881611	2536.375899
809.201623	2539.750952
809.521590	2537.832793
809.841513	2537.696682
810.161390	2537.331198
810.481223	2535.561753
810.801011	2538.858667
811.120755	2538.583925
811.440453	2537.797505
811.760107	2536.411187
812.079716	2536.522093
812.399281	2535.143337
812.718801	2536.141486
813.038276	2533.759540
813.357707	2537.346321
813.677093	2538.518390
813.996434	2536.764068
814.315731	2537.195087
814.634983	2537.129552
814.954191	2536.723739
815.273354	2537.474871
815.592473	2537.028729
815.911547	2537.805066
816.230577	2539.559388
816.549562	2539.614841
816.868502	2536.012936
817.187399	2539.108205
817.506250	2541.878319
817.825058	2542.906714
818.143821	2542.271529
818.462539	2539.841692
818.781213	2538.188194
819.099843	2543.912424
819.418429	2542.614327
819.736970	2546.864020
820.055466	2545.434853
820.373919	2550.072714
820.692327	2550.231511
821.010691	2558.995557
821.329011	2569.541650
821.647286	2600.138934
821.965517	2622.947634
822.283704	2639.792650
822.601847	2648.042498
822.919945	2632.916516
823.237999	2619.547376
823.556010	2600.887545
823.873976	2586.099320
824.191897	2577.136149
824.509775	2569.163564
824.827609	2561.770712
825.145398	2559.693756
825.463144	2560.386915
825.780845	2559.262738
826.098502	2563.963614
826.416116	2569.319840
826.733685	2578.938361
827.051210	2585.113775
827.368692	2579.490367
827.686129	2569.985272
828.003522	2561.052347
828.320872	2554.705535
828.638177	2549.593805
828.955439	2543.604914
829.272656	2542.019471
829.589830	2539.816487
829.906960	2543.783875
830.224046	2540.549975
830.541088	2540.645757
830.858086	2541.164995
831.175041	2542.778165
831.491952	2538.503266
831.808819	2538.447813
832.125642	2541.144831
832.442421	2544.219935
832.759157	2544.943340
833.075849	2551.327962
833.392497	2553.420040
833.709101	2560.114693
834.025662	2558.640155
834.342179	2557.626883
834.658653	2550.702858
834.975083	2548.348640
835.291469	2550.307128
835.607811	2542.516025
835.924110	2541.361600
836.240366	2544.595501
836.556578	2539.907228
836.872746	2540.643236
837.188871	2537.099305
837.504952	2536.363296
837.820990	2538.762886
838.136984	2534.339273
838.452935	2534.177956
838.768842	2536.874973
839.084706	2535.811290
839.400526	2537.469830
839.716303	2544.187167
840.032037	2545.989380
840.347727	2545.792775
840.663373	2545.921324
840.978977	2540.728936
841.294537	2539.604758
841.610054	2537.893287
841.925527	2535.103008
842.240957	2534.319108
842.556344	2533.144520
842.871687	2534.324150
843.186987	2535.871784
843.502244	2532.642925
843.817458	2535.375230
844.132629	2533.089067
844.447756	2533.073943
844.762840	2532.348017
845.077881	2534.553522
845.392879	2531.962369
845.707833	2532.400949
846.022745	2530.563449
846.337613	2535.135775
846.652438	2530.147554
846.967221	2534.082174
847.281960	2536.426311
847.596656	2532.983203
847.911309	2533.046217
848.225919	2532.345497
848.540485	2532.108563
848.855009	2531.732997
849.169490	2532.773995
849.483928	2533.809952
849.798323	2533.197452
850.112675	2533.951104
850.426984	2533.066382
850.741251	2535.460930
851.055474	2532.519417
851.369654	2532.879859
851.683792	2534.775333
851.997887	2533.711649
852.311938	2531.826258
852.625947	2532.496731
852.939914	2533.313398
853.253837	2531.528830
853.567718	2534.198121
853.881555	2534.036804
854.195350	2530.467667
854.509103	2533.540250
854.822812	2533.318439
855.136479	2530.555887
855.450103	2532.718542
855.763685	2530.913809
856.077224	2533.663758
856.390720	2530.268541
856.704173	2534.296423
857.017584	2532.058151
857.330953	2531.246525
857.644278	2530.654190
857.957561	2537.278266
858.270802	2533.245343
858.584000	2532.050589
858.897155	2532.209386
859.210268	2533.401618
859.523339	2531.909437
859.836367	2536.688451
860.149352	2532.463964
860.462295	2533.676361
860.775195	2530.293747
861.088054	2528.952800
861.400869	2530.192924
861.713642	2526.845598
862.026373	2533.867925
862.339062	2532.262318
862.651708	2532.423635
862.964312	2531.775846
863.276873	2530.865918
863.589392	2534.545960
863.901869	2534.951773
864.214303	2533.941022
864.526696	2531.579241
864.839045	2533.943542
865.151353	2532.748789
865.463619	2536.683410
865.775842	2532.915147
866.088023	2533.658717
866.400162	2531.128058
866.712258	2532.642925
867.024313	2536.199459
867.336325	2535.067720
867.648296	2534.850950
867.960224	2533.232740
868.272110	2535.801208
868.583954	2534.883718
868.895755	2533.406660
869.207515	2534.286341
869.519233	2534.069571
869.830909	2533.769623
870.142542	2535.166022
870.454134	2535.922195
870.765684	2535.952442
871.077191	2528.299971
871.388657	2535.718029
871.700081	2533.068902
872.011463	2536.569984
872.322803	2534.361958
872.634101	2534.964376
872.945357	2534.462781
873.256571	2533.799870
873.567744	2535.392874
873.878874	2533.865405
874.189963	2535.788605
874.501010	2534.924047
874.812015	2534.059489
875.122979	2532.461443
875.433900	2533.147040
875.744780	2534.866074
876.055618	2533.620909
876.366415	2532.007739
876.677169	2534.041845
876.987882	2532.950435
877.298554	2532.249715
877.609183	2529.494724
877.919771	2531.521268
878.230317	2532.819365
878.540822	2539.304810
878.851285	2538.767927
879.161707	2539.360262
879.472087	2541.396888
879.782425	2545.460058
880.092722	2548.058773
880.402977	2556.601008
880.713191	2567.179870
881.023363	2585.333065
881.333494	2596.506782
881.643583	2594.765064
881.953631	2594.787749
882.263637	2590.006214
882.573602	2588.158632
882.883526	2579.810481
883.193408	2572.031980
883.503248	2562.920095
883.813048	2561.526216
884.122806	2555.123950
884.432522	2554.216543
884.742197	2550.080276
885.051831	2547.385779
885.361424	2544.431663
885.670975	2541.787578
885.980485	2542.311858
886.289954	2538.881353
886.599382	2540.486960
886.908768	2539.907227
887.218113	2538.473019
887.527417	2538.490663
887.836680	2536.481763
888.145901	2537.212731
888.455082	2534.808100
888.764221	2535.592000
889.073319	2535.823893
889.382376	2537.023687
889.691392	2533.552853
890.000366	2537.426980
890.309300	2534.382123
890.618193	2534.238450
890.927044	2537.177443
891.235855	2537.900848
891.544625	2536.222144
891.853353	2537.379089
892.162041	2535.755837
892.470687	2537.303472
892.779293	2537.805066
893.087858	2536.259953
893.396381	2535.236598
893.704864	2540.570139
894.013306	2542.011909
894.321707	2550.476007
894.630068	2550.665050
894.938387	2555.431461
895.246665	2555.655792
895.554903	2551.905174
895.863100	2548.225131
896.171256	2547.035419
896.479371	2545.674308
896.787446	2541.870757
897.095480	2540.822197
897.403473	2539.672814
897.711425	2538.228523
898.019336	2541.533000
898.327207	2538.556198
898.635038	2538.780530
898.942827	2535.546629
899.250576	2535.541588
899.558284	2533.555374
899.865952	2537.379089
900.173579	2537.353883
900.481165	2536.575025
900.788711	2534.051927
901.096216	2533.809952
901.403681	2534.624098
901.711105	2535.770961
902.018489	2533.983872
902.325832	2538.725077
902.633135	2532.537061
902.940397	2534.878677
903.247619	2538.755324
903.554800	2539.332536
903.861941	2547.700851
904.169041	2557.147974
904.476101	2563.061247
904.783121	2565.191135
905.090100	2559.814744
905.397039	2556.054043
905.703938	2548.648588
906.010796	2547.995759
906.317614	2543.592311
906.624391	2543.370500
906.931129	2539.640046
907.237826	2537.651311
907.544483	2534.500590
907.851099	2534.929088
908.157675	2532.705939
908.464211	2531.823737
908.770707	2529.673685
909.077163	2529.456916
909.383578	2529.582944
909.689954	2528.967924
909.996289	2525.829805
910.302584	2531.556556
910.608839	2532.799201
910.915054	2532.859694
911.221229	2530.618902
911.527363	2531.095291
911.833458	2532.393388
912.139513	2533.058820
912.445527	2534.397246
912.751502	2533.116793
913.057436	2533.134437
913.363331	2534.072092
913.669186	2532.234591
913.975000	2536.065868
914.280775	2536.282638
914.586510	2536.887576
914.892205	2540.297917
915.197859	2546.392672
915.503475	2548.946016
915.809050	2556.472459
916.114585	2559.235011
916.420081	2561.127965
916.725536	2560.359189
917.030952	2557.979764
917.336328	2554.640000
917.641665	2551.849721
917.946961	2547.395862
918.252218	2545.439894
918.557435	2542.473175
918.862612	2540.151723
919.167750	2541.028884
919.472848	2540.502084
919.777906	2538.553678
920.082925	2535.153419
920.387904	2534.177956
920.692843	2536.272556
920.997743	2535.319777
921.302603	2534.188038
921.607423	2533.177287
921.912204	2534.462781
922.216946	2533.845240
922.521647	2533.691485
922.826310	2534.891279
923.130932	2531.397760
923.435516	2532.121165
923.740059	2532.075795
924.044564	2532.993285
924.349028	2532.484128
924.653454	2524.556914
924.957840	2527.498427
925.262186	2530.089580
925.566493	2529.872811
925.870761	2525.769312
926.174989	2530.452543
926.479178	2531.153264
926.783328	2530.666793
927.087438	2528.645290
927.391509	2533.136958
927.695541	2530.069416
927.999533	2529.358613
928.303486	2530.160157
928.607400	2527.987419
928.911275	2530.139992
929.215110	2529.716535
929.518906	2529.585465
929.822663	2527.465660
930.126381	2528.473891
930.430060	2530.339118
930.733699	2530.142513
931.037299	2528.849457
931.340861	2530.263500
931.644383	2528.078160
931.947866	2530.588655
932.251309	2528.655372
932.554714	2531.198634
932.858080	2530.336597
933.161407	2531.843902
933.464694	2529.840043
933.767943	2527.763088
934.071153	2528.665454
934.374323	2529.003212
934.677455	2529.618233
934.980548	2532.547143
935.283602	2529.756864
935.586617	2531.259128
935.889593	2528.335259
936.192530	2527.508510
936.495428	2526.820392
936.798287	2528.786442
937.101108	2529.290558
937.403890	2528.552028
937.706632	2528.831812
938.009336	2530.266021
938.312002	2529.668644
938.614628	2529.222502
938.917216	2533.678882
939.219765	2530.800383
939.522275	2532.963038
939.824747	2531.433048
940.127179	2528.751154
940.429573	2528.342821
940.731929	2524.249404
941.034246	2522.437109
941.336524	2528.582275
941.638763	2528.415917
941.940964	2528.105886
942.243126	2528.448685
942.545250	2530.505476
942.847335	2531.168387
943.149381	2528.630166
943.451389	2527.536236
943.753359	2530.177801
944.055290	2528.549508
944.357182	2526.515402
944.659036	2530.061854
944.960851	2527.102697
945.262628	2529.966072
945.564367	2528.632687
945.866067	2528.645290
946.167729	2529.701412
946.469352	2526.991791
946.770937	2528.514220
947.072484	2530.742410
947.373992	2529.756864
947.675462	2528.221833
947.976893	2528.216792
948.278286	2526.714528
948.579641	2529.910619
948.880958	2526.558252
949.182236	2530.329035
949.483476	2527.410207
949.784678	2528.340300
950.085841	2527.165711
950.386967	2531.130579
950.688054	2528.168901
950.989103	2529.532533
951.290114	2530.891124
951.591087	2529.807276
951.892021	2529.184693
952.192917	2530.944056
952.493776	2531.526309
952.794596	2531.044879
953.095378	2527.586648
953.396122	2532.247194
953.696828	2531.775846
953.997496	2531.251566
954.298126	2527.372398
954.598718	2529.953469
954.899272	2529.305681
955.199788	2528.713345
955.500266	2528.597399
955.800706	2527.135464
956.101108	2522.679084
956.401472	2525.267717
956.701798	2522.162366
957.002087	2524.927439
957.302337	2525.562624
957.602550	2530.616381
957.902724	2527.253931
958.202861	2526.333921
958.502960	2528.184024
958.803022	2528.705784
959.103045	2528.022707
959.403031	2528.138654
959.702979	2527.856349
960.002889	2526.822913
960.302762	2527.256452
960.602596	2529.676206
960.902393	2526.268386
961.202153	2525.706297
961.501875	2526.585978
961.801559	2526.449867
962.101205	2525.819723
962.400814	2528.000022
962.700385	2529.414066
962.999918	2528.640249
963.299414	2525.580268
963.598873	2526.369209
963.898293	2525.338293
964.197677	2529.232584
964.497022	2527.364837
964.796331	2524.599764
965.095601	2527.717718
965.394835	2525.975999
965.694030	2528.799045
965.993189	2525.315608
966.292309	2525.565145
966.591393	2526.485155
966.890439	2522.709331
967.189447	2528.970444
967.488419	2526.797707
967.787353	2526.255783
968.086249	2525.562624
968.385108	2525.703777
968.683930	2528.226874
968.982714	2525.671009
969.281462	2526.086904
969.580172	2526.255783
969.878844	2526.762419
970.177480	2527.533715
970.476078	2526.812830
970.774639	2527.621936
971.073162	2524.420803
971.371649	2525.686133
971.670098	2520.206398
971.968510	2522.923580
972.266885	2521.564989
972.565223	2525.539939
972.863524	2525.489527
973.161788	2526.359127
973.460014	2525.224867
973.758204	2525.474404
974.056356	2524.745957
974.354471	2525.237470
974.652550	2524.554393
974.950591	2526.948942
975.248595	2524.463653
975.546563	2524.078004
975.844493	2526.293592
976.142386	2526.999353
976.440243	2527.163191
976.738062	2528.662934
977.035845	2526.220495
977.333590	2525.066071
977.631299	2526.124713
977.928971	2526.573376
978.226606	2524.735875
978.524204	2524.761081
978.821765	2526.366688
979.119290	2527.503468
979.416777	2525.910464
979.714228	2526.273427
980.011642	2524.814013
980.309020	2528.400794
980.606360	2527.321987
980.903664	2525.423993
981.200931	2526.013807
981.498162	2523.964578
981.795356	2527.062368
982.092513	2526.094466
982.389633	2527.569003
982.686717	2528.678057
982.983764	2524.856863
983.280775	2526.182686
983.577749	2526.865762
983.874686	2528.506658
984.171587	2529.199817
984.468451	2528.894827
984.765279	2528.136133
985.062070	2525.257634
985.358824	2527.765608
985.655543	2528.108407
985.952224	2526.192768
986.248869	2525.671009
986.545478	2521.653209
986.842050	2524.660258
987.138586	2522.376615
987.435086	2522.563138
987.731549	2519.046933
988.027975	2525.849970
988.324366	2524.937521
988.620719	2525.073632
988.917037	2524.236801
989.213318	2526.724610
989.509563	2523.291584
989.805772	2526.868283
990.101944	2526.744775
990.398080	2526.207892
990.694180	2524.224198
990.990244	2523.720083
991.286271	2525.933149
991.582262	2524.796369
991.878217	2527.125382
992.174136	2523.951976
992.470019	2525.020700
992.765865	2525.418951
993.061676	2523.029444
993.357450	2525.779394
993.653188	2524.647655
993.948890	2526.039013
994.244556	2525.287881
994.540186	2526.656555
994.835780	2526.616225
995.131337	2525.439116
995.426859	2524.972809
995.722345	2525.454239
996.017795	2524.516585
996.313208	2527.700073
996.608586	2525.199661
996.903928	2524.904754
997.199234	2526.175124
997.494504	2526.621267
997.789738	2523.140350
998.084936	2528.700743
998.380099	2525.923067
998.675225	2526.177645
998.970316	2525.166894
999.265371	2524.703108
999.560390	2525.119003
999.855373	2527.899199
1000.150320	2525.855011
1000.445232	2527.911802
1000.740108	2526.855680
1001.034948	2527.581606
1001.329752	2523.221008
1001.624521	2525.471883
1001.919254	2518.096675
1002.213951	2521.088600
1002.508613	2520.420647
1002.803239	2525.426513
1003.097829	2520.080369
1003.392384	2525.960875
1003.686903	2523.281502
1003.981386	2527.851308
1004.275834	2525.149250
1004.570246	2523.944414
1004.864623	2523.624301
1005.158964	2524.914836
1005.453270	2525.295443
1005.747540	2523.374763
1006.041775	2525.113962
1006.335974	2526.021369
1006.630138	2525.000536
1006.924266	2524.745957
1007.218359	2524.312418
1007.512416	2526.139836
1007.806438	2527.405166
1008.100425	2524.677902
1008.394376	2525.676050
1008.688292	2522.235463
1008.982172	2524.201513
1009.276017	2523.778056
1009.569827	2524.438447
1009.863602	2530.397091
1010.157341	2524.859383
1010.451045	2524.506502
1010.744714	2525.345855
1011.038347	2526.976668
1011.331945	2524.783766
1011.625508	2522.792510
1011.919036	2526.621267
1012.212528	2525.292922
1012.505986	2525.489528
1012.799408	2523.646986
1013.092795	2527.122861
1013.386147	2523.853673
1013.679464	2527.664785
1013.972745	2525.860052
1014.265992	2524.935001
1014.559204	2523.311749
1014.852380	2524.166225
1015.145521	2524.541791
1015.438628	2524.340144
1015.731699	2525.338293
1016.024736	2522.890813
1016.317737	2526.747295
1016.610703	2524.718231
1016.903635	2522.177489
1017.196531	2522.195133
1017.489393	2523.838550
1017.782219	2520.400483
1018.075011	2523.669671
1018.367768	2524.435926
1018.660490	2524.453570
1018.953177	2524.453570
1019.245829	2524.453570
