Dividing Wavelength (nm)	Counts (n)	Blue Motor Position (mm): 0.000000	Red Motor Position (mm): 27.100000	
326.493990	2126.860287
326.888308	2126.860287
327.282561	2126.860287
327.676750	2093.981882
328.070874	2093.641604
328.464933	2095.363158
328.858929	2103.784405
329.252859	2114.718668
329.646726	2123.119751
330.040528	2135.876391
330.434265	2154.480769
330.827938	2170.017605
331.221547	2189.032838
331.615091	2206.792823
332.008571	2225.480380
332.401986	2247.903432
332.795338	2266.991761
333.188625	2286.332148
333.581847	2304.266053
333.975006	2322.575523
334.368100	2338.389623
334.761129	2358.080370
335.154095	2376.790613
335.546996	2393.272665
335.939833	2408.277659
336.332606	2426.821544
336.725315	2437.314706
337.117960	2448.934565
337.510540	2453.920266
337.903056	2469.010960
338.295508	2472.741414
338.687896	2482.939668
339.080220	2490.352685
339.472480	2496.898623
339.864676	2503.434479
340.256807	2505.226610
340.648875	2509.904800
341.040879	2512.435460
341.432818	2512.231293
341.824694	2514.845131
342.216506	2512.901766
342.608253	2514.456962
342.999937	2516.657426
343.391557	2515.858403
343.783113	2514.252796
344.174605	2512.732888
344.566033	2511.782630
344.957397	2509.952691
345.348697	2508.762979
345.739934	2506.280211
346.131106	2503.646208
346.522215	2504.543533
346.913260	2502.159067
347.304241	2499.094046
347.695159	2499.003305
348.086012	2496.893582
348.476802	2496.094559
348.867528	2493.029538
349.258191	2489.901502
349.648789	2489.878817
350.039324	2488.880668
350.429796	2490.521564
350.820203	2485.855976
351.210548	2484.877992
351.600828	2486.561738
351.991045	2485.855976
352.381198	2486.627272
352.771288	2484.338589
353.161314	2481.762559
353.551276	2484.573002
353.941175	2483.209370
354.331010	2484.923362
354.720782	2483.781541
355.110490	2481.870944
355.500135	2482.680049
355.889717	2484.930924
356.279235	2485.329175
356.668689	2488.179948
357.058080	2485.898826
357.447408	2481.613845
357.836672	2482.339771
358.225873	2485.671974
358.615010	2481.291211
359.004084	2487.532160
359.393095	2487.053250
359.782043	2488.968888
360.170927	2487.801861
360.559748	2491.096255
360.948505	2488.968888
361.337199	2494.030207
361.725830	2489.195740
362.114398	2493.150526
362.502903	2494.362923
362.891344	2494.846874
363.279722	2495.048520
363.668037	2493.785711
364.056289	2495.855105
364.444478	2493.914260
364.832603	2495.693788
365.220665	2498.784015
365.608665	2496.691936
365.996601	2501.365086
366.384474	2500.011536
366.772284	2501.970024
367.160031	2502.872391
367.547715	2505.362721
367.935336	2504.979593
368.322893	2510.156858
368.710388	2509.851868
369.097820	2520.854187
369.485189	2522.825278
369.872495	2530.429858
370.259738	2535.483615
370.646918	2541.701878
371.034035	2553.349464
371.421090	2559.106462
371.808081	2570.431414
372.195010	2579.954154
372.581875	2593.219950
372.968678	2606.831065
373.355418	2615.761469
373.742096	2633.055148
374.128710	2647.886222
374.515262	2663.181083
374.901751	2680.051304
375.288177	2691.426668
375.674540	2713.839638
376.060841	2733.845457
376.447079	2754.017634
376.833254	2772.584204
377.219367	2786.132305
377.605417	2823.146977
377.991404	2830.602843
378.377329	2854.694518
378.763191	2871.421066
379.148991	2913.113929
379.534727	2933.454985
379.920402	2960.336938
380.306013	2975.556181
380.691563	3023.973943
381.077049	3045.885318
381.462474	3061.212947
381.847835	3101.000253
382.233134	3124.476907
382.618371	3123.009931
383.003545	3191.052905
383.388657	3198.009697
383.773706	3230.724265
384.158693	3248.761514
384.543618	3276.039197
384.928480	3309.330977
385.313280	3354.555168
385.698017	3355.165148
386.082692	3405.445617
386.467305	3413.945002
386.851856	3445.661421
387.236344	3468.838126
387.620770	3498.044051
388.005133	3524.812578
388.389435	3553.479099
388.773674	3563.584092
389.157851	3604.924074
389.541965	3623.722537
389.926018	3588.416816
390.310008	3658.161179
390.693936	3674.360927
391.077802	3716.477247
391.461606	3703.949980
391.845348	3766.823251
392.229027	3766.427520
392.612645	3783.690951
392.996200	3860.155173
393.379694	3897.537849
393.763125	3963.965133
394.146494	3927.850307
394.529801	3989.790965
394.913047	4040.550343
395.296230	4005.930219
395.679351	4059.863003
396.062410	4084.466354
396.445408	4063.502716
396.828343	4094.672170
397.211217	4124.707365
397.594028	4043.471691
397.976778	4106.947380
398.359466	4137.290085
398.742092	4163.531811
399.124656	4086.434925
399.507158	4164.845032
399.889598	4192.899053
400.271977	4255.013630
400.654294	4225.064135
401.036549	4230.808530
401.418742	4206.510168
401.800874	4307.620591
402.182944	4325.509126
402.564952	4386.320564
402.946898	4377.576683
403.328783	4375.872773
403.710606	4286.979587
404.092367	4480.885049
404.474067	4443.401549
404.855705	4454.194660
405.237282	4377.516189
405.618797	4488.333354
406.000250	4523.258468
406.381642	4604.468935
406.762972	4564.522832
407.144240	4577.851643
407.525447	4575.048762
407.906593	4636.485303
408.287677	4678.586500
408.668700	4608.811889
409.049661	4657.030526
409.430560	4699.514850
409.811399	4628.674036
410.192176	4787.485505
410.572891	4728.962750
410.953545	4831.575437
411.334138	4707.661355
411.714669	4781.662972
412.095139	4672.317825
412.475547	4813.903672
412.855894	4793.832318
413.236180	4803.705418
413.616405	4759.907873
413.996568	4845.476418
414.376670	4786.046256
414.756711	4742.072271
415.136691	4777.025111
415.516609	4849.713508
415.896466	4891.315630
416.276262	4922.258233
416.655997	4904.677209
417.035670	5085.402574
417.415283	5180.493859
417.794834	5121.361124
418.174324	5071.204164
418.553753	4987.117718
418.933121	5167.165048
419.312428	5230.509667
419.691674	5168.773176
420.070859	5300.596829
420.449983	5205.407241
420.829045	5324.396116
421.208047	5231.780038
421.586988	5306.555473
421.965867	5314.757430
422.344686	5452.398574
422.723444	5303.712262
423.102141	5117.718891
423.480777	5414.413480
423.859352	5190.843348
424.237866	5443.821051
424.616319	5438.510195
424.994712	5547.678902
425.373044	5424.848668
425.751314	5563.984514
426.129524	5372.463518
426.507673	5564.765893
426.885762	5649.537936
427.263789	5575.133026
427.641756	5461.354184
428.019662	5580.055713
428.397508	5588.222382
428.775292	5534.387900
429.153016	5632.745853
429.530679	5560.417898
429.908282	5643.181041
430.285824	5516.927864
430.663305	5787.252177
431.040726	5526.122928
431.418086	5524.908010
431.795385	5629.401047
432.172624	5639.758098
432.549802	5635.521008
432.926920	5651.582124
433.303977	5653.112114
433.680974	5694.893197
434.057910	5715.322473
434.434786	5718.437907
434.811601	5687.454975
435.188355	5921.646818
435.565050	5794.599659
435.941683	5776.196927
436.318257	5991.623075
436.694770	5973.532894
437.071222	6005.856772
437.447614	5938.953099
437.823946	5850.362382
438.200218	6002.320403
438.576429	5869.927100
438.952580	5972.005424
439.328670	6010.938256
439.704700	5917.860912
440.080670	5907.876906
440.456580	6173.696949
440.832429	6060.843158
441.208218	5902.344240
441.583947	6062.486574
441.959616	6063.114198
442.335224	5988.547971
442.710773	6123.718949
443.086261	6145.930273
443.461689	5943.606084
443.837057	6089.386171
444.212365	6242.337299
444.587612	6132.019209
444.962800	6280.856756
445.337927	6257.039825
445.712995	5869.934662
446.088002	6437.296363
446.462949	6261.584425
446.837837	6188.356624
447.212664	6358.810638
447.587431	6492.040773
447.962139	7010.896491
448.336786	7916.819564
448.711374	7657.074112
449.085901	6744.116109
449.460369	6656.967162
449.834776	6583.275575
450.209124	6952.832481
450.583412	7084.792245
450.957640	7216.409210
451.331808	6975.600853
451.705917	6536.702875
452.079965	6449.135512
452.453954	6635.620396
452.827883	6508.724472
453.201752	6585.448312
453.575562	6378.503906
453.949311	6552.849691
454.323001	6431.738491
454.696632	6487.115566
455.070202	6595.807884
455.443713	6724.369910
455.817164	6791.281145
456.190556	6839.721592
456.563888	6884.149281
456.937160	6909.080307
457.310373	6570.521456
457.683526	6570.753349
458.056619	6443.822136
458.429653	6407.757722
458.802628	6326.499363
459.175542	6390.842130
459.548398	6661.342884
459.921194	6770.945130
460.293930	6726.648511
460.666607	7118.169725
461.039224	7323.899213
461.411782	7382.542956
461.784280	7362.547219
462.156719	7238.023157
462.529099	7093.478153
462.901419	6722.343366
463.273680	6602.573112
463.645882	6568.681435
464.018024	6407.661940
464.390106	6489.978941
464.762130	6728.453244
465.134094	6995.339491
465.505999	7656.486818
465.877845	8439.010006
466.249631	8838.402981
466.621358	8506.059872
466.993026	7993.273703
467.364634	7751.215139
467.736184	7423.502331
468.107674	7121.227184
468.479105	7056.460960
468.850477	6847.391708
469.221790	6628.572863
469.593043	6355.211255
469.964238	6189.153126
470.335373	6130.758921
470.706449	6096.786585
471.077467	6012.541342
471.448425	6653.972717
471.819324	7146.811040
472.190164	7087.844664
472.560945	6351.949628
472.931667	5855.806828
473.302330	5721.482763
473.672934	5467.368280
474.043479	5568.829063
474.413965	5472.265761
474.784393	5337.954299
475.154761	5345.349672
475.525070	5305.897602
475.895321	5169.546993
476.265513	5169.559596
476.635645	5173.849618
477.005719	5093.932206
477.375734	5077.498045
477.745691	5089.180919
478.115588	5063.445828
478.485427	5069.918670
478.855207	5183.178273
479.224928	5377.958376
479.594591	5504.070401
479.964194	5350.748748
480.333739	5232.677363
480.703226	5101.362867
481.072653	5052.834200
481.442022	5041.418507
481.811333	5020.671638
482.180584	4886.728180
482.549777	4720.730546
482.918912	4609.477322
483.287988	4538.853277
483.657005	4477.885562
484.025964	4334.048840
484.394864	4287.844145
484.763706	4212.317578
485.132489	4108.805045
485.501213	4035.731000
485.869879	3990.963033
486.238487	3898.669588
486.607036	3866.083570
486.975527	3769.890793
487.343959	3752.392948
487.712333	3705.563149
488.080648	3650.070127
488.448905	3600.321501
488.817104	3548.286711
489.185244	3533.372457
489.553326	3503.942201
489.921350	3530.604864
490.289315	3596.404524
490.657222	3585.581167
491.025070	3528.593443
491.392861	3473.990185
491.760593	3387.274778
492.128267	3312.905155
492.495883	3247.566760
492.863440	3181.880526
493.230939	3124.698718
493.598380	3094.235025
493.965763	3049.890515
494.333088	3023.280785
494.700354	2989.583192
495.067563	2973.895121
495.434713	2938.072682
495.801805	2926.233532
496.168839	2903.666807
496.535815	2881.458003
496.902733	2864.527288
497.269593	2845.927951
497.636395	2834.063596
498.003139	2815.295380
498.369825	2798.014304
498.736453	2789.761936
499.103023	2777.186777
499.469535	2764.084818
499.835989	2752.780031
500.202385	2740.807291
500.568723	2728.963100
500.935003	2725.315825
501.301226	2713.572457
501.667390	2711.999617
502.033497	2704.213555
502.399546	2697.536547
502.765537	2689.206040
503.131470	2685.578930
503.497345	2681.735050
503.863163	2671.320026
504.228923	2671.771209
504.594625	2667.085457
504.960269	2661.172183
505.325856	2658.092038
505.691385	2652.738333
506.056856	2650.850421
506.422270	2648.594504
506.787625	2647.200625
507.152924	2641.108391
507.518164	2640.901704
507.883347	2637.808956
508.248472	2632.493059
508.613540	2631.719242
508.978550	2630.055661
509.343503	2629.362503
509.708398	2631.482308
510.073236	2630.736217
510.438016	2626.683129
510.802738	2625.516102
511.167403	2628.082049
511.532010	2621.770525
511.896561	2622.705659
512.261053	2624.328910
512.625488	2618.224073
512.989866	2615.910183
513.354186	2615.479165
513.718449	2607.667897
514.082655	2613.447580
514.446803	2616.560492
514.810894	2614.259206
515.174927	2616.225256
515.538904	2616.000924
515.902822	2616.197529
516.266684	2608.897938
516.630488	2609.817949
516.994235	2607.698144
517.357925	2612.225100
517.721558	2612.003289
518.085133	2607.582197
518.448651	2610.811056
518.812112	2611.032867
519.175516	2610.558999
519.538863	2609.253340
519.902152	2607.105808
520.265385	2609.036570
520.628560	2607.675459
520.991678	2605.837958
521.354739	2607.962804
521.717743	2606.437855
522.080690	2608.018257
522.443580	2607.257043
522.806413	2608.819801
523.169189	2606.276538
523.531908	2606.710078
523.894569	2607.287290
524.257174	2604.313009
524.619722	2605.240581
524.982213	2606.629419
525.344647	2602.097422
525.707025	2605.608586
526.069345	2606.150510
526.431608	2605.290993
526.793815	2605.175046
527.155964	2606.274018
527.518057	2604.708740
527.880093	2604.890221
528.242072	2600.670775
528.603995	2606.483226
528.965860	2601.817638
529.327669	2603.448451
529.689421	2602.997268
530.051117	2604.353338
530.412755	2601.164808
530.774337	2601.535333
531.135862	2601.615992
531.497331	2600.572473
531.858743	2595.160794
532.220098	2599.150867
532.581396	2595.410331
532.942638	2596.766402
533.303824	2600.164139
533.664953	2600.716146
534.026025	2599.465940
534.387040	2599.881835
534.747999	2600.635487
535.108902	2599.957452
535.469748	2601.742021
535.830537	2601.520210
536.191270	2599.972576
536.551947	2598.200610
536.912567	2600.249839
537.273131	2600.852257
537.633638	2597.714139
537.994089	2597.746906
538.354483	2597.701536
538.714821	2600.166660
539.075103	2599.909561
539.435328	2600.073399
539.795497	2596.826896
540.155609	2597.318408
540.515665	2600.474170
540.875665	2599.649942
541.235609	2596.537029
541.595496	2601.767226
541.955328	2600.627926
542.315102	2600.322936
542.674821	2601.820158
543.034483	2600.315374
543.394090	2597.812441
543.753640	2599.322267
544.113134	2598.724890
544.472571	2600.436362
544.831953	2599.324787
545.191278	2601.000971
545.550548	2603.501383
545.909761	2597.315887
546.268918	2602.772937
546.628019	2599.105497
546.987064	2601.341249
547.346053	2599.080291
547.704986	2599.781012
548.063863	2599.032400
548.422684	2602.795622
548.781449	2600.363265
549.140158	2597.847729
549.498811	2601.071547
549.857408	2600.091043
550.215949	2598.286310
550.574434	2594.054261
550.932864	2597.948552
551.291237	2596.678182
551.649555	2599.276896
552.007817	2600.466609
552.366022	2600.355703
552.724173	2597.487287
553.082267	2597.441916
553.440305	2601.230343
553.798288	2595.838829
554.156215	2600.063316
554.514086	2600.942998
554.871902	2599.675147
555.229661	2600.058275
555.587365	2599.586927
555.945014	2602.959459
556.302606	2598.533326
556.660143	2599.312184
557.017625	2600.247318
557.375050	2597.469643
557.732421	2600.368306
558.089735	2600.121290
558.446994	2599.667586
558.804197	2601.386619
559.161345	2601.416866
559.518437	2599.818820
559.875474	2598.097266
560.232455	2600.254880
560.589381	2599.289499
560.946251	2604.451641
561.303065	2601.615992
561.659825	2600.852257
562.016528	2596.970568
562.373177	2600.867380
562.729770	2595.715321
563.086307	2600.363265
563.442789	2599.148347
563.799216	2599.115579
564.155587	2598.964345
564.511904	2599.518872
564.868164	2599.355034
565.224370	2599.355034
565.580520	2598.702205
565.936615	2600.408635
566.292654	2596.355548
566.648638	2595.750609
567.004567	2598.941660
567.360441	2597.877976
567.716260	2597.265476
568.072023	2598.878645
568.427732	2594.056782
568.783385	2595.400249
569.138982	2592.715835
569.494525	2592.196596
569.850013	2594.535691
570.205445	2599.171032
570.560823	2595.417893
570.916145	2596.935280
571.271412	2595.160794
571.626625	2596.247163
571.981782	2597.063830
572.336884	2595.763212
572.691931	2596.176587
573.046923	2594.881010
573.401860	2594.576020
573.756743	2597.046186
574.111570	2596.103490
574.466342	2595.485949
574.821059	2595.054930
575.175722	2595.493510
575.530330	2594.467636
575.884882	2594.704570
576.239380	2591.480752
576.593823	2596.083325
576.948211	2592.078129
577.302544	2594.611308
577.656823	2596.479056
578.011047	2595.954776
578.365216	2596.819334
578.719330	2592.907398
579.073389	2596.247163
579.427394	2592.153746
579.781344	2592.607450
580.135239	2593.771956
580.489080	2591.107707
580.842866	2593.935794
581.196597	2597.159612
581.550273	2590.051585
581.903895	2594.260948
582.257463	2593.721545
582.610975	2591.405135
582.964434	2593.754312
583.317837	2590.336410
583.671186	2591.261462
584.024481	2590.785073
584.377721	2592.078129
584.730906	2593.693818
585.084037	2592.922522
585.437113	2590.601071
585.790135	2588.783735
586.143103	2590.815320
586.496016	2590.848087
586.848874	2586.212746
587.201679	2589.744074
587.554428	2586.235431
587.907124	2589.151739
588.259765	2583.845924
588.612352	2591.695001
588.964884	2590.396904
589.317362	2587.576378
589.669786	2588.398086
590.022155	2592.433530
590.374470	2589.597881
590.726731	2591.836153
591.078937	2587.369691
591.431090	2588.650144
591.783188	2591.783221
592.135232	2586.724423
592.487222	2587.944382
592.839157	2590.815320
593.191038	2588.687953
593.542866	2586.847932
593.894639	2586.434557
594.246358	2587.815833
594.598022	2587.599063
594.949633	2585.645616
595.301190	2587.825915
595.652692	2587.387335
596.004141	2587.241142
596.355535	2588.193920
596.706876	2585.184351
597.058162	2585.083528
597.409395	2585.602767
597.760573	2585.522108
598.111698	2583.364494
598.462768	2586.605956
598.813785	2584.667633
599.164748	2584.675194
599.515657	2586.300966
599.866511	2583.263671
600.217312	2584.503795
600.568060	2582.845255
600.918753	2585.766604
601.269392	2583.361974
601.619978	2584.130750
601.970510	2584.402972
602.320988	2582.905749
602.671412	2584.813826
603.021783	2583.167889
603.372100	2583.672005
603.722363	2583.195616
604.072572	2585.461614
604.422728	2584.821388
604.772830	2580.365008
605.122878	2579.124884
605.472872	2580.596901
605.822813	2578.822415
606.172701	2581.721078
606.522534	2584.657550
606.872314	2583.944227
607.222041	2584.677715
607.571714	2586.976481
607.921333	2583.677046
608.270899	2580.851479
608.620411	2585.161666
608.969870	2582.797364
609.319276	2585.023034
609.668627	2588.589650
610.017926	2591.503437
610.367171	2591.654672
610.716362	2591.596698
611.065500	2590.144846
611.414585	2586.152252
611.763616	2587.573858
612.112594	2587.982191
612.461518	2586.442119
612.810389	2588.345154
613.159207	2588.022520
613.507971	2582.280646
613.856682	2585.254927
614.205340	2585.322982
614.553945	2590.598550
614.902496	2585.317941
615.250994	2585.265009
615.599439	2584.271902
615.947830	2585.411203
616.296169	2582.023547
616.644454	2585.731316
616.992686	2584.743250
617.340864	2586.258117
617.688990	2585.723754
618.037063	2583.271233
618.385082	2584.450863
618.733048	2584.350040
619.080961	2582.817529
619.428821	2585.713672
619.776628	2583.258630
620.124382	2586.416913
620.472083	2583.828280
620.819731	2585.723754
621.167326	2584.788620
621.514868	2585.809454
621.862357	2584.304669
622.209793	2582.663774
622.557176	2580.528845
622.904506	2580.191088
623.251783	2579.931468
623.599007	2577.514235
623.946179	2578.484657
624.293297	2579.384503
624.640363	2578.734194
624.987376	2580.324678
625.334336	2580.528845
625.681243	2578.061200
626.028097	2579.303845
626.374899	2579.868454
626.721647	2578.504822
627.068343	2580.291911
627.414987	2578.668659
627.761577	2578.318299
628.108115	2579.896180
628.454600	2578.726633
628.801032	2576.377455
629.147412	2576.604307
629.493739	2581.148907
629.840014	2578.129256
630.186236	2579.807960
630.532405	2577.133628
630.878521	2578.025912
631.224585	2576.261508
631.570597	2576.334605
631.916556	2574.252609
632.262462	2575.459965
632.608316	2574.250088
632.954117	2573.811508
633.299866	2576.692527
633.645562	2576.279152
633.991206	2577.557085
634.336797	2575.591035
634.682336	2576.639595
635.027823	2572.727660
635.373257	2575.878381
635.718639	2574.444172
636.063968	2575.376786
636.409245	2570.590210
636.754470	2573.347722
637.099642	2571.041394
637.444762	2572.326888
637.789829	2569.861764
638.134845	2571.822773
638.479808	2571.263204
638.824719	2571.127093
639.169577	2569.035014
639.514383	2570.653225
639.859137	2568.437638
640.203839	2567.104252
640.548489	2568.167936
640.893086	2567.613409
641.237632	2563.575445
641.582125	2567.973852
641.926566	2566.433779
642.270955	2569.408060
642.615292	2569.975190
642.959576	2570.968297
643.303809	2568.878739
643.647990	2568.480488
643.992118	2570.373441
644.336195	2566.227092
644.680219	2569.193811
645.024192	2568.944274
645.368112	2569.584500
645.711981	2572.052145
646.055797	2568.563667
646.399562	2571.573235
646.743274	2569.556774
647.086935	2573.761096
647.430544	2575.497774
647.774101	2571.255643
648.117606	2569.924778
648.461059	2569.428224
648.804460	2573.055335
649.147810	2571.353945
649.491108	2568.861095
649.834354	2570.746486
650.177548	2568.543502
650.520690	2568.601475
650.863781	2567.636094
651.206820	2571.696744
651.549807	2568.094839
651.892742	2570.186918
652.235626	2569.897052
652.578458	2567.759602
652.921238	2568.926630
653.263967	2569.188770
653.606644	2566.746331
653.949269	2566.968141
654.291843	2567.832699
654.634365	2570.474264
654.976836	2565.400342
655.319255	2568.024263
655.661622	2565.090312
656.003938	2565.871690
656.346203	2568.104922
656.688416	2569.302196
657.030577	2564.311453
657.372687	2566.567370
657.714746	2566.529561
658.056753	2566.902606
658.398708	2559.398849
658.740612	2565.435631
659.082465	2561.503531
659.424266	2559.615618
659.766016	2560.906154
660.107715	2564.008984
660.449362	2563.799776
660.790958	2566.297668
661.132503	2564.172822
661.473996	2567.159705
661.815438	2566.869839
662.156829	2564.467729
662.498168	2564.303892
662.839456	2566.093501
663.180693	2564.495455
663.521879	2567.189952
663.863013	2564.016546
664.204097	2565.632236
664.545129	2565.707853
664.886110	2566.305230
665.227040	2564.747513
665.567918	2565.433110
665.908746	2564.818089
666.249522	2567.525189
666.590248	2564.041752
666.930922	2566.476629
667.271545	2566.766495
667.612118	2568.992165
667.952639	2566.728687
668.293109	2565.980075
668.633528	2567.925961
668.973896	2564.452606
669.314213	2566.287586
669.654480	2565.934705
669.994695	2566.363203
670.334859	2567.177349
670.674973	2567.043759
671.015035	2564.250959
671.355047	2566.718604
671.695008	2567.840261
672.034918	2565.478480
672.374777	2565.251628
672.714585	2568.374623
673.054342	2566.252297
673.394049	2563.351113
673.733705	2567.404201
674.073310	2563.981258
674.412864	2564.097204
674.752368	2566.373285
675.091820	2565.730538
675.431223	2564.016546
675.770574	2567.373954
676.109875	2561.811041
676.449125	2560.465053
676.788324	2560.084446
677.127473	2559.686195
677.466571	2556.837943
677.805619	2563.393963
678.144616	2562.136195
678.483562	2564.833213
678.822458	2560.946483
679.161303	2562.690722
679.500098	2562.189128
679.838842	2562.307595
680.177535	2562.912533
680.516179	2565.556618
680.854771	2562.574776
681.193314	2562.778942
681.531805	2563.540157
681.870247	2565.367575
682.208638	2566.650549
682.546978	2568.427555
682.885268	2567.081567
683.223508	2564.331618
683.561697	2562.340362
683.899836	2563.903120
684.237925	2566.224571
684.575963	2564.699622
684.913951	2563.257852
685.251889	2568.727504
685.589776	2564.495455
685.927614	2565.216340
686.265401	2562.456309
686.603137	2563.552760
686.940824	2565.889334
687.278460	2568.160374
687.616046	2566.859757
687.953582	2569.440827
688.291068	2565.745662
688.628504	2568.162895
688.965889	2565.634756
689.303224	2566.189283
689.640510	2563.991340
689.977745	2565.405384
690.314930	2562.403377
690.652065	2564.535785
690.989150	2563.550239
691.326185	2561.347255
691.663170	2562.138716
692.000105	2560.850701
692.336990	2559.434137
692.673825	2561.770712
693.010610	2559.698797
693.347345	2557.803324
693.684030	2554.206460
694.020665	2555.345761
694.357251	2552.328631
694.693786	2558.241904
695.030272	2556.419527
695.366707	2558.161246
695.703093	2554.705535
696.039429	2557.773077
696.375716	2557.387428
696.711952	2554.453477
697.048139	2554.995401
697.384276	2556.361554
697.720363	2558.330124
698.056400	2557.200906
698.392388	2554.675288
698.728326	2559.557645
699.064214	2554.879454
699.400053	2556.714434
699.735842	2555.519681
700.071581	2555.870041
700.407270	2553.125133
700.742910	2554.410627
701.078501	2551.925338
701.414042	2552.963816
701.749533	2552.759649
702.084974	2555.504557
702.420366	2554.171172
702.755709	2555.663354
703.091002	2552.237890
703.426246	2552.540359
703.761440	2554.098076
704.096584	2552.890719
704.431679	2553.803168
704.766725	2554.345092
705.101721	2549.210677
705.436668	2553.871224
705.771565	2550.634803
706.106413	2554.753426
706.441212	2553.583878
706.775961	2553.533466
707.110661	2551.252344
707.445311	2555.650751
707.779913	2551.272509
708.114465	2553.016748
708.448967	2555.968344
708.783421	2553.798127
709.117825	2555.060936
709.452180	2553.430123
709.786485	2556.840463
710.120742	2554.302242
710.454949	2556.041440
710.789107	2553.790565
711.123216	2553.478014
711.457275	2552.419371
711.791286	2554.617314
712.125247	2553.893909
712.459159	2558.718293
712.793023	2560.041596
713.126837	2556.222922
713.460602	2558.322562
713.794318	2557.316852
714.127985	2556.480021
714.461602	2553.513302
714.795171	2557.876420
715.128691	2552.031202
715.462162	2553.258723
715.795584	2554.801317
716.128957	2549.119936
716.462281	2552.958775
716.795556	2554.420709
717.128782	2551.290153
717.461960	2550.937272
717.795088	2551.942982
718.128167	2550.637323
718.461198	2552.464742
718.794180	2550.660009
719.127113	2550.733105
719.459997	2552.121943
719.792833	2550.508774
720.125619	2552.189999
720.458357	2549.704710
720.791046	2551.154042
721.123686	2552.419371
721.456278	2551.580019
721.788821	2548.686397
722.121315	2550.622200
722.453761	2550.786038
722.786158	2549.697148
723.118506	2546.690100
723.450805	2550.241593
723.783056	2549.606408
724.115259	2550.100441
724.447412	2548.905687
724.779518	2549.220759
725.111574	2551.194371
725.443582	2548.865358
725.775542	2551.393497
726.107453	2550.715461
726.439315	2551.388455
726.771129	2555.355843
727.102895	2550.551624
727.434612	2552.366439
727.766281	2550.488609
728.097901	2547.995759
728.429473	2549.273691
728.760996	2548.630944
729.092471	2547.100954
729.423897	2551.668239
729.755276	2549.500543
730.086606	2551.965668
730.417887	2553.994732
730.749120	2552.976419
731.080305	2551.983312
731.411442	2556.094373
731.742530	2555.280226
732.073570	2556.038920
732.404562	2553.616645
732.735506	2551.690925
733.066401	2552.840308
733.397249	2555.960782
733.728048	2553.190668
734.058798	2551.741336
734.389501	2549.162786
734.720156	2548.686397
735.050762	2549.046839
735.381320	2547.718495
735.711831	2548.956099
736.042293	2551.123795
736.372707	2550.246634
736.703073	2549.109854
737.033391	2549.929041
737.363661	2553.152859
737.693883	2547.413506
738.024056	2549.878630
738.354182	2551.249824
738.684260	2548.885522
739.014290	2549.417364
739.344272	2549.596325
739.674207	2551.285112
740.004093	2551.549772
740.333931	2551.799309
740.663722	2550.929710
740.993464	2550.755791
741.323159	2549.190512
741.652806	2548.663712
741.982405	2549.072045
742.311956	2551.643034
742.641460	2550.261758
742.970915	2548.688918
743.300323	2547.582384
743.629683	2547.176571
743.958996	2547.978115
744.288260	2549.039278
744.617477	2546.803526
744.946647	2546.808567
745.275768	2542.374872
745.604842	2541.671631
745.933869	2544.799667
746.262847	2541.606096
746.591778	2545.399565
746.920662	2545.601211
747.249498	2549.760163
747.578286	2545.636499
747.907027	2548.462066
748.235720	2545.719678
748.564365	2545.512991
748.892963	2549.727395
749.221514	2546.740512
749.550017	2548.996428
749.878473	2546.609442
750.206881	2546.528783
750.535242	2544.494677
750.863555	2548.026006
751.191821	2545.414688
751.520039	2544.865202
751.848210	2547.300080
752.176334	2546.377548
752.504411	2546.518701
752.832440	2544.381252
753.160421	2543.582229
753.488356	2544.514842
753.816243	2543.688093
754.144082	2545.510470
754.471875	2546.012065
754.799620	2544.966025
755.127318	2544.272867
755.454969	2545.079451
755.782572	2547.277394
756.110129	2547.405944
756.437638	2548.033567
756.765100	2542.778165
757.092515	2545.805378
757.419882	2544.471992
757.747203	2546.740512
758.074477	2543.267157
758.401703	2544.466951
758.728882	2545.457538
759.056014	2550.213867
759.383099	2544.739173
759.710138	2545.051725
760.037129	2543.786395
760.364073	2546.117929
760.690970	2545.079451
761.017820	2547.337888
761.344623	2546.344781
761.671379	2548.741850
761.998088	2542.836138
762.324751	2546.385110
762.651366	2550.763352
762.977935	2557.268961
763.304456	2560.580999
763.630931	2562.952862
763.957359	2564.175342
764.283740	2558.322563
764.610074	2554.113199
764.936362	2551.373332
765.262602	2551.970709
765.588796	2548.136911
765.914943	2547.806716
766.241044	2547.602549
766.567097	2545.303783
766.893104	2546.959802
767.219064	2544.744215
767.544978	2540.340767
767.870845	2542.518545
768.196665	2543.274718
768.522438	2542.747918
768.848165	2544.252702
769.173846	2541.517876
769.499479	2541.538041
769.825066	2542.379913
770.150607	2541.094419
770.476101	2543.529297
770.801548	2541.578370
771.126949	2539.355221
771.452303	2540.560057
771.777611	2539.907228
772.102872	2540.048380
772.428087	2538.291538
772.753256	2542.810932
773.078378	2540.013092
773.403453	2540.562578
773.728482	2538.110056
774.053465	2544.149358
774.378401	2540.706250
774.703291	2541.832948
775.028135	2540.781868
775.352932	2540.733977
775.677683	2536.847247
776.002388	2540.252547
776.327046	2540.063503
776.651658	2543.478885
776.976224	2536.635519
777.300743	2541.366642
777.625216	2541.391847
777.949643	2539.763555
778.274024	2538.331867
778.598359	2536.814480
778.922647	2535.768440
779.246889	2536.237268
779.571086	2533.557894
779.895236	2536.668286
780.219339	2539.062834
780.543397	2539.418236
780.867409	2537.784902
781.191374	2540.688606
781.515294	2540.063503
781.839167	2538.924202
782.162995	2539.128369
782.486776	2538.001671
782.810511	2539.632485
783.134201	2539.163657
783.457844	2536.512010
783.781441	2539.740869
784.104993	2538.636857
784.428498	2540.018133
784.751958	2538.583925
785.075372	2540.411343
785.398739	2537.621064
785.722061	2540.151723
786.045337	2540.270191
786.368568	2539.776158
786.691752	2538.730118
787.014891	2542.236241
787.337983	2539.408153
787.661030	2541.449821
787.984031	2541.399409
788.306987	2542.800850
788.629897	2542.500901
788.952760	2544.275387
789.275579	2540.970911
789.598351	2540.938143
789.921078	2538.465458
790.243759	2539.612320
790.566395	2540.739018
790.888984	2539.171219
791.211529	2540.149203
791.534027	2540.920499
791.856480	2537.628626
792.178888	2536.370858
792.501249	2540.799512
792.823566	2539.531662
793.145836	2535.675179
793.468062	2537.396733
793.790241	2539.612320
794.112375	2539.123328
794.434464	2536.794315
794.756507	2538.162988
795.078505	2538.513348
795.400457	2537.288348
795.722364	2531.695188
796.044226	2535.375230
796.366042	2535.181146
796.687812	2537.343801
797.009538	2536.781712
797.331218	2543.073072
797.652852	2540.784388
797.974442	2539.788760
798.295986	2538.808256
798.617484	2537.066537
798.938938	2539.582073
799.260346	2539.720705
799.581709	2538.432690
799.903026	2537.053934
800.224299	2535.675179
800.545526	2537.288348
800.866708	2540.126518
801.187845	2538.654501
801.508936	2538.223482
801.829983	2536.701054
802.150984	2538.830941
802.471940	2537.973945
802.792851	2537.187525
803.113717	2538.697351
803.434538	2535.644932
803.755314	2539.927392
804.076045	2537.888245
804.396731	2535.657535
804.717372	2536.706095
805.037967	2536.912782
805.358518	2537.535365
805.679024	2537.633667
805.999485	2536.461599
806.319901	2539.143493
806.640272	2540.247505
806.960598	2536.227185
807.280879	2536.091074
807.601115	2541.084337
807.921306	2536.801877
808.241453	2537.394212
808.561554	2538.863709
808.881611	2538.082330
809.201623	2535.166022
809.521590	2536.590148
809.841513	2538.571322
810.161390	2536.832124
810.481223	2536.547298
810.801011	2538.273894
811.120755	2537.673996
811.440453	2539.050231
811.760107	2536.517052
812.079716	2535.304654
812.399281	2533.207534
812.718801	2532.484128
813.038276	2537.185004
813.357707	2536.819521
813.677093	2535.415559
813.996434	2537.421939
814.315731	2538.173071
814.634983	2537.832793
814.954191	2537.545447
815.273354	2538.818338
815.592473	2536.937988
815.911547	2537.429500
816.230577	2536.249870
816.549562	2537.409336
816.868502	2537.616023
817.187399	2538.354552
817.506250	2539.846734
817.825058	2538.992258
818.143821	2539.602238
818.462539	2538.672145
818.781213	2543.950233
819.099843	2538.881353
819.418429	2542.470654
819.736970	2543.201622
820.055466	2543.831766
820.373919	2547.579864
820.692327	2551.355688
821.010691	2555.441543
821.329011	2567.174829
821.647286	2594.457553
821.965517	2617.142746
822.283704	2632.944242
822.601847	2643.245840
822.919945	2629.410393
823.237999	2613.538321
823.556010	2598.666917
823.873976	2585.259968
824.191897	2573.597259
824.509775	2565.274314
824.827609	2562.710887
825.145398	2558.877089
825.463144	2559.419013
825.780845	2558.418344
826.098502	2562.136195
826.416116	2569.539130
826.733685	2579.097157
827.051210	2583.203177
827.368692	2578.920717
827.686129	2565.944787
828.003522	2562.826833
828.320872	2552.265616
828.638177	2549.079607
828.955439	2544.711447
829.272656	2543.430994
829.589830	2540.383617
829.906960	2543.889739
830.224046	2543.617517
830.541088	2540.993596
830.858086	2538.805735
831.175041	2541.427135
831.491952	2538.427649
831.808819	2539.813966
832.125642	2540.560057
832.442421	2543.919986
832.759157	2546.818649
833.075849	2550.866696
833.392497	2551.532128
833.709101	2556.590926
834.025662	2556.863148
834.342179	2554.866852
834.658653	2552.603373
834.975083	2547.264792
835.291469	2546.611962
835.607811	2544.555171
835.924110	2541.137269
836.240366	2536.640560
836.556578	2538.694830
836.872746	2540.116435
837.188871	2540.050900
837.504952	2538.825900
837.820990	2538.258770
838.136984	2534.825744
838.452935	2537.116949
838.768842	2538.241126
839.084706	2536.224665
839.400526	2537.074099
839.716303	2540.310520
840.032037	2544.262784
840.347727	2543.947712
840.663373	2545.371838
840.978977	2542.155582
841.294537	2537.048893
841.610054	2535.861702
841.925527	2538.357073
842.240957	2532.955476
842.556344	2537.487474
842.871687	2537.285827
843.186987	2537.096784
843.502244	2536.413708
843.817458	2532.511855
844.132629	2534.195600
844.447756	2535.715508
844.762840	2529.461957
845.077881	2529.235105
845.392879	2530.205527
845.707833	2531.538912
846.022745	2530.127389
846.337613	2533.015970
846.652438	2532.758871
846.967221	2531.997657
847.281960	2536.050745
847.596656	2535.276928
847.911309	2532.060672
848.225919	2533.691485
848.540485	2532.471526
848.855009	2532.355579
849.169490	2533.386495
849.483928	2531.226361
849.798323	2535.188708
850.112675	2531.997657
850.426984	2531.914478
850.741251	2533.683923
851.055474	2534.568646
851.369654	2533.015970
851.683792	2533.547812
851.997887	2533.119314
852.311938	2532.287523
852.625947	2531.914478
852.939914	2532.564787
853.253837	2535.062679
853.567718	2532.615198
853.881555	2534.379602
854.195350	2531.440610
854.509103	2535.521424
854.822812	2532.703419
855.136479	2535.342463
855.450103	2530.898686
855.763685	2533.731814
856.077224	2533.106711
856.390720	2533.220137
856.704173	2533.462112
857.017584	2534.503111
857.330953	2531.392719
857.644278	2532.400949
857.957561	2538.185673
858.270802	2531.922040
858.584000	2532.716022
858.897155	2533.842719
859.210268	2533.625950
859.523339	2530.840712
859.836367	2535.982689
860.149352	2530.339117
860.462295	2532.887421
860.775195	2531.148223
861.088054	2525.454239
861.400869	2531.080167
861.713642	2526.316277
862.026373	2531.460774
862.339062	2532.726104
862.651708	2533.048738
862.964312	2534.074612
863.276873	2536.146527
863.589392	2536.519572
863.901869	2533.482277
864.214303	2531.049920
864.526696	2533.429345
864.839045	2533.666279
865.151353	2533.351207
865.463619	2535.884387
865.775842	2532.511855
866.088023	2535.418080
866.400162	2533.285672
866.712258	2532.476567
867.024313	2533.784746
867.336325	2533.129396
867.648296	2533.295754
867.960224	2532.242153
868.272110	2533.913296
868.583954	2534.674510
868.895755	2533.338604
869.207515	2531.680064
869.519233	2534.901362
869.830909	2531.543953
870.142542	2533.681402
870.454134	2533.172246
870.765684	2536.756506
871.077191	2534.682072
871.388657	2533.764582
871.700081	2533.434386
872.011463	2534.230888
872.322803	2536.718698
872.634101	2535.801208
872.945357	2534.172915
873.256571	2533.641073
873.567744	2534.424973
873.878874	2536.123842
874.189963	2535.821372
874.501010	2537.305992
874.812015	2532.761392
875.122979	2534.699716
875.433900	2533.661238
875.744780	2535.909593
876.055618	2533.794828
876.366415	2535.251722
876.677169	2533.875487
876.987882	2537.978986
877.298554	2530.639066
877.609183	2534.354397
877.919771	2533.015970
878.230317	2529.320804
878.540822	2540.358411
878.851285	2538.374717
879.161707	2538.714995
879.472087	2540.371014
879.782425	2542.548792
880.092722	2549.349309
880.402977	2556.348951
880.713191	2568.951835
881.023363	2584.143352
881.333494	2593.716504
881.643583	2593.114086
881.953631	2592.884713
882.263637	2591.460587
882.573602	2585.191912
882.883526	2577.332754
883.193408	2572.100036
883.503248	2564.815569
883.813048	2559.499672
884.122806	2555.612942
884.432522	2552.079093
884.742197	2548.058773
885.051831	2546.274205
885.361424	2542.430325
885.670975	2542.969728
885.980485	2539.902186
886.289954	2540.920499
886.599382	2540.519728
886.908768	2539.120808
887.218113	2536.166691
887.527417	2541.802701
887.836680	2535.896990
888.145901	2536.711136
888.455082	2534.359438
888.764221	2537.283307
889.073319	2536.207021
889.382376	2536.383461
889.691392	2532.837009
890.000366	2535.869263
890.309300	2535.649973
890.618193	2535.970086
890.927044	2533.918337
891.235855	2535.949922
891.544625	2534.422452
891.853353	2536.937988
892.162041	2536.940508
892.470687	2537.971424
892.779293	2538.397402
893.087858	2535.995292
893.396381	2534.142668
893.704864	2539.395550
894.013306	2538.624254
894.321707	2549.717313
894.630068	2549.858465
894.938387	2557.654610
895.246665	2554.960113
895.554903	2551.882488
895.863100	2550.385266
896.171256	2546.768238
896.479371	2544.124153
896.787446	2543.781354
897.095480	2540.804553
897.403473	2539.957639
897.711425	2538.094933
898.019336	2536.151568
898.327207	2537.701723
898.635038	2537.137113
898.942827	2537.774819
899.250576	2536.401105
899.558284	2533.625950
899.865952	2534.755168
900.173579	2536.605272
900.481165	2537.439583
900.788711	2534.614016
901.096216	2532.658048
901.403681	2532.940353
901.711105	2533.749458
902.018489	2534.919006
902.325832	2537.235416
902.633135	2534.344314
902.940397	2536.380940
903.247619	2538.054603
903.554800	2540.862526
903.861941	2549.210677
904.169041	2557.773077
904.476101	2562.221895
904.783121	2562.226936
905.090100	2558.060422
905.397039	2552.739485
905.703938	2546.690100
906.010796	2545.127342
906.317614	2540.144162
906.624391	2538.992258
906.931129	2536.494366
907.237826	2538.697351
907.544483	2532.055630
907.851099	2536.214582
908.157675	2533.630991
908.464211	2534.235929
908.770707	2531.085208
909.077163	2529.071267
909.383578	2527.362316
909.689954	2531.213758
909.996289	2526.472552
910.302584	2534.152750
910.608839	2531.884231
910.915054	2533.303316
911.221229	2528.536905
911.527363	2533.179808
911.833458	2531.274252
912.139513	2532.756351
912.445527	2533.164684
912.751502	2533.963707
913.057436	2533.136958
913.363331	2534.707277
913.669186	2534.482946
913.975000	2536.925385
914.280775	2539.143493
914.586510	2538.672145
914.892205	2541.714481
915.197859	2547.736139
915.503475	2549.903836
915.809050	2554.239228
916.114585	2559.774415
916.420081	2559.734086
916.725536	2558.660320
917.030952	2557.014383
917.336328	2550.546583
917.641665	2550.778476
917.946961	2546.942158
918.252218	2543.085675
918.557435	2543.214224
918.862612	2538.714995
919.167750	2539.566950
919.472848	2538.697351
919.777906	2536.771630
920.082925	2537.822710
920.387904	2536.365817
920.692843	2534.835827
920.997743	2531.279293
921.302603	2531.874149
921.607423	2533.220137
921.912204	2533.656197
922.216946	2531.879190
922.521647	2531.221319
922.826310	2533.396577
923.130932	2533.910775
923.435516	2533.124355
923.740059	2533.278110
924.044564	2532.960517
924.349028	2531.826258
924.653454	2525.381143
924.957840	2529.625794
925.262186	2526.956503
925.566493	2528.083201
925.870761	2525.013138
926.174989	2530.059333
926.479178	2529.018335
926.783328	2529.469518
927.087438	2526.976668
927.391509	2531.057482
927.695541	2527.931967
927.999533	2530.356762
928.303486	2529.623274
928.607400	2528.362985
928.911275	2532.171577
929.215110	2530.611340
929.518906	2526.986750
929.822663	2529.464477
930.126381	2528.796524
930.430060	2532.269879
930.733699	2528.685619
931.037299	2529.855167
931.340861	2527.127903
931.644383	2530.893644
931.947866	2527.800897
932.251309	2531.324663
932.554714	2531.284334
932.858080	2530.082019
933.161407	2529.114117
933.464694	2531.329704
933.767943	2528.655372
934.071153	2529.633356
934.374323	2530.230733
934.677455	2528.675537
934.980548	2530.208048
935.283602	2530.636546
935.586617	2526.293592
935.889593	2530.704601
936.192530	2527.291740
936.495428	2529.212420
936.798287	2527.513551
937.101108	2528.274765
937.403890	2530.303829
937.706632	2531.319622
938.009336	2528.733510
938.312002	2531.117976
938.614628	2529.920702
938.917216	2529.809796
939.219765	2529.179652
939.522275	2531.579241
939.824747	2533.837678
940.127179	2529.746782
940.429573	2525.673530
940.731929	2528.763757
941.034246	2526.757378
941.336524	2529.771988
941.638763	2533.215096
941.940964	2528.342821
942.243126	2527.692512
942.545250	2531.044879
942.847335	2529.401463
943.149381	2528.713345
943.451389	2530.376926
943.753359	2532.181659
944.055290	2527.505989
944.357182	2529.429189
944.659036	2528.360465
944.960851	2529.396422
945.262628	2527.284178
945.564367	2530.323994
945.866067	2528.786442
946.167729	2529.530012
946.469352	2529.928263
946.770937	2531.382636
947.072484	2528.645290
947.373992	2528.312574
947.675462	2529.862728
947.976893	2529.550177
948.278286	2530.699560
948.579641	2529.945908
948.880958	2528.584796
949.182236	2528.947759
949.483476	2527.503468
949.784678	2529.981196
950.085841	2525.781914
950.386967	2529.487162
950.688054	2528.867101
950.989103	2531.249046
951.290114	2530.820548
951.591087	2531.077647
951.892021	2526.170083
952.192917	2530.979344
952.493776	2528.400794
952.794596	2528.342821
953.095378	2530.571011
953.396122	2530.185362
953.696828	2531.473377
953.997496	2528.655372
954.298126	2528.166380
954.598718	2531.357431
954.899272	2529.335928
955.199788	2529.275434
955.500266	2530.707122
955.800706	2525.847449
956.101108	2524.698066
956.401472	2525.547501
956.701798	2524.987933
957.002087	2524.219157
957.302337	2525.416431
957.602550	2528.519261
957.902724	2526.376771
958.202861	2528.524302
958.502960	2527.818541
958.803022	2529.870290
959.103045	2526.515402
959.403031	2527.175793
959.702979	2526.137316
960.002889	2528.783922
960.302762	2528.042872
960.602596	2526.454908
960.902393	2525.469363
961.202153	2526.953983
961.501875	2525.330731
961.801559	2530.114786
962.101205	2525.255114
962.400814	2527.876514
962.700385	2525.547501
962.999918	2529.356093
963.299414	2527.420289
963.598873	2527.110258
963.898293	2525.739065
964.197677	2529.532533
964.497022	2525.527336
964.796331	2526.013807
965.095601	2526.293592
965.394835	2526.086904
965.694030	2526.245701
965.993189	2528.095804
966.292309	2525.655886
966.591393	2528.360465
966.890439	2525.250073
967.189447	2525.668488
967.488419	2526.754857
967.787353	2529.736700
968.086249	2523.213447
968.385108	2529.598068
968.683930	2528.441123
968.982714	2526.172604
969.281462	2527.246370
969.580172	2523.200844
969.878844	2526.633869
970.177480	2526.535567
970.476078	2526.084384
970.774639	2530.482790
971.073162	2526.283509
971.371649	2522.580782
971.670098	2526.003725
971.968510	2523.198323
972.266885	2522.235463
972.565223	2526.407018
972.863524	2525.746626
973.161788	2528.670496
973.460014	2527.405166
973.758204	2526.215454
974.056356	2526.845598
974.354471	2528.355423
974.652550	2525.366019
974.950591	2527.236287
975.248595	2525.451719
975.546563	2527.165711
975.844493	2527.939528
976.142386	2525.222346
976.440243	2527.122861
976.738062	2529.560259
977.035845	2525.648324
977.333590	2523.941893
977.631299	2524.236801
977.928971	2523.641945
978.226606	2526.664116
978.524204	2527.155629
978.821765	2524.476256
979.119290	2524.090607
979.416777	2526.245701
979.714228	2530.329035
980.011642	2526.948942
980.309020	2527.962213
980.606360	2524.166225
980.903664	2528.105886
981.200931	2529.028418
981.498162	2524.783766
981.795356	2524.519105
982.092513	2526.137316
982.389633	2530.636546
982.686717	2528.272244
982.983764	2530.868439
983.280775	2528.115969
983.577749	2530.707122
983.874686	2528.869621
984.171587	2525.895340
984.468451	2527.876514
984.765279	2526.041534
985.062070	2529.217461
985.358824	2528.005063
985.655543	2528.216792
985.952224	2526.880886
986.248869	2523.198323
986.545478	2526.948942
986.842050	2526.800227
987.138586	2521.174300
987.435086	2521.239835
987.731549	2520.806296
988.027975	2528.115969
988.324366	2526.800228
988.620719	2526.270906
988.917037	2523.344517
989.213318	2527.485824
989.509563	2526.482635
989.805772	2524.957686
990.101944	2525.310567
990.398080	2524.188910
990.694180	2524.405679
990.990244	2527.410207
991.286271	2525.103879
991.582262	2524.675381
991.878217	2525.318128
992.174136	2524.743437
992.470019	2525.408869
992.765865	2527.808458
993.061676	2524.819054
993.357450	2525.512213
993.653188	2522.651358
993.948890	2524.451050
994.244556	2525.587830
994.540186	2524.856863
994.835780	2526.490197
995.131337	2525.169414
995.426859	2525.257634
995.722345	2524.534229
996.017795	2524.211595
996.313208	2527.780732
996.608586	2525.499610
996.903928	2525.295443
997.199234	2526.306194
997.494504	2523.654548
997.789738	2524.617408
998.084936	2526.880886
998.380099	2529.121679
998.675225	2524.461132
998.970316	2526.512882
999.265371	2528.804086
999.560390	2526.923736
999.855373	2525.197141
1000.150320	2522.905936
1000.445232	2524.035155
1000.740108	2523.420134
1001.034948	2526.608664
1001.329752	2524.370391
1001.624521	2527.594209
1001.919254	2521.628004
1002.213951	2524.816533
1002.508613	2518.525173
1002.803239	2525.978519
1003.097829	2521.996008
1003.392384	2525.376102
1003.686903	2523.578930
1003.981386	2526.520443
1004.275834	2525.897861
1004.570246	2529.081350
1004.864623	2524.975330
1005.158964	2525.587830
1005.453270	2525.905423
1005.747540	2522.064063
1006.041775	2525.066071
1006.335974	2525.587830
1006.630138	2523.878879
1006.924266	2524.438447
1007.218359	2525.963396
1007.512416	2526.719569
1007.806438	2523.256296
1008.100425	2526.344003
1008.394376	2523.586492
1008.688292	2526.114631
1008.982172	2525.245032
1009.276017	2527.311905
1009.569827	2524.647655
1009.863602	2527.251411
1010.157341	2524.977850
1010.451045	2524.667819
1010.744714	2524.451050
1011.038347	2525.726462
1011.331945	2526.790145
1011.625508	2527.778211
1011.919036	2526.822913
1012.212528	2527.037162
1012.505986	2525.519774
1012.799408	2525.582789
1013.092795	2524.337624
1013.386147	2526.381812
1013.679464	2524.128416
1013.972745	2526.250742
1014.265992	2526.144877
1014.559204	2527.143026
1014.852380	2525.010618
1015.145521	2524.539270
1015.438628	2525.461801
1015.731699	2526.349044
1016.024736	2525.411390
1016.317737	2526.812830
1016.610703	2528.315094
1016.903635	2522.487520
1017.196531	2520.866789
1017.489393	2524.345186
1017.782219	2520.879392
1018.075011	2522.437109
1018.367768	2524.904754
1018.660490	2523.546163
1018.953177	2523.546163
1019.245829	2523.546163
