Dividing Wavelength (nm)	Counts (n)	Blue Motor Position (mm): 0.000000	Red Motor Position (mm): 25.100000	
326.493990	2126.865328
326.888308	2126.865328
327.282561	2126.865328
327.676750	2091.199165
328.070874	2092.469536
328.464933	2096.217633
328.858929	2103.446648
329.252859	2110.418564
329.646726	2122.368619
330.040528	2135.679786
330.434265	2152.449184
330.827938	2170.481391
331.221547	2190.991326
331.615091	2205.532534
332.008571	2227.053220
332.401986	2245.566857
332.795338	2267.145516
333.188625	2286.836263
333.581847	2302.536937
333.975006	2320.135605
334.368100	2339.755776
334.761129	2358.982737
335.154095	2373.985210
335.546996	2390.724362
335.939833	2406.614079
336.332606	2424.855494
336.725315	2436.520724
337.117960	2444.503391
337.510540	2455.745164
337.903056	2464.118521
338.295508	2472.703606
338.687896	2482.833804
339.080220	2490.932418
339.472480	2494.947697
339.864676	2501.612102
340.256807	2505.917248
340.648875	2505.755931
341.040879	2508.342043
341.432818	2510.247599
341.824694	2513.957888
342.216506	2514.840090
342.608253	2515.220697
342.999937	2511.772548
343.391557	2513.221880
343.783113	2511.190295
344.174605	2509.675428
344.566033	2511.328926
344.957397	2506.910355
345.348697	2504.261229
345.739934	2506.275170
346.131106	2502.995899
346.522215	2505.067813
346.913260	2499.978768
347.304241	2499.930878
347.695159	2497.266628
348.086012	2495.136740
348.476802	2495.446771
348.867528	2492.520381
349.258191	2491.166832
349.648789	2487.527118
350.039324	2487.259937
350.429796	2486.987715
350.820203	2484.245327
351.210548	2482.211222
351.600828	2484.449494
351.991045	2482.541417
352.381198	2480.729122
352.771288	2483.438743
353.161314	2482.614514
353.551276	2482.168372
353.941175	2481.886067
354.331010	2483.607621
354.720782	2477.679224
355.110490	2482.274236
355.500135	2482.788434
355.889717	2484.421768
356.279235	2482.135604
356.668689	2480.532518
357.058080	2483.587457
357.447408	2482.523773
357.836672	2482.382621
358.225873	2481.145018
358.615010	2478.793319
359.004084	2488.671460
359.393095	2486.080307
359.782043	2486.632314
360.170927	2488.895792
360.559748	2486.715493
360.948505	2488.953765
361.337199	2493.387460
361.725830	2487.383446
362.114398	2491.204640
362.502903	2488.767242
362.891344	2492.185145
363.279722	2493.266472
363.668037	2493.334528
364.056289	2489.364619
364.444478	2493.805876
364.832603	2493.291678
365.220665	2495.040958
365.608665	2496.371823
365.996601	2498.123624
366.384474	2500.210662
366.772284	2500.122441
367.160031	2500.876094
367.547715	2500.843326
367.935336	2505.241733
368.322893	2508.705006
368.710388	2510.960922
369.097820	2517.572395
369.485189	2519.344361
369.872495	2523.762932
370.259738	2534.775333
370.646918	2539.821528
371.034035	2548.981304
371.421090	2559.310629
371.808081	2568.205745
372.195010	2576.619430
372.581875	2592.723396
372.968678	2601.573142
373.355418	2614.354987
373.742096	2633.483646
374.128710	2647.251037
374.515262	2662.835764
374.901751	2680.832683
375.288177	2689.223684
375.674540	2713.859803
376.060841	2728.814386
376.447079	2747.814494
376.833254	2771.611261
377.219367	2782.364042
377.605417	2821.518684
377.991404	2830.318018
378.377329	2850.240658
378.763191	2866.367309
379.148991	2907.606468
379.534727	2929.205292
379.920402	2961.335086
380.306013	2974.016109
380.691563	3021.271885
381.077049	3041.812066
381.462474	3063.317628
381.847835	3099.172835
382.233134	3125.895992
382.618371	3121.255610
383.003545	3193.349151
383.388657	3197.445088
383.773706	3229.121178
384.158693	3245.688931
384.543618	3272.061727
384.928480	3306.817962
385.313280	3354.509798
385.698017	3350.434025
386.082692	3408.669434
386.467305	3409.551636
386.851856	3442.510700
387.236344	3465.452991
387.620770	3495.165552
388.005133	3520.928369
388.389435	3550.431722
388.773674	3561.552507
389.157851	3601.682612
389.541965	3617.083337
389.926018	3582.382555
390.310008	3655.451559
390.693936	3671.883200
391.077802	3712.613203
391.461606	3704.257490
391.845348	3763.579268
392.229027	3766.482973
392.612645	3777.812966
392.996200	3855.794575
393.379694	3896.940473
393.763125	3959.390286
394.146494	3926.678239
394.529801	3986.736025
394.913047	4037.442471
395.296230	4002.545084
395.679351	4059.121953
396.062410	4081.061055
396.445408	4061.246800
396.828343	4093.053960
397.211217	4118.940285
397.594028	4036.517420
397.976778	4106.264304
398.359466	4130.625680
398.742092	4162.984846
399.124656	4080.796394
399.507158	4163.703211
399.889598	4189.942416
400.271977	4254.141511
400.654294	4217.338567
401.036549	4229.835587
401.418742	4196.243859
401.800874	4298.256648
402.182944	4322.300431
402.564952	4385.350142
402.946898	4372.754819
403.328783	4372.117113
403.710606	4283.470944
404.092367	4475.581755
404.474067	4436.681691
404.855705	4449.163588
405.237282	4378.831930
405.618797	4485.724557
406.000250	4520.526162
406.381642	4596.602215
406.762972	4559.743818
407.144240	4573.042382
407.525447	4573.012135
407.906593	4629.621772
408.287677	4673.807486
408.668700	4600.451136
409.049661	4652.518693
409.430560	4692.817677
409.811399	4619.390751
410.192176	4784.410401
410.572891	4724.609714
410.953545	4823.166792
411.334138	4702.811765
411.714669	4771.356333
412.095139	4664.173841
412.475547	4807.181293
412.855894	4789.562461
413.236180	4799.254079
413.616405	4749.754989
413.996568	4839.631201
414.376670	4779.659114
414.756711	4735.601950
415.136691	4768.810551
415.516609	4843.291078
415.896466	4882.511255
416.276262	4917.128859
416.655997	4900.301487
417.035670	5082.884518
417.415283	5171.467673
417.794834	5112.864260
418.174324	5066.294080
418.553753	4977.579855
418.933121	5156.896218
419.312428	5228.657043
419.691674	5161.705479
420.070859	5288.538389
420.449983	5204.275502
420.829045	5320.320343
421.208047	5226.111260
421.586988	5299.192868
421.965867	5306.648734
422.344686	5437.096152
422.723444	5293.887053
423.102141	5111.757726
423.480777	5407.607922
423.859352	5178.532850
424.237866	5437.897695
424.616319	5430.721612
424.994712	5538.372932
425.373044	5417.039921
425.751314	5559.623916
426.129524	5360.972208
426.507673	5552.815838
426.885762	5635.233662
427.263789	5563.152724
427.641756	5448.310198
428.019662	5569.882664
428.397508	5575.725362
428.775292	5525.056724
429.153016	5619.611127
429.530679	5545.342327
429.908282	5630.689062
430.285824	5502.963868
430.663305	5773.046206
431.040726	5511.793449
431.418086	5510.076936
431.795385	5617.148523
432.172624	5626.091530
432.549802	5617.849243
432.926920	5631.387262
433.303977	5635.679804
433.680974	5673.740516
434.057910	5682.524727
434.434786	5690.199883
434.811601	5652.310571
435.188355	5879.787597
435.565050	5750.267752
435.941683	5730.055246
436.318257	5932.976811
436.694770	5912.729017
437.071222	5941.140960
437.447614	5863.338312
437.823946	5770.245845
438.200218	5915.879738
438.576429	5775.413027
438.952580	5865.130442
439.328670	5893.996089
439.704700	5795.935565
440.080670	5768.168889
440.456580	6011.182752
440.832429	5887.480398
441.208218	5730.468620
441.583947	5861.767993
441.959616	5852.119224
442.335224	5770.548314
442.710773	5882.431682
443.086261	5879.800200
443.461689	5678.247307
443.837057	5790.201252
444.212365	5915.486528
444.587612	5799.242562
444.962800	5911.418317
445.337927	5870.784096
445.712995	5497.579915
446.088002	5981.545808
446.462949	5806.930321
446.837837	5713.091763
447.212664	5840.292677
447.587431	5923.184370
447.962139	6334.608059
448.336786	7049.811678
448.711374	6804.937630
449.085901	6017.779101
449.460369	5914.284213
449.834776	5822.018495
450.209124	6080.002063
450.583412	6140.989942
450.957640	6218.389298
451.331808	5990.453527
451.705917	5609.702739
452.079965	5507.004352
452.453954	5611.121823
452.827883	5478.703315
453.201752	5498.318444
453.575562	5314.396988
453.949311	5392.678545
454.323001	5273.762767
454.696632	5275.433909
455.070202	5304.334844
455.443713	5353.443245
455.817164	5357.294686
456.190556	5343.741544
456.563888	5329.941385
456.937160	5297.496519
457.310373	5049.570053
457.683526	5003.877034
458.056619	4883.486718
458.429653	4818.612110
458.802628	4733.875355
459.175542	4738.603957
459.548398	4846.618240
459.921194	4865.046178
460.293930	4817.268642
460.666607	4979.066995
461.039224	5054.805291
461.411782	5040.226274
461.784280	4973.216736
462.156719	4856.740877
462.529099	4732.254624
462.901419	4502.632587
463.273680	4403.294129
463.645882	4350.515769
464.018024	4234.390270
464.390106	4231.872213
464.762130	4301.117503
465.134094	4393.083272
465.505999	4662.225435
465.877845	4966.764059
466.249631	5075.317746
466.621358	4851.114949
466.993026	4575.671344
467.364634	4424.550155
467.736184	4257.927417
468.107674	4113.949543
468.479105	4047.973442
468.850477	3945.048204
469.221790	3835.259435
469.593043	3708.295454
469.964238	3627.001807
470.335373	3576.953232
470.706449	3542.824621
471.077467	3496.819051
471.448425	3655.537259
471.819324	3762.780245
472.190164	3716.028584
472.560945	3492.387876
472.931667	3337.571521
473.302330	3281.592028
473.672934	3205.488249
474.043479	3204.129658
474.413965	3166.782270
474.784393	3118.535907
475.154761	3103.087291
475.525070	3077.936975
475.895321	3033.413504
476.265513	3021.912111
476.635645	3010.871984
477.005719	2979.402582
477.375734	2962.348358
477.745691	2953.980043
478.115588	2935.655448
478.485427	2924.431319
478.855207	2932.282917
479.224928	2955.966257
479.594591	2961.609829
479.964194	2923.440733
480.333739	2895.134654
480.703226	2864.305478
481.072653	2852.478931
481.442022	2842.313444
481.811333	2833.075529
482.180584	2810.102991
482.549777	2786.399486
482.918912	2765.786208
483.287988	2756.187851
483.657005	2743.370717
484.025964	2724.141236
484.394864	2717.325596
484.763706	2707.727239
485.132489	2695.565455
485.501213	2686.498940
485.869879	2680.565502
486.238487	2673.515448
486.607036	2668.890190
486.975527	2661.119251
487.343959	2657.156904
487.712333	2656.400731
488.080648	2648.022333
488.448905	2645.849596
488.817104	2641.383134
489.185244	2644.571664
489.553326	2642.124183
489.921350	2646.550317
490.289315	2652.584578
490.657222	2655.369815
491.025070	2650.870585
491.392861	2649.302787
491.760593	2640.150572
492.128267	2636.372227
492.495883	2632.127575
492.863440	2626.040382
493.230939	2623.277830
493.598380	2617.190637
493.965763	2610.349791
494.333088	2612.220059
494.700354	2607.400716
495.067563	2608.779471
495.434713	2602.253698
495.801805	2607.725870
496.168839	2608.701333
496.535815	2604.123966
496.902733	2605.061620
497.269593	2605.301075
497.636395	2604.859974
498.003139	2603.670262
498.369825	2600.970724
498.736453	2601.121959
499.103023	2600.625405
499.469535	2599.803697
499.835989	2598.331680
500.202385	2596.083325
500.568723	2595.276741
500.935003	2598.876125
501.301226	2596.090887
501.667390	2599.002153
502.033497	2600.446444
502.399546	2596.736155
502.765537	2597.338573
503.131470	2594.427306
503.497345	2596.592482
503.863163	2595.586772
504.228923	2594.316401
504.594625	2596.058120
504.960269	2593.615681
505.325856	2596.211875
505.691385	2591.682398
506.056856	2593.996288
506.422270	2592.141143
506.787625	2594.986874
507.152924	2593.829930
507.518164	2591.332038
507.883347	2592.814137
508.248472	2592.700711
508.613540	2592.872110
508.978550	2591.596698
509.343503	2591.009404
509.708398	2593.658530
510.073236	2593.207347
510.438016	2594.384457
510.802738	2590.270875
511.167403	2593.340938
511.532010	2590.051585
511.896561	2593.217429
512.261053	2595.286823
512.625488	2588.849270
512.989866	2588.808940
513.354186	2590.654003
513.718449	2586.842890
514.082655	2592.083170
514.446803	2591.407655
514.810894	2594.165166
515.174927	2592.670464
515.538904	2591.251379
515.902822	2592.816658
516.266684	2594.208016
516.630488	2592.365474
516.994235	2590.676688
517.357925	2594.840681
517.721558	2591.536205
518.085133	2592.451174
518.448651	2593.640886
518.812112	2594.404621
519.175516	2592.748602
519.538863	2592.471339
519.902152	2594.674323
520.265385	2593.356061
520.628560	2592.683067
520.991678	2591.160639
521.354739	2596.002667
521.717743	2593.819847
522.080690	2593.908067
522.443580	2594.422265
522.806413	2592.723396
523.169189	2592.153746
523.531908	2592.851946
523.894569	2591.337079
524.257174	2592.423448
524.619722	2594.918819
524.982213	2592.914960
525.344647	2595.385126
525.707025	2593.776997
526.069345	2593.945876
526.431608	2595.589292
526.793815	2596.703387
527.155964	2593.678695
527.518057	2595.992585
527.880093	2593.837491
528.242072	2595.193562
528.603995	2596.814293
528.965860	2593.492172
529.327669	2592.862028
529.689421	2594.457553
530.051117	2595.075095
530.412755	2593.993767
530.774337	2594.780187
531.135862	2592.040320
531.497331	2589.829774
531.858743	2588.461101
532.220098	2590.510330
532.581396	2586.353898
532.942638	2591.037130
533.303824	2590.923704
533.664953	2591.064857
534.026025	2591.689960
534.387040	2592.914960
534.747999	2590.475042
535.108902	2590.785073
535.469748	2592.534353
535.830537	2594.316401
536.191270	2591.054774
536.551947	2593.451843
536.912567	2593.000660
537.273131	2590.560741
537.633638	2591.679877
537.994089	2589.187027
538.354483	2589.552511
538.714821	2594.560897
539.075103	2592.252048
539.435328	2591.475711
539.795497	2592.612491
540.155609	2590.157449
540.515665	2592.889754
540.875665	2591.682398
541.235609	2590.633838
541.595496	2594.518047
541.955328	2594.301277
542.315102	2592.846905
542.674821	2592.040320
543.034483	2592.083170
543.394090	2591.513519
543.753640	2590.220463
544.113134	2591.085021
544.472571	2592.988057
544.831953	2594.848243
545.191278	2592.655341
545.550548	2591.725248
545.909761	2592.607450
546.268918	2591.838674
546.628019	2596.297574
546.987064	2589.181986
547.346053	2593.353541
547.704986	2592.834302
548.063863	2594.008891
548.422684	2595.838829
548.781449	2593.202306
549.140158	2592.521750
549.498811	2592.317583
549.857408	2593.691298
550.215949	2592.297419
550.574434	2587.339444
550.932864	2591.127871
551.291237	2587.949424
551.649555	2591.904209
552.007817	2592.604929
552.366022	2591.135433
552.724173	2593.315732
553.082267	2591.911771
553.440305	2594.064343
553.798288	2591.125351
554.156215	2592.534353
554.514086	2594.137440
554.871902	2592.894796
555.229661	2596.131216
555.587365	2593.063674
555.945014	2592.844384
556.302606	2594.671802
556.660143	2592.514188
557.017625	2594.092070
557.375050	2593.661051
557.732421	2592.514188
558.089735	2592.678026
558.446994	2591.866400
558.804197	2593.983685
559.161345	2592.420927
559.518437	2592.274734
559.875474	2594.686926
560.232455	2594.142481
560.589381	2592.972933
560.946251	2594.054261
561.303065	2594.938983
561.659825	2593.308170
562.016528	2594.074426
562.373177	2591.135433
562.729770	2593.749271
563.086307	2593.504775
563.442789	2594.384457
563.799216	2592.751123
564.155587	2592.350351
564.511904	2590.865731
564.868164	2590.757346
565.224370	2591.931935
565.580520	2594.202975
565.936615	2596.544591
566.292654	2592.584765
566.648638	2593.620722
567.004567	2594.954107
567.360441	2593.698860
567.716260	2590.278437
568.072023	2591.402614
568.427732	2587.021851
568.783385	2589.638210
569.138982	2587.790627
569.494525	2589.986050
569.850013	2589.030751
570.205445	2590.767429
570.560823	2591.256421
570.916145	2589.136615
571.271412	2590.989239
571.626625	2590.911102
571.981782	2589.832295
572.336884	2589.439085
572.691931	2587.591502
573.046923	2588.713158
573.401860	2591.561410
573.756743	2587.069742
574.111570	2589.849939
574.466342	2592.289857
574.821059	2589.754157
575.175722	2590.311204
575.530330	2588.879517
575.884882	2590.495206
576.239380	2590.026379
576.593823	2591.964703
576.948211	2589.683581
577.302544	2589.676019
577.656823	2590.081832
578.011047	2591.095104
578.365216	2588.940010
578.719330	2588.486307
579.073389	2588.077973
579.427394	2587.979671
579.781344	2588.345154
580.135239	2585.968250
580.489080	2588.559403
580.842866	2585.461614
581.196597	2591.435382
581.550273	2587.793148
581.903895	2586.774835
582.257463	2587.641913
582.610975	2587.339444
582.964434	2590.228025
583.317837	2587.939341
583.671186	2585.980853
584.024481	2585.050760
584.377721	2586.545462
584.730906	2587.397417
585.084037	2586.089238
585.437113	2586.437077
585.790135	2585.970771
586.143103	2583.561099
586.496016	2583.417426
586.848874	2580.851479
587.201679	2583.155286
587.554428	2580.964905
587.907124	2583.346850
588.259765	2579.210583
588.612352	2586.071594
588.964884	2585.060842
589.317362	2584.186202
589.669786	2582.217632
590.022155	2583.160327
590.374470	2582.658733
590.726731	2585.900195
591.078937	2584.755853
591.431090	2583.170410
591.783188	2583.021696
592.135232	2584.269381
592.487222	2583.077148
592.839157	2586.182499
593.191038	2582.031109
593.542866	2583.304000
593.894639	2579.233269
594.246358	2582.205029
594.598022	2582.005903
594.949633	2580.569174
595.301190	2582.555389
595.652692	2580.843917
596.004141	2580.811150
596.355535	2580.843917
596.706876	2580.727971
597.058162	2580.299473
597.409395	2580.528845
597.760573	2581.035481
598.111698	2581.358115
598.462768	2582.993969
598.813785	2579.666808
599.164748	2579.364339
599.515657	2580.032292
599.866511	2579.102199
600.217312	2579.626479
600.568060	2580.092785
600.918753	2583.077148
601.269392	2580.707806
601.619978	2577.247054
601.970510	2581.158989
602.320988	2582.464648
602.671412	2579.150090
603.021783	2577.352918
603.372100	2581.199319
603.722363	2577.950295
604.072572	2578.270408
604.422728	2582.290728
604.772830	2573.264542
605.122878	2572.634398
605.472872	2576.190932
605.822813	2573.428380
606.172701	2578.378793
606.522534	2579.243351
606.872314	2580.090265
607.222041	2579.349215
607.571714	2579.286201
607.921333	2581.716037
608.270899	2577.683114
608.620411	2579.969277
608.969870	2579.455079
609.319276	2583.845924
609.668627	2584.264340
610.017926	2585.297777
610.367171	2584.420616
610.716362	2587.513364
611.065500	2584.372725
611.414585	2583.520770
611.763616	2585.365832
612.112594	2580.564133
612.461518	2585.746439
612.810389	2582.179823
613.159207	2580.969946
613.507971	2579.490367
613.856682	2580.659915
614.205340	2581.854669
614.553945	2580.448187
614.902496	2581.259812
615.250994	2579.843248
615.599439	2579.848289
615.947830	2581.269895
616.296169	2581.209401
616.644454	2582.494895
616.992686	2579.767631
617.340864	2580.440625
617.688990	2577.627661
618.037063	2579.437435
618.385082	2578.209914
618.733048	2580.135635
619.080961	2578.764441
619.428821	2582.845255
619.776628	2580.937179
620.124382	2580.090265
620.472083	2579.140007
620.819731	2578.698906
621.167326	2578.434246
621.514868	2578.915676
621.862357	2578.582960
622.209793	2578.499781
622.557176	2579.407188
622.904506	2576.377455
623.251783	2572.369738
623.599007	2574.527352
623.946179	2573.040211
624.293297	2572.178174
624.640363	2575.369224
624.987376	2577.368042
625.334336	2577.161354
625.681243	2577.146231
626.028097	2573.335119
626.374899	2576.737897
626.721647	2574.262691
627.068343	2577.408371
627.414987	2574.290417
627.761577	2573.604820
628.108115	2574.204718
628.454600	2569.254305
628.801032	2573.743452
629.147412	2575.391909
629.493739	2571.386713
629.840014	2573.619944
630.186236	2574.852506
630.532405	2570.562484
630.878521	2574.194635
631.224585	2574.819738
631.570597	2570.373441
631.916556	2572.425190
632.262462	2571.195149
632.608316	2570.880077
632.954117	2569.297154
633.299866	2573.395612
633.645562	2572.803277
633.991206	2571.905952
634.336797	2569.481157
634.682336	2566.612740
635.027823	2569.382854
635.373257	2569.529047
635.718639	2566.090981
636.063968	2571.653894
636.409245	2568.606516
636.754470	2568.329253
637.099642	2564.530743
637.444762	2570.416291
637.789829	2565.962431
638.134845	2566.791701
638.479808	2567.101732
638.824719	2564.513099
639.169577	2565.183573
639.514383	2567.268090
639.859137	2563.351113
640.203839	2566.564849
640.548489	2564.548387
640.893086	2564.750034
641.237632	2562.370609
641.582125	2564.266083
641.926566	2559.527398
642.270955	2564.550908
642.615292	2564.230795
642.959576	2565.995199
643.303809	2565.612071
643.647990	2565.622153
643.992118	2562.776422
644.336195	2565.115517
644.680219	2565.221382
645.024192	2563.850188
645.368112	2566.766495
645.711981	2563.968655
646.055797	2565.269273
646.399562	2563.898079
646.743274	2566.143913
647.086935	2568.220868
647.430544	2569.287072
647.774101	2565.302040
648.117606	2567.532751
648.461059	2568.818245
648.804460	2566.668193
649.147810	2567.343707
649.491108	2566.627863
649.834354	2566.453944
650.177548	2563.693912
650.520690	2565.382698
650.863781	2563.923284
651.206820	2567.827658
651.549807	2561.866494
651.892742	2563.464539
652.235626	2560.298695
652.578458	2563.895558
652.921238	2562.471432
653.263967	2562.713407
653.606644	2564.669375
653.949269	2564.177863
654.291843	2561.775753
654.634365	2562.683161
654.976836	2560.346586
655.319255	2563.885476
655.661622	2562.274827
656.003938	2560.200392
656.346203	2562.776422
656.688416	2562.491597
657.030577	2560.651576
657.372687	2562.632749
657.714746	2559.620660
658.056753	2559.524878
658.398708	2554.912222
658.740612	2559.978582
659.082465	2559.587892
659.424266	2556.530432
659.766016	2557.233673
660.107715	2560.021431
660.449362	2561.153170
660.790958	2562.040413
661.132503	2562.461350
661.473996	2563.414128
661.815438	2561.561504
662.156829	2560.921277
662.498168	2563.522513
662.839456	2559.436657
663.180693	2562.756257
663.521879	2563.502348
663.863013	2558.834240
664.204097	2558.945145
664.545129	2561.412790
664.886110	2564.124931
665.227040	2561.468243
665.567918	2563.756926
665.908746	2558.030176
666.249522	2561.480845
666.590248	2561.246432
666.930922	2561.904302
667.271545	2561.216185
667.612118	2561.198541
667.952639	2561.511092
668.293109	2563.237687
668.633528	2560.306257
668.973896	2562.047975
669.314213	2560.815413
669.654480	2564.785322
669.994695	2560.737275
670.334859	2563.005794
670.674973	2560.185269
671.015035	2562.272307
671.355047	2561.926987
671.695008	2564.021587
672.034918	2559.492110
672.374777	2560.737275
672.714585	2561.261555
673.054342	2559.519837
673.394049	2561.092677
673.733705	2562.607543
674.073310	2563.688871
674.412864	2561.644683
674.752368	2561.034703
675.091820	2560.701987
675.431223	2562.075702
675.770574	2562.050496
676.109875	2554.488765
676.449125	2558.483879
676.788324	2557.596636
677.127473	2557.914229
677.466571	2556.727037
677.805619	2560.727193
678.144616	2557.026986
678.483562	2560.389436
678.822458	2559.882800
679.161303	2556.303580
679.500098	2556.653941
679.838842	2557.231153
680.177535	2557.863818
680.516179	2557.551266
680.854771	2556.532953
681.193314	2561.677450
681.531805	2558.793910
681.870247	2562.547049
682.208638	2561.984961
682.546978	2563.822461
682.885268	2560.147460
683.223508	2558.357851
683.561697	2561.362378
683.899836	2563.278017
684.237925	2559.295505
684.575963	2558.720814
684.913951	2560.122254
685.251889	2558.541853
685.589776	2558.002449
685.927614	2562.078222
686.265401	2559.487069
686.603137	2561.397666
686.940824	2558.864487
687.278460	2562.231977
687.616046	2557.223591
687.953582	2560.956565
688.291068	2559.255176
688.628504	2562.945301
688.965889	2560.752399
689.303224	2563.209961
689.640510	2559.731565
689.977745	2558.236863
690.314930	2558.889692
690.652065	2558.403221
690.989150	2560.134857
691.326185	2556.580844
691.663170	2557.649568
692.000105	2557.639486
692.336990	2555.587737
692.673825	2558.735937
693.010610	2556.936245
693.347345	2550.687735
693.684030	2551.627910
694.020665	2555.408776
694.357251	2546.652291
694.693786	2552.469783
695.030272	2553.530946
695.366707	2552.467262
695.703093	2554.632438
696.039429	2552.421892
696.375716	2551.890050
696.711952	2551.315359
697.048139	2554.304763
697.384276	2552.820143
697.720363	2550.541542
698.056400	2553.251162
698.392388	2551.290153
698.728326	2550.975081
699.064214	2552.000956
699.400053	2551.620348
699.735842	2550.501212
700.071581	2549.308979
700.407270	2553.830894
700.742910	2551.877447
701.078501	2550.803682
701.414042	2551.156562
701.749533	2551.340564
702.084974	2551.615307
702.420366	2550.836449
702.755709	2549.742519
703.091002	2547.622713
703.426246	2548.938455
703.761440	2550.085317
704.096584	2548.918290
704.431679	2547.252189
704.766725	2549.540873
705.101721	2550.251675
705.436668	2548.076417
705.771565	2548.940975
706.106413	2548.308310
706.441212	2546.039791
706.775961	2549.233362
707.110661	2550.904505
707.445311	2552.810061
707.779913	2547.831921
708.114465	2550.244113
708.448967	2549.424926
708.783421	2553.024310
709.117825	2550.090358
709.452180	2554.841646
709.786485	2551.637992
710.120742	2552.164793
710.454949	2551.635472
710.789107	2548.905687
711.123216	2550.274360
711.457275	2552.734443
711.791286	2549.253527
712.125247	2549.936603
712.459159	2553.982129
712.793023	2556.628735
713.126837	2553.198230
713.460602	2553.407438
713.794318	2554.887016
714.127985	2552.810061
714.461602	2550.218908
714.795171	2553.198230
715.128691	2552.250493
715.462162	2554.473642
715.795584	2550.236552
716.128957	2549.518187
716.462281	2551.648075
716.795556	2551.794268
717.128782	2549.593805
717.461960	2547.665563
717.795088	2548.257899
718.128167	2550.400389
718.461198	2548.177240
718.794180	2547.143804
719.127113	2549.089689
719.459997	2548.620862
719.792833	2546.299411
720.125619	2547.582384
720.458357	2547.718495
720.791046	2547.153886
721.123686	2546.662374
721.456278	2548.020965
721.788821	2548.628424
722.121315	2549.245965
722.453761	2546.508618
722.786158	2547.395862
723.118506	2547.085831
723.450805	2542.626930
723.783056	2546.228834
724.115259	2544.376210
724.447412	2545.606252
724.779518	2544.224976
725.111574	2546.314534
725.443582	2545.691952
725.775542	2546.748073
726.107453	2547.239586
726.439315	2544.658515
726.771129	2553.167983
727.102895	2548.305790
727.434612	2550.203784
727.766281	2546.155738
728.097901	2548.578012
728.429473	2546.334699
728.760996	2543.483926
729.092471	2544.439225
729.423897	2548.295707
729.755276	2546.231355
730.086606	2546.783361
730.417887	2550.055070
730.749120	2548.847714
731.080305	2547.408464
731.411442	2549.586243
731.742530	2550.269319
732.073570	2550.791079
732.404562	2551.456511
732.735506	2550.899463
733.066401	2548.058773
733.397249	2551.229659
733.728048	2547.602549
734.058798	2550.579350
734.389501	2545.301262
734.720156	2547.879812
735.050762	2546.100285
735.381320	2545.999462
735.711831	2543.446117
736.042293	2547.421067
736.372707	2546.710265
736.703073	2545.283618
737.033391	2544.729091
737.363661	2546.372507
737.693883	2546.155738
738.024056	2547.758825
738.354182	2547.244627
738.684260	2547.658002
739.014290	2547.128680
739.344272	2547.874771
739.674207	2548.585574
740.004093	2549.059442
740.333931	2546.357384
740.663722	2546.291849
740.993464	2548.550286
741.323159	2546.125491
741.652806	2546.523742
741.982405	2545.656663
742.311956	2546.601880
742.641460	2548.285625
742.970915	2543.955274
743.300323	2544.214893
743.629683	2545.918803
743.958996	2545.810419
744.288260	2546.836293
744.617477	2541.870757
744.946647	2540.434028
745.275768	2540.988555
745.604842	2540.998637
745.933869	2542.526107
746.262847	2538.276414
746.591778	2541.275901
746.920662	2543.650284
747.249498	2544.446787
747.578286	2542.914276
747.907027	2546.463248
748.235720	2542.203473
748.564365	2544.794626
748.892963	2543.272198
749.221514	2545.434853
749.550017	2545.936448
749.878473	2544.943340
750.206881	2545.588608
750.535242	2543.693134
750.863555	2542.437887
751.191821	2542.737835
751.520039	2545.288659
751.848210	2543.887218
752.176334	2544.207332
752.504411	2545.192877
752.832440	2542.405119
753.160421	2545.732281
753.488356	2543.352856
753.816243	2542.142979
754.144082	2543.791437
754.471875	2543.771272
754.799620	2544.668597
755.127318	2541.008720
755.454969	2543.494008
755.782572	2543.529297
756.110129	2544.179605
756.437638	2542.148020
756.765100	2541.228010
757.092515	2543.763710
757.419882	2539.297248
757.747203	2546.745553
758.074477	2542.445448
758.401703	2543.879657
758.728882	2544.605583
759.056014	2544.731612
759.383099	2544.192208
759.710138	2543.730943
760.037129	2545.293700
760.364073	2543.824204
760.690970	2543.635161
761.017820	2546.826211
761.344623	2544.729091
761.671379	2546.458207
761.998088	2539.748431
762.324751	2546.685059
762.651366	2547.244627
762.977935	2554.105637
763.304456	2555.406255
763.630931	2557.866338
763.957359	2556.850546
764.283740	2552.026161
764.610074	2551.602704
764.936362	2547.675646
765.262602	2548.235214
765.588796	2545.107178
765.914943	2543.602393
766.241044	2546.279246
766.567097	2541.049049
766.893104	2542.130376
767.219064	2539.685417
767.544978	2541.482588
767.870845	2540.681045
768.196665	2542.722712
768.522438	2538.964532
768.848165	2541.472506
769.173846	2543.559543
769.499479	2539.894625
769.825066	2540.378575
770.150607	2538.473019
770.476101	2539.718184
770.801548	2539.713143
771.126949	2543.178936
771.452303	2541.243133
771.777611	2538.450334
772.102872	2538.165509
772.428087	2538.619213
772.753256	2537.300951
773.078378	2537.968904
773.403453	2537.308513
773.728482	2538.417567
774.053465	2538.145344
774.378401	2538.835982
774.703291	2539.335057
775.028135	2536.469161
775.352932	2540.003009
775.677683	2539.453524
776.002388	2535.559232
776.327046	2535.735673
776.651658	2540.754141
776.976224	2537.293389
777.300743	2537.530323
777.625216	2537.363965
777.949643	2536.834644
778.274024	2539.761034
778.598359	2535.718029
778.922647	2535.622247
779.246889	2535.889428
779.571086	2533.852802
779.895236	2536.128883
780.219339	2535.176105
780.543397	2536.471681
780.867409	2538.127700
781.191374	2536.113759
781.515294	2538.029398
781.839167	2535.423121
782.162995	2538.682227
782.486776	2537.195087
782.810511	2536.600231
783.134201	2538.954449
783.457844	2536.262473
783.781441	2535.816331
784.104993	2537.616023
784.428498	2537.348842
784.751958	2535.319777
785.075372	2537.772299
785.398739	2537.956301
785.722061	2537.361445
786.045337	2537.053934
786.368568	2538.407484
786.691752	2538.614172
787.014891	2539.135931
787.337983	2536.499407
787.661030	2539.584594
787.984031	2538.727597
788.306987	2543.050387
788.629897	2539.622402
788.952760	2540.870088
789.275579	2537.991589
789.598351	2540.229861
789.921078	2537.043852
790.243759	2539.461085
790.566395	2537.389171
790.888984	2539.861857
791.211529	2536.025539
791.534027	2537.981507
791.856480	2535.103008
792.178888	2538.523431
792.501249	2536.499408
792.823566	2536.854809
793.145836	2535.607123
793.468062	2539.710623
793.790241	2538.657021
794.112375	2535.115611
794.434464	2538.062165
794.756507	2538.193235
795.078505	2535.478574
795.400457	2536.292720
795.722364	2532.889941
796.044226	2537.374048
796.366042	2536.892617
796.687812	2536.842206
797.009538	2535.987730
797.331218	2538.934285
797.652852	2541.041487
797.974442	2535.629808
798.295986	2540.638195
798.617484	2535.949922
798.938938	2539.481250
799.260346	2537.048893
799.581709	2537.676517
799.903026	2535.309695
800.224299	2534.200641
800.545526	2534.248532
800.866708	2534.588810
801.187845	2537.749614
801.508936	2535.685261
801.829983	2536.602751
802.150984	2537.177443
802.471940	2533.588141
802.792851	2534.777853
803.113717	2536.380940
803.434538	2535.034952
803.755314	2537.444624
804.076045	2535.211393
804.396731	2537.217772
804.717372	2535.327339
805.037967	2538.841023
805.358518	2534.767771
805.679024	2537.878163
805.999485	2535.594520
806.319901	2539.128369
806.640272	2536.136444
806.960598	2536.781712
807.280879	2535.256763
807.601115	2535.806249
807.921306	2537.399253
808.241453	2536.759027
808.561554	2535.070240
808.881611	2535.526465
809.201623	2535.360107
809.521590	2535.024870
809.841513	2534.571166
810.161390	2539.027546
810.481223	2535.841537
810.801011	2535.014788
811.120755	2533.315919
811.440453	2536.965714
811.760107	2537.081661
812.079716	2535.201310
812.399281	2532.393388
812.718801	2534.924047
813.038276	2532.257277
813.357707	2534.450178
813.677093	2536.872453
813.996434	2536.338091
814.315731	2535.418080
814.634983	2535.632329
814.954191	2538.662063
815.273354	2535.090405
815.592473	2536.819521
815.911547	2536.504449
816.230577	2537.149716
816.549562	2538.185673
816.868502	2536.171733
817.187399	2536.600231
817.506250	2537.389171
817.825058	2535.881866
818.143821	2535.261804
818.462539	2536.567463
818.781213	2540.272711
819.099843	2537.182484
819.418429	2542.989893
819.736970	2541.800181
820.055466	2540.943185
820.373919	2542.672300
820.692327	2546.243958
821.010691	2553.785524
821.329011	2561.778273
821.647286	2589.434043
821.965517	2604.809563
822.283704	2621.359671
822.601847	2629.317132
822.919945	2616.641151
823.237999	2601.096753
823.556010	2587.493199
823.873976	2576.710171
824.191897	2569.496280
824.509775	2559.383725
824.827609	2558.367933
825.145398	2554.894578
825.463144	2553.052036
825.780845	2558.057902
826.098502	2555.809547
826.416116	2562.418500
826.733685	2572.031980
827.051210	2573.665314
827.368692	2568.886300
827.686129	2563.298181
828.003522	2557.077397
828.320872	2549.734957
828.638177	2546.874102
828.955439	2540.779347
829.272656	2538.341949
829.589830	2538.410005
829.906960	2537.958822
830.224046	2538.314223
830.541088	2538.510828
830.858086	2538.558719
831.175041	2537.220293
831.491952	2538.936805
831.808819	2539.866898
832.125642	2537.830272
832.442421	2540.222300
832.759157	2540.275232
833.075849	2545.271015
833.392497	2548.958619
833.709101	2553.162942
834.025662	2554.287119
834.342179	2553.248641
834.658653	2550.044988
834.975083	2545.875954
835.291469	2542.324461
835.607811	2541.996786
835.924110	2536.743903
836.240366	2536.496887
836.556578	2536.002854
836.872746	2538.702392
837.188871	2536.711136
837.504952	2534.813142
837.820990	2533.930940
838.136984	2533.920857
838.452935	2533.600744
838.768842	2533.822555
839.084706	2534.157792
839.400526	2535.952442
839.716303	2540.428987
840.032037	2543.272198
840.347727	2540.837320
840.663373	2537.658873
840.978977	2539.428318
841.294537	2536.668286
841.610054	2533.429345
841.925527	2534.387164
842.240957	2533.986392
842.556344	2536.423790
842.871687	2532.385826
843.186987	2534.041845
843.502244	2535.312216
843.817458	2531.453213
844.132629	2532.763912
844.447756	2532.957997
844.762840	2529.527492
845.077881	2529.174611
845.392879	2528.191586
845.707833	2529.754344
846.022745	2527.871473
846.337613	2534.240971
846.652438	2530.490352
846.967221	2531.949766
847.281960	2530.306350
847.596656	2534.563604
847.911309	2530.757533
848.225919	2531.183511
848.540485	2534.117462
848.855009	2530.195445
849.169490	2531.032276
849.483928	2533.547812
849.798323	2531.420445
850.112675	2528.738551
850.426984	2535.067720
850.741251	2529.192255
851.055474	2531.790970
851.369654	2529.207378
851.683792	2530.991947
851.997887	2533.799870
852.311938	2531.740558
852.625947	2530.760054
852.939914	2528.942718
853.253837	2532.015301
853.567718	2530.996988
853.881555	2533.245343
854.195350	2532.426155
854.509103	2531.233922
854.822812	2532.859694
855.136479	2534.465302
855.450103	2531.962369
855.763685	2529.648479
856.077224	2532.247194
856.390720	2532.383305
856.704173	2532.232071
857.017584	2530.422297
857.330953	2533.630991
857.644278	2532.423635
857.957561	2536.484284
858.270802	2532.582431
858.584000	2533.315919
858.897155	2531.685106
859.210268	2532.158974
859.523339	2531.032276
859.836367	2530.782739
860.149352	2530.288706
860.462295	2534.848430
860.775195	2530.485311
861.088054	2526.976668
861.400869	2526.152439
861.713642	2525.590351
862.026373	2530.263500
862.339062	2530.591175
862.651708	2531.985054
862.964312	2531.813655
863.276873	2532.350538
863.589392	2530.928932
863.901869	2531.299457
864.214303	2530.288706
864.526696	2532.337935
864.839045	2534.427493
865.151353	2530.029087
865.463619	2531.919519
865.775842	2532.136289
866.088023	2530.366844
866.400162	2534.792977
866.712258	2531.622091
867.024313	2533.643594
867.336325	2532.151412
867.648296	2530.250897
867.960224	2531.359951
868.272110	2528.501617
868.583954	2533.436907
868.895755	2532.307688
869.207515	2531.191072
869.519233	2531.972451
869.830909	2531.115455
870.142542	2532.201824
870.454134	2531.881711
870.765684	2532.660569
871.077191	2531.511186
871.388657	2533.106711
871.700081	2532.804242
872.011463	2533.691485
872.322803	2530.891124
872.634101	2533.600744
872.945357	2530.593696
873.256571	2534.596372
873.567744	2533.235260
873.878874	2531.889272
874.189963	2534.611495
874.501010	2532.680733
874.812015	2532.252235
875.122979	2535.463450
875.433900	2533.109232
875.744780	2533.930940
876.055618	2532.224509
876.366415	2533.419262
876.677169	2532.557225
876.987882	2529.482121
877.298554	2531.087729
877.609183	2532.128727
877.919771	2529.721576
878.230317	2532.443799
878.540822	2535.274407
878.851285	2535.561753
879.161707	2537.563091
879.472087	2539.037628
879.782425	2540.557536
880.092722	2542.969728
880.402977	2551.290153
880.713191	2561.692574
881.023363	2572.808318
881.333494	2585.295256
881.643583	2584.155955
881.953631	2585.552355
882.263637	2581.257292
882.573602	2576.679924
882.883526	2569.897052
883.193408	2564.276165
883.503248	2557.722665
883.813048	2557.452963
884.122806	2551.708569
884.432522	2547.542055
884.742197	2547.428629
885.051831	2544.507280
885.361424	2540.862526
885.670975	2540.144162
885.980485	2542.200953
886.289954	2538.924202
886.599382	2537.817669
886.908768	2535.390354
887.218113	2539.372865
887.527417	2538.304141
887.836680	2534.213244
888.145901	2535.370189
888.455082	2531.783408
888.764221	2534.571166
889.073319	2531.415404
889.382376	2534.677030
889.691392	2533.086546
890.000366	2535.400436
890.309300	2535.062679
890.618193	2532.416073
890.927044	2534.762730
891.235855	2532.516896
891.544625	2531.554036
891.853353	2532.032945
892.162041	2537.172402
892.470687	2534.853471
892.779293	2535.289531
893.087858	2535.062679
893.396381	2534.447658
893.704864	2536.012936
894.013306	2538.825900
894.321707	2546.571633
894.630068	2548.194884
894.938387	2551.262427
895.246665	2549.646737
895.554903	2547.128680
895.863100	2544.126673
896.171256	2541.956457
896.479371	2543.022661
896.787446	2539.045190
897.095480	2538.621733
897.403473	2536.673327
897.711425	2537.169881
898.019336	2537.056455
898.327207	2535.655014
898.635038	2533.746938
898.942827	2535.324819
899.250576	2534.805580
899.558284	2532.010260
899.865952	2534.493028
900.173579	2535.541588
900.481165	2533.081505
900.788711	2532.184180
901.096216	2531.546474
901.403681	2533.237781
901.711105	2534.203162
902.018489	2532.907585
902.325832	2534.422452
902.633135	2534.729963
902.940397	2534.482946
903.247619	2535.667617
903.554800	2536.118800
903.861941	2544.913093
904.169041	2552.293342
904.476101	2555.602860
904.783121	2561.659806
905.090100	2553.833415
905.397039	2548.499874
905.703938	2543.824204
906.010796	2541.651467
906.317614	2537.023688
906.624391	2537.132072
906.931129	2538.614172
907.237826	2534.200641
907.544483	2533.431865
907.851099	2534.684592
908.157675	2531.828778
908.464211	2534.271217
908.770707	2525.315608
909.077163	2531.339787
909.383578	2527.505989
909.689954	2528.715866
909.996289	2523.929290
910.302584	2531.826258
910.608839	2527.316946
910.915054	2532.957997
911.221229	2531.485980
911.527363	2531.551515
911.833458	2530.107224
912.139513	2532.791639
912.445527	2529.882893
912.751502	2530.954138
913.057436	2529.119158
913.363331	2531.987575
913.669186	2532.340456
913.975000	2533.174767
914.280775	2533.996475
914.586510	2538.253729
914.892205	2539.267001
915.197859	2542.463093
915.503475	2544.046015
915.809050	2551.322920
916.114585	2551.706048
916.420081	2554.909701
916.725536	2557.296688
917.030952	2553.994732
917.336328	2549.067004
917.641665	2549.130018
917.946961	2544.802188
918.252218	2541.049049
918.557435	2538.878832
918.862612	2538.765406
919.167750	2533.966228
919.472848	2533.255425
919.777906	2534.412370
920.082925	2532.355579
920.387904	2535.982689
920.692843	2532.022863
920.997743	2532.668131
921.302603	2530.921371
921.607423	2531.115455
921.912204	2532.723583
922.216946	2532.262318
922.521647	2534.084695
922.826310	2528.655372
923.130932	2532.902544
923.435516	2532.484128
923.740059	2531.889272
924.044564	2528.486493
924.349028	2531.420445
924.653454	2524.955165
924.957840	2525.166894
925.262186	2527.430372
925.566493	2530.258459
925.870761	2525.154291
926.174989	2528.685619
926.479178	2527.702594
926.783328	2530.016484
927.087438	2529.968593
927.391509	2527.987419
927.695541	2529.162008
927.999533	2525.769312
928.303486	2529.590506
928.607400	2527.533715
928.911275	2527.765608
929.215110	2529.403983
929.518906	2524.599764
929.822663	2530.936494
930.126381	2528.196627
930.430060	2528.736031
930.733699	2527.851308
931.037299	2529.298119
931.340861	2527.732841
931.644383	2528.453726
931.947866	2527.773170
932.251309	2529.867770
932.554714	2529.038500
932.858080	2530.634025
933.161407	2528.234436
933.464694	2528.030269
933.767943	2528.443644
934.071153	2529.436751
934.374323	2528.695701
934.677455	2531.405322
934.980548	2526.318797
935.283602	2528.794004
935.586617	2526.964065
935.889593	2528.965403
936.192530	2527.478263
936.495428	2527.372398
936.798287	2526.664116
937.101108	2530.066895
937.403890	2528.133613
937.706632	2528.504138
938.009336	2526.984230
938.312002	2530.762574
938.614628	2528.725948
938.917216	2528.756195
939.219765	2528.068078
939.522275	2535.798687
939.824747	2532.448840
940.127179	2528.153777
940.429573	2526.346524
940.731929	2527.531195
941.034246	2525.855011
941.336524	2526.467511
941.638763	2529.225022
941.940964	2531.140661
942.243126	2529.711494
942.545250	2529.983716
942.847335	2528.481452
943.149381	2528.037831
943.451389	2527.299302
943.753359	2527.566483
944.055290	2525.986081
944.357182	2528.138654
944.659036	2529.386339
944.960851	2531.760723
945.262628	2528.410876
945.564367	2529.381298
945.866067	2529.890455
946.167729	2527.831143
946.469352	2526.729651
946.770937	2529.424148
947.072484	2525.855011
947.373992	2530.591175
947.675462	2529.615712
947.976893	2526.333921
948.278286	2526.938859
948.579641	2528.095804
948.880958	2528.947759
949.182236	2529.845084
949.483476	2529.693850
949.784678	2530.306350
950.085841	2530.399611
950.386967	2527.042203
950.688054	2527.730320
950.989103	2530.112266
951.290114	2528.118489
951.591087	2529.189734
951.892021	2531.496062
952.192917	2527.730320
952.493776	2527.316946
952.794596	2528.748633
953.095378	2527.725279
953.396122	2533.368851
953.696828	2529.514889
953.997496	2530.795342
954.298126	2530.578572
954.598718	2528.239477
954.899272	2526.709487
955.199788	2526.477594
955.500266	2526.356606
955.800706	2526.608664
956.101108	2522.366533
956.401472	2524.319980
956.701798	2522.522808
957.002087	2527.054806
957.302337	2524.866945
957.602550	2526.404497
957.902724	2526.497758
958.202861	2527.143026
958.502960	2527.480783
958.803022	2526.424662
959.103045	2528.378109
959.403031	2528.244518
959.702979	2525.658406
960.002889	2528.383150
960.302762	2528.546987
960.602596	2528.410876
960.902393	2524.617408
961.202153	2525.305525
961.501875	2526.719569
961.801559	2526.674199
962.101205	2523.468025
962.400814	2526.515402
962.700385	2526.039013
962.999918	2525.789476
963.299414	2527.753006
963.598873	2525.633200
963.898293	2526.361647
964.197677	2526.722090
964.497022	2528.050434
964.796331	2523.992305
965.095601	2525.464322
965.394835	2527.344672
965.694030	2527.599250
965.993189	2528.715866
966.292309	2524.670340
966.591393	2527.679909
966.890439	2525.865093
967.189447	2526.661596
967.488419	2525.698735
967.787353	2526.157480
968.086249	2527.868952
968.385108	2528.143695
968.683930	2527.329549
968.982714	2523.644465
969.281462	2523.536080
969.580172	2523.054650
969.878844	2527.168232
970.177480	2528.060516
970.476078	2524.178827
970.774639	2525.907943
971.073162	2527.818541
971.371649	2523.773015
971.670098	2522.379136
971.968510	2525.048427
972.266885	2522.066584
972.565223	2527.175793
972.863524	2527.581606
973.161788	2524.433406
973.460014	2527.198479
973.758204	2526.333921
974.056356	2527.558921
974.354471	2526.117151
974.652550	2528.710825
974.950591	2528.914992
975.248595	2528.000022
975.546563	2524.498941
975.844493	2524.972809
976.142386	2527.422810
976.440243	2525.819723
976.738062	2526.865762
977.035845	2525.386184
977.333590	2524.307377
977.631299	2524.488858
977.928971	2526.205371
978.226606	2524.887110
978.524204	2526.896009
978.821765	2526.447347
979.119290	2525.035824
979.416777	2524.476256
979.714228	2527.974816
980.011642	2524.652696
980.309020	2528.660413
980.606360	2526.313756
980.903664	2524.713190
981.200931	2526.311236
981.498162	2528.113448
981.795356	2526.447347
982.092513	2527.082532
982.389633	2527.195958
982.686717	2526.351565
982.983764	2528.466329
983.280775	2527.359796
983.577749	2527.342152
983.874686	2527.750485
984.171587	2528.297450
984.468451	2523.941893
984.765279	2525.401307
985.062070	2526.119672
985.358824	2526.611184
985.655543	2524.461132
985.952224	2527.024559
986.248869	2525.678571
986.545478	2522.048940
986.842050	2522.885772
987.138586	2522.333765
987.435086	2524.589682
987.731549	2519.926614
988.027975	2526.308715
988.324366	2525.517254
988.620719	2527.473222
988.917037	2525.789476
989.213318	2524.932480
989.509563	2524.672861
989.805772	2526.049096
990.101944	2526.321318
990.398080	2526.550690
990.694180	2526.651513
990.990244	2526.931297
991.286271	2524.009949
991.582262	2526.475073
991.878217	2521.940555
992.174136	2527.425331
992.470019	2524.335103
992.765865	2523.314270
993.061676	2525.434075
993.357450	2526.853160
993.653188	2526.190248
993.948890	2525.209743
994.244556	2522.941224
994.540186	2528.010104
994.835780	2523.460463
995.131337	2525.739065
995.426859	2523.399969
995.722345	2521.519619
996.017795	2525.832326
996.313208	2522.706811
996.608586	2525.297964
996.903928	2526.543129
997.199234	2526.563293
997.494504	2525.502130
997.789738	2523.349558
998.084936	2526.096987
998.380099	2527.206040
998.675225	2524.592202
998.970316	2524.022552
999.265371	2526.391894
999.560390	2526.475073
999.855373	2524.511544
1000.150320	2524.592202
1000.445232	2523.820906
1000.740108	2524.750998
1001.034948	2524.604805
1001.329752	2525.376102
1001.624521	2526.641431
1001.919254	2519.062056
1002.213951	2523.228570
1002.508613	2519.646830
1002.803239	2523.331914
1003.097829	2518.109278
1003.392384	2528.103366
1003.686903	2524.488858
1003.981386	2528.010104
1004.275834	2522.999197
1004.570246	2526.497758
1004.864623	2524.801410
1005.158964	2528.715866
1005.453270	2524.279651
1005.747540	2522.263189
1006.041775	2524.466173
1006.335974	2524.660258
1006.630138	2521.877541
1006.924266	2525.862573
1007.218359	2525.116482
1007.512416	2525.812161
1007.806438	2521.950638
1008.100425	2526.817872
1008.394376	2527.006915
1008.688292	2523.284023
1008.982172	2524.451050
1009.276017	2522.951307
1009.569827	2525.660927
1009.863602	2526.089425
1010.157341	2522.611029
1010.451045	2523.551204
1010.744714	2526.482635
1011.038347	2524.153622
1011.331945	2524.304856
1011.625508	2524.473735
1011.919036	2524.009949
1012.212528	2525.882738
1012.505986	2524.186389
1012.799408	2526.785104
1013.092795	2525.640762
1013.386147	2523.833508
1013.679464	2524.304856
1013.972745	2525.655886
1014.265992	2525.865093
1014.559204	2521.582633
1014.852380	2524.014990
1015.145521	2524.067922
1015.438628	2522.237983
1015.731699	2522.333765
1016.024736	2523.382325
1016.317737	2526.480114
1016.610703	2524.219157
1016.903635	2520.226563
1017.196531	2522.300998
1017.489393	2521.454084
1017.782219	2518.255472
1018.075011	2523.725124
1018.367768	2522.217819
1018.660490	2525.890299
1018.953177	2525.890299
1019.245829	2525.890299
