Dividing Wavelength (nm)	Counts (n)	Blue Motor Position (mm): 33.700000	Red Motor Position (mm): 0.000000	
326.493990	2226.498693
326.888308	2226.498693
327.282561	2226.498693
327.676750	2183.066632
328.070874	2181.387928
328.464933	2182.013031
328.858929	2183.573268
329.252859	2190.164577
329.646726	2198.999199
330.040528	2211.264326
330.434265	2223.161449
330.827938	2239.560323
331.221547	2259.122520
331.615091	2276.320416
332.008571	2294.463529
332.401986	2312.775520
332.795338	2332.453664
333.188625	2351.274812
333.581847	2369.939684
333.975006	2391.457850
334.368100	2409.721950
334.761129	2428.487645
335.154095	2441.985335
335.546996	2469.646146
335.939833	2507.842968
336.332606	2522.263189
336.725315	2538.873791
337.117960	2549.707231
337.510540	2563.656103
337.903056	2570.877556
338.295508	2581.622776
338.687896	2589.983529
339.080220	2595.929570
339.472480	2603.725715
339.864676	2609.177722
340.256807	2613.374483
340.648875	2621.566358
341.040879	2621.662140
341.432818	2621.667181
341.824694	2627.366206
342.216506	2629.342338
342.608253	2628.848305
342.999937	2627.625825
343.391557	2627.504837
343.783113	2630.463995
344.174605	2626.012656
344.566033	2625.853859
344.957397	2624.558283
345.348697	2624.754888
345.739934	2624.008797
346.131106	2623.466873
346.522215	2619.471759
346.913260	2617.104937
347.304241	2616.684001
347.695159	2611.148814
348.086012	2611.955398
348.476802	2610.432970
348.867528	2605.502721
349.258191	2604.144130
349.648789	2600.708584
350.039324	2598.810590
350.429796	2602.190683
350.820203	2601.782350
351.210548	2600.950559
351.600828	2597.023501
351.991045	2596.468974
352.381198	2595.309508
352.771288	2594.893613
353.161314	2597.951073
353.551276	2596.181628
353.941175	2595.385126
354.331010	2596.098449
354.720782	2593.605598
355.110490	2596.229519
355.500135	2595.344796
355.889717	2596.922678
356.279235	2592.483942
356.668689	2594.518047
357.058080	2593.224991
357.447408	2595.110383
357.836672	2596.050558
358.225873	2597.026021
358.615010	2596.035434
359.004084	2595.183479
359.393095	2598.533326
359.782043	2597.300764
360.170927	2600.625405
360.559748	2598.745055
360.948505	2599.178594
361.337199	2602.624223
361.725830	2600.459047
362.114398	2601.462237
362.502903	2601.086671
362.891344	2600.093563
363.279722	2600.973245
363.668037	2600.915271
364.056289	2602.972062
364.444478	2604.194542
364.832603	2602.838472
365.220665	2604.658328
365.608665	2606.707557
365.996601	2604.738987
366.384474	2606.145468
366.772284	2606.337032
367.160031	2604.423914
367.547715	2608.272835
367.935336	2608.918103
368.322893	2605.217896
368.710388	2606.788216
369.097820	2606.009357
369.485189	2605.452310
369.872495	2609.848196
370.259738	2609.366766
370.646918	2607.642691
371.034035	2611.196705
371.421090	2611.980604
371.808081	2610.208638
372.195010	2610.138062
372.581875	2610.440532
372.968678	2610.944647
373.355418	2611.254678
373.742096	2611.602517
374.128710	2612.928341
374.515262	2611.045470
374.901751	2614.261726
375.288177	2614.218876
375.674540	2614.168465
376.060841	2614.740636
376.447079	2614.251644
376.833254	2615.953033
377.219367	2615.801799
377.605417	2614.952364
377.991404	2614.823815
378.377329	2615.753908
378.763191	2615.748867
379.148991	2616.794906
379.534727	2617.929166
379.920402	2617.198198
380.306013	2615.653085
380.691563	2619.020575
381.077049	2616.179885
381.462474	2619.297839
381.847835	2618.886985
382.233134	2620.918570
382.618371	2619.572582
383.003545	2621.064763
383.388657	2619.638117
383.773706	2620.512757
384.158693	2622.385546
384.543618	2619.998559
384.928480	2621.110134
385.313280	2622.362860
385.698017	2623.061060
386.082692	2625.357306
386.467305	2623.910495
386.851856	2624.890999
387.236344	2623.214815
387.620770	2624.399487
388.005133	2621.745319
388.389435	2626.045423
388.773674	2623.202212
389.157851	2628.530712
389.541965	2627.479632
389.926018	2628.356792
390.310008	2626.514251
390.693936	2629.400311
391.077802	2632.508183
391.461606	2630.095990
391.845348	2630.680764
392.229027	2633.486166
392.612645	2634.995992
392.996200	2630.668161
393.379694	2634.459109
393.763125	2635.573204
394.146494	2633.869294
394.529801	2637.448513
394.913047	2639.648977
395.296230	2637.022536
395.679351	2636.861219
396.062410	2638.726446
396.445408	2635.676548
396.828343	2639.923720
397.211217	2640.266518
397.594028	2641.216776
397.976778	2639.701909
398.359466	2641.531848
398.742092	2645.325316
399.124656	2641.897332
399.507158	2649.713641
399.889598	2647.188022
400.271977	2646.767086
400.654294	2645.975625
401.036549	2646.303300
401.418742	2648.045019
401.800874	2647.906387
402.182944	2650.958806
402.564952	2651.450318
402.946898	2650.512663
403.328783	2651.175575
403.710606	2651.568785
404.092367	2655.309321
404.474067	2654.585916
404.855705	2653.960813
405.237282	2654.780000
405.618797	2658.288643
406.000250	2660.766370
406.381642	2659.637152
406.762972	2659.521205
407.144240	2663.917092
407.525447	2664.080929
407.906593	2666.699808
408.287677	2676.567867
408.668700	2682.574402
409.049661	2694.544622
409.430560	2700.054603
409.811399	2710.015923
410.192176	2729.532750
410.572891	2744.981366
410.953545	2766.713780
411.334138	2777.680810
411.714669	2804.666107
412.095139	2824.072029
412.475547	2864.381095
412.855894	2904.044893
413.236180	2952.082048
413.616405	2971.598875
413.996568	3035.054399
414.376670	3088.493151
414.756711	3137.057106
415.136691	3204.734597
415.516609	3287.527987
415.896466	3358.726723
416.276262	3459.703555
416.655997	3529.495810
417.035670	3646.127945
417.415283	3800.982109
417.794834	3896.665730
418.174324	3954.943989
418.553753	4027.219011
418.933121	4202.033624
419.312428	4324.216070
419.691674	4356.086244
420.070859	4610.087301
420.449983	4612.867498
420.829045	4845.005071
421.208047	4869.343761
421.586988	5099.777424
421.965867	5209.087284
422.344686	5369.443867
422.723444	5501.882540
423.102141	5305.776614
423.480777	5776.572493
423.859352	5642.876052
424.237866	6092.113435
424.616319	6121.752899
424.994712	6458.970804
425.373044	6332.964643
425.751314	6712.117385
426.129524	6739.183340
426.507673	6936.945285
426.885762	7145.603684
427.263789	7188.463574
427.641756	7229.601910
428.019662	7414.768532
428.397508	7687.878083
428.775292	7552.944038
429.153016	7950.910367
429.530679	7910.311434
429.908282	8041.457052
430.285824	7901.070999
430.663305	8521.301801
431.040726	8165.870208
431.418086	8234.770178
431.795385	8574.175943
432.172624	8713.470586
432.549802	8708.666366
432.926920	8854.219601
433.303977	8804.559194
433.680974	9042.902428
434.057910	9182.507101
434.434786	9282.815980
434.811601	9209.114311
435.188355	9771.029045
435.565050	9556.109533
435.941683	9533.993991
436.318257	10047.380058
436.694770	10186.888949
437.071222	10303.490838
437.447614	10197.240959
437.823946	10113.867836
438.200218	10291.248396
438.576429	10127.912491
438.952580	10383.907324
439.328670	10461.541093
439.704700	10267.847360
440.080670	10272.744841
440.456580	10849.667090
440.832429	10607.542991
441.208218	10228.034847
441.583947	10575.962683
441.959616	10717.742614
442.335224	10531.668584
442.710773	10698.046826
443.086261	10886.996834
443.461689	10197.061998
443.837057	10828.411064
444.212365	11125.158586
444.587612	10775.854515
444.962800	11020.108501
445.337927	10801.493823
445.712995	10366.273368
446.088002	11465.887653
446.462949	11109.430186
446.837837	11084.426062
447.212664	11101.271078
447.587431	11591.067065
447.962139	12298.950929
448.336786	14548.331420
448.711374	15121.059429
449.085901	12984.517606
449.460369	12586.349631
449.834776	12037.771269
450.209124	12889.716187
450.583412	13295.322384
450.957640	14254.091873
451.331808	13441.886371
451.705917	12402.745767
452.079965	11726.238044
452.453954	12623.223151
452.827883	12251.185997
453.201752	12537.044626
453.575562	12044.639841
453.949311	12465.656846
454.323001	12427.548243
454.696632	12643.448260
455.070202	12939.900873
455.443713	13189.765664
455.817164	13639.991114
456.190556	13638.282163
456.563888	14009.789995
456.937160	14180.750646
457.310373	13527.250749
457.683526	13597.731121
458.056619	13153.829799
458.429653	13281.547431
458.802628	12736.162641
459.175542	13091.117845
459.548398	14053.090986
459.921194	14368.291651
460.293930	14441.703454
460.666607	15328.399566
461.039224	16359.358377
461.411782	17051.292031
461.784280	16956.046990
462.156719	16994.919328
462.529099	16690.562185
462.901419	15616.682990
463.273680	15400.591409
463.645882	15263.257776
464.018024	14997.898999
464.390106	15216.415374
464.762130	15942.321363
465.134094	16701.030141
465.505999	18677.439712
465.877845	21932.285898
466.249631	24775.907522
466.621358	24494.016281
466.993026	23032.593343
467.364634	22469.093166
467.736184	21013.354128
468.107674	20209.108608
468.479105	20343.510811
468.850477	19807.598349
469.221790	19385.437002
469.593043	18710.560093
469.964238	18155.392943
470.335373	17826.878591
470.706449	18239.701200
471.077467	17795.247871
471.448425	19616.427713
471.819324	23625.329691
472.190164	25695.292996
472.560945	22170.094769
472.931667	19780.615573
473.302330	19136.257809
473.672934	18636.550913
474.043479	18993.242795
474.413965	18798.939081
474.784393	18432.265715
475.154761	19101.859495
475.525070	19109.196895
475.895321	18771.394217
476.265513	19338.501339
476.635645	19929.551422
477.005719	19722.816223
477.375734	19906.520911
477.745691	20391.845394
478.115588	20901.821120
478.485427	21423.194895
478.855207	22477.199341
479.224928	24230.744542
479.594591	26457.780118
479.964194	26512.025454
480.333739	26724.913381
480.703226	26282.302593
481.072653	25958.481556
481.442022	26518.899067
481.811333	27426.954547
482.180584	27357.948713
482.549777	26407.635760
482.918912	26052.095782
483.287988	26178.233013
483.657005	25845.809247
484.025964	25569.891773
484.394864	25509.866754
484.763706	25198.996441
485.132489	24622.452278
485.501213	24797.327384
485.869879	24728.654266
486.238487	24526.761096
486.607036	24674.499671
486.975527	24366.578432
487.343959	24692.506672
487.712333	24634.485512
488.080648	24303.813546
488.448905	24783.600322
488.817104	24533.314596
489.185244	25201.625402
489.553326	25178.610014
489.921350	26157.965054
490.289315	28434.081304
490.657222	30240.137684
491.025070	30738.052449
491.392861	30504.450421
491.760593	29669.287505
492.128267	28771.258879
492.495883	27714.832158
492.863440	26858.221653
493.230939	25976.521325
493.598380	25830.446330
493.965763	25422.924494
494.333088	24971.310207
494.700354	24891.533947
495.067563	24779.358192
495.434713	24529.163206
495.801805	24679.480331
496.168839	24503.972560
496.535815	24323.456402
496.902733	24534.237127
497.269593	24208.444998
497.636395	24398.181426
498.003139	24372.222004
498.369825	24124.943326
498.736453	24307.463342
499.103023	24201.684811
499.469535	24212.377098
499.835989	24418.230095
500.202385	24447.098262
500.568723	23953.234064
500.935003	24201.871333
501.301226	23810.950017
501.667390	24656.139789
502.033497	24890.742486
502.399546	24607.883343
502.765537	24189.822976
503.131470	24572.900256
503.497345	24710.301946
503.863163	23929.891001
504.228923	24514.377501
504.594625	24734.202056
504.960269	24250.054682
505.325856	24743.702110
505.691385	24143.537622
506.056856	24759.241467
506.422270	24726.491611
506.787625	24287.812924
507.152924	24708.792120
507.518164	24733.851696
507.883347	24548.470825
508.248472	24228.970056
508.613540	25019.944738
508.978550	24796.818228
509.343503	24797.259329
509.708398	25045.246289
510.073236	25198.764548
510.438016	25422.294350
510.802738	25088.935449
511.167403	25336.262019
511.532010	25049.758122
511.896561	25822.015000
512.261053	25786.525277
512.625488	25623.368333
512.989866	25512.120150
513.354186	25357.243301
513.718449	25461.191893
514.082655	25844.100295
514.446803	25575.084162
514.810894	26043.787961
515.174927	25537.177205
515.538904	25561.019342
515.902822	26062.810755
516.266684	25809.845655
516.630488	25719.717386
516.994235	25690.879465
517.357925	25995.707956
517.721558	26178.248137
518.085133	26273.838496
518.448651	26193.258172
518.812112	25904.460551
519.175516	26123.506247
519.538863	26275.870081
519.902152	26063.188842
520.265385	26342.607396
520.628560	26130.742824
520.991678	26138.423022
521.354739	26209.672169
521.717743	26283.010876
522.080690	26068.139255
522.443580	26399.285089
522.806413	26391.604891
523.169189	26497.895099
523.531908	26536.588476
523.894569	26146.708158
524.257174	26228.415179
524.619722	26405.238692
524.982213	26086.907470
525.344647	26154.700907
525.707025	26293.405735
526.069345	26272.487467
526.431608	26235.392136
526.793815	26416.369559
527.155964	25881.505657
527.518057	26043.944237
527.880093	25980.455945
528.242072	26193.974016
528.603995	25911.190491
528.965860	25705.549223
529.327669	25762.337821
529.689421	25743.998103
530.051117	25577.745891
530.412755	25744.935758
530.774337	25559.806945
531.135862	25423.060606
531.497331	25624.358920
531.858743	25180.354254
532.220098	25660.491390
532.581396	25342.543296
532.942638	25279.967454
533.303824	25377.302052
533.664953	25391.445009
534.026025	25053.637290
534.387040	25280.269923
534.747999	25351.267013
535.108902	25509.246692
535.469748	25010.142215
535.830537	25179.010786
536.191270	25309.422916
536.551947	25187.878176
536.912567	24821.887886
537.273131	25185.612177
537.633638	24884.423399
537.994089	25089.172383
538.354483	24631.334791
538.714821	25129.176460
539.075103	25167.700957
539.435328	24949.610560
539.795497	24518.619632
540.155609	24916.510344
540.515665	25208.153697
540.875665	24441.973929
541.235609	24747.636731
541.595496	24706.309352
541.955328	25054.890017
542.315102	24987.764533
542.674821	24515.524364
543.034483	24410.320524
543.394090	24572.103754
543.753640	24359.677093
544.113134	24998.303065
544.472571	24598.526962
544.831953	24884.887186
545.191278	24515.317677
545.550548	24430.442290
545.909761	24629.451920
546.268918	24855.693864
546.628019	24827.899462
546.987064	24524.903431
547.346053	24289.416011
547.704986	24405.614607
548.063863	24560.330139
548.422684	24568.453959
548.781449	24098.580612
549.140158	24507.428271
549.498811	24065.341764
549.857408	23824.838396
550.215949	24236.902311
550.574434	23925.459827
550.932864	24146.912674
551.291237	24300.798936
551.649555	24170.603577
552.007817	24223.099632
552.366022	24083.464712
552.724173	24117.028714
553.082267	24059.433531
553.440305	24556.657659
553.798288	23806.990191
554.156215	24315.705628
554.514086	24414.683643
554.871902	23793.656339
555.229661	24075.053547
555.587365	23920.761471
555.945014	23791.057624
556.302606	24035.974522
556.660143	24001.813143
557.017625	24251.766153
557.375050	23771.213122
557.732421	24156.480784
558.089735	23983.831347
558.446994	24032.581825
558.804197	24062.869078
559.161345	24003.055787
559.518437	23758.002778
559.875474	23946.650317
560.232455	24134.826508
560.589381	23962.492143
560.946251	23957.876967
561.303065	24268.003710
561.659825	24355.429921
562.016528	23952.971924
562.373177	23704.009500
562.729770	24050.498086
563.086307	23916.022787
563.442789	24087.222892
563.799216	23912.105810
564.155587	23922.498149
564.511904	23908.065325
564.868164	23833.549510
565.224370	23814.753568
565.580520	23737.296239
565.936615	23862.087482
566.292654	23548.101735
566.648638	23836.221321
567.004567	23666.722606
567.360441	23617.742755
567.716260	23342.810827
568.072023	23669.991794
568.427732	23430.189147
568.783385	23204.753788
569.138982	23444.889151
569.494525	23486.997909
569.850013	23239.769642
570.205445	23328.660308
570.560823	23130.989104
570.916145	22886.593966
571.271412	23076.375764
571.626625	22827.869564
571.981782	22943.100259
572.336884	22754.185539
572.691931	22885.305951
573.046923	22619.576649
573.401860	22502.969720
573.756743	22511.620340
574.111570	22422.477616
574.466342	22336.241118
574.821059	22431.173607
575.175722	22140.236015
575.530330	22118.755659
575.884882	22140.251139
576.239380	22046.304196
576.593823	21935.083739
576.948211	21910.003998
577.302544	21765.605188
577.656823	21636.516361
578.011047	21736.921022
578.365216	21594.798292
578.719330	21474.965024
579.073389	21373.872246
579.427394	21531.388139
579.781344	21284.164913
580.135239	21186.447187
580.489080	21143.846916
580.842866	20906.862274
581.196597	21113.945312
581.550273	21087.237279
581.903895	20976.155454
582.257463	21284.444697
582.610975	20803.959721
582.964434	21132.952983
583.317837	20822.511167
583.671186	20917.962895
584.024481	20886.191023
584.377721	20648.316617
584.730906	20720.435364
585.084037	20740.751214
585.437113	20644.750000
585.790135	20850.953357
586.143103	20312.006120
586.496016	20330.734007
586.848874	20561.853267
587.201679	20496.910602
587.554428	20187.414003
587.907124	20513.201091
588.259765	20285.666091
588.612352	20353.101606
588.964884	19922.529095
589.317362	20094.566031
589.669786	20154.742285
590.022155	20189.632111
590.374470	20396.407638
590.726731	20169.482619
591.078937	19941.531724
591.431090	20030.679489
591.783188	19790.685278
592.135232	19754.883003
592.487222	19856.999136
592.839157	19875.810201
593.191038	19753.138764
593.542866	19640.957967
593.894639	19350.963072
594.246358	19580.529656
594.598022	19478.040478
594.949633	19236.513756
595.301190	19208.888233
595.652692	19372.161123
596.004141	19597.041955
596.355535	18920.680426
596.706876	18953.266445
597.058162	18845.148818
597.409395	19072.812367
597.760573	19141.218304
598.111698	18920.587165
598.462768	18852.216516
598.813785	18817.029262
599.164748	18634.990676
599.515657	18670.921500
599.866511	18470.898598
600.217312	18833.924689
600.568060	18352.033231
600.918753	18650.666144
601.269392	18559.665755
601.619978	18342.603753
601.970510	18548.320638
602.320988	18489.266042
602.671412	18695.759265
603.021783	18616.030896
603.372100	18332.402978
603.722363	18482.352099
604.072572	18425.901258
604.422728	18559.839675
604.772830	18322.497111
605.122878	18283.781049
605.472872	18267.833359
605.822813	18245.773270
606.172701	18222.813335
606.522534	18411.415503
606.872314	18443.867931
607.222041	18276.012631
607.571714	18489.576073
607.921333	18317.753385
608.270899	18390.003202
608.620411	18566.136076
608.969870	18338.180140
609.319276	18346.495524
609.668627	18373.674905
610.017926	18509.675153
610.367171	18620.749416
610.716362	18672.759001
611.065500	18475.176017
611.414585	18623.201938
611.763616	18601.840048
612.112594	18549.354075
612.461518	18510.103651
612.810389	18703.507518
613.159207	18566.103309
613.507971	18478.195668
613.856682	18742.843642
614.205340	18677.424588
614.553945	18819.965734
614.902496	18563.217248
615.250994	18801.278177
615.599439	18738.911542
615.947830	18728.335201
616.296169	18782.764539
616.644454	18737.817612
616.992686	18727.576508
617.340864	18933.449669
617.688990	18687.194345
618.037063	18859.808493
618.385082	18712.553869
618.733048	18993.890583
619.080961	18864.988279
619.428821	18899.507580
619.776628	18780.795969
620.124382	18703.719247
620.472083	18758.014994
620.819731	18766.206869
621.167326	18470.291139
621.514868	18507.809926
621.862357	18272.803937
622.209793	18278.961706
622.557176	18128.639540
622.904506	17945.663299
623.251783	17858.768930
623.599007	17614.613247
623.946179	17562.349084
624.293297	17500.284918
624.640363	17239.397645
624.987376	17264.389165
625.334336	17056.441569
625.681243	16901.968013
626.028097	16928.141683
626.374899	16848.551946
626.721647	16703.457456
627.068343	16537.719441
627.414987	16475.408259
627.761577	16441.871983
628.108115	16492.354098
628.454600	16205.963627
628.801032	16307.878114
629.147412	16238.905047
629.493739	16255.044301
629.840014	16059.984415
630.186236	16163.033161
630.532405	15926.456852
630.878521	16128.292049
631.224585	16023.005031
631.570597	15841.336970
631.916556	15874.863163
632.262462	15847.101529
632.608316	15761.941317
632.954117	15705.775302
633.299866	15700.693818
633.645562	15623.067611
633.991206	15390.897271
634.336797	15249.258492
634.682336	15220.791096
635.027823	15107.528972
635.373257	14978.039373
635.718639	14890.832453
636.063968	14832.334904
636.409245	14577.272684
636.754470	14611.386172
637.099642	14455.680053
637.444762	14229.150764
637.789829	14271.504018
638.134845	14108.168113
638.479808	14134.563594
638.824719	14071.826435
639.169577	13924.997788
639.514383	13983.681860
639.859137	13795.543478
640.203839	13897.405032
640.548489	13728.002098
640.893086	13715.898288
641.237632	13586.988422
641.582125	13739.697575
641.926566	13565.069485
642.270955	13576.959047
642.615292	13536.839024
642.959576	13546.825550
643.303809	13580.258482
643.647990	13507.562523
643.992118	13564.399012
644.336195	13337.153879
644.680219	13555.380388
645.024192	13472.503818
645.368112	13721.201582
645.711981	13766.428293
646.055797	13954.241521
646.399562	13917.907405
646.743274	14186.154763
647.086935	14473.066993
647.430544	14435.714563
647.774101	14457.053768
648.117606	14611.847437
648.461059	14582.076903
648.804460	14576.322426
649.147810	14295.648624
649.491108	14202.903996
649.834354	14211.715933
650.177548	13902.930137
650.520690	13711.071383
650.863781	13633.893838
651.206820	13677.494778
651.549807	13505.351977
651.892742	13302.450576
652.235626	13244.227769
652.578458	13245.087286
652.921238	12939.051439
653.263967	13129.503711
653.606644	12970.510760
653.949269	12943.621245
654.291843	12741.203795
654.634365	12903.523907
654.976836	12751.437337
655.319255	12757.065785
655.661622	12712.285216
656.003938	12639.380049
656.346203	12560.765775
656.688416	12636.572126
657.030577	12591.998244
657.372687	12508.645285
657.714746	12491.281031
658.056753	12682.018128
658.398708	12482.058240
658.740612	12494.157009
659.082465	12600.258174
659.424266	12559.346690
659.766016	12582.478025
660.107715	12495.124911
660.449362	12576.254720
660.790958	12530.496167
661.132503	12470.327475
661.473996	12544.939073
661.815438	12558.930795
662.156829	12580.123806
662.498168	12558.996330
662.839456	12553.766133
663.180693	12562.935992
663.521879	12667.086230
663.863013	12634.812763
664.204097	12613.586985
664.545129	12734.035274
664.886110	12709.308414
665.227040	12800.240747
665.567918	12799.746714
665.908746	12830.472547
666.249522	12808.909011
666.590248	12873.077859
666.930922	12980.766987
667.271545	12955.508286
667.612118	13044.303170
667.952639	12936.664453
668.293109	12971.254330
668.633528	12914.826174
668.973896	12891.389850
669.314213	12971.390441
669.654480	12708.133825
669.994695	12783.431020
670.334859	12804.190491
670.674973	12754.893048
671.015035	12787.716001
671.355047	12723.287534
671.695008	12701.325747
672.034918	12698.351466
672.374777	12739.295718
672.714585	12653.144919
673.054342	12697.713760
673.394049	12642.155204
673.733705	12745.128333
674.073310	12642.056901
674.412864	12668.492712
674.752368	12524.930733
675.091820	12555.374261
675.431223	12536.212835
675.770574	12406.947568
676.109875	12321.910865
676.449125	12286.925257
676.788324	12228.583983
677.127473	12063.955022
677.466571	12052.488918
677.805619	11944.953545
678.144616	11867.730629
678.483562	11843.984274
678.822458	11707.542925
679.161303	11683.337825
679.500098	11674.914057
679.838842	11625.709874
680.177535	11655.876139
680.516179	11717.156405
680.854771	11662.233034
681.193314	11879.950386
681.531805	12042.215046
681.870247	12466.518883
682.208638	12872.979556
682.546978	13186.987988
682.885268	13229.116911
683.223508	12922.382864
683.561697	12763.619285
683.899836	12669.430367
684.237925	12467.733801
684.575963	12379.344730
684.913951	12304.047536
685.251889	12252.121131
685.589776	12347.940863
685.927614	12270.498657
686.265401	12246.447312
686.603137	12289.740741
686.940824	12439.037033
687.278460	12566.658884
687.616046	12605.664812
687.953582	12776.302828
688.291068	12708.390924
688.628504	12941.367849
688.965889	12946.933283
689.303224	12920.845312
689.640510	12812.059732
689.977745	12491.517965
690.314930	12263.940116
690.652065	12172.239007
690.989150	11876.774459
691.326185	11661.466779
691.663170	11454.713936
692.000105	11215.743079
692.336990	11095.856879
692.673825	10840.842550
693.010610	10728.671836
693.347345	10520.570484
693.684030	10321.180247
694.020665	10251.700544
694.357251	10066.425537
694.693786	10000.981278
695.030272	9839.344242
695.366707	9719.805881
695.703093	9651.218462
696.039429	9652.093102
696.375716	9571.288448
696.711952	9438.844733
697.048139	9486.571857
697.384276	9439.341287
697.720363	9448.168347
698.056400	9392.811437
698.392388	9337.935957
698.728326	9303.681316
699.064214	9246.234848
699.400053	9282.710116
699.735842	9097.596426
700.071581	9054.184530
700.407270	8983.532759
700.742910	8904.744565
701.078501	8804.561715
701.414042	8680.738374
701.749533	8620.496585
702.084974	8482.094227
702.420366	8599.714428
702.755709	8478.333526
703.091002	8341.226744
703.426246	8372.557516
703.761440	8330.879776
704.096584	8283.376983
704.431679	8211.409471
704.766725	8197.516051
705.101721	8148.110223
705.436668	8199.855147
705.771565	8085.166376
706.106413	8168.536978
706.441212	8209.100623
706.775961	8171.644850
707.110661	8213.589770
707.445311	8352.216460
707.779913	8250.624607
708.114465	8378.848876
708.448967	8416.428157
708.783421	8561.005929
709.117825	8740.420594
709.452180	8778.322509
709.786485	8871.213331
710.120742	9149.369076
710.454949	9148.693562
710.789107	9247.303572
711.123216	9469.847829
711.457275	9635.880752
711.791286	9790.301376
712.125247	9785.847517
712.459159	9775.334191
712.793023	10016.334112
713.126837	9595.959854
713.460602	9747.570036
713.794318	9570.781812
714.127985	9605.664076
714.461602	9275.844065
714.795171	9226.312208
715.128691	8983.583170
715.462162	8734.681240
715.795584	8672.934668
716.128957	8519.003035
716.462281	8351.926593
716.795556	8404.878873
717.128782	8193.331893
717.461960	7934.907224
717.795088	8005.032194
718.128167	7912.050632
718.461198	7746.925118
718.794180	7684.689553
719.127113	7680.268461
719.459997	7514.359047
719.792833	7293.748072
720.125619	7353.306784
720.458357	7213.697069
720.791046	7203.639967
721.123686	7202.286418
721.456278	7042.320524
721.788821	7059.783081
722.121315	6954.193593
722.453761	7020.983840
722.786158	6957.503110
723.118506	6974.637992
723.450805	6937.456962
723.783056	7003.206211
724.115259	6916.198416
724.447412	6908.394710
724.779518	6966.052907
725.111574	6962.309851
725.443582	7042.194495
725.775542	7024.149685
726.107453	7221.566311
726.439315	7127.697505
726.771129	7190.185128
727.102895	7360.069492
727.434612	7468.103939
727.766281	7505.811770
728.097901	7580.451094
728.429473	7578.212822
728.760996	7553.576703
729.092471	7530.321860
729.423897	7471.920093
729.755276	7482.274623
730.086606	7411.509426
730.417887	7511.351998
730.749120	7711.085034
731.080305	7908.426043
731.411442	8017.493927
731.742530	8010.181733
732.073570	8122.256665
732.404562	8208.994758
732.735506	8058.352479
733.066401	8199.303140
733.397249	8126.955021
733.728048	7891.442395
734.058798	7551.441774
734.389501	7321.784449
734.720156	7144.245093
735.050762	6916.866369
735.381320	6819.645197
735.711831	6765.233503
736.042293	6665.020405
736.372707	6681.136974
736.703073	6545.620677
737.033391	6581.821202
737.363661	6594.421566
737.693883	6623.899713
738.024056	6708.023968
738.354182	6752.539877
738.684260	6784.909126
739.014290	6902.110912
739.344272	7013.590988
739.674207	7042.887654
740.004093	7110.867613
740.333931	7127.140458
740.663722	7131.493494
740.993464	7212.154476
741.323159	7198.800460
741.652806	6940.073321
741.982405	6963.403781
742.311956	7020.013418
742.641460	6848.669640
742.970915	6656.458006
743.300323	6645.727910
743.629683	6600.869202
743.958996	6465.950281
744.288260	6374.201281
744.617477	6326.554816
744.946647	6324.424928
745.275768	6155.221120
745.604842	6113.051868
745.933869	6100.244817
746.262847	6048.988885
746.591778	6046.677516
746.920662	6000.336709
747.249498	5997.947202
747.578286	6044.320776
747.907027	6115.688391
748.235720	6178.977557
748.564365	6151.140306
748.892963	6182.750861
749.221514	6330.781823
749.550017	6164.012892
749.878473	6040.030754
750.206881	6093.378765
750.535242	6035.576895
750.863555	5967.745649
751.191821	5984.265511
751.520039	5987.418752
751.848210	5893.481892
752.176334	5918.400315
752.504411	5963.929496
752.832440	5892.569443
753.160421	5817.103370
753.488356	5867.787130
753.816243	5900.360546
754.144082	5747.306074
754.471875	5720.429162
754.799620	5764.319968
755.127318	5779.047699
755.454969	5731.204629
755.782572	5697.524680
756.110129	5739.872893
756.437638	5726.554164
756.765100	5663.925389
757.092515	5664.507643
757.419882	5717.636363
757.747203	5695.432601
758.074477	5756.952322
758.401703	5747.316156
758.728882	5698.374114
759.056014	5759.057004
759.383099	5880.831116
759.710138	5891.019288
760.037129	5878.020673
760.364073	5885.209358
760.690970	5969.530218
761.017820	5946.411486
761.344623	5904.983284
761.671379	6009.786352
761.998088	6127.557788
762.324751	6374.017279
762.651366	6985.544529
762.977935	8315.277405
763.304456	9951.217528
763.630931	10843.796666
763.957359	10438.666858
764.283740	9485.238472
764.610074	8635.899831
764.936362	7637.423694
765.262602	7046.676081
765.588796	6505.051991
765.914943	6175.693246
766.241044	6010.166959
766.567097	5801.879085
766.893104	5544.434920
767.219064	5367.238362
767.544978	5305.136388
767.870845	5225.972628
768.196665	5119.405157
768.522438	5049.685999
768.848165	5012.951111
769.173846	4948.192449
769.499479	4905.324997
769.825066	4850.091595
770.150607	4789.796874
770.476101	4764.286115
770.801548	4763.446763
771.126949	4685.444990
771.452303	4630.940034
771.777611	4590.976287
772.102872	4604.902475
772.428087	4572.039193
772.753256	4529.615362
773.078378	4483.755986
773.403453	4413.900717
773.728482	4399.699787
774.053465	4354.064742
774.378401	4343.871528
774.703291	4343.858926
775.028135	4267.344293
775.352932	4221.164803
775.677683	4211.243812
776.002388	4229.097058
776.327046	4237.876228
776.651658	4164.096421
776.976224	4103.428655
777.300743	4107.005353
777.625216	4131.969147
777.949643	4121.937251
778.274024	4081.938216
778.598359	4036.620763
778.922647	4058.388466
779.246889	4053.052404
779.571086	4045.339439
779.895236	4029.737068
780.219339	4016.839276
780.543397	4010.820138
780.867409	4063.038930
781.191374	4078.981579
781.515294	4012.130838
781.839167	4003.311339
782.162995	4026.261192
782.486776	4013.328112
782.810511	4022.903784
783.134201	4015.591590
783.457844	3973.361844
783.781441	3920.079369
784.104993	3924.273609
784.428498	3945.622895
784.751958	3941.179118
785.075372	3916.111981
785.398739	3883.203328
785.722061	3891.866551
786.045337	3936.148047
786.368568	3967.841781
786.691752	3881.539747
787.014891	3929.632355
787.337983	4063.369126
787.661030	4222.412488
787.984031	4383.661356
788.306987	4551.390627
788.629897	4634.700735
788.952760	4590.051235
789.275579	4526.401627
789.598351	4458.530052
789.921078	4314.912620
790.243759	4112.606075
790.566395	4098.115278
790.888984	4089.520111
791.211529	3988.291221
791.534027	3924.334102
791.856480	3912.305909
792.178888	3848.300900
792.501249	3806.731545
792.823566	3815.835869
793.145836	3838.508458
793.468062	3792.059267
793.790241	3743.528079
794.112375	3773.911113
794.434464	3839.037779
794.756507	3865.027448
795.078505	3840.857636
795.400457	3879.240981
795.722364	4017.393802
796.044226	4123.941110
796.366042	4197.577244
796.687812	4172.363913
797.009538	4180.500335
797.331218	4134.761946
797.652852	4110.619861
797.974442	4089.008434
798.295986	4087.982559
798.617484	4008.279396
798.938938	3921.944596
799.260346	3963.957572
799.581709	3958.755101
799.903026	3880.839027
800.224299	3848.857947
800.545526	3839.909899
800.866708	3803.376657
801.187845	3741.393150
801.508936	3779.615178
801.829983	3773.563273
802.150984	3695.226263
802.471940	3685.456507
802.792851	3699.049978
803.113717	3697.467056
803.434538	3696.635266
803.755314	3638.553612
804.076045	3614.116618
804.396731	3633.983806
804.717372	3661.359792
805.037967	3645.308758
805.358518	3634.775267
805.679024	3663.204854
805.999485	3679.407122
806.319901	3679.833100
806.640272	3697.257848
806.960598	3707.718242
807.280879	3681.811753
807.601115	3697.887992
807.921306	3713.192935
808.241453	3754.558123
808.561554	3726.806571
808.881611	3660.815347
809.201623	3701.235318
809.521590	3708.877708
809.841513	3681.625230
810.161390	3714.864078
810.481223	3690.580840
810.801011	3637.094197
811.120755	3630.109679
811.440453	3664.283661
811.760107	3662.786438
812.079716	3624.345119
812.399281	3593.647013
812.718801	3613.357925
813.038276	3591.070983
813.357707	3585.440015
813.677093	3601.385184
813.996434	3551.618913
814.315731	3560.816499
814.634983	3562.134760
814.954191	3578.810897
815.273354	3602.869804
815.592473	3600.686984
815.911547	3609.703088
816.230577	3652.192453
816.549562	3698.782797
816.868502	3743.742328
817.187399	3767.518930
817.506250	3764.443826
817.825058	3738.668406
818.143821	3832.091069
818.462539	3932.646965
818.781213	3981.536075
819.099843	4037.951628
819.418429	4288.817087
819.736970	4530.923542
820.055466	4777.236839
820.373919	5144.159743
820.692327	5554.726435
821.010691	6014.212485
821.329011	7422.400839
821.647286	10217.365245
821.965517	14830.051261
822.283704	18865.333598
822.601847	20992.834112
822.919945	19133.749835
823.237999	16522.452307
823.556010	14012.749153
823.873976	11897.087789
824.191897	9800.870155
824.509775	8452.119526
824.827609	7319.773029
825.145398	6786.164373
825.463144	6665.312792
825.780845	6778.431243
826.098502	6981.372974
826.416116	7877.269191
826.733685	9221.518070
827.051210	10325.724847
827.368692	10346.045738
827.686129	9064.332373
828.003522	7549.417751
828.320872	6527.298603
828.638177	5820.284338
828.955439	5259.506384
829.272656	4758.755969
829.589830	4482.389833
829.906960	4303.370898
830.224046	4118.421046
830.541088	3992.157786
830.858086	3944.304633
831.175041	3865.904609
831.491952	3856.134853
831.808819	3862.650544
832.125642	3939.162657
832.442421	4088.511880
832.759157	4370.451012
833.075849	4925.938275
833.392497	5804.739940
833.709101	6584.908909
834.025662	6911.774804
834.342179	6534.598194
834.658653	5861.372262
834.975083	5213.110124
835.291469	4633.896671
835.607811	4228.746698
835.924110	4084.925099
836.240366	3884.687948
836.556578	3685.262423
836.872746	3573.048858
837.188871	3532.510420
837.504952	3468.389463
837.820990	3379.644991
838.136984	3337.369875
838.452935	3364.125799
838.768842	3358.086497
839.084706	3378.097357
839.400526	3543.956360
839.716303	3887.561406
840.032037	4419.856840
840.347727	4677.185059
840.663373	4385.703023
840.978977	3999.525433
841.294537	3697.207437
841.610054	3467.799648
841.925527	3363.656972
842.240957	3294.409162
842.556344	3238.182652
842.871687	3177.630833
843.186987	3129.071919
843.502244	3092.906681
843.817458	3058.213460
844.132629	3027.154911
844.447756	3033.194214
844.762840	3018.098478
845.077881	2987.072697
845.392879	2972.055100
845.707833	2968.773309
846.022745	2967.167701
846.337613	2964.947073
846.652438	2952.127419
846.967221	2954.101030
847.281960	2936.308278
847.596656	2932.449275
847.911309	2935.484049
848.225919	2929.245621
848.540485	2923.697832
848.855009	2924.940476
849.169490	2913.030750
849.483928	2903.888618
849.798323	2902.829975
850.112675	2900.959707
850.426984	2913.313055
850.741251	2906.857857
851.055474	2896.712535
851.369654	2891.726834
851.683792	2897.743451
851.997887	2905.171591
852.311938	2907.803073
852.625947	2894.955693
852.939914	2896.508368
853.253837	2902.756878
853.567718	2890.789179
853.881555	2887.925804
854.195350	2904.133113
854.509103	2901.085736
854.822812	2894.237328
855.136479	2890.406052
855.450103	2892.639283
855.763685	2884.444887
856.077224	2878.909700
856.390720	2893.680281
856.704173	2905.665624
857.017584	2895.550549
857.330953	2894.033162
857.644278	2905.141344
857.957561	2908.264339
858.270802	2915.440422
858.584000	2912.945050
858.897155	2901.360479
859.210268	2898.885272
859.523339	2898.265210
859.836367	2898.282854
860.149352	2891.978892
860.462295	2886.088303
860.775195	2893.327400
861.088054	2895.059037
861.400869	2876.787374
861.713642	2874.899462
862.026373	2890.804303
862.339062	2894.552401
862.651708	2899.901065
862.964312	2904.851478
863.276873	2894.391084
863.589392	2906.323495
863.901869	2917.048550
864.214303	2936.996395
864.526696	2953.264199
864.839045	2949.861420
865.151353	2948.034002
865.463619	2950.073148
865.775842	2951.714044
866.088023	2967.576035
866.400162	2973.585090
866.712258	2944.046449
867.024313	2934.117897
867.336325	2942.695420
867.648296	2965.373050
867.960224	2956.435085
868.272110	2942.934875
868.583954	2950.337809
868.895755	2962.071095
869.207515	2950.799075
869.519233	2957.163531
869.830909	2966.953452
870.142542	2973.847230
870.454134	2975.541058
870.765684	2976.350163
871.077191	2976.632468
871.388657	2986.009014
871.700081	3000.792197
872.011463	3009.692354
872.322803	3007.093640
872.634101	3008.679083
872.945357	3028.999974
873.256571	3054.102399
873.567744	3045.275339
873.878874	3037.854760
874.189963	3062.816034
874.501010	3060.723955
874.812015	3054.389745
875.122979	3051.801113
875.433900	3052.365722
875.744780	3056.809499
876.055618	3064.754357
876.366415	3059.456105
876.677169	3069.193093
876.987882	3065.717218
877.298554	3061.767474
877.609183	3084.944178
877.919771	3105.625512
878.230317	3137.036942
878.540822	3185.880681
878.851285	3226.666137
879.161707	3270.199021
879.472087	3375.201214
879.782425	3607.726956
880.092722	4053.596849
880.402977	4583.439762
880.713191	5231.696859
881.023363	6407.046919
881.333494	7695.747324
881.643583	8243.309893
881.953631	7934.549302
882.263637	7291.540047
882.573602	6691.017636
882.883526	6111.811744
883.193408	5538.753539
883.503248	5071.947734
883.813048	4762.040281
884.122806	4452.631902
884.432522	4133.617604
884.742197	3900.701173
885.051831	3703.357644
885.361424	3570.818148
885.670975	3498.931294
885.980485	3411.182450
886.289954	3333.019359
886.599382	3285.123357
886.908768	3250.024323
887.218113	3206.062941
887.527417	3148.682007
887.836680	3096.380036
888.145901	3092.682350
888.455082	3083.651123
888.764221	3029.120961
889.073319	3003.466529
889.382376	2997.379336
889.691392	3006.566839
890.000366	3002.443175
890.309300	2990.258706
890.618193	3003.113649
890.927044	3015.648478
891.235855	3019.031092
891.544625	3003.426200
891.853353	3016.190402
892.162041	3036.110521
892.470687	3077.085020
892.779293	3126.074953
893.087858	3175.168229
893.396381	3248.517018
893.704864	3370.260883
894.013306	3616.513687
894.321707	3922.352929
894.630068	4131.331441
894.938387	4119.020943
895.246665	4074.003440
895.554903	3953.020788
895.863100	3750.278184
896.171256	3581.384406
896.479371	3438.374433
896.787446	3316.696103
897.095480	3211.283056
897.403473	3147.187305
897.711425	3109.421501
898.019336	3101.617795
898.327207	3071.388516
898.635038	3034.762013
898.942827	3022.025537
899.250576	3010.423322
899.558284	2977.489464
899.865952	2957.571865
900.173579	2937.276179
900.481165	2932.552618
900.788711	2916.299938
901.096216	2893.702966
901.403681	2879.534803
901.711105	2886.549569
902.018489	2885.291801
902.325832	2886.685680
902.633135	2896.009294
902.940397	2930.697474
903.247619	3014.892305
903.554800	3210.441183
903.861941	3565.048547
904.169041	3997.735823
904.476101	4296.603149
904.783121	4245.921909
905.090100	3994.665760
905.397039	3715.869788
905.703938	3465.321921
906.010796	3278.794188
906.317614	3162.315808
906.624391	3070.574369
906.931129	2998.039727
907.237826	2936.850202
907.544483	2890.713562
907.851099	2859.894468
908.157675	2840.423011
908.464211	2816.147335
908.770707	2801.845581
909.077163	2791.753191
909.383578	2777.874895
909.689954	2768.828544
909.996289	2765.783687
910.302584	2766.862494
910.608839	2765.902154
910.915054	2761.423089
911.221229	2752.510329
911.527363	2755.489651
911.833458	2759.683891
912.139513	2764.495672
912.445527	2769.728390
912.751502	2779.321706
913.057436	2787.097686
913.363331	2799.539253
913.669186	2823.179744
913.975000	2858.495548
914.280775	2920.952923
914.586510	2990.727534
914.892205	3071.207034
915.197859	3201.523382
915.503475	3399.179462
915.809050	3616.667442
916.114585	3765.605812
916.420081	3781.588790
916.725536	3720.071590
917.030952	3602.012808
917.336328	3470.957931
917.641665	3336.195286
917.946961	3236.566963
918.252218	3164.501148
918.557435	3084.288828
918.862612	3026.045858
919.167750	2975.488126
919.472848	2935.713422
919.777906	2909.070924
920.082925	2881.435318
920.387904	2849.078672
920.692843	2835.749862
920.997743	2821.440546
921.302603	2809.550985
921.607423	2798.495735
921.912204	2785.766821
922.216946	2777.844648
922.521647	2766.759151
922.826310	2758.577358
923.130932	2750.496388
923.435516	2743.315265
923.740059	2735.070457
924.044564	2726.084601
924.349028	2725.235166
924.653454	2714.815101
924.957840	2709.070707
925.262186	2703.006198
925.566493	2700.684747
925.870761	2696.876155
926.174989	2692.971782
926.479178	2687.479445
926.783328	2681.062056
927.087438	2683.943075
927.391509	2681.941737
927.695541	2675.012671
927.999533	2674.064934
928.303486	2670.279028
928.607400	2671.652742
928.911275	2668.648214
929.215110	2666.188131
929.518906	2666.364572
929.822663	2667.884480
930.126381	2666.344407
930.430060	2668.459171
930.733699	2668.713749
931.037299	2671.067968
931.340861	2671.347752
931.644383	2672.870181
931.947866	2669.928667
932.251309	2668.086126
932.554714	2669.477484
932.858080	2667.317350
933.161407	2662.936587
933.464694	2661.890548
933.767943	2661.058757
934.071153	2662.311484
934.374323	2661.154539
934.677455	2660.572286
934.980548	2658.419713
935.283602	2658.293684
935.586617	2656.438540
935.889593	2660.496669
936.192530	2658.286123
936.495428	2660.209323
936.798287	2661.704025
937.101108	2665.734427
937.403890	2669.333811
937.706632	2674.422856
938.009336	2680.295800
938.312002	2689.629497
938.614628	2697.405477
938.917216	2705.052907
939.219765	2703.893442
939.522275	2700.909078
939.824747	2699.318594
940.127179	2701.231712
940.429573	2695.129396
940.731929	2693.967410
941.034246	2688.931297
941.336524	2685.959537
941.638763	2682.357632
941.940964	2679.285049
942.243126	2680.194977
942.545250	2679.902590
942.847335	2677.409740
943.149381	2670.475633
943.451389	2668.693585
943.753359	2665.744510
944.055290	2666.503203
944.357182	2663.750733
944.659036	2661.187307
944.960851	2664.496824
945.262628	2659.485917
945.564367	2659.934580
945.866067	2662.311484
946.167729	2663.135713
946.469352	2661.716628
946.770937	2662.616474
947.072484	2659.513644
947.373992	2661.267965
947.675462	2657.096410
947.976893	2656.178920
948.278286	2651.767911
948.579641	2652.133394
948.880958	2650.132056
949.182236	2654.323776
949.483476	2651.858652
949.784678	2653.396203
950.085841	2650.152221
950.386967	2652.614825
950.688054	2651.515853
950.989103	2653.232366
951.290114	2654.182623
951.591087	2657.918118
951.892021	2659.153201
952.192917	2662.503048
952.493776	2663.768377
952.794596	2664.285096
953.095378	2664.307781
953.396122	2662.603871
953.696828	2662.286278
953.997496	2659.944662
954.298126	2660.998263
954.598718	2657.542552
954.899272	2654.260761
955.199788	2650.121974
955.500266	2647.157776
955.800706	2646.953609
956.101108	2642.212404
956.401472	2643.205511
956.701798	2641.501601
957.002087	2637.319964
957.302337	2638.479429
957.602550	2634.985910
957.902724	2633.650004
958.202861	2633.660086
958.502960	2634.993471
958.803022	2632.916516
959.103045	2628.686988
959.403031	2629.627163
959.702979	2629.813686
960.002889	2627.782101
960.302762	2629.448202
960.602596	2628.127420
960.902393	2630.078346
961.202153	2625.871503
961.501875	2625.818571
961.801559	2629.468367
962.101205	2626.264713
962.400814	2628.177831
962.700385	2625.579117
962.999918	2622.312449
963.299414	2622.637603
963.598873	2621.004269
963.898293	2621.432767
964.197677	2623.519805
964.497022	2625.664816
964.796331	2625.926956
965.095601	2624.296143
965.394835	2623.398817
965.694030	2626.786473
965.993189	2623.983591
966.292309	2624.366719
966.591393	2624.361678
966.890439	2628.102214
967.189447	2625.904271
967.488419	2620.293467
967.787353	2624.275978
968.086249	2625.790845
968.385108	2622.998046
968.683930	2623.618108
968.982714	2624.979219
969.281462	2623.671040
969.580172	2625.548870
969.878844	2621.480658
970.177480	2623.933180
970.476078	2623.111472
970.774639	2623.683643
971.073162	2624.961575
971.371649	2625.440485
971.670098	2625.861421
971.968510	2625.546349
972.266885	2623.550052
972.565223	2624.989302
972.863524	2622.221708
973.161788	2625.609363
973.460014	2623.638272
973.758204	2624.772532
974.056356	2623.582820
974.354471	2622.730865
974.652550	2625.768160
974.950591	2624.462501
975.248595	2627.406535
975.546563	2624.596092
975.844493	2624.901081
976.142386	2623.920577
976.440243	2622.685494
976.738062	2623.134157
977.035845	2623.812192
977.333590	2623.451750
977.631299	2621.571399
977.928971	2620.270782
978.226606	2620.280864
978.524204	2619.040740
978.821765	2618.803806
979.119290	2621.273971
979.416777	2623.116513
979.714228	2619.350771
980.011642	2620.401852
980.309020	2621.722634
980.606360	2622.277161
980.903664	2623.567696
981.200931	2621.276492
981.498162	2623.262706
981.795356	2624.432254
982.092513	2627.280506
982.389633	2629.591875
982.686717	2632.109931
982.983764	2634.270066
983.280775	2639.152423
983.577749	2639.656539
983.874686	2636.215951
984.171587	2635.409367
984.468451	2635.285858
984.765279	2630.030455
985.062070	2633.261835
985.358824	2629.304529
985.655543	2626.673047
985.952224	2622.667850
986.248869	2624.996863
986.545478	2622.287243
986.842050	2620.545524
987.138586	2622.234311
987.435086	2623.078704
987.731549	2618.413116
988.027975	2619.703652
988.324366	2618.655092
988.620719	2619.570061
988.917037	2617.147787
989.213318	2618.818929
989.509563	2618.967643
989.805772	2618.544186
990.101944	2616.454628
990.398080	2620.094341
990.694180	2619.708693
990.990244	2618.158538
991.286271	2618.929835
991.582262	2618.047633
991.878217	2618.962602
992.174136	2614.780965
992.470019	2619.053343
992.765865	2614.657457
993.061676	2615.128805
993.357450	2616.726850
993.653188	2613.752570
993.948890	2616.953702
994.244556	2617.432612
994.540186	2621.561317
994.835780	2617.833384
995.131337	2619.854886
995.426859	2620.285905
995.722345	2622.158694
996.017795	2621.064763
996.313208	2622.831688
996.608586	2624.883437
996.903928	2623.746657
997.199234	2623.613067
997.494504	2624.197840
997.789738	2621.541152
998.084936	2620.908487
998.380099	2621.261368
998.675225	2618.622324
998.970316	2623.519805
999.265371	2621.400000
999.560390	2616.847838
999.855373	2619.305401
1000.150320	2618.932355
1000.445232	2621.440329
1000.740108	2618.279526
1001.034948	2617.946810
1001.329752	2618.317334
1001.624521	2616.018568
1001.919254	2615.774072
1002.213951	2616.298352
1002.508613	2616.167282
1002.803239	2615.118722
1003.097829	2619.265071
1003.392384	2615.466562
1003.686903	2617.215842
1003.981386	2615.461521
1004.275834	2614.274329
1004.570246	2616.537807
1004.864623	2615.343054
1005.158964	2615.890019
1005.453270	2616.878085
1005.747540	2616.094186
1006.041775	2617.891357
1006.335974	2615.799278
1006.630138	2615.469082
1006.924266	2613.878598
1007.218359	2616.275667
1007.512416	2613.951695
1007.806438	2613.109822
1008.100425	2614.027312
1008.394376	2612.860285
1008.688292	2615.958074
1008.982172	2615.459000
1009.276017	2617.558641
1009.569827	2612.630913
1009.863602	2616.086624
1010.157341	2613.893722
1010.451045	2616.144597
1010.744714	2613.568567
1011.038347	2612.439349
1011.331945	2614.849021
1011.625508	2614.632251
1011.919036	2616.406737
1012.212528	2613.324072
1012.505986	2615.239710
1012.799408	2617.377159
1013.092795	2614.861623
1013.386147	2614.942282
1013.679464	2614.092847
1013.972745	2613.661829
1014.265992	2615.922786
1014.559204	2613.989504
1014.852380	2615.907663
1015.145521	2615.068311
1015.438628	2612.784668
1015.731699	2612.895573
1016.024736	2615.658126
1016.317737	2613.997066
1016.610703	2617.241048
1016.903635	2615.577467
1017.196531	2614.843979
1017.489393	2612.520007
1017.782219	2614.579319
1018.075011	2617.649382
1018.367768	2614.428084
1018.660490	2612.303238
1018.953177	2612.303238
1019.245829	2612.303238
