Dividing Wavelength (nm)	Counts (n)	Blue Motor Position (mm): 0.000000	Red Motor Position (mm): 12.200000	
326.493990	2128.279372
326.888308	2128.279372
327.282561	2128.279372
327.676750	2095.864753
328.070874	2094.657396
328.464933	2096.215113
328.858929	2104.389344
329.252859	2112.419902
329.646726	2125.284927
330.040528	2139.198511
330.434265	2153.976654
330.827938	2172.555826
331.221547	2190.895544
331.615091	2208.723584
332.008571	2227.166646
332.401986	2248.140366
332.795338	2267.105187
333.188625	2286.274175
333.581847	2303.802267
333.975006	2322.598209
334.368100	2340.980776
334.761129	2359.237315
335.154095	2377.788761
335.546996	2391.470453
335.939833	2408.864954
336.332606	2424.941193
336.725315	2436.538368
337.117960	2443.389296
337.510540	2454.910853
337.903056	2463.785804
338.295508	2471.110601
338.687896	2480.030923
339.080220	2490.957624
339.472480	2495.391318
339.864676	2500.397184
340.256807	2503.870539
340.648875	2509.798936
341.040879	2506.791888
341.432818	2511.507887
341.824694	2511.129801
342.216506	2512.584174
342.608253	2512.979904
342.999937	2514.719102
343.391557	2515.568537
343.783113	2511.533093
344.174605	2509.670387
344.566033	2508.762979
344.957397	2510.174502
345.348697	2507.535458
345.739934	2501.876763
346.131106	2502.484222
346.522215	2499.943480
346.913260	2502.605210
347.304241	2497.135558
347.695159	2497.301916
348.086012	2493.700011
348.476802	2494.514158
348.867528	2490.866883
349.258191	2486.498723
349.648789	2486.743219
350.039324	2484.210039
350.429796	2485.908908
350.820203	2484.714155
351.210548	2483.282467
351.600828	2481.412199
351.991045	2483.635348
352.381198	2481.634010
352.771288	2481.399596
353.161314	2482.188537
353.551276	2480.708958
353.941175	2481.228197
354.331010	2480.030923
354.720782	2482.564102
355.110490	2480.666108
355.500135	2484.535194
355.889717	2479.184009
356.279235	2479.531848
356.668689	2484.464617
357.058080	2481.276088
357.447408	2480.013279
357.836672	2480.154431
358.225873	2486.274392
358.615010	2479.897332
359.004084	2483.705924
359.393095	2485.286326
359.782043	2486.075266
360.170927	2484.608290
360.559748	2486.266830
360.948505	2486.382777
361.337199	2486.198774
361.725830	2485.913949
362.114398	2489.233549
362.502903	2488.242962
362.891344	2489.432675
363.279722	2494.025166
363.668037	2489.979640
364.056289	2491.113899
364.444478	2492.071719
364.832603	2490.607263
365.220665	2494.836792
365.608665	2490.985350
365.996601	2492.147336
366.384474	2493.450474
366.772284	2496.230671
367.160031	2497.564056
367.547715	2499.547750
367.935336	2502.196876
368.322893	2504.972031
368.710388	2506.985972
369.097820	2514.479648
369.485189	2516.226407
369.872495	2524.582120
370.259738	2527.080012
370.646918	2536.146527
371.034035	2544.101467
371.421090	2555.461708
371.808081	2564.281206
372.195010	2572.831003
372.581875	2586.684094
372.968678	2599.619695
373.355418	2609.923813
373.742096	2625.339662
374.128710	2640.911786
374.515262	2657.103972
374.901751	2670.969666
375.288177	2687.754187
375.674540	2709.345449
376.060841	2725.114179
376.447079	2744.880543
376.833254	2766.562546
377.219367	2777.864812
377.605417	2816.832932
377.991404	2825.891885
378.377329	2846.076665
378.763191	2861.109386
379.148991	2902.552712
379.534727	2926.742688
379.920402	2955.336113
380.306013	2966.910602
380.691563	3016.807943
381.077049	3038.411808
381.462474	3054.994683
381.847835	3091.139757
382.233134	3116.693365
382.618371	3111.949640
383.003545	3185.616021
383.388657	3188.512164
383.773706	3220.389900
384.158693	3238.608630
384.543618	3262.833895
384.928480	3294.031075
385.313280	3338.398270
385.698017	3333.614215
386.082692	3382.583984
386.467305	3381.616082
386.851856	3405.652304
387.236344	3421.713420
387.620770	3442.805608
388.005133	3457.513174
388.389435	3475.051348
388.773674	3470.978096
389.157851	3501.439268
389.541965	3499.702591
389.926018	3453.195426
390.310008	3503.364989
390.693936	3500.796521
391.077802	3517.969212
391.461606	3490.257989
391.845348	3522.584388
392.229027	3500.587313
392.612645	3484.974860
392.996200	3522.269316
393.379694	3525.001621
393.763125	3548.372410
394.146494	3496.914832
394.529801	3509.056452
394.913047	3507.871780
395.296230	3453.230714
395.679351	3458.176086
396.062410	3438.530709
396.445408	3393.470356
396.828343	3378.871174
397.211217	3356.196064
397.594028	3279.121863
397.976778	3275.635905
398.359466	3253.684201
398.742092	3229.060685
399.124656	3165.920233
399.507158	3163.823113
399.889598	3143.819814
400.271977	3130.102835
400.654294	3082.907552
401.036549	3052.847152
401.418742	3013.785771
401.800874	3012.533045
402.182944	2983.284270
402.564952	2969.771457
402.946898	2935.942794
403.328783	2901.733524
403.710606	2857.883047
404.092367	2864.590303
404.474067	2834.575273
404.855705	2813.384782
405.237282	2779.901439
405.618797	2770.131682
406.000250	2750.917325
406.381642	2741.881056
406.762972	2717.151676
407.144240	2700.992257
407.525447	2685.110102
407.906593	2671.410767
408.287677	2660.252173
408.668700	2638.983545
409.049661	2630.887452
409.430560	2618.834053
409.811399	2607.105808
410.192176	2600.801845
410.572891	2590.790114
410.953545	2588.002356
411.334138	2574.240006
411.714669	2568.311609
412.095139	2561.344734
412.475547	2556.212840
412.855894	2551.963147
413.236180	2547.053063
413.616405	2545.835624
413.996568	2542.629451
414.376670	2541.041487
414.756711	2534.858512
415.136691	2534.624098
415.516609	2534.155271
415.896466	2531.180990
416.276262	2536.706095
416.655997	2526.643952
417.035670	2524.892151
417.415283	2529.356092
417.794834	2523.420134
418.174324	2528.327697
418.553753	2528.390712
418.933121	2528.632687
419.312428	2528.221833
419.691674	2526.928777
420.070859	2530.623943
420.449983	2527.064888
420.829045	2526.313756
421.208047	2526.580937
421.586988	2527.604292
421.965867	2525.292923
422.344686	2527.742923
422.723444	2525.323169
423.102141	2525.761750
423.480777	2526.192768
423.859352	2527.518592
424.237866	2527.334590
424.616319	2526.838036
424.994712	2529.550177
425.373044	2524.919877
425.751314	2527.165711
426.129524	2527.581606
426.507673	2526.543129
426.885762	2528.080681
427.263789	2530.830630
427.641756	2527.432892
428.019662	2526.696884
428.397508	2528.310053
428.775292	2527.702594
429.153016	2526.112110
429.530679	2526.742254
429.908282	2528.441123
430.285824	2525.292923
430.663305	2528.519261
431.040726	2527.828623
431.418086	2528.415917
431.795385	2528.448685
432.172624	2526.754857
432.549802	2528.955321
432.926920	2529.983716
433.303977	2530.180321
433.680974	2526.434744
434.057910	2530.628984
434.434786	2526.976668
434.811601	2528.753675
435.188355	2526.749816
435.565050	2531.236443
435.941683	2529.134282
436.318257	2528.796524
436.694770	2525.824764
437.071222	2525.968437
437.447614	2524.362830
437.823946	2526.429703
438.200218	2530.505476
438.576429	2531.513706
438.952580	2529.890455
439.328670	2531.700229
439.704700	2527.778211
440.080670	2531.617050
440.456580	2529.096473
440.832429	2530.573531
441.208218	2528.095804
441.583947	2534.487987
441.959616	2531.153264
442.335224	2531.244005
442.710773	2531.533871
443.086261	2532.015301
443.461689	2531.180990
443.837057	2533.351207
444.212365	2534.205683
444.587612	2532.388347
444.962800	2532.295085
445.337927	2535.181146
445.712995	2532.970600
446.088002	2532.776515
446.462949	2530.412214
446.837837	2535.798687
447.212664	2534.175436
447.587431	2531.460774
447.962139	2533.835158
448.336786	2539.569470
448.711374	2536.872453
449.085901	2534.780374
449.460369	2533.126876
449.834776	2536.917823
450.209124	2535.765920
450.583412	2535.899510
450.957640	2535.135775
451.331808	2537.908410
451.705917	2534.180477
452.079965	2534.341794
452.453954	2532.834489
452.827883	2535.229037
453.201752	2535.682741
453.575562	2537.225334
453.949311	2535.929757
454.323001	2536.514531
454.696632	2535.902031
455.070202	2536.103677
455.443713	2535.627288
455.817164	2534.535878
456.190556	2533.459592
456.563888	2535.816331
456.937160	2532.380785
457.310373	2536.428831
457.683526	2536.300282
458.056619	2535.836496
458.429653	2535.274407
458.802628	2535.816331
459.175542	2536.731301
459.548398	2536.748945
459.921194	2541.573329
460.293930	2539.297248
460.666607	2540.683565
461.039224	2539.536703
461.411782	2542.445448
461.784280	2543.660367
462.156719	2541.074255
462.529099	2540.721374
462.901419	2538.969573
463.273680	2539.554347
463.645882	2540.378575
464.018024	2539.778678
464.390106	2538.909079
464.762130	2540.688606
465.134094	2541.555685
465.505999	2545.732281
465.877845	2547.703372
466.249631	2549.994576
466.621358	2546.680018
466.993026	2550.859134
467.364634	2549.656819
467.736184	2543.062990
468.107674	2546.463248
468.479105	2542.894111
468.850477	2543.400747
469.221790	2547.960471
469.593043	2544.908052
469.964238	2544.403937
470.335373	2542.117773
470.706449	2547.169010
471.077467	2545.064328
471.448425	2545.810419
471.819324	2550.501212
472.190164	2547.645399
472.560945	2547.526932
472.931667	2546.611962
473.302330	2544.686241
473.672934	2546.707744
474.043479	2544.645912
474.413965	2546.780841
474.784393	2540.494522
475.154761	2542.722712
475.525070	2537.520241
475.895321	2541.354039
476.265513	2543.504091
476.635645	2546.627086
477.005719	2542.536189
477.375734	2543.952753
477.745691	2546.526262
478.115588	2549.825698
478.485427	2545.696993
478.855207	2548.421736
479.224928	2548.262940
479.594591	2550.407951
479.964194	2549.140101
480.333739	2552.633620
480.703226	2547.902497
481.072653	2551.138918
481.442022	2547.804195
481.811333	2551.290153
482.180584	2551.469114
482.549777	2548.457024
482.918912	2546.808567
483.287988	2549.258568
483.657005	2549.407282
484.025964	2548.940975
484.394864	2548.373845
484.763706	2549.308979
485.132489	2549.762683
485.501213	2550.360060
485.869879	2551.736295
486.238487	2546.674977
486.607036	2548.635985
486.975527	2548.686397
487.343959	2550.178578
487.712333	2548.946016
488.080648	2549.868548
488.448905	2550.697817
488.817104	2549.518187
489.185244	2549.268650
489.553326	2549.205636
489.921350	2550.874258
490.289315	2552.898281
490.657222	2554.652603
491.025070	2553.334341
491.392861	2552.368960
491.760593	2551.179247
492.128267	2554.100596
492.495883	2553.800647
492.863440	2550.634803
493.230939	2549.951727
493.598380	2550.924669
493.965763	2544.923176
494.333088	2547.710934
494.700354	2544.890408
495.067563	2548.993907
495.434713	2543.957795
495.801805	2548.406613
496.168839	2550.004659
496.535815	2548.328475
496.902733	2548.925852
497.269593	2547.743701
497.636395	2552.114382
498.003139	2549.513146
498.369825	2547.476520
498.736453	2550.891902
499.103023	2547.496685
499.469535	2550.077755
499.835989	2549.563558
500.202385	2548.993907
500.568723	2550.092879
500.935003	2550.208825
501.301226	2546.760676
501.667390	2550.428116
502.033497	2548.681356
502.399546	2548.477189
502.765537	2549.598846
503.131470	2550.912066
503.497345	2553.145297
503.863163	2551.859803
504.228923	2552.071532
504.594625	2551.121274
504.960269	2551.161603
505.325856	2549.964329
505.691385	2550.465924
506.056856	2550.332334
506.422270	2548.842673
506.787625	2551.164124
507.152924	2549.639175
507.518164	2551.675801
507.883347	2550.685214
508.248472	2551.176727
508.613540	2549.034237
508.978550	2551.640513
509.343503	2547.905018
509.708398	2550.780996
510.073236	2550.213867
510.438016	2550.342416
510.802738	2547.302600
511.167403	2550.559186
511.532010	2550.375183
511.896561	2553.472972
512.261053	2551.902653
512.625488	2547.000131
512.989866	2544.610624
513.354186	2548.525080
513.718449	2544.335881
514.082655	2551.033054
514.446803	2548.089020
514.810894	2551.612787
515.174927	2554.818961
515.538904	2549.498023
515.902822	2552.310987
516.266684	2552.159752
516.630488	2549.699669
516.994235	2548.204967
517.357925	2552.805020
517.721558	2552.686553
518.085133	2552.673950
518.448651	2551.980791
518.812112	2552.159752
519.175516	2550.660009
519.538863	2551.758980
519.902152	2554.846687
520.265385	2551.703528
520.628560	2553.372149
520.991678	2552.270657
521.354739	2550.919628
521.717743	2554.758467
522.080690	2553.364588
522.443580	2550.549103
522.806413	2553.220915
523.169189	2553.016748
523.531908	2552.550441
523.894569	2549.495502
524.257174	2555.161759
524.619722	2550.672612
524.982213	2553.004145
525.344647	2552.381563
525.707025	2550.660009
526.069345	2551.184289
526.431608	2552.051367
526.793815	2550.070194
527.155964	2552.111861
527.518057	2551.781665
527.880093	2550.163455
528.242072	2551.206974
528.603995	2555.476831
528.965860	2550.541542
529.327669	2553.019269
529.689421	2552.442057
530.051117	2550.949875
530.412755	2553.941800
530.774337	2552.497509
531.135862	2551.055739
531.497331	2549.366953
531.858743	2549.210677
532.220098	2548.194884
532.581396	2549.011551
532.942638	2552.079093
533.303824	2552.938610
533.664953	2550.574309
534.026025	2551.469114
534.387040	2552.106820
534.747999	2550.324772
535.108902	2549.482899
535.469748	2550.775955
535.830537	2551.320400
536.191270	2550.907025
536.551947	2553.011707
536.912567	2552.981460
537.273131	2550.660009
537.633638	2551.161603
537.994089	2553.515822
538.354483	2550.198743
538.714821	2552.789896
539.075103	2552.648744
539.435328	2553.493137
539.795497	2549.825698
540.155609	2552.268137
540.515665	2551.864844
540.875665	2554.433312
541.235609	2550.516336
541.595496	2555.668395
541.955328	2555.633107
542.315102	2555.370967
542.674821	2554.682849
543.034483	2554.080432
543.394090	2550.591953
543.753640	2553.004145
544.113134	2553.110009
544.472571	2553.120092
544.831953	2553.034392
545.191278	2553.087324
545.550548	2551.569937
545.909761	2553.878785
546.268918	2551.895091
546.628019	2555.048333
546.987064	2554.125802
547.346053	2554.592109
547.704986	2556.031358
548.063863	2553.064639
548.422684	2550.980122
548.781449	2554.120761
549.140158	2554.939948
549.498811	2552.253013
549.857408	2552.855431
550.215949	2552.195040
550.574434	2549.571119
550.932864	2550.828887
551.291237	2550.652447
551.649555	2552.431974
552.007817	2551.214536
552.366022	2555.025648
552.724173	2552.522715
553.082267	2552.651264
553.440305	2554.420709
553.798288	2553.725030
554.156215	2553.241079
554.514086	2552.255534
554.871902	2552.300904
555.229661	2552.951213
555.587365	2551.075904
555.945014	2554.602191
556.302606	2552.787376
556.660143	2552.699155
557.017625	2553.818292
557.375050	2552.167314
557.732421	2555.481872
558.089735	2552.807540
558.446994	2552.401727
558.804197	2553.021789
559.161345	2555.043292
559.518437	2553.977088
559.875474	2552.031203
560.232455	2551.995914
560.589381	2551.842159
560.946251	2556.938766
561.303065	2552.507592
561.659825	2554.345092
562.016528	2553.530946
562.373177	2554.980277
562.729770	2552.847869
563.086307	2553.987170
563.442789	2554.282078
563.799216	2555.111347
564.155587	2554.380380
564.511904	2553.788045
564.868164	2553.019269
565.224370	2556.364074
565.580520	2551.136398
565.936615	2554.501368
566.292654	2554.143446
566.648638	2552.764690
567.004567	2553.452808
567.360441	2549.162786
567.716260	2554.324928
568.072023	2553.851059
568.427732	2548.527601
568.783385	2549.515667
569.138982	2549.883671
569.494525	2549.006510
569.850013	2548.651109
570.205445	2552.585729
570.560823	2555.794424
570.916145	2551.365770
571.271412	2554.350133
571.626625	2552.280740
571.981782	2551.222097
572.336884	2551.070863
572.691931	2553.677139
573.046923	2551.703527
573.401860	2551.005328
573.756743	2551.519525
574.111570	2553.311656
574.466342	2553.344423
574.821059	2551.963147
575.175722	2554.408107
575.530330	2550.332334
575.884882	2555.885165
576.239380	2553.808209
576.593823	2553.722510
576.948211	2549.956768
577.302544	2552.880637
577.656823	2554.299722
578.011047	2554.519012
578.365216	2549.636654
578.719330	2551.033054
579.073389	2551.509443
579.427394	2548.953578
579.781344	2555.146636
580.135239	2550.614638
580.489080	2552.931048
580.842866	2554.471121
581.196597	2551.670760
581.550273	2551.131357
581.903895	2552.240410
582.257463	2551.489278
582.610975	2552.174875
582.964434	2552.263096
583.317837	2552.731923
583.671186	2551.887530
584.024481	2555.189485
584.377721	2552.374001
584.730906	2553.147818
585.084037	2549.613969
585.437113	2551.869886
585.790135	2553.404917
586.143103	2553.467931
586.496016	2554.004814
586.848874	2550.153373
587.201679	2548.845193
587.554428	2548.242775
587.907124	2550.559186
588.259765	2546.559030
588.612352	2551.212015
588.964884	2551.794268
589.317362	2550.501212
589.669786	2551.390976
590.022155	2555.209650
590.374470	2552.109340
590.726731	2552.399207
591.078937	2551.945503
591.431090	2550.521377
591.783188	2548.991387
592.135232	2551.398538
592.487222	2549.603887
592.839157	2551.685883
593.191038	2548.459545
593.542866	2551.983312
593.894639	2547.771428
594.246358	2550.624721
594.598022	2551.176727
594.949633	2551.499361
595.301190	2549.941644
595.652692	2551.577499
596.004141	2548.683876
596.355535	2554.287119
596.706876	2550.838970
597.058162	2547.340409
597.409395	2547.877292
597.760573	2549.016592
598.111698	2548.726726
598.462768	2552.779814
598.813785	2551.698486
599.164748	2550.415513
599.515657	2548.787220
599.866511	2549.908877
600.217312	2550.879299
600.568060	2548.285625
600.918753	2551.237221
601.269392	2551.171686
601.619978	2547.247148
601.970510	2550.014741
602.320988	2545.944009
602.671412	2548.739329
603.021783	2549.525749
603.372100	2550.544062
603.722363	2552.031203
604.072572	2549.563558
604.422728	2550.095399
604.772830	2545.482744
605.122878	2544.862682
605.472872	2547.373176
605.822813	2545.974256
606.172701	2547.655481
606.522534	2547.320244
606.872314	2549.921480
607.222041	2550.067673
607.571714	2548.313352
607.921333	2550.768393
608.270899	2549.485420
608.620411	2550.130687
608.969870	2551.272509
609.319276	2552.875596
609.668627	2556.290977
610.017926	2555.910370
610.367171	2558.753581
610.716362	2555.940617
611.065500	2555.776780
611.414585	2553.268806
611.763616	2555.141594
612.112594	2550.622200
612.461518	2549.195553
612.810389	2552.742005
613.159207	2553.903991
613.507971	2550.095399
613.856682	2551.242262
614.205340	2553.200750
614.553945	2550.798640
614.902496	2550.226469
615.250994	2549.331665
615.599439	2549.810574
615.947830	2551.668239
616.296169	2546.349822
616.644454	2549.170348
616.992686	2547.675646
617.340864	2550.970040
617.688990	2546.730429
618.037063	2551.781665
618.385082	2549.596325
618.733048	2550.574309
619.080961	2550.223949
619.428821	2550.372663
619.776628	2550.100441
620.124382	2551.907694
620.472083	2547.421067
620.819731	2550.687735
621.167326	2549.455173
621.514868	2550.140770
621.862357	2550.493651
622.209793	2550.423074
622.557176	2547.715975
622.904506	2547.922662
623.251783	2547.804195
623.599007	2546.564071
623.946179	2542.579039
624.293297	2547.289997
624.640363	2547.526932
624.987376	2547.302600
625.334336	2546.513660
625.681243	2547.156407
626.028097	2546.334699
626.374899	2549.908877
626.721647	2548.383928
627.068343	2550.491130
627.414987	2548.983825
627.761577	2545.606252
628.108115	2547.610111
628.454600	2548.315872
628.801032	2551.033054
629.147412	2547.458876
629.493739	2550.231511
629.840014	2547.330327
630.186236	2548.046170
630.532405	2545.354194
630.878521	2545.502908
631.224585	2548.008362
631.570597	2547.789072
631.916556	2547.037940
632.262462	2546.548948
632.608316	2548.026006
632.954117	2545.500388
633.299866	2549.026675
633.645562	2549.084648
633.991206	2545.724719
634.336797	2548.552806
634.682336	2546.198587
635.027823	2546.652291
635.373257	2546.811088
635.718639	2543.778834
636.063968	2545.114739
636.409245	2547.751263
636.754470	2546.886705
637.099642	2548.772097
637.444762	2547.075748
637.789829	2543.375541
638.134845	2545.760007
638.479808	2545.694472
638.824719	2545.669266
639.169577	2545.369318
639.514383	2545.407126
639.859137	2542.871426
640.203839	2547.647919
640.548489	2544.819832
640.893086	2542.195911
641.237632	2540.454193
641.582125	2544.590459
641.926566	2539.481250
642.270955	2545.699513
642.615292	2542.536189
642.959576	2547.494164
643.303809	2545.394523
643.647990	2545.036602
643.992118	2544.933258
644.336195	2545.820501
644.680219	2543.365459
645.024192	2543.267157
645.368112	2547.085831
645.711981	2545.845707
646.055797	2543.267157
646.399562	2547.975594
646.743274	2546.879143
647.086935	2547.189174
647.430544	2544.129194
647.774101	2548.464586
648.117606	2546.435522
648.461059	2546.085162
648.804460	2545.989380
649.147810	2546.979966
649.491108	2545.613814
649.834354	2544.787064
650.177548	2542.710109
650.520690	2543.224307
650.863781	2544.061138
651.206820	2547.819318
651.549807	2545.006355
651.892742	2544.066179
652.235626	2546.012065
652.578458	2543.531817
652.921238	2543.877136
653.263967	2543.519214
653.606644	2543.156251
653.949269	2547.287477
654.291843	2543.337733
654.634365	2542.793288
654.976836	2543.599873
655.319255	2543.844369
655.661622	2543.148689
656.003938	2543.473844
656.346203	2543.831766
656.688416	2545.510470
657.030577	2542.508463
657.372687	2545.381921
657.714746	2542.768082
658.056753	2544.900490
658.398708	2539.914789
658.740612	2542.503422
659.082465	2538.979655
659.424266	2543.050387
659.766016	2539.065355
660.107715	2543.476364
660.449362	2544.867723
660.790958	2544.227496
661.132503	2541.147351
661.473996	2545.265974
661.815438	2541.664070
662.156829	2546.493495
662.498168	2546.642209
662.839456	2543.098278
663.180693	2542.952084
663.521879	2548.953578
663.863013	2539.927392
664.204097	2545.104657
664.545129	2543.703216
664.886110	2543.854451
665.227040	2541.406971
665.567918	2542.836138
665.908746	2543.960315
666.249522	2544.782023
666.590248	2543.592311
666.930922	2545.102137
667.271545	2541.396888
667.612118	2541.709440
667.952639	2542.851261
668.293109	2543.226827
668.633528	2542.722712
668.973896	2543.267157
669.314213	2544.161961
669.654480	2545.220604
669.994695	2544.855120
670.334859	2543.012578
670.674973	2543.839327
671.015035	2543.909904
671.355047	2543.811601
671.695008	2546.145655
672.034918	2545.109698
672.374777	2544.436704
672.714585	2543.688093
673.054342	2544.003165
673.394049	2541.220448
673.733705	2543.022661
674.073310	2540.928061
674.412864	2543.864533
674.752368	2544.923176
675.091820	2544.519883
675.431223	2544.091385
675.770574	2540.917979
676.109875	2535.866743
676.449125	2539.665252
676.788324	2538.329346
677.127473	2542.866385
677.466571	2539.587114
677.805619	2542.551313
678.144616	2538.891435
678.483562	2543.788916
678.822458	2543.491488
679.161303	2541.288504
679.500098	2542.142979
679.838842	2542.238761
680.177535	2540.819676
680.516179	2540.824717
680.854771	2540.832279
681.193314	2545.364277
681.531805	2543.156251
681.870247	2541.444779
682.208638	2543.312527
682.546978	2543.461241
682.885268	2541.457382
683.223508	2542.165664
683.561697	2542.170706
683.899836	2545.031560
684.237925	2541.787578
684.575963	2539.569470
684.913951	2541.293545
685.251889	2543.814122
685.589776	2540.048380
685.927614	2546.737991
686.265401	2540.159285
686.603137	2543.239430
686.940824	2543.925027
687.278460	2546.057435
687.616046	2543.942671
687.953582	2543.194060
688.291068	2540.393699
688.628504	2543.632640
688.965889	2543.123484
689.303224	2541.943854
689.640510	2540.565098
689.977745	2542.009389
690.314930	2540.164326
690.652065	2542.251364
690.989150	2542.692465
691.326185	2541.956457
691.663170	2542.939482
692.000105	2540.973432
692.336990	2540.794471
692.673825	2541.749769
693.010610	2544.063659
693.347345	2538.271373
693.684030	2538.926723
694.020665	2537.621064
694.357251	2535.130734
694.693786	2538.457896
695.030272	2537.517721
695.366707	2541.573329
695.703093	2538.591486
696.039429	2541.701878
696.375716	2542.964687
696.711952	2538.969573
697.048139	2542.518545
697.384276	2538.835982
697.720363	2539.914789
698.056400	2541.696837
698.392388	2541.843031
698.728326	2540.870088
699.064214	2539.745911
699.400053	2540.131559
699.735842	2540.824718
700.071581	2540.958308
700.407270	2539.501415
700.742910	2538.873791
701.078501	2539.808925
701.414042	2537.031249
701.749533	2538.311702
702.084974	2540.000489
702.420366	2539.655170
702.755709	2539.435880
703.091002	2539.826569
703.426246	2538.503266
703.761440	2538.241126
704.096584	2541.044008
704.431679	2536.769109
704.766725	2542.339584
705.101721	2540.376055
705.436668	2538.951929
705.771565	2542.069882
706.106413	2539.030067
706.441212	2538.573842
706.775961	2540.189532
707.110661	2537.162319
707.445311	2542.135417
707.779913	2539.340098
708.114465	2540.917979
708.448967	2540.948226
708.783421	2538.901517
709.117825	2540.910417
709.452180	2544.003165
709.786485	2536.827082
710.120742	2541.366642
710.454949	2541.152393
710.789107	2538.289017
711.123216	2534.661907
711.457275	2536.181815
711.791286	2537.096784
712.125247	2537.701723
712.459159	2541.318751
712.793023	2539.571991
713.126837	2540.623071
713.460602	2540.988555
713.794318	2539.027546
714.127985	2541.013761
714.461602	2537.225334
714.795171	2541.464944
715.128691	2540.144162
715.462162	2541.018802
715.795584	2537.028729
716.128957	2540.973432
716.462281	2536.993441
716.795556	2540.116435
717.128782	2540.522248
717.461960	2539.493853
717.795088	2538.541075
718.128167	2541.008720
718.461198	2537.731970
718.794180	2540.262629
719.127113	2540.708771
719.459997	2540.257588
719.792833	2537.328677
720.125619	2538.871270
720.458357	2538.127700
720.791046	2535.602082
721.123686	2539.778678
721.456278	2539.750952
721.788821	2537.326157
722.121315	2539.478729
722.453761	2539.821528
722.786158	2537.825231
723.118506	2538.059645
723.450805	2539.393030
723.783056	2538.783050
724.115259	2536.796836
724.447412	2542.342105
724.779518	2539.904707
725.111574	2540.098791
725.443582	2540.688606
725.775542	2536.312885
726.107453	2538.440252
726.439315	2536.121321
726.771129	2542.979811
727.102895	2538.382278
727.434612	2541.233051
727.766281	2538.082330
728.097901	2536.353214
728.429473	2534.697195
728.760996	2534.813142
729.092471	2535.896990
729.423897	2538.641898
729.755276	2540.812115
730.086606	2540.106353
730.417887	2538.047042
730.749120	2538.074768
731.080305	2538.639377
731.411442	2539.478729
731.742530	2537.076620
732.073570	2539.927392
732.404562	2539.723225
732.735506	2538.891435
733.066401	2540.522248
733.397249	2538.573842
733.728048	2538.911600
734.058798	2540.325643
734.389501	2537.558050
734.720156	2537.278266
735.050762	2541.898483
735.381320	2539.982845
735.711831	2538.551157
736.042293	2541.469985
736.372707	2538.157947
736.703073	2538.082330
737.033391	2535.463450
737.363661	2536.950591
737.693883	2537.389171
738.024056	2538.714995
738.354182	2539.607279
738.684260	2540.847403
739.014290	2539.703061
739.344272	2538.289017
739.674207	2536.746424
740.004093	2540.071065
740.333931	2534.656866
740.663722	2541.018802
740.993464	2537.444624
741.323159	2539.662732
741.652806	2539.952598
741.982405	2539.209028
742.311956	2535.332380
742.641460	2537.121990
742.970915	2537.658873
743.300323	2536.411187
743.629683	2538.639377
743.958996	2539.178781
744.288260	2538.631816
744.617477	2535.148378
744.946647	2535.259284
745.275768	2535.050076
745.604842	2532.141330
745.933869	2536.864891
746.262847	2533.446989
746.591778	2538.571322
746.920662	2536.050745
747.249498	2537.474871
747.578286	2538.546116
747.907027	2537.855478
748.235720	2536.698533
748.564365	2536.375899
748.892963	2535.833975
749.221514	2536.975797
749.550017	2538.120138
749.878473	2535.970086
750.206881	2536.857329
750.535242	2538.956970
750.863555	2537.525282
751.191821	2537.915972
751.520039	2536.953111
751.848210	2537.643749
752.176334	2537.583256
752.504411	2534.417411
752.832440	2535.944881
753.160421	2534.180477
753.488356	2535.942360
753.816243	2537.810108
754.144082	2535.566794
754.471875	2538.644418
754.799620	2537.111908
755.127318	2536.698533
755.454969	2537.056455
755.782572	2537.043852
756.110129	2537.474871
756.437638	2535.458409
756.765100	2538.735159
757.092515	2537.046373
757.419882	2535.672658
757.747203	2537.358924
758.074477	2536.650642
758.401703	2537.459747
758.728882	2538.299099
759.056014	2534.861032
759.383099	2536.940508
759.710138	2538.246167
760.037129	2535.050076
760.364073	2539.350180
760.690970	2536.554860
761.017820	2537.127031
761.344623	2538.079809
761.671379	2536.965714
761.998088	2530.742410
762.324751	2536.252391
762.651366	2534.324150
762.977935	2539.246836
763.304456	2535.337422
763.630931	2541.447300
763.957359	2540.325643
764.283740	2541.018802
764.610074	2537.094264
764.936362	2538.236085
765.262602	2537.895807
765.588796	2538.440252
765.914943	2536.781712
766.241044	2536.501928
766.567097	2534.838347
766.893104	2536.212062
767.219064	2534.578728
767.544978	2533.744417
767.870845	2536.811959
768.196665	2539.990407
768.522438	2536.819521
768.848165	2536.080992
769.173846	2536.569984
769.499479	2536.544778
769.825066	2534.379602
770.150607	2536.542257
770.476101	2535.143337
770.801548	2533.981351
771.126949	2534.067051
771.452303	2537.701723
771.777611	2538.062165
772.102872	2537.527803
772.428087	2534.306506
772.753256	2536.098636
773.078378	2536.378420
773.403453	2536.075951
773.728482	2534.200641
774.053465	2535.564273
774.378401	2533.993954
774.703291	2533.492359
775.028135	2535.967566
775.352932	2536.070909
775.677683	2535.342463
776.002388	2534.908923
776.327046	2534.246012
776.651658	2536.186856
776.976224	2536.675848
777.300743	2534.180477
777.625216	2534.314067
777.949643	2535.095446
778.274024	2537.379089
778.598359	2531.236443
778.922647	2528.620084
779.246889	2532.642925
779.571086	2526.855680
779.895236	2531.513706
780.219339	2532.942873
780.543397	2534.067051
780.867409	2534.361958
781.191374	2535.602082
781.515294	2533.336083
781.839167	2536.312885
782.162995	2535.453368
782.486776	2533.870446
782.810511	2535.337422
783.134201	2534.137627
783.457844	2537.409336
783.781441	2533.046217
784.104993	2534.775333
784.428498	2533.870446
784.751958	2533.494880
785.075372	2534.735004
785.398739	2536.403626
785.722061	2533.373892
786.045337	2532.970600
786.368568	2534.377082
786.691752	2534.495549
787.014891	2535.090405
787.337983	2536.761548
787.661030	2534.896321
787.984031	2534.601413
788.306987	2534.407329
788.629897	2533.144520
788.952760	2534.349355
789.275579	2534.276259
789.598351	2537.681558
789.921078	2535.586959
790.243759	2533.477236
790.566395	2535.720549
790.888984	2535.067720
791.211529	2533.489839
791.534027	2534.324150
791.856480	2534.520755
792.178888	2532.675692
792.501249	2536.136444
792.823566	2535.241640
793.145836	2535.130734
793.468062	2533.300795
793.790241	2535.743234
794.112375	2534.271218
794.434464	2532.670651
794.756507	2532.400949
795.078505	2533.356248
795.400457	2534.404808
795.722364	2528.509179
796.044226	2534.147709
796.366042	2531.617050
796.687812	2533.134437
797.009538	2534.745086
797.331218	2534.165353
797.652852	2534.712318
797.974442	2534.792977
798.295986	2535.718029
798.617484	2534.762730
798.938938	2534.094777
799.260346	2533.157122
799.581709	2532.012781
799.903026	2534.213244
800.224299	2535.534027
800.545526	2531.392719
800.866708	2531.226361
801.187845	2533.469674
801.508936	2533.865405
801.829983	2535.866743
802.150984	2534.835827
802.471940	2532.025383
802.792851	2535.433203
803.113717	2534.682072
803.434538	2533.966228
803.755314	2535.339942
804.076045	2531.735517
804.396731	2533.767102
804.717372	2534.823224
805.037967	2532.859694
805.358518	2533.255425
805.679024	2537.343801
805.999485	2531.327184
806.319901	2533.194931
806.640272	2534.775333
806.960598	2534.886238
807.280879	2534.215765
807.601115	2534.772812
807.921306	2533.958666
808.241453	2532.950435
808.561554	2531.060003
808.881611	2535.108049
809.201623	2534.586290
809.521590	2534.530837
809.841513	2532.312729
810.161390	2535.223996
810.481223	2535.055117
810.801011	2535.687782
811.120755	2532.446320
811.440453	2533.620909
811.760107	2534.180477
812.079716	2530.865918
812.399281	2529.265352
812.718801	2529.030938
813.038276	2528.168901
813.357707	2534.495549
813.677093	2532.204344
813.996434	2533.683923
814.315731	2535.400436
814.634983	2533.036135
814.954191	2534.908923
815.273354	2532.837009
815.592473	2532.264838
815.911547	2531.586803
816.230577	2534.810621
816.549562	2536.322967
816.868502	2533.479756
817.187399	2534.064530
817.506250	2531.591844
817.825058	2535.350024
818.143821	2534.616537
818.462539	2531.816176
818.781213	2533.593182
819.099843	2534.372041
819.418429	2535.155940
819.736970	2534.427493
820.055466	2537.369007
820.373919	2535.561753
820.692327	2535.692823
821.010691	2536.834644
821.329011	2539.463606
821.647286	2547.138763
821.965517	2553.157900
822.283704	2560.253324
822.601847	2558.017573
822.919945	2552.295863
823.237999	2550.503733
823.556010	2546.473330
823.873976	2543.587270
824.191897	2541.830428
824.509775	2539.937474
824.827609	2539.385468
825.145398	2537.921013
825.463144	2539.176260
825.780845	2535.783564
826.098502	2541.283463
826.416116	2541.096940
826.733685	2542.170706
827.051210	2542.987373
827.368692	2542.024512
827.686129	2539.798843
828.003522	2537.933616
828.320872	2531.359951
828.638177	2535.239119
828.955439	2531.062523
829.272656	2530.089580
829.589830	2531.682585
829.906960	2533.179808
830.224046	2533.512524
830.541088	2535.634850
830.858086	2533.313398
831.175041	2535.153419
831.491952	2532.844571
831.808819	2534.402288
832.125642	2535.097967
832.442421	2535.251722
832.759157	2533.993954
833.075849	2534.818183
833.392497	2537.999151
833.709101	2535.871784
834.025662	2538.079809
834.342179	2538.115097
834.658653	2536.156609
834.975083	2535.072761
835.291469	2539.710622
835.607811	2534.351876
835.924110	2534.671989
836.240366	2534.813142
836.556578	2532.214427
836.872746	2533.174767
837.188871	2533.578059
837.504952	2532.887421
837.820990	2532.905065
838.136984	2531.196114
838.452935	2534.735004
838.768842	2531.531350
839.084706	2530.755013
839.400526	2532.733666
839.716303	2531.344828
840.032037	2532.426155
840.347727	2535.871784
840.663373	2534.518234
840.978977	2532.650487
841.294537	2535.534027
841.610054	2534.266176
841.925527	2530.954138
842.240957	2532.572349
842.556344	2532.761392
842.871687	2531.397760
843.186987	2530.747451
843.502244	2531.284334
843.817458	2529.398942
844.132629	2528.788963
844.447756	2531.548994
844.762840	2524.572038
845.077881	2529.613191
845.392879	2529.038500
845.707833	2531.332225
846.022745	2527.289219
846.337613	2533.739376
846.652438	2529.020856
846.967221	2533.136958
847.281960	2533.177287
847.596656	2530.601258
847.911309	2530.545805
848.225919	2531.440610
848.540485	2529.106555
848.855009	2532.053110
849.169490	2532.027904
849.483928	2531.785929
849.798323	2531.188552
850.112675	2531.309540
850.426984	2528.602440
850.741251	2532.597554
851.055474	2533.862884
851.369654	2530.303829
851.683792	2530.717204
851.997887	2533.782226
852.311938	2532.156453
852.625947	2529.429189
852.939914	2530.976823
853.253837	2531.831299
853.567718	2532.889941
853.881555	2531.853984
854.195350	2530.545805
854.509103	2530.918850
854.822812	2533.724252
855.136479	2531.518748
855.450103	2532.093439
855.763685	2531.380116
856.077224	2529.754344
856.390720	2530.293747
856.704173	2529.456916
857.017584	2531.589324
857.330953	2528.615043
857.644278	2531.216278
857.957561	2534.230888
858.270802	2532.335414
858.584000	2529.716535
858.897155	2532.282482
859.210268	2529.451874
859.523339	2531.876669
859.836367	2529.935825
860.149352	2529.119158
860.462295	2530.616381
860.775195	2525.764270
861.088054	2530.190403
861.400869	2529.852646
861.713642	2527.533715
862.026373	2529.726617
862.339062	2530.603778
862.651708	2533.265507
862.964312	2529.046062
863.276873	2530.593696
863.589392	2531.332225
863.901869	2531.400280
864.214303	2528.864580
864.526696	2529.197296
864.839045	2532.887421
865.151353	2531.309540
865.463619	2530.192924
865.775842	2530.823068
866.088023	2529.993798
866.400162	2530.944056
866.712258	2531.271731
867.024313	2530.865918
867.336325	2529.252749
867.648296	2532.970600
867.960224	2529.235105
868.272110	2529.860208
868.583954	2530.860877
868.895755	2529.847605
869.207515	2529.499765
869.519233	2530.684437
869.830909	2530.966741
870.142542	2531.874149
870.454134	2529.809796
870.765684	2530.608819
871.077191	2531.783408
871.388657	2531.574200
871.700081	2529.262831
872.011463	2531.864067
872.322803	2529.764426
872.634101	2527.526154
872.945357	2531.390198
873.256571	2530.013963
873.567744	2530.719725
873.878874	2533.094108
874.189963	2531.977493
874.501010	2527.231246
874.812015	2530.313912
875.122979	2532.012781
875.433900	2531.594365
875.744780	2529.396422
876.055618	2530.172759
876.366415	2531.667462
876.677169	2531.980013
876.987882	2530.235774
877.298554	2527.440454
877.609183	2531.485980
877.919771	2528.683098
878.230317	2530.734848
878.540822	2535.735673
878.851285	2530.417255
879.161707	2531.919519
879.472087	2535.007226
879.782425	2533.346166
880.092722	2531.922040
880.402977	2536.438914
880.713191	2540.313040
881.023363	2540.018133
881.333494	2544.976108
881.643583	2544.933258
881.953631	2543.579708
882.263637	2541.671631
882.573602	2543.257074
882.883526	2540.323123
883.193408	2539.171219
883.503248	2538.228523
883.813048	2537.351362
884.122806	2535.546629
884.432522	2535.760878
884.742197	2535.604603
885.051831	2532.526978
885.361424	2533.416742
885.670975	2533.598223
885.980485	2530.916330
886.289954	2531.296937
886.599382	2533.971269
886.908768	2532.461443
887.218113	2527.473222
887.527417	2533.396577
887.836680	2531.309540
888.145901	2531.780888
888.455082	2533.081505
888.764221	2528.983047
889.073319	2531.937163
889.382376	2533.353727
889.691392	2528.708304
890.000366	2533.779705
890.309300	2533.404139
890.618193	2532.637884
890.927044	2530.029087
891.235855	2528.957841
891.544625	2532.416073
891.853353	2528.718387
892.162041	2528.869621
892.470687	2533.295754
892.779293	2530.611340
893.087858	2528.988088
893.396381	2528.521782
893.704864	2530.354241
894.013306	2526.845598
894.321707	2533.754499
894.630068	2531.412883
894.938387	2533.550332
895.246665	2535.239119
895.554903	2532.481608
895.863100	2533.416742
896.171256	2533.628470
896.479371	2532.063192
896.787446	2534.487987
897.095480	2531.349869
897.403473	2529.991278
897.711425	2531.591844
898.019336	2527.453057
898.327207	2533.114273
898.635038	2531.581762
898.942827	2530.455064
899.250576	2532.179139
899.558284	2531.090249
899.865952	2531.216278
900.173579	2530.709642
900.481165	2532.887421
900.788711	2530.684437
901.096216	2530.618902
901.403681	2530.432379
901.711105	2527.896678
902.018489	2532.658048
902.325832	2532.761392
902.633135	2529.976154
902.940397	2528.599919
903.247619	2529.867770
903.554800	2532.274921
903.861941	2532.353058
904.169041	2536.164171
904.476101	2534.906403
904.783121	2535.770961
905.090100	2534.210724
905.397039	2531.591844
905.703938	2532.925229
906.010796	2533.540250
906.317614	2531.533871
906.624391	2531.949766
906.931129	2530.147554
907.237826	2528.957841
907.544483	2531.584282
907.851099	2531.400280
908.157675	2530.926412
908.464211	2531.168387
908.770707	2523.473066
909.077163	2528.899868
909.383578	2525.449198
909.689954	2527.624456
909.996289	2524.937521
910.302584	2530.518078
910.608839	2532.027904
910.915054	2530.634025
911.221229	2532.121165
911.527363	2528.708304
911.833458	2528.499096
912.139513	2530.838192
912.445527	2531.251566
912.751502	2528.904909
913.057436	2531.922040
913.363331	2530.883562
913.669186	2528.451205
913.975000	2531.591844
914.280775	2529.154446
914.586510	2530.374406
914.892205	2530.959179
915.197859	2535.153419
915.503475	2532.935312
915.809050	2537.958822
916.114585	2535.082843
916.420081	2535.828934
916.725536	2537.641229
917.030952	2537.573173
917.336328	2531.987575
917.641665	2533.789787
917.946961	2530.543284
918.252218	2532.658048
918.557435	2532.411032
918.862612	2532.209386
919.167750	2531.226361
919.472848	2532.345497
919.777906	2530.805424
920.082925	2531.506145
920.387904	2530.896165
920.692843	2529.552697
920.997743	2527.523633
921.302603	2528.216792
921.607423	2532.073274
921.912204	2530.114786
922.216946	2531.385157
922.521647	2531.387678
922.826310	2527.669827
923.130932	2532.005219
923.435516	2528.148736
923.740059	2529.328366
924.044564	2524.897192
924.349028	2529.444313
924.653454	2524.914836
924.957840	2526.878365
925.262186	2526.598581
925.566493	2527.541277
925.870761	2524.670340
926.174989	2528.546987
926.479178	2528.675537
926.783328	2528.282327
927.087438	2527.264014
927.391509	2529.038500
927.695541	2529.913140
927.999533	2531.922040
928.303486	2528.819210
928.607400	2528.612522
928.911275	2527.823582
929.215110	2529.530012
929.518906	2529.454395
929.822663	2529.575383
930.126381	2528.791483
930.430060	2529.025897
930.733699	2528.723428
931.037299	2529.499765
931.340861	2529.366175
931.644383	2527.735362
931.947866	2529.870290
932.251309	2528.783922
932.554714	2527.901720
932.858080	2530.636546
933.161407	2528.834333
933.464694	2531.675023
933.767943	2524.501461
934.071153	2528.496576
934.374323	2529.829961
934.677455	2531.566638
934.980548	2530.087060
935.283602	2529.030938
935.586617	2527.150588
935.889593	2530.906247
936.192530	2529.973634
936.495428	2529.376257
936.798287	2525.615556
937.101108	2527.095135
937.403890	2525.880217
937.706632	2528.463808
938.009336	2527.808458
938.312002	2529.761905
938.614628	2528.257121
938.917216	2528.231915
939.219765	2529.550177
939.522275	2528.088242
939.824747	2529.202337
940.127179	2526.533046
940.429573	2523.132788
940.731929	2526.888448
941.034246	2524.967768
941.336524	2526.356606
941.638763	2527.500948
941.940964	2527.334590
942.243126	2528.118489
942.545250	2526.785104
942.847335	2528.214271
943.149381	2528.700742
943.451389	2530.802904
943.753359	2530.931453
944.055290	2526.427182
944.357182	2529.343490
944.659036	2527.238808
944.960851	2529.842564
945.262628	2529.822399
945.564367	2529.444313
945.866067	2526.712007
946.167729	2527.652182
946.469352	2528.937677
946.770937	2527.662265
947.072484	2530.553367
947.373992	2527.402645
947.675462	2527.964734
947.976893	2527.793335
948.278286	2527.460619
948.579641	2529.018335
948.880958	2528.055475
949.182236	2529.701412
949.483476	2529.053623
949.784678	2528.489014
950.085841	2528.521782
950.386967	2529.025897
950.688054	2528.899868
950.989103	2529.708973
951.290114	2527.163191
951.591087	2527.258972
951.892021	2531.062523
952.192917	2530.313912
952.493776	2527.206040
952.794596	2527.077491
953.095378	2528.020187
953.396122	2529.522451
953.696828	2525.963396
953.997496	2527.576565
954.298126	2529.338448
954.598718	2527.727800
954.899272	2529.804755
955.199788	2528.168901
955.500266	2529.393901
955.800706	2527.369878
956.101108	2521.106244
956.401472	2524.660258
956.701798	2523.747809
957.002087	2527.052285
957.302337	2527.485824
957.602550	2529.840043
957.902724	2526.487676
958.202861	2526.351565
958.502960	2527.354754
958.803022	2530.921371
959.103045	2528.322656
959.403031	2528.342821
959.702979	2528.657893
960.002889	2528.897348
960.302762	2525.340813
960.602596	2525.910464
960.902393	2526.775022
961.202153	2528.395753
961.501875	2526.863242
961.801559	2525.920546
962.101205	2528.383150
962.400814	2527.992460
962.700385	2527.221164
962.999918	2527.906761
963.299414	2527.112779
963.598873	2527.168232
963.898293	2526.502799
964.197677	2528.297450
964.497022	2529.318284
964.796331	2528.804086
965.095601	2526.051616
965.394835	2528.826771
965.694030	2527.241328
965.993189	2530.230733
966.292309	2523.616739
966.591393	2525.441637
966.890439	2527.596730
967.189447	2529.368695
967.488419	2527.044723
967.787353	2527.886596
968.086249	2528.995650
968.385108	2527.798376
968.683930	2524.551873
968.982714	2528.506658
969.281462	2525.804600
969.580172	2527.959693
969.878844	2525.484486
970.177480	2529.305681
970.476078	2527.264014
970.774639	2526.550690
971.073162	2527.334590
971.371649	2526.084384
971.670098	2525.439116
971.968510	2525.469363
972.266885	2523.606657
972.565223	2527.720238
972.863524	2527.697553
973.161788	2527.937008
973.460014	2525.953314
973.758204	2526.167563
974.056356	2525.305525
974.354471	2528.055475
974.652550	2527.695032
974.950591	2527.329549
975.248595	2525.882738
975.546563	2528.446164
975.844493	2526.391894
976.142386	2526.258303
976.440243	2525.449198
976.738062	2527.369878
977.035845	2527.790814
977.333590	2527.097656
977.631299	2528.027748
977.928971	2528.516740
978.226606	2527.077491
978.524204	2527.886596
978.821765	2527.274096
979.119290	2526.764939
979.416777	2524.604805
979.714228	2525.456760
980.011642	2528.433561
980.309020	2529.497245
980.606360	2525.209743
980.903664	2528.078160
981.200931	2528.955321
981.498162	2527.354754
981.795356	2527.206040
982.092513	2527.982378
982.389633	2527.841226
982.686717	2526.790145
982.983764	2527.934487
983.280775	2526.459950
983.577749	2524.725793
983.874686	2527.891637
984.171587	2527.183355
984.468451	2526.515402
984.765279	2528.562111
985.062070	2525.154291
985.358824	2526.669157
985.655543	2527.866432
985.952224	2527.286699
986.248869	2527.143026
986.545478	2522.689167
986.842050	2525.892820
987.138586	2521.020545
987.435086	2524.849301
987.731549	2519.178003
988.027975	2530.192924
988.324366	2526.449867
988.620719	2525.945752
988.917037	2527.173273
989.213318	2528.181504
989.509563	2525.091276
989.805772	2526.636390
990.101944	2526.739734
990.398080	2526.578417
990.694180	2524.763601
990.990244	2527.538757
991.286271	2527.458098
991.582262	2527.203520
991.878217	2528.771319
992.174136	2529.419107
992.470019	2524.982892
992.765865	2525.880217
993.061676	2525.875176
993.357450	2526.911133
993.653188	2526.381812
993.948890	2526.386853
994.244556	2526.187727
994.540186	2525.918026
994.835780	2526.134795
995.131337	2527.193437
995.426859	2523.944414
995.722345	2528.388191
996.017795	2527.677388
996.313208	2529.552697
996.608586	2527.347193
996.903928	2526.278468
997.199234	2528.110927
997.494504	2525.998684
997.789738	2524.405679
998.084936	2529.691329
998.380099	2524.541791
998.675225	2526.959024
998.970316	2524.330062
999.265371	2525.741585
999.560390	2527.543798
999.855373	2527.793335
1000.150320	2527.329549
1000.445232	2527.057326
1000.740108	2525.600433
1001.034948	2529.474560
1001.329752	2524.750998
1001.624521	2528.221833
1001.919254	2525.449198
1002.213951	2524.781245
1002.508613	2524.075484
1002.803239	2523.810823
1003.097829	2522.837881
1003.392384	2524.844260
1003.686903	2529.005732
1003.981386	2525.055988
1004.275834	2526.911133
1004.570246	2525.444157
1004.864623	2525.804600
1005.158964	2526.028931
1005.453270	2524.501461
1005.747540	2526.792666
1006.041775	2523.082377
1006.335974	2527.402645
1006.630138	2524.277130
1006.924266	2526.442306
1007.218359	2525.819723
1007.512416	2526.754857
1007.806438	2524.259486
1008.100425	2525.673530
1008.394376	2525.398787
1008.688292	2524.473735
1008.982172	2528.942718
1009.276017	2526.404497
1009.569827	2526.074301
1009.863602	2527.511030
1010.157341	2523.982222
1010.451045	2528.562111
1010.744714	2526.580937
1011.038347	2525.086235
1011.331945	2523.417613
1011.625508	2524.685463
1011.919036	2525.693694
1012.212528	2525.381143
1012.505986	2523.583971
1012.799408	2525.529857
1013.092795	2526.369209
1013.386147	2523.957017
1013.679464	2524.796369
1013.972745	2526.558252
1014.265992	2528.083201
1014.559204	2526.591020
1014.852380	2526.464991
1015.145521	2527.894158
1015.438628	2525.000536
1015.731699	2526.245701
1016.024736	2524.471214
1016.317737	2527.735362
1016.610703	2525.686133
1016.903635	2522.621111
1017.196531	2523.382325
1017.489393	2522.966430
1017.782219	2522.449712
1018.075011	2526.223015
1018.367768	2526.800228
1018.660490	2527.153108
1018.953177	2527.153108
1019.245829	2527.153108
