Dividing Wavelength (nm)	Counts (n)	Blue Motor Position (mm): 0.000000	Red Motor Position (mm): 0.300000	
326.493990	2130.598303
326.888308	2130.598303
327.282561	2130.598303
327.676750	2096.729311
328.070874	2096.389033
328.464933	2098.554208
328.858929	2105.387492
329.252859	2113.702876
329.646726	2124.400204
330.040528	2137.585342
330.434265	2155.292395
330.827938	2173.609427
331.221547	2188.783300
331.615091	2208.670652
332.008571	2230.703015
332.401986	2247.868144
332.795338	2269.880342
333.188625	2286.511109
333.581847	2304.790333
333.975006	2323.949238
334.368100	2343.254337
334.761129	2361.707480
335.154095	2378.199615
335.546996	2395.452964
335.939833	2408.852351
336.332606	2423.138981
336.725315	2438.368307
337.117960	2443.865685
337.510540	2449.912549
337.903056	2465.681278
338.295508	2472.070941
338.687896	2483.509319
339.080220	2488.999135
339.472480	2495.726555
339.864676	2500.407267
340.256807	2504.704850
340.648875	2504.528410
341.040879	2511.207939
341.432818	2510.550068
341.824694	2513.950326
342.216506	2512.473268
342.608253	2515.215656
342.999937	2512.914369
343.391557	2513.980573
343.783113	2512.226252
344.174605	2509.040243
344.566033	2508.831035
344.957397	2506.418843
345.348697	2505.030005
345.739934	2504.014212
346.131106	2503.487412
346.522215	2503.769716
346.913260	2496.802842
347.304241	2497.622029
347.695159	2494.229332
348.086012	2494.108345
348.476802	2491.862511
348.867528	2492.812768
349.258191	2490.330000
349.648789	2490.599702
350.039324	2486.712972
350.429796	2487.632983
350.820203	2482.526294
351.210548	2481.596201
351.600828	2483.274905
351.991045	2480.177116
352.381198	2483.055615
352.771288	2482.165851
353.161314	2479.065542
353.551276	2478.896663
353.941175	2478.536221
354.331010	2480.708958
354.720782	2478.581591
355.110490	2480.656026
355.500135	2477.583443
355.889717	2479.055459
356.279235	2479.846921
356.668689	2480.789616
357.058080	2477.245685
357.447408	2477.933803
357.836672	2476.665953
358.225873	2479.846921
358.615010	2476.870119
359.004084	2480.630820
359.393095	2482.443115
359.782043	2483.000162
360.170927	2483.360605
360.559748	2484.215080
360.948505	2486.521408
361.337199	2484.003352
361.725830	2483.950420
362.114398	2486.700369
362.502903	2485.661892
362.891344	2487.784217
363.279722	2486.627273
363.668037	2487.701038
364.056289	2487.229690
364.444478	2489.004177
364.832603	2489.485607
365.220665	2489.266317
365.608665	2490.849239
365.996601	2490.055257
366.384474	2492.054075
366.772284	2491.126502
367.160031	2492.028869
367.547715	2491.754126
367.935336	2490.743375
368.322893	2494.544405
368.710388	2491.602891
369.097820	2496.225629
369.485189	2492.222953
369.872495	2492.958962
370.259738	2495.908037
370.646918	2494.068016
371.034035	2495.053561
371.421090	2496.775115
371.808081	2493.090032
372.195010	2494.390649
372.581875	2494.801503
372.968678	2494.113386
373.355418	2498.204282
373.742096	2496.379385
374.128710	2498.547081
374.515262	2497.029693
374.901751	2498.027842
375.288177	2497.301916
375.674540	2496.124806
376.060841	2497.944663
376.447079	2496.515496
376.833254	2498.073212
377.219367	2494.352841
377.605417	2496.744868
377.991404	2495.842502
378.377329	2495.562718
378.763191	2494.231853
379.148991	2499.378871
379.534727	2498.554643
379.920402	2498.461381
380.306013	2501.334839
380.691563	2498.705877
381.077049	2502.194356
381.462474	2502.257370
381.847835	2500.001454
382.233134	2500.583707
382.618371	2501.014726
383.003545	2500.498007
383.388657	2502.585045
383.773706	2501.662514
384.158693	2501.518841
384.543618	2502.330467
384.928480	2503.346259
385.313280	2504.170488
385.698017	2502.285096
386.082692	2504.992196
386.467305	2502.214520
386.851856	2505.231651
387.236344	2502.214520
387.620770	2503.026146
388.005133	2502.627895
388.389435	2505.392968
388.773674	2505.322392
389.157851	2504.379696
389.541965	2504.523369
389.926018	2504.223420
390.310008	2504.147803
390.693936	2506.459172
391.077802	2503.056393
391.461606	2505.365241
391.845348	2506.239882
392.229027	2509.362876
392.612645	2507.442197
392.996200	2506.323061
393.379694	2508.584018
393.763125	2507.227948
394.146494	2507.112001
394.529801	2512.543844
394.913047	2508.256343
395.296230	2505.909686
395.679351	2509.904800
396.062410	2505.992865
396.445408	2508.682321
396.828343	2507.845489
397.211217	2504.523369
397.594028	2506.398678
397.976778	2503.862978
398.359466	2508.296672
398.742092	2506.421363
399.124656	2508.442866
399.507158	2510.088803
399.889598	2508.349604
400.271977	2509.251971
400.654294	2510.207270
401.036549	2510.928155
401.418742	2510.305572
401.800874	2508.521004
402.182944	2509.448576
402.564952	2509.771210
402.946898	2513.703310
403.328783	2512.178361
403.710606	2511.056704
404.092367	2511.646519
404.474067	2511.255830
404.855705	2513.484020
405.237282	2511.147445
405.618797	2515.235821
406.000250	2512.601818
406.381642	2510.156858
406.762972	2513.713392
407.144240	2516.324710
407.525447	2516.183558
407.906593	2514.046108
408.287677	2511.979235
408.668700	2515.901253
409.049661	2512.548886
409.430560	2514.973681
409.811399	2516.256654
410.192176	2513.405882
410.572891	2515.175327
410.953545	2519.452746
411.334138	2516.912004
411.714669	2517.151459
412.095139	2512.097702
412.475547	2517.128774
412.855894	2516.170955
413.236180	2514.978722
413.616405	2517.164062
413.996568	2515.865965
414.376670	2514.744308
414.756711	2517.428723
415.136691	2515.999555
415.516609	2515.447549
415.896466	2515.170286
416.276262	2518.187416
416.655997	2514.451921
417.035670	2510.907990
417.415283	2513.892353
417.794834	2513.715913
418.174324	2514.293125
418.553753	2517.234638
418.933121	2517.481655
419.312428	2515.631551
419.691674	2519.021727
420.070859	2514.567868
420.449983	2517.098527
420.829045	2517.380832
421.208047	2518.749505
421.586988	2518.099196
421.965867	2521.650689
422.344686	2518.663805
422.723444	2517.645492
423.102141	2520.715555
423.480777	2518.391583
423.859352	2519.873682
424.237866	2516.664988
424.616319	2520.133302
424.994712	2519.732530
425.373044	2518.895698
425.751314	2520.269413
426.129524	2517.804288
426.507673	2520.226563
426.885762	2518.636079
427.263789	2521.161697
427.641756	2520.897036
428.019662	2521.285205
428.397508	2521.121368
428.775292	2520.637417
429.153016	2520.776049
429.530679	2519.203209
429.908282	2520.922242
430.285824	2519.609022
430.663305	2521.247397
431.040726	2518.928466
431.418086	2521.476769
431.795385	2521.701100
432.172624	2522.190092
432.549802	2520.730678
432.926920	2524.375433
433.303977	2523.031965
433.680974	2522.444671
434.057910	2520.460977
434.434786	2524.783766
434.811601	2522.401821
435.188355	2521.665812
435.565050	2522.124557
435.941683	2522.815195
436.318257	2522.263189
436.694770	2517.501819
437.071222	2519.798065
437.447614	2519.538445
437.823946	2520.574402
438.200218	2522.580782
438.576429	2524.093128
438.952580	2523.810823
439.328670	2521.441481
439.704700	2525.015659
440.080670	2523.566327
440.456580	2525.204702
440.832429	2524.594723
441.208218	2522.056502
441.583947	2525.285361
441.959616	2525.174455
442.335224	2525.066071
442.710773	2524.017511
443.086261	2523.261338
443.461689	2524.282171
443.837057	2525.479445
444.212365	2527.906761
444.587612	2523.710000
444.962800	2525.708818
445.337927	2525.015659
445.712995	2526.447347
446.088002	2523.906605
446.462949	2524.367871
446.837837	2525.650844
447.212664	2523.001718
447.587431	2524.700587
447.962139	2524.503982
448.336786	2526.220495
448.711374	2526.291071
449.085901	2525.892820
449.460369	2526.855680
449.834776	2525.744106
450.209124	2525.527336
450.583412	2526.051616
450.957640	2523.689836
451.331808	2525.983561
451.705917	2529.860208
452.079965	2525.073632
452.453954	2526.049096
452.827883	2527.309384
453.201752	2524.733354
453.575562	2524.677902
453.949311	2525.769312
454.323001	2528.121010
454.696632	2527.586647
455.070202	2528.743592
455.443713	2525.902902
455.817164	2527.826102
456.190556	2524.148581
456.563888	2527.788294
456.937160	2523.997346
457.310373	2527.626977
457.683526	2530.155115
458.056619	2527.722759
458.429653	2529.613191
458.802628	2526.381812
459.175542	2528.529343
459.548398	2528.050434
459.921194	2528.675537
460.293930	2527.546318
460.666607	2529.938346
461.039224	2526.132275
461.411782	2530.949097
461.784280	2526.742254
462.156719	2530.903727
462.529099	2526.374250
462.901419	2531.168387
463.273680	2526.666637
463.645882	2527.574045
464.018024	2528.221833
464.390106	2528.045393
464.762130	2528.778880
465.134094	2530.112266
465.505999	2528.768798
465.877845	2527.924405
466.249631	2527.906761
466.621358	2529.766947
466.993026	2532.481608
467.364634	2534.702236
467.736184	2529.706453
468.107674	2531.506145
468.479105	2526.873324
468.850477	2530.233253
469.221790	2532.234591
469.593043	2529.530012
469.964238	2531.677544
470.335373	2530.429858
470.706449	2530.298788
471.077467	2527.982378
471.448425	2529.955990
471.819324	2530.054292
472.190164	2531.009591
472.560945	2532.723583
472.931667	2531.556556
473.302330	2532.756351
473.672934	2533.772143
474.043479	2531.060002
474.413965	2530.621422
474.784393	2523.969620
475.154761	2530.210568
475.525070	2527.558921
475.895321	2529.066226
476.265513	2529.477080
476.635645	2531.738038
477.005719	2529.789632
477.375734	2532.693336
477.745691	2528.148736
478.115588	2532.259797
478.485427	2528.773839
478.855207	2532.814324
479.224928	2531.480939
479.594591	2532.393388
479.964194	2531.513706
480.333739	2533.646114
480.703226	2528.970444
481.072653	2532.443799
481.442022	2533.888090
481.811333	2531.228881
482.180584	2530.782739
482.549777	2530.984385
482.918912	2531.629653
483.287988	2534.210724
483.657005	2532.547143
484.025964	2532.348017
484.394864	2530.520599
484.763706	2532.504293
485.132489	2531.322143
485.501213	2533.089067
485.869879	2533.089067
486.238487	2530.931453
486.607036	2533.096629
486.975527	2534.281300
487.343959	2532.481608
487.712333	2533.078985
488.080648	2533.446989
488.448905	2533.262987
488.817104	2533.704088
489.185244	2534.457740
489.553326	2533.900693
489.921350	2534.520755
490.289315	2532.461443
490.657222	2533.431865
491.025070	2533.630991
491.392861	2537.782381
491.760593	2530.074457
492.128267	2532.421114
492.495883	2533.436907
492.863440	2535.118131
493.230939	2528.907430
493.598380	2533.474715
493.965763	2530.548325
494.333088	2530.349200
494.700354	2530.939015
495.067563	2533.636032
495.434713	2529.169570
495.801805	2533.499921
496.168839	2531.352389
496.535815	2535.972607
496.902733	2533.406660
497.269593	2533.177287
497.636395	2534.170394
498.003139	2532.085877
498.369825	2532.680733
498.736453	2535.166022
499.103023	2535.052596
499.469535	2532.879859
499.835989	2533.436907
500.202385	2532.847092
500.568723	2534.319108
500.935003	2535.682741
501.301226	2534.309026
501.667390	2533.444468
502.033497	2535.823893
502.399546	2532.816845
502.765537	2533.532688
503.131470	2536.373379
503.497345	2533.436907
503.863163	2536.234747
504.228923	2532.211906
504.594625	2533.177287
504.960269	2532.889941
505.325856	2534.732483
505.691385	2533.802390
506.056856	2536.234747
506.422270	2534.225847
506.787625	2537.880684
507.152924	2533.908254
507.518164	2536.015457
507.883347	2534.651825
508.248472	2533.762061
508.613540	2532.698377
508.978550	2534.366999
509.343503	2533.855322
509.708398	2538.404964
510.073236	2535.841537
510.438016	2535.372710
510.802738	2534.498069
511.167403	2533.799870
511.532010	2531.612009
511.896561	2533.729293
512.261053	2536.943029
512.625488	2531.261649
512.989866	2529.875331
513.354186	2532.579910
513.718449	2530.417255
514.082655	2533.157122
514.446803	2534.432534
514.810894	2535.080323
515.174927	2537.618544
515.538904	2531.969931
515.902822	2535.319778
516.266684	2535.680220
516.630488	2534.913965
516.994235	2534.926567
517.357925	2535.077802
517.721558	2534.651825
518.085133	2535.097967
518.448651	2535.997813
518.812112	2534.288862
519.175516	2531.995137
519.538863	2535.216434
519.902152	2536.292720
520.265385	2533.807431
520.628560	2538.213400
520.991678	2535.949922
521.354739	2538.147865
521.717743	2533.237781
522.080690	2535.372710
522.443580	2533.540250
522.806413	2536.164171
523.169189	2533.986392
523.531908	2536.388502
523.894569	2534.341794
524.257174	2536.827082
524.619722	2534.344314
524.982213	2539.642567
525.344647	2537.951260
525.707025	2537.091743
526.069345	2534.303985
526.431608	2536.786753
526.793815	2536.138965
527.155964	2536.166691
527.518057	2537.963863
527.880093	2536.564943
528.242072	2537.679038
528.603995	2535.123173
528.965860	2535.413039
529.327669	2533.618388
529.689421	2537.091743
530.051117	2536.741383
530.412755	2538.588966
530.774337	2534.205682
531.135862	2534.792977
531.497331	2533.255425
531.858743	2536.111239
532.220098	2535.632329
532.581396	2530.641587
532.942638	2530.046731
533.303824	2533.578059
533.664953	2538.614172
534.026025	2533.210055
534.387040	2536.264994
534.747999	2536.643080
535.108902	2540.149203
535.469748	2535.839016
535.830537	2538.430169
536.191270	2534.445137
536.551947	2537.658873
536.912567	2534.220806
537.273131	2537.064017
537.633638	2537.099305
537.994089	2533.913296
538.354483	2537.827752
538.714821	2537.991589
539.075103	2538.092412
539.435328	2536.900179
539.795497	2535.251722
540.155609	2536.902700
540.515665	2536.448996
540.875665	2539.692978
541.235609	2534.956814
541.595496	2540.088709
541.955328	2535.622247
542.315102	2536.421270
542.674821	2536.133924
543.034483	2536.338091
543.394090	2536.847247
543.753640	2537.305992
544.113134	2537.956301
544.472571	2538.871270
544.831953	2540.474357
545.191278	2538.420087
545.550548	2535.594520
545.909761	2536.446475
546.268918	2535.556712
546.628019	2537.731970
546.987064	2534.601413
547.346053	2536.542257
547.704986	2539.786240
548.063863	2536.360776
548.422684	2535.012267
548.781449	2538.578883
549.140158	2535.781043
549.498811	2537.852957
549.857408	2536.262473
550.215949	2534.891279
550.574434	2532.900024
550.932864	2535.806249
551.291237	2531.740558
551.649555	2537.734490
552.007817	2535.639891
552.366022	2536.998482
552.724173	2534.946732
553.082267	2536.169212
553.440305	2538.452855
553.798288	2535.886907
554.156215	2536.098636
554.514086	2536.360776
554.871902	2535.806249
555.229661	2536.993441
555.587365	2537.971424
555.945014	2536.275076
556.302606	2538.722556
556.660143	2536.690971
557.017625	2534.495549
557.375050	2537.447144
557.732421	2537.492515
558.089735	2535.879346
558.446994	2539.151054
558.804197	2538.309182
559.161345	2538.029398
559.518437	2536.184335
559.875474	2536.834644
560.232455	2538.437731
560.589381	2537.358924
560.946251	2538.916641
561.303065	2536.564942
561.659825	2536.559901
562.016528	2537.121990
562.373177	2536.522093
562.729770	2536.542257
563.086307	2538.223482
563.442789	2537.406815
563.799216	2537.459747
564.155587	2539.390509
564.511904	2538.588966
564.868164	2536.517052
565.224370	2539.824048
565.580520	2535.912113
565.936615	2538.611651
566.292654	2536.693492
566.648638	2537.510159
567.004567	2539.095602
567.360441	2537.598379
567.716260	2533.983872
568.072023	2535.796167
568.427732	2533.356248
568.783385	2536.224665
569.138982	2532.773995
569.494525	2535.818852
569.850013	2533.830117
570.205445	2537.845396
570.560823	2538.687268
570.916145	2537.376568
571.271412	2538.858668
571.626625	2537.066537
571.981782	2537.598379
572.336884	2537.311033
572.691931	2537.167360
573.046923	2537.857998
573.401860	2538.488143
573.756743	2534.820703
574.111570	2537.404295
574.466342	2536.622916
574.821059	2537.595858
575.175722	2537.845396
575.530330	2539.181301
575.884882	2537.240457
576.239380	2538.893956
576.593823	2539.584594
576.948211	2536.494366
577.302544	2536.650642
577.656823	2536.275076
578.011047	2538.115097
578.365216	2539.385468
578.719330	2539.584594
579.073389	2538.306661
579.427394	2537.739531
579.781344	2535.967566
580.135239	2539.163657
580.489080	2537.812628
580.842866	2538.747762
581.196597	2539.735828
581.550273	2537.835313
581.903895	2535.967566
582.257463	2536.839685
582.610975	2537.734490
582.964434	2536.746424
583.317837	2538.813297
583.671186	2536.635519
584.024481	2537.565612
584.377721	2537.822710
584.730906	2538.014274
585.084037	2537.464788
585.437113	2537.870601
585.790135	2539.987886
586.143103	2541.071734
586.496016	2539.811446
586.848874	2533.633512
587.201679	2537.482432
587.554428	2535.960004
587.907124	2534.792977
588.259765	2535.047555
588.612352	2539.090561
588.964884	2537.648791
589.317362	2536.680889
589.669786	2536.252391
590.022155	2538.546116
590.374470	2537.177443
590.726731	2537.366486
591.078937	2539.206507
591.431090	2540.171888
591.783188	2537.477391
592.135232	2539.382948
592.487222	2539.665252
592.839157	2539.264480
593.191038	2538.571322
593.542866	2538.001671
593.894639	2536.005374
594.246358	2538.120138
594.598022	2538.475540
594.949633	2535.055117
595.301190	2538.528472
595.652692	2536.612833
596.004141	2537.484953
596.355535	2537.691640
596.706876	2535.087884
597.058162	2535.796167
597.409395	2537.323636
597.760573	2538.079809
598.111698	2540.451672
598.462768	2540.217258
598.813785	2538.034439
599.164748	2538.261291
599.515657	2537.510159
599.866511	2536.854809
600.217312	2536.287679
600.568060	2539.458565
600.918753	2537.893287
601.269392	2536.965714
601.619978	2535.188708
601.970510	2537.346321
602.320988	2538.094933
602.671412	2542.533669
603.021783	2538.331867
603.372100	2536.882535
603.722363	2536.174253
604.072572	2538.362114
604.422728	2539.004861
604.772830	2533.744417
605.122878	2535.947401
605.472872	2534.835827
605.822813	2533.172246
606.172701	2537.429500
606.522534	2538.084850
606.872314	2538.011754
607.222041	2539.753472
607.571714	2537.308513
607.921333	2536.433872
608.270899	2538.430169
608.620411	2537.827752
608.969870	2540.875129
609.319276	2539.531662
609.668627	2542.563916
610.017926	2542.032074
610.367171	2548.111705
610.716362	2546.238917
611.065500	2544.439225
611.414585	2539.680376
611.763616	2540.469316
612.112594	2543.867054
612.461518	2540.287835
612.810389	2538.956970
613.159207	2538.034439
613.507971	2540.789429
613.856682	2540.539892
614.205340	2538.097453
614.553945	2540.560057
614.902496	2540.721374
615.250994	2539.516538
615.599439	2538.921682
615.947830	2537.033770
616.296169	2538.604089
616.644454	2540.302958
616.992686	2536.882535
617.340864	2537.714326
617.688990	2538.359593
618.037063	2537.142155
618.385082	2537.036290
618.733048	2540.033256
619.080961	2537.905889
619.428821	2536.887576
619.776628	2538.490663
620.124382	2537.689120
620.472083	2538.649460
620.819731	2536.900179
621.167326	2536.398584
621.514868	2539.511497
621.862357	2540.426466
622.209793	2536.973276
622.557176	2541.427135
622.904506	2534.311547
623.251783	2534.908923
623.599007	2534.311547
623.946179	2535.871784
624.293297	2536.128883
624.640363	2537.671476
624.987376	2539.791281
625.334336	2536.086033
625.681243	2537.754655
626.028097	2540.688606
626.374899	2537.822710
626.721647	2537.800025
627.068343	2537.043852
627.414987	2537.686599
627.761577	2536.703574
628.108115	2539.151054
628.454600	2537.240457
628.801032	2539.173740
629.147412	2539.456044
629.493739	2538.515869
629.840014	2538.442772
630.186236	2541.316230
630.532405	2540.534851
630.878521	2537.971424
631.224585	2537.895807
631.570597	2538.530992
631.916556	2536.970755
632.262462	2538.904038
632.608316	2539.216589
632.954117	2534.976979
633.299866	2535.944881
633.645562	2538.326826
633.991206	2535.712987
634.336797	2538.200797
634.682336	2536.632998
635.027823	2535.463450
635.373257	2537.099305
635.718639	2535.473533
636.063968	2537.638708
636.409245	2539.617361
636.754470	2536.317926
637.099642	2536.965714
637.444762	2538.573842
637.789829	2536.038142
638.134845	2537.064017
638.479808	2536.080992
638.824719	2537.149716
639.169577	2538.294058
639.514383	2538.868750
639.859137	2536.506969
640.203839	2538.236085
640.548489	2538.435211
640.893086	2535.826413
641.237632	2534.472864
641.582125	2534.671989
641.926566	2532.295085
642.270955	2537.575694
642.615292	2537.134593
642.959576	2535.954963
643.303809	2539.451003
643.647990	2536.413708
643.992118	2538.863709
644.336195	2537.265663
644.680219	2539.362783
645.024192	2537.283307
645.368112	2536.025539
645.711981	2539.569470
646.055797	2536.353214
646.399562	2538.289017
646.743274	2534.893800
647.086935	2539.546785
647.430544	2539.821528
647.774101	2538.591486
648.117606	2535.488656
648.461059	2540.655839
648.804460	2537.926054
649.147810	2537.512679
649.491108	2535.909592
649.834354	2536.282638
650.177548	2539.327495
650.520690	2537.207690
650.863781	2537.248019
651.206820	2539.274563
651.549807	2537.706764
651.892742	2537.341280
652.235626	2535.397915
652.578458	2535.355066
652.921238	2537.096784
653.263967	2535.302133
653.606644	2535.874304
653.949269	2537.217772
654.291843	2536.136444
654.634365	2537.689120
654.976836	2537.459747
655.319255	2536.590148
655.661622	2537.938657
656.003938	2536.322967
656.346203	2537.474871
656.688416	2536.428831
657.030577	2536.408667
657.372687	2536.421270
657.714746	2536.275076
658.056753	2535.395395
658.398708	2531.856505
658.740612	2534.104859
659.082465	2534.465302
659.424266	2532.295085
659.766016	2533.174767
660.107715	2535.481094
660.449362	2533.444468
660.790958	2536.723739
661.132503	2540.035777
661.473996	2538.805735
661.815438	2538.828421
662.156829	2537.127031
662.498168	2538.478060
662.839456	2534.692154
663.180693	2536.423790
663.521879	2536.186856
663.863013	2538.611651
664.204097	2537.915972
664.545129	2535.710467
664.886110	2538.387320
665.227040	2536.564943
665.567918	2540.660880
665.908746	2539.009902
666.249522	2538.657021
666.590248	2534.170394
666.930922	2537.822710
667.271545	2535.198790
667.612118	2539.019984
667.952639	2535.836496
668.293109	2539.657690
668.633528	2536.605272
668.973896	2536.559901
669.314213	2535.465971
669.654480	2537.847916
669.994695	2539.380427
670.334859	2537.169881
670.674973	2538.924202
671.015035	2535.677699
671.355047	2537.351362
671.695008	2535.695343
672.034918	2539.771116
672.374777	2537.381609
672.714585	2533.714170
673.054342	2539.511497
673.394049	2534.835827
673.733705	2536.532175
674.073310	2539.327495
674.412864	2538.793132
674.752368	2535.614685
675.091820	2536.834644
675.431223	2533.769623
675.770574	2535.879346
676.109875	2530.306350
676.449125	2534.114942
676.788324	2529.472039
677.127473	2535.995292
677.466571	2534.140147
677.805619	2534.082174
678.144616	2535.970086
678.483562	2534.296423
678.822458	2536.199459
679.161303	2539.025026
679.500098	2534.445137
679.838842	2535.881866
680.177535	2534.636701
680.516179	2538.440252
680.854771	2537.338760
681.193314	2537.747093
681.531805	2535.012267
681.870247	2537.469830
682.208638	2535.493697
682.546978	2536.877494
682.885268	2536.605272
683.223508	2535.455889
683.561697	2535.902031
683.899836	2534.971938
684.237925	2534.551002
684.575963	2534.377082
684.913951	2534.823224
685.251889	2538.384799
685.589776	2539.587114
685.927614	2536.738862
686.265401	2537.016126
686.603137	2540.277752
686.940824	2533.913296
687.278460	2536.612833
687.616046	2536.595189
687.953582	2537.069058
688.291068	2537.182484
688.628504	2536.905220
688.965889	2537.232895
689.303224	2535.317257
689.640510	2536.819521
689.977745	2536.617875
690.314930	2537.754655
690.652065	2536.368337
690.989150	2536.917823
691.326185	2536.517052
691.663170	2534.588810
692.000105	2537.285827
692.336990	2534.861033
692.673825	2536.191897
693.010610	2536.685930
693.347345	2534.293903
693.684030	2534.140147
694.020665	2531.859025
694.357251	2530.071936
694.693786	2533.154602
695.030272	2536.534696
695.366707	2535.110570
695.703093	2535.201310
696.039429	2535.334901
696.375716	2537.784902
696.711952	2533.477236
697.048139	2536.597710
697.384276	2536.945550
697.720363	2537.159799
698.056400	2537.381609
698.392388	2534.634181
698.728326	2533.983872
699.064214	2535.100487
699.400053	2538.906558
699.735842	2537.805066
700.071581	2537.933616
700.407270	2537.605941
700.742910	2536.559901
701.078501	2536.759027
701.414042	2533.711649
701.749533	2537.386651
702.084974	2535.874304
702.420366	2534.654345
702.755709	2535.481094
703.091002	2537.948739
703.426246	2535.181146
703.761440	2537.875643
704.096584	2537.071578
704.431679	2536.312885
704.766725	2537.573173
705.101721	2536.191897
705.436668	2533.817514
705.771565	2536.912782
706.106413	2534.687113
706.441212	2535.773481
706.775961	2538.127700
707.110661	2533.875487
707.445311	2536.653163
707.779913	2535.639891
708.114465	2536.169212
708.448967	2535.720549
708.783421	2536.030580
709.117825	2534.994623
709.452180	2535.854140
709.786485	2533.472195
710.120742	2537.192566
710.454949	2537.739531
710.789107	2534.069571
711.123216	2530.447502
711.457275	2532.806762
711.791286	2532.279962
712.125247	2530.976823
712.459159	2534.190559
712.793023	2537.303472
713.126837	2533.124355
713.460602	2534.145189
713.794318	2534.525796
714.127985	2538.236085
714.461602	2536.784233
714.795171	2536.035621
715.128691	2534.165353
715.462162	2536.280117
715.795584	2534.626619
716.128957	2538.223482
716.462281	2536.673327
716.795556	2536.055786
717.128782	2532.587472
717.461960	2534.440096
717.795088	2532.605116
718.128167	2536.544778
718.461198	2535.463450
718.794180	2535.652494
719.127113	2534.581248
719.459997	2535.483615
719.792833	2535.269366
720.125619	2533.293234
720.458357	2538.175591
720.791046	2536.053265
721.123686	2536.078471
721.456278	2536.068389
721.788821	2534.024201
722.121315	2535.516383
722.453761	2536.771630
722.786158	2534.530837
723.118506	2531.548994
723.450805	2533.779705
723.783056	2537.202648
724.115259	2533.847761
724.447412	2537.142155
724.779518	2534.072092
725.111574	2533.832637
725.443582	2536.466640
725.775542	2538.246167
726.107453	2535.128214
726.439315	2537.321116
726.771129	2537.923533
727.102895	2535.463450
727.434612	2535.692823
727.766281	2533.804911
728.097901	2532.471526
728.429473	2530.097142
728.760996	2532.786598
729.092471	2529.280475
729.423897	2536.000333
729.755276	2535.143337
730.086606	2535.561753
730.417887	2535.730632
730.749120	2534.427493
731.080305	2533.114273
731.411442	2531.808614
731.742530	2532.766433
732.073570	2535.851619
732.404562	2536.259953
732.735506	2536.673327
733.066401	2534.903882
733.397249	2535.140817
733.728048	2535.697864
734.058798	2532.857174
734.389501	2536.464119
734.720156	2537.308513
735.050762	2536.451517
735.381320	2537.411856
735.711831	2536.577545
736.042293	2536.063348
736.372707	2535.770961
736.703073	2537.132072
737.033391	2534.538399
737.363661	2535.584438
737.693883	2534.336753
738.024056	2536.638039
738.354182	2532.920188
738.684260	2536.567463
739.014290	2536.065868
739.344272	2533.073943
739.674207	2534.409849
740.004093	2536.401105
740.333931	2533.381454
740.663722	2534.026722
740.993464	2534.457740
741.323159	2533.593182
741.652806	2536.595189
741.982405	2532.698378
742.311956	2535.221475
742.641460	2536.683410
742.970915	2534.097298
743.300323	2534.268697
743.629683	2535.738193
743.958996	2534.540919
744.288260	2534.966897
744.617477	2535.236598
744.946647	2530.868439
745.275768	2533.126876
745.604842	2533.787267
745.933869	2532.017822
746.262847	2530.162677
746.591778	2536.569984
746.920662	2533.845240
747.249498	2532.315250
747.578286	2534.485467
747.907027	2534.117462
748.235720	2532.375744
748.564365	2535.080323
748.892963	2531.296937
749.221514	2536.098636
749.550017	2536.128883
749.878473	2534.205683
750.206881	2534.840868
750.535242	2533.552853
750.863555	2534.477905
751.191821	2533.386495
751.520039	2533.227699
751.848210	2537.129552
752.176334	2531.165867
752.504411	2533.547812
752.832440	2533.005888
753.160421	2533.588141
753.488356	2534.853471
753.816243	2535.014788
754.144082	2535.047555
754.471875	2536.209541
754.799620	2536.711136
755.127318	2535.458409
755.454969	2534.147709
755.782572	2534.863553
756.110129	2534.886238
756.437638	2535.133255
756.765100	2534.551002
757.092515	2533.855322
757.419882	2534.750127
757.747203	2536.587628
758.074477	2535.029911
758.401703	2534.558563
758.728882	2535.990251
759.056014	2534.566125
759.383099	2535.818852
759.710138	2533.545291
760.037129	2534.394726
760.364073	2533.741896
760.690970	2532.826927
761.017820	2534.951773
761.344623	2535.123172
761.671379	2535.034952
761.998088	2530.908768
762.324751	2530.036648
762.651366	2530.160157
762.977935	2534.568646
763.304456	2528.806607
763.630931	2537.053934
763.957359	2533.371372
764.283740	2534.689633
764.610074	2533.396577
764.936362	2533.905734
765.262602	2533.799870
765.588796	2535.226516
765.914943	2533.852802
766.241044	2534.253573
766.567097	2533.366330
766.893104	2535.045035
767.219064	2532.746268
767.544978	2534.520755
767.870845	2532.007739
768.196665	2533.444468
768.522438	2533.441948
768.848165	2532.831968
769.173846	2532.806762
769.499479	2536.759027
769.825066	2532.942873
770.150607	2533.688964
770.476101	2531.168387
770.801548	2535.425642
771.126949	2532.426155
771.452303	2532.277441
771.777611	2531.861546
772.102872	2535.327339
772.428087	2534.896321
772.753256	2534.329191
773.078378	2533.162164
773.403453	2533.411701
773.728482	2533.366330
774.053465	2533.878008
774.378401	2536.012936
774.703291	2532.025383
775.028135	2531.649818
775.352932	2531.538912
775.677683	2533.068902
776.002388	2534.997144
776.327046	2534.997144
776.651658	2532.640404
776.976224	2533.678882
777.300743	2533.573018
777.625216	2533.900693
777.949643	2533.434386
778.274024	2535.365148
778.598359	2529.857687
778.922647	2529.484642
779.246889	2530.843233
779.571086	2530.631504
779.895236	2531.982534
780.219339	2530.661751
780.543397	2532.572349
780.867409	2533.250384
781.191374	2534.051927
781.515294	2531.244005
781.839167	2532.746268
782.162995	2533.895652
782.486776	2533.021011
782.810511	2533.900693
783.134201	2534.838347
783.457844	2534.435055
783.781441	2533.910775
784.104993	2535.652494
784.428498	2535.229037
784.751958	2534.157792
785.075372	2533.857843
785.398739	2534.205683
785.722061	2532.947915
786.045337	2534.452699
786.368568	2535.554191
786.691752	2534.916485
787.014891	2534.407329
787.337983	2533.623429
787.661030	2534.661907
787.984031	2532.562266
788.306987	2534.251053
788.629897	2532.955476
788.952760	2534.772812
789.275579	2534.127545
789.598351	2533.091588
789.921078	2532.136289
790.243759	2531.576721
790.566395	2530.500434
790.888984	2533.719211
791.211529	2534.498069
791.534027	2534.079654
791.856480	2532.332894
792.178888	2533.537730
792.501249	2532.408511
792.823566	2536.350693
793.145836	2534.913965
793.468062	2534.795498
793.790241	2534.240971
794.112375	2530.533202
794.434464	2532.378264
794.756507	2533.081505
795.078505	2532.544622
795.400457	2532.098480
795.722364	2529.436751
796.044226	2531.276772
796.366042	2530.102183
796.687812	2529.217461
797.009538	2532.852133
797.331218	2534.994623
797.652852	2532.660569
797.974442	2533.517565
798.295986	2531.407842
798.617484	2534.576207
798.938938	2531.516227
799.260346	2533.751979
799.581709	2535.138296
799.903026	2533.598223
800.224299	2533.351207
800.545526	2534.130065
800.866708	2532.673172
801.187845	2534.596372
801.508936	2531.286854
801.829983	2533.628470
802.150984	2534.702236
802.471940	2533.822555
802.792851	2533.457071
803.113717	2534.760209
803.434538	2533.875487
803.755314	2533.363810
804.076045	2533.847761
804.396731	2535.077802
804.717372	2533.235260
805.037967	2532.826927
805.358518	2531.478418
805.679024	2535.065199
805.999485	2530.654190
806.319901	2536.310364
806.640272	2533.827596
806.960598	2532.090918
807.280879	2530.812986
807.601115	2534.419932
807.921306	2533.968748
808.241453	2532.932791
808.561554	2533.920857
808.881611	2531.654859
809.201623	2535.196269
809.521590	2530.281144
809.841513	2531.511186
810.161390	2531.806093
810.481223	2534.084695
810.801011	2534.724921
811.120755	2533.068902
811.440453	2535.143337
811.760107	2530.762574
812.079716	2529.703932
812.399281	2528.042872
812.718801	2528.315094
813.038276	2527.785773
813.357707	2532.779036
813.677093	2533.081505
813.996434	2531.974972
814.315731	2533.510003
814.634983	2533.928419
814.954191	2531.755682
815.273354	2532.370702
815.592473	2535.201310
815.911547	2533.653676
816.230577	2532.030425
816.549562	2533.537730
816.868502	2532.068233
817.187399	2534.608975
817.506250	2531.659900
817.825058	2533.777184
818.143821	2531.972451
818.462539	2533.366330
818.781213	2532.872297
819.099843	2532.199303
819.418429	2533.923378
819.736970	2531.634694
820.055466	2530.933974
820.373919	2531.493542
820.692327	2532.884900
821.010691	2529.540095
821.329011	2533.164684
821.647286	2534.606454
821.965517	2531.977493
822.283704	2534.142668
822.601847	2530.646628
822.919945	2532.103521
823.237999	2532.456402
823.556010	2534.974458
823.873976	2532.965559
824.191897	2530.066895
824.509775	2530.939015
824.827609	2533.522606
825.145398	2532.317770
825.463144	2535.143337
825.780845	2532.169056
826.098502	2533.719211
826.416116	2532.809283
826.733685	2532.491690
827.051210	2531.480939
827.368692	2532.726104
827.686129	2535.735673
828.003522	2531.060002
828.320872	2530.762574
828.638177	2531.100332
828.955439	2529.144364
829.272656	2529.272913
829.589830	2529.038500
829.906960	2532.716022
830.224046	2533.671320
830.541088	2532.718542
830.858086	2531.269210
831.175041	2533.008408
831.491952	2532.426155
831.808819	2533.615867
832.125642	2529.966072
832.442421	2531.949766
832.759157	2531.216278
833.075849	2530.906247
833.392497	2532.847092
833.709101	2532.378264
834.025662	2532.499252
834.342179	2531.170908
834.658653	2531.271731
834.975083	2533.550332
835.291469	2535.697864
835.607811	2532.441279
835.924110	2533.078985
836.240366	2532.516896
836.556578	2531.697708
836.872746	2531.221319
837.188871	2533.051258
837.504952	2533.225178
837.820990	2533.573018
838.136984	2530.636546
838.452935	2532.368182
838.768842	2530.611340
839.084706	2532.940353
839.400526	2530.263500
839.716303	2530.422297
840.032037	2531.574200
840.347727	2529.630835
840.663373	2534.493028
840.978977	2532.620240
841.294537	2532.411032
841.610054	2530.651669
841.925527	2533.298275
842.240957	2531.778367
842.556344	2530.684437
842.871687	2529.623274
843.186987	2534.051927
843.502244	2532.285003
843.817458	2530.949097
844.132629	2529.908099
844.447756	2534.702236
844.762840	2526.553211
845.077881	2530.029087
845.392879	2528.415917
845.707833	2530.671834
846.022745	2526.490197
846.337613	2529.991278
846.652438	2532.416073
846.967221	2530.760054
847.281960	2531.901875
847.596656	2532.834489
847.911309	2533.671320
848.225919	2530.828109
848.540485	2531.208717
848.855009	2529.204858
849.169490	2531.165867
849.483928	2531.947246
849.798323	2529.701412
850.112675	2531.944725
850.426984	2530.858356
850.741251	2532.595034
851.055474	2530.034128
851.369654	2532.335414
851.683792	2531.763243
851.997887	2531.465815
852.311938	2532.655528
852.625947	2530.452543
852.939914	2531.173428
853.253837	2531.664941
853.567718	2530.518078
853.881555	2532.005219
854.195350	2530.180321
854.509103	2531.980013
854.822812	2528.877183
855.136479	2532.489170
855.450103	2530.923891
855.763685	2531.637215
856.077224	2531.697708
856.390720	2531.085208
856.704173	2530.853315
857.017584	2532.809283
857.330953	2530.724766
857.644278	2532.766433
857.957561	2532.852133
858.270802	2532.080836
858.584000	2529.832482
858.897155	2532.494211
859.210268	2533.741896
859.523339	2531.455733
859.836367	2529.771988
860.149352	2532.360620
860.462295	2532.085877
860.775195	2530.593696
861.088054	2527.742923
861.400869	2529.555218
861.713642	2525.126564
862.026373	2531.813655
862.339062	2531.533871
862.651708	2531.105373
862.964312	2531.526309
863.276873	2530.679395
863.589392	2530.308871
863.901869	2531.775846
864.214303	2532.521937
864.526696	2530.828109
864.839045	2529.426669
865.151353	2532.247194
865.463619	2531.218799
865.775842	2530.195445
866.088023	2532.113604
866.400162	2531.864067
866.712258	2528.405835
867.024313	2532.484128
867.336325	2528.567152
867.648296	2533.164684
867.960224	2530.775177
868.272110	2532.595034
868.583954	2531.291896
868.895755	2531.246525
869.207515	2530.903727
869.519233	2529.973634
869.830909	2533.129396
870.142542	2530.757533
870.454134	2530.628984
870.765684	2529.804755
871.077191	2531.614529
871.388657	2530.664272
871.700081	2529.898017
872.011463	2529.744261
872.322803	2530.137471
872.634101	2531.503624
872.945357	2532.209386
873.256571	2532.101001
873.567744	2534.172915
873.878874	2529.265352
874.189963	2530.911288
874.501010	2531.576721
874.812015	2528.345341
875.122979	2531.314581
875.433900	2529.935825
875.744780	2531.644776
876.055618	2530.959179
876.366415	2532.622760
876.677169	2530.571011
876.987882	2527.720238
877.298554	2525.330731
877.609183	2531.236443
877.919771	2527.337110
878.230317	2526.545649
878.540822	2530.752492
878.851285	2531.556556
879.161707	2530.213089
879.472087	2533.983872
879.782425	2529.867770
880.092722	2529.366175
880.402977	2528.453726
880.713191	2531.712832
881.023363	2528.935156
881.333494	2531.027235
881.643583	2530.722245
881.953631	2531.097811
882.263637	2530.717204
882.573602	2531.271731
882.883526	2530.470187
883.193408	2531.647297
883.503248	2530.644107
883.813048	2530.404653
884.122806	2531.836340
884.432522	2531.087729
884.742197	2530.926412
885.051831	2530.326515
885.361424	2530.069416
885.670975	2530.099663
885.980485	2531.060003
886.289954	2530.321473
886.599382	2529.005732
886.908768	2534.314067
887.218113	2530.376926
887.527417	2533.472195
887.836680	2530.061854
888.145901	2529.547656
888.455082	2529.976154
888.764221	2531.697708
889.073319	2530.818027
889.382376	2531.864067
889.691392	2528.902389
890.000366	2530.757533
890.309300	2530.263500
890.618193	2528.678057
890.927044	2532.360620
891.235855	2531.027235
891.544625	2530.424817
891.853353	2530.444982
892.162041	2532.448840
892.470687	2533.709129
892.779293	2530.056813
893.087858	2528.602440
893.396381	2527.458098
893.704864	2526.255783
894.013306	2525.935670
894.321707	2531.642256
894.630068	2531.095291
894.938387	2530.389529
895.246665	2530.540764
895.554903	2529.971113
895.863100	2531.385157
896.171256	2527.314425
896.479371	2531.644776
896.787446	2529.822399
897.095480	2530.611340
897.403473	2532.224509
897.711425	2531.450692
898.019336	2532.259797
898.327207	2528.640249
898.635038	2529.696370
898.942827	2530.114786
899.250576	2531.836340
899.558284	2532.237112
899.865952	2529.832482
900.173579	2531.339787
900.481165	2529.469518
900.788711	2531.138140
901.096216	2530.150074
901.403681	2530.276103
901.711105	2530.349200
902.018489	2528.584796
902.325832	2532.413552
902.633135	2530.051772
902.940397	2528.541946
903.247619	2530.150074
903.554800	2527.785773
903.861941	2526.863242
904.169041	2532.050589
904.476101	2530.543284
904.783121	2527.659744
905.090100	2527.321987
905.397039	2529.913140
905.703938	2532.043027
906.010796	2528.935156
906.317614	2528.516740
906.624391	2531.203675
906.931129	2530.011443
907.237826	2528.773839
907.544483	2531.732997
907.851099	2528.673016
908.157675	2529.227543
908.464211	2531.206196
908.770707	2527.732841
909.077163	2527.634538
909.383578	2527.054806
909.689954	2528.161339
909.996289	2525.189579
910.302584	2530.409694
910.608839	2530.281144
910.915054	2529.963552
911.221229	2530.185362
911.527363	2532.221988
911.833458	2530.578572
912.139513	2529.948428
912.445527	2529.003212
912.751502	2531.364992
913.057436	2528.577234
913.363331	2528.882224
913.669186	2529.527492
913.975000	2530.266021
914.280775	2528.995650
914.586510	2533.615868
914.892205	2528.980527
915.197859	2531.962369
915.503475	2527.379960
915.809050	2529.086391
916.114585	2530.812986
916.420081	2529.872811
916.725536	2528.975485
917.030952	2531.019673
917.336328	2528.730989
917.641665	2530.024045
917.946961	2529.482121
918.252218	2526.248221
918.557435	2531.289375
918.862612	2528.249559
919.167750	2528.231915
919.472848	2530.250897
919.777906	2528.783922
920.082925	2530.452543
920.387904	2526.280989
920.692843	2532.176618
920.997743	2528.302491
921.302603	2530.155115
921.607423	2528.955321
921.912204	2532.285003
922.216946	2531.874149
922.521647	2530.976823
922.826310	2527.448016
923.130932	2531.690147
923.435516	2530.825589
923.740059	2530.734848
924.044564	2527.006915
924.349028	2527.715197
924.653454	2521.338137
924.957840	2525.948272
925.262186	2528.733510
925.566493	2530.132430
925.870761	2524.072963
926.174989	2528.950280
926.479178	2526.792666
926.783328	2528.468849
927.087438	2529.905578
927.391509	2528.310053
927.695541	2529.270393
927.999533	2530.303829
928.303486	2530.563449
928.607400	2528.400794
928.911275	2526.540608
929.215110	2528.925074
929.518906	2524.834177
929.822663	2531.634694
930.126381	2529.877852
930.430060	2529.590506
930.733699	2527.473222
931.037299	2530.724766
931.340861	2525.618077
931.644383	2531.798532
931.947866	2527.957172
932.251309	2531.281813
932.554714	2527.689991
932.858080	2531.440610
933.161407	2528.040351
933.464694	2530.220650
933.767943	2528.826771
934.071153	2529.913140
934.374323	2527.170752
934.677455	2529.126720
934.980548	2528.098325
935.283602	2528.453726
935.586617	2529.305681
935.889593	2527.553880
936.192530	2528.252080
936.495428	2530.409694
936.798287	2528.592358
937.101108	2528.710825
937.403890	2526.966586
937.706632	2529.051103
938.009336	2529.257790
938.312002	2530.150074
938.614628	2528.819210
938.917216	2529.073788
939.219765	2529.182173
939.522275	2529.439272
939.824747	2531.546474
940.127179	2525.618077
940.429573	2525.504651
940.731929	2526.210412
941.034246	2524.725793
941.336524	2529.587986
941.638763	2529.353572
941.940964	2528.972965
942.243126	2529.114117
942.545250	2528.662934
942.847335	2530.402132
943.149381	2528.541946
943.451389	2528.763757
943.753359	2531.697708
944.055290	2529.903058
944.357182	2528.375588
944.659036	2532.078316
944.960851	2531.095291
945.262628	2528.395753
945.564367	2528.907430
945.866067	2527.140505
946.167729	2531.445651
946.469352	2527.692512
946.770937	2529.686288
947.072484	2529.134282
947.373992	2528.599919
947.675462	2527.437933
947.976893	2528.935156
948.278286	2527.808458
948.579641	2527.430372
948.880958	2531.606968
949.182236	2529.766947
949.483476	2527.677388
949.784678	2530.218130
950.085841	2527.967255
950.386967	2528.612522
950.688054	2525.865093
950.989103	2528.723428
951.290114	2528.715866
951.591087	2531.412883
951.892021	2528.279806
952.192917	2530.387008
952.493776	2528.660413
952.794596	2528.914992
953.095378	2529.731658
953.396122	2529.247708
953.696828	2525.297964
953.997496	2528.400794
954.298126	2528.012625
954.598718	2527.818541
954.899272	2530.250897
955.199788	2527.868952
955.500266	2526.676719
955.800706	2525.393746
956.101108	2526.283509
956.401472	2524.602284
956.701798	2526.323838
957.002087	2522.928621
957.302337	2530.177801
957.602550	2528.042872
957.902724	2525.413910
958.202861	2528.080681
958.502960	2527.352234
958.803022	2530.656710
959.103045	2531.380116
959.403031	2527.881555
959.702979	2528.143695
960.002889	2532.043028
960.302762	2527.742923
960.602596	2526.969106
960.902393	2527.352234
961.202153	2528.637728
961.501875	2526.071781
961.801559	2528.030269
962.101205	2528.468849
962.400814	2530.384488
962.700385	2528.458767
962.999918	2531.433048
963.299414	2523.785618
963.598873	2530.681916
963.898293	2525.391225
964.197677	2529.872811
964.497022	2525.345855
964.796331	2529.519930
965.095601	2526.732172
965.394835	2528.355423
965.694030	2529.804755
965.993189	2528.047913
966.292309	2525.313087
966.591393	2527.697553
966.890439	2527.369878
967.189447	2527.024559
967.488419	2528.912471
967.787353	2528.141174
968.086249	2525.260155
968.385108	2527.637059
968.683930	2529.154446
968.982714	2528.781401
969.281462	2529.661082
969.580172	2530.286185
969.878844	2526.107069
970.177480	2528.834333
970.476078	2528.937677
970.774639	2530.122348
971.073162	2527.984899
971.371649	2524.877027
971.670098	2527.246370
971.968510	2526.812830
972.266885	2523.447860
972.565223	2528.824251
972.863524	2525.786956
973.161788	2528.436082
973.460014	2526.326359
973.758204	2530.666793
974.056356	2529.106555
974.354471	2528.728469
974.652550	2527.649662
974.950591	2528.607481
975.248595	2527.982378
975.546563	2528.937677
975.844493	2528.685619
976.142386	2527.480783
976.440243	2527.894158
976.738062	2527.271575
977.035845	2526.059178
977.333590	2527.823582
977.631299	2528.292409
977.928971	2528.806607
978.226606	2528.504138
978.524204	2528.489014
978.821765	2526.875845
979.119290	2528.920033
979.416777	2527.813499
979.714228	2530.777698
980.011642	2527.289219
980.309020	2526.596061
980.606360	2528.294930
980.903664	2527.692512
981.200931	2529.643438
981.498162	2526.868283
981.795356	2526.888448
982.092513	2528.181504
982.389633	2527.626977
982.686717	2528.922553
982.983764	2529.439272
983.280775	2526.023890
983.577749	2527.014477
983.874686	2526.606143
984.171587	2527.601771
984.468451	2528.557070
984.765279	2526.217974
985.062070	2529.197296
985.358824	2527.750485
985.655543	2529.466998
985.952224	2527.785773
986.248869	2527.911802
986.545478	2524.274609
986.842050	2524.995494
987.138586	2524.733354
987.435086	2524.917357
987.731549	2523.089938
988.027975	2530.986906
988.324366	2527.793335
988.620719	2527.478263
988.917037	2526.976668
989.213318	2528.060516
989.509563	2527.112779
989.805772	2527.427851
990.101944	2529.714014
990.398080	2524.786287
990.694180	2528.259642
990.990244	2528.189065
991.286271	2529.030938
991.582262	2528.665454
991.878217	2526.263345
992.174136	2526.946421
992.470019	2528.703263
992.765865	2527.095135
993.061676	2526.344003
993.357450	2528.463808
993.653188	2528.252080
993.948890	2527.374919
994.244556	2524.468694
994.540186	2527.102697
994.835780	2527.294261
995.131337	2527.178314
995.426859	2525.726462
995.722345	2527.558921
996.017795	2526.074301
996.313208	2527.264014
996.608586	2526.636390
996.903928	2528.988088
997.199234	2525.507172
997.494504	2524.350227
997.789738	2528.506658
998.084936	2526.170083
998.380099	2528.935156
998.675225	2525.151770
998.970316	2529.058664
999.265371	2525.718900
999.560390	2525.368540
999.855373	2527.984899
1000.150320	2527.072450
1000.445232	2528.131092
1000.740108	2525.262676
1001.034948	2527.962213
1001.329752	2527.276617
1001.624521	2528.453726
1001.919254	2523.203364
1002.213951	2527.001874
1002.508613	2524.216636
1002.803239	2524.327542
1003.097829	2521.630524
1003.392384	2527.024559
1003.686903	2526.820392
1003.981386	2527.919364
1004.275834	2526.704446
1004.570246	2526.991791
1004.864623	2525.156811
1005.158964	2529.003212
1005.453270	2528.370547
1005.747540	2528.350382
1006.041775	2525.965917
1006.335974	2524.554393
1006.630138	2524.677902
1006.924266	2523.218488
1007.218359	2528.592358
1007.512416	2525.696215
1007.806438	2525.857532
1008.100425	2525.487007
1008.394376	2528.355423
1008.688292	2527.395084
1008.982172	2526.059178
1009.276017	2529.041020
1009.569827	2526.936339
1009.863602	2527.478263
1010.157341	2526.643952
1010.451045	2525.736544
1010.744714	2526.553211
1011.038347	2527.180835
1011.331945	2528.678057
1011.625508	2528.577234
1011.919036	2528.458767
1012.212528	2526.427182
1012.505986	2526.250742
1012.799408	2528.042872
1013.092795	2525.756709
1013.386147	2524.967768
1013.679464	2526.641431
1013.972745	2524.524147
1014.265992	2526.170083
1014.559204	2528.209230
1014.852380	2527.143026
1015.145521	2526.656555
1015.438628	2526.225536
1015.731699	2523.883920
1016.024736	2525.487007
1016.317737	2528.115969
1016.610703	2525.791997
1016.903635	2524.599764
1017.196531	2523.957017
1017.489393	2523.009280
1017.782219	2521.461646
1018.075011	2526.210413
1018.367768	2527.435413
1018.660490	2526.482635
1018.953177	2526.482635
1019.245829	2526.482635
