Dividing Wavelength (nm)	Counts (n)	Blue Motor Position (mm): 42.100000	Red Motor Position (mm): 0.000000	
326.493990	2252.909298
326.888308	2252.909298
327.282561	2252.909298
327.676750	2216.207177
328.070874	2211.566795
328.464933	2214.591488
328.858929	2217.875799
329.252859	2223.413507
329.646726	2229.856101
330.040528	2245.249265
330.434265	2254.358630
330.827938	2273.210024
331.221547	2290.939763
331.615091	2308.896353
332.008571	2326.343786
332.401986	2346.972188
332.795338	2366.463809
333.188625	2385.219422
333.581847	2400.806669
333.975006	2426.176276
334.368100	2444.057249
334.761129	2463.132975
335.154095	2477.223000
335.546996	2504.919099
335.939833	2546.160779
336.332606	2559.305588
336.725315	2572.079871
337.117960	2583.903898
337.510540	2595.947214
337.903056	2606.947012
338.295508	2614.796088
338.687896	2626.310084
339.080220	2631.676392
339.472480	2639.941364
339.864676	2643.452527
340.256807	2649.799340
340.648875	2653.199598
341.040879	2657.701349
341.432818	2660.315187
341.824694	2659.390135
342.216506	2662.848367
342.608253	2661.638490
342.999937	2664.292657
343.391557	2664.615291
343.783113	2662.011535
344.174605	2661.265445
344.566033	2658.109682
344.957397	2660.889879
345.348697	2657.456853
345.739934	2656.234373
346.131106	2655.934424
346.522215	2657.214877
346.913260	2650.432005
347.304241	2650.149700
347.695159	2650.071562
348.086012	2649.368322
348.476802	2645.952940
348.867528	2641.166364
349.258191	2638.086219
349.648789	2635.507669
350.039324	2633.760909
350.429796	2637.839203
350.820203	2634.834675
351.210548	2634.585138
351.600828	2631.963738
351.991045	2632.210754
352.381198	2632.177987
352.771288	2631.096659
353.161314	2628.934004
353.551276	2630.925260
353.941175	2630.012811
354.331010	2626.264713
354.720782	2629.627163
355.110490	2628.381998
355.500135	2628.991978
355.889717	2630.471556
356.279235	2629.511217
356.668689	2627.131792
357.058080	2629.160856
357.447408	2631.464664
357.836672	2630.907616
358.225873	2630.463995
358.615010	2633.161012
359.004084	2631.300826
359.393095	2632.982051
359.782043	2633.687812
360.170927	2634.116311
360.559748	2634.423821
360.948505	2637.241826
361.337199	2637.602268
361.725830	2637.204017
362.114398	2638.149234
362.502903	2639.976652
362.891344	2639.661580
363.279722	2640.372382
363.668037	2638.880201
364.056289	2640.354738
364.444478	2642.121663
364.832603	2640.994965
365.220665	2641.756179
365.608665	2644.019657
365.996601	2642.409009
366.384474	2644.659884
366.772284	2646.446973
367.160031	2644.480923
367.547715	2648.067704
367.935336	2646.799854
368.322893	2645.973104
368.710388	2644.919503
369.097820	2645.229534
369.485189	2645.496715
369.872495	2650.792447
370.259738	2650.706748
370.646918	2653.476862
371.034035	2650.729433
371.421090	2649.809422
371.808081	2651.289001
372.195010	2653.388642
372.581875	2651.397386
372.968678	2653.834784
373.355418	2653.897798
373.742096	2654.227994
374.128710	2654.780000
374.515262	2656.388128
374.901751	2655.352171
375.288177	2656.352840
375.674540	2655.321924
376.060841	2657.106493
376.447079	2657.610608
376.833254	2658.497851
377.219367	2657.880310
377.605417	2659.942142
377.991404	2658.162614
378.377329	2657.847542
378.763191	2661.706546
379.148991	2661.683860
379.534727	2662.457677
379.920402	2664.436330
380.306013	2663.780980
380.691563	2666.793070
381.077049	2669.648883
381.462474	2670.309275
381.847835	2676.131807
382.233134	2679.874864
382.618371	2684.653878
383.003545	2693.548994
383.388657	2703.661548
383.773706	2718.180072
384.158693	2733.805128
384.543618	2754.350350
384.928480	2778.701644
385.313280	2806.808597
385.698017	2837.269769
386.082692	2878.980276
386.467305	2912.327509
386.851856	2952.470217
387.236344	3011.131604
387.620770	3052.209446
388.005133	3104.133331
388.389435	3162.489727
388.773674	3204.071685
389.157851	3275.832510
389.541965	3347.754652
389.926018	3377.255484
390.310008	3468.825523
390.693936	3541.579456
391.077802	3606.358282
391.461606	3650.536434
391.845348	3737.115731
392.229027	3816.382834
392.612645	3869.430896
392.996200	3978.176146
393.379694	4066.686205
393.763125	4184.916386
394.146494	4250.375769
394.529801	4340.806507
394.913047	4444.994554
395.296230	4446.872384
395.679351	4578.882559
396.062410	4662.180065
396.445408	4676.128937
396.828343	4767.910705
397.211217	4847.036656
397.594028	4768.989512
397.976778	4910.313219
398.359466	4976.642200
398.742092	5024.354201
399.124656	4959.318275
399.507158	5090.025312
399.889598	5174.530174
400.271977	5306.923477
400.654294	5312.372964
401.036549	5365.282394
401.418742	5296.258916
401.800874	5508.126009
402.182944	5573.953396
402.564952	5691.061921
402.946898	5755.492908
403.328783	5604.926245
403.710606	5620.047186
404.092367	5944.425272
404.474067	5963.203570
404.855705	5875.893306
405.237282	5809.718079
405.618797	6064.969342
406.000250	6046.795983
406.381642	6245.586323
406.762972	6268.218583
407.144240	6331.432132
407.525447	6315.260110
407.906593	6343.488051
408.287677	6495.355332
408.668700	6405.398462
409.049661	6523.840371
409.430560	6555.486215
409.811399	6412.163690
410.192176	6688.618047
410.572891	6690.470671
410.953545	6892.709160
411.334138	6624.623119
411.714669	6792.112935
412.095139	6591.081802
412.475547	6837.533731
412.855894	6901.291724
413.236180	7076.250010
413.616405	6761.500528
413.996568	6983.701987
414.376670	7013.553179
414.756711	6908.760194
415.136691	7009.190061
415.516609	7214.110444
415.896466	7200.799277
416.276262	7399.481233
416.655997	7383.309211
417.035670	7573.751401
417.415283	7907.921927
417.794834	7963.399825
418.174324	7822.086201
418.553753	7735.804332
418.933121	8054.818630
419.312428	8154.552817
419.691674	7928.956142
420.070859	8405.783761
420.449983	8089.247190
420.829045	8453.387376
421.208047	8229.721462
421.586988	8519.058487
421.965867	8549.476810
422.344686	8654.131164
422.723444	8700.416518
423.102141	8058.347437
423.480777	8813.585380
423.859352	8341.037701
424.237866	8957.701887
424.616319	8819.115526
424.994712	9238.042973
425.373044	8798.267834
425.751314	9261.985933
426.129524	9131.813258
426.507673	9244.384744
426.885762	9401.940966
427.263789	9312.737749
427.641756	9239.837623
428.019662	9335.243980
428.397508	9589.953320
428.775292	9268.829299
429.153016	9652.997990
429.530679	9478.528696
429.908282	9510.814766
430.285824	9234.436027
430.663305	9917.174616
431.040726	9372.485504
431.418086	9350.710240
431.795385	9679.859778
432.172624	9763.666440
432.549802	9677.989510
432.926920	9765.309856
433.303977	9634.741451
433.680974	9838.177214
434.057910	9926.586450
434.434786	9999.141257
434.811601	9831.086832
435.188355	10401.264017
435.565050	10132.686463
435.941683	10055.821470
436.318257	10543.832889
436.694770	10691.941989
437.071222	10751.858623
437.447614	10586.165978
437.823946	10497.895374
438.200218	10620.556730
438.576429	10440.763978
438.952580	10689.040805
439.328670	10726.960364
439.704700	10514.374906
440.080670	10506.840902
440.456580	11044.444671
440.832429	10816.700464
441.208218	10419.749928
441.583947	10734.015459
441.959616	10897.174923
442.335224	10702.641838
442.710773	10831.362660
443.086261	11045.790659
443.461689	10317.101953
443.837057	10999.202836
444.212365	11248.361865
444.587612	10883.548685
444.962800	11106.765936
445.337927	10864.765345
445.712995	10485.446245
446.088002	11553.465099
446.462949	11229.931407
446.837837	11197.083248
447.212664	11155.675210
447.587431	11707.242976
447.962139	12448.711007
448.336786	14729.185334
448.711374	15246.160702
449.085901	13086.404366
449.460369	12714.667161
449.834776	12159.126966
450.209124	13066.869895
450.583412	13483.087721
450.957640	14419.739147
451.331808	13502.859126
451.705917	12540.165100
452.079965	11809.684263
452.453954	12724.736866
452.827883	12368.513811
453.201752	12661.477947
453.575562	12186.051768
453.949311	12603.653391
454.323001	12582.137747
454.696632	12809.617293
455.070202	13098.649329
455.443713	13308.804950
455.817164	13789.985605
456.190556	13759.809258
456.563888	14132.836999
456.937160	14293.836329
457.310373	13644.223162
457.683526	13734.016195
458.056619	13271.540741
458.429653	13456.977065
458.802628	12841.676511
459.175542	13239.060587
459.548398	14190.979147
459.921194	14541.702302
460.293930	14624.112565
460.666607	15476.382637
461.039224	16527.715272
461.411782	17236.894712
461.784280	17052.315385
462.156719	17157.723391
462.529099	16820.029098
462.901419	15764.716472
463.273680	15548.672783
463.645882	15427.130564
464.018024	15155.457742
464.390106	15378.279262
464.762130	16096.832729
465.134094	16875.234774
465.505999	18913.499303
465.877845	22177.265811
466.249631	24998.991182
466.621358	24642.493385
466.993026	23214.241239
467.364634	22636.318321
467.736184	21162.708393
468.107674	20373.508197
468.479105	20504.374030
468.850477	19956.909764
469.221790	19549.362722
469.593043	18872.136635
469.964238	18300.091703
470.335373	17940.811188
470.706449	18426.533923
471.077467	17999.477616
471.448425	19867.429283
471.819324	23949.884217
472.190164	25857.408942
472.560945	22233.648596
472.931667	19903.382792
473.302330	19293.123393
473.672934	18886.471156
474.043479	19150.264655
474.413965	18961.440676
474.784393	18566.609945
475.154761	19306.918510
475.525070	19234.220031
475.895321	18949.029355
476.265513	19545.549089
476.635645	20137.635129
477.005719	19902.979500
477.375734	20086.817778
477.745691	20578.461348
478.115588	21115.918924
478.485427	21657.633755
478.855207	22741.819589
479.224928	24528.253277
479.594591	26757.053257
479.964194	26711.264457
480.333739	26929.957272
480.703226	26512.171647
481.072653	26207.378444
481.442022	26811.177605
481.811333	27734.142298
482.180584	27631.335527
482.549777	26675.961256
482.918912	26335.582548
483.287988	26477.974980
483.657005	26100.803411
484.025964	25879.622786
484.394864	25767.376454
484.763706	25432.984117
485.132489	24898.407560
485.501213	25072.339971
485.869879	24979.570137
486.238487	24816.135929
486.607036	24937.118581
486.975527	24688.614902
487.343959	24978.072914
487.712333	24897.769854
488.080648	24569.086623
488.448905	25059.578290
488.817104	24826.187990
489.185244	25522.033579
489.553326	25462.742048
489.921350	26498.487435
490.289315	28830.744494
490.657222	30570.325699
491.025070	31081.660016
491.392861	30837.746308
491.760593	29974.194133
492.128267	29066.095803
492.495883	28015.277366
492.863440	27136.745403
493.230939	26273.929237
493.598380	26117.877799
493.965763	25714.998866
494.333088	25232.709157
494.700354	25200.624733
495.067563	25054.993360
495.434713	24803.984228
495.801805	24979.338244
496.168839	24759.619554
496.535815	24616.322235
496.902733	24841.503016
497.269593	24521.430076
497.636395	24691.659759
498.003139	24632.496777
498.369825	24384.414035
498.736453	24585.987092
499.103023	24459.590241
499.469535	24462.866991
499.835989	24682.467215
500.202385	24719.106321
500.568723	24233.121446
500.935003	24438.631644
501.301226	24101.270067
501.667390	24948.912360
502.033497	25149.343596
502.399546	24890.707198
502.765537	24428.110756
503.131470	24822.820499
503.497345	24965.003723
503.863163	24204.429719
504.228923	24751.765436
504.594625	24997.267108
504.960269	24539.762232
505.325856	25005.751370
505.691385	24403.225100
506.056856	25032.908065
506.422270	25005.143911
506.787625	24529.851323
507.152924	24967.776358
507.518164	25000.495967
507.883347	24812.844056
508.248472	24500.065666
508.613540	25275.276660
508.978550	25068.886780
509.343503	25083.196096
509.708398	25307.976104
510.073236	25465.998633
510.438016	25672.345663
510.802738	25330.668858
511.167403	25603.715395
511.532010	25334.444683
511.896561	26095.144716
512.261053	26048.009927
512.625488	25877.679421
512.989866	25775.359122
513.354186	25609.618586
513.718449	25726.830454
514.082655	26111.624248
514.446803	25832.992113
514.810894	26317.477244
515.174927	25792.252028
515.538904	25818.677757
515.902822	26331.284965
516.266684	26074.695275
516.630488	25986.414589
516.994235	25938.644615
517.357925	26276.903518
517.721558	26437.648270
518.085133	26558.401548
518.448651	26443.019619
518.812112	26200.608175
519.175516	26400.172332
519.538863	26566.026294
519.902152	26349.203746
520.265385	26617.572092
520.628560	26417.208912
520.991678	26402.503866
521.354739	26466.413094
521.717743	26555.782669
522.080690	26319.954972
522.443580	26659.184296
522.806413	26640.335422
523.169189	26755.031754
523.531908	26799.023383
523.894569	26410.403354
524.257174	26496.372671
524.619722	26652.451835
524.982213	26361.499120
525.344647	26392.469449
525.707025	26562.373978
526.069345	26515.287080
526.431608	26485.713151
526.793815	26662.027507
527.155964	26148.936348
527.518057	26320.108727
527.880093	26242.323723
528.242072	26474.955329
528.603995	26174.182446
528.965860	25978.144576
529.327669	26019.426585
529.689421	26005.737332
530.051117	25856.834250
530.412755	26025.796083
530.774337	25806.334491
531.135862	25700.613933
531.497331	25888.832974
531.858743	25462.268180
532.220098	25916.261892
532.581396	25618.589319
532.942638	25521.945359
533.303824	25637.438193
533.664953	25627.539888
534.026025	25291.098321
534.387040	25533.885332
534.747999	25583.336530
535.108902	25755.890185
535.469748	25253.163639
535.830537	25418.301756
536.191270	25549.880913
536.551947	25381.317331
536.912567	25025.348855
537.273131	25442.194305
537.633638	25115.386383
537.994089	25345.499933
538.354483	24840.227604
538.714821	25358.652303
539.075103	25390.235132
539.435328	25175.255127
539.795497	24759.634677
540.155609	25099.458858
540.515665	25426.039928
540.875665	24637.822756
541.235609	24969.618899
541.595496	24911.393572
541.955328	25268.266936
542.315102	25195.245822
542.674821	24715.161618
543.034483	24586.889458
543.394090	24759.536375
543.753640	24576.807151
544.113134	25205.217224
544.472571	24788.792711
544.831953	25084.065695
545.191278	24740.291770
545.550548	24627.811025
545.909761	24822.492824
546.268918	25052.389604
546.628019	25032.529979
546.987064	24719.812082
547.346053	24450.687564
547.704986	24568.403547
548.063863	24723.222423
548.422684	24756.892289
548.781449	24251.935032
549.140158	24678.162069
549.498811	24246.135185
549.857408	24001.525797
550.215949	24396.875767
550.574434	24099.387196
550.932864	24296.390447
551.291237	24479.069260
551.649555	24310.041892
552.007817	24376.655699
552.366022	24224.238933
552.724173	24258.609520
553.082267	24213.488672
553.440305	24708.764394
553.798288	23948.034114
554.156215	24450.881648
554.514086	24572.978394
554.871902	23959.754796
555.229661	24235.730243
555.587365	24089.418314
555.945014	23978.785152
556.302606	24197.059552
556.660143	24184.673437
557.017625	24413.796400
557.375050	23926.160547
557.732421	24315.002387
558.089735	24158.948429
558.446994	24200.583318
558.804197	24226.900662
559.161345	24136.477486
559.518437	23930.382513
559.875474	24107.206026
560.232455	24286.444251
560.589381	24096.778399
560.946251	24099.987093
561.303065	24407.436984
561.659825	24508.093703
562.016528	24096.952319
562.373177	23832.596732
562.729770	24198.960067
563.086307	24051.551687
563.442789	24231.442742
563.799216	24054.107552
564.155587	24048.965575
564.511904	24038.497619
564.868164	23997.354242
565.224370	23941.147897
565.580520	23879.688670
565.936615	24004.777341
566.292654	23712.037537
566.648638	23952.435041
567.004567	23787.019660
567.360441	23730.359611
567.716260	23464.617707
568.072023	23780.965234
568.427732	23553.780595
568.783385	23320.171005
569.138982	23577.496703
569.494525	23588.927519
569.850013	23360.147355
570.205445	23446.560294
570.560823	23267.415330
570.916145	23039.081308
571.271412	23226.597107
571.626625	22974.146205
571.981782	23075.070105
572.336884	22888.683524
572.691931	23020.953318
573.046923	22765.465121
573.401860	22640.449547
573.756743	22669.708404
574.111570	22558.699675
574.466342	22482.389209
574.821059	22568.398855
575.175722	22280.007047
575.530330	22233.051219
575.884882	22253.215835
576.239380	22177.278414
576.593823	22055.363149
576.948211	22031.110158
577.302544	21885.302345
577.656823	21743.524934
578.011047	21863.980784
578.365216	21726.851317
578.719330	21599.902461
579.073389	21485.531283
579.427394	21653.288280
579.781344	21396.638097
580.135239	21284.583329
580.489080	21235.850495
580.842866	21023.348216
581.196597	21232.485524
581.550273	21184.397958
581.903895	21068.794218
582.257463	21365.559383
582.610975	20916.490878
582.964434	21246.313409
583.317837	20904.961759
583.671186	21006.795587
584.024481	20992.317393
584.377721	20755.254613
584.730906	20833.644556
585.084037	20826.435706
585.437113	20752.421485
585.790135	20952.073862
586.143103	20405.595141
586.496016	20429.472567
586.848874	20666.815131
587.201679	20585.876885
587.554428	20283.909249
587.907124	20620.459201
588.259765	20375.370903
588.612352	20446.010072
588.964884	20008.942033
589.317362	20186.985505
589.669786	20248.283415
590.022155	20261.902092
590.374470	20490.762915
590.726731	20251.429095
591.078937	20047.310255
591.431090	20121.843715
591.783188	19889.955679
592.135232	19852.215081
592.487222	19943.795202
592.839157	19954.789959
593.191038	19840.570015
593.542866	19731.522296
593.894639	19439.062276
594.246358	19661.052006
594.598022	19547.245438
594.949633	19305.663263
595.301190	19287.384039
595.652692	19446.097206
596.004141	19669.052317
596.355535	19003.020113
596.706876	19030.073465
597.058162	18925.114121
597.409395	19161.070368
597.760573	19214.317555
598.111698	18987.382453
598.462768	18926.064378
598.813785	18895.262928
599.164748	18704.331747
599.515657	18756.190097
599.866511	18548.635711
600.217312	18905.809022
600.568060	18419.806503
600.918753	18732.479030
601.269392	18623.645559
601.619978	18420.691226
601.970510	18613.787583
602.320988	18569.001972
602.671412	18762.524307
603.021783	18694.975366
603.372100	18402.235562
603.722363	18554.009581
604.072572	18492.023553
604.422728	18650.976175
604.772830	18395.170385
605.122878	18360.078913
605.472872	18323.530547
605.822813	18324.059868
606.172701	18312.634093
606.522534	18485.386874
606.872314	18517.277213
607.222041	18355.231843
607.571714	18560.326146
607.921333	18390.323315
608.270899	18459.639181
608.620411	18627.277711
608.969870	18414.785514
609.319276	18414.208302
609.668627	18439.938351
610.017926	18576.296522
610.367171	18687.988326
610.716362	18743.015041
611.065500	18557.616526
611.414585	18698.846972
611.763616	18686.160908
612.112594	18614.455536
612.461518	18590.663810
612.810389	18777.322614
613.159207	18638.131315
613.507971	18547.861893
613.856682	18817.813161
614.205340	18729.782012
614.553945	18883.542246
614.902496	18641.460997
615.250994	18846.890537
615.599439	18802.689700
615.947830	18780.082645
616.296169	18856.834213
616.644454	18811.728489
616.992686	18786.696639
617.340864	19002.518518
617.688990	18747.534436
618.037063	18916.702956
618.385082	18785.459036
618.733048	19055.553977
619.080961	18950.705538
619.428821	18970.668508
619.776628	18850.351289
620.124382	18777.758673
620.472083	18838.043312
620.819731	18835.119442
621.167326	18531.999903
621.514868	18567.179595
621.862357	18356.860136
622.209793	18348.711111
622.557176	18189.085495
622.904506	18010.593361
623.251783	17945.864945
623.599007	17683.954318
623.946179	17634.039333
624.293297	17568.234631
624.640363	17302.459959
624.987376	17324.484760
625.334336	17129.659288
625.681243	16977.839898
626.028097	16992.925551
626.374899	16903.286274
626.721647	16774.983868
627.068343	16610.241481
627.414987	16544.146913
627.761577	16505.453536
628.108115	16543.809155
628.454600	16272.519461
628.801032	16373.886982
629.147412	16312.440358
629.493739	16316.551419
629.840014	16125.630320
630.186236	16229.856176
630.532405	15983.613455
630.878521	16189.637851
631.224585	16100.268275
631.570597	15911.852630
631.916556	15934.928511
632.262462	15915.653660
632.608316	15831.726010
632.954117	15772.565549
633.299866	15769.944149
633.645562	15682.432239
633.991206	15450.970180
634.336797	15320.726930
634.682336	15281.632782
635.027823	15155.979501
635.373257	15019.250806
635.718639	14942.458910
636.063968	14890.988729
636.409245	14642.114525
636.754470	14672.737014
637.099642	14520.426113
637.444762	14292.739878
637.789829	14327.281865
638.134845	14160.828006
638.479808	14191.669785
638.824719	14113.420995
639.169577	13987.492972
639.514383	14022.261810
639.859137	13848.490716
640.203839	13942.236013
640.548489	13790.532571
640.893086	13771.454324
641.237632	13645.657371
641.582125	13809.953616
641.926566	13627.267242
642.270955	13639.343326
642.615292	13594.492180
642.959576	13602.736987
643.303809	13626.667344
643.647990	13567.814394
643.992118	13631.363179
644.336195	13399.094536
644.680219	13632.406698
645.024192	13532.586811
645.368112	13769.211010
645.711981	13812.446466
646.055797	14005.182381
646.399562	13984.140605
646.743274	14246.935955
647.086935	14521.794786
647.430544	14483.691224
647.774101	14528.305436
648.117606	14658.170600
648.461059	14637.275017
648.804460	14626.401249
649.147810	14347.222149
649.491108	14259.291823
649.834354	14266.281383
650.177548	13951.143732
650.520690	13764.381585
650.863781	13683.952496
651.206820	13727.112335
651.549807	13560.605544
651.892742	13347.498327
652.235626	13295.937405
652.578458	13293.094194
652.921238	12987.010456
653.263967	13192.901262
653.606644	13018.182431
653.949269	12998.630316
654.291843	12801.105305
654.634365	12956.859315
654.976836	12808.052015
655.319255	12806.489258
655.661622	12774.588836
656.003938	12691.639170
656.346203	12607.083897
656.688416	12690.212523
657.030577	12649.664003
657.372687	12551.394270
657.714746	12545.143239
658.056753	12734.131056
658.398708	12543.086448
658.740612	12550.660782
659.082465	12654.392605
659.424266	12623.399591
659.766016	12650.543684
660.107715	12558.661093
660.449362	12633.771765
660.790958	12590.952204
661.132503	12524.275383
661.473996	12607.744288
661.815438	12614.436419
662.156829	12643.685194
662.498168	12613.700411
662.839456	12617.629990
663.180693	12628.677679
663.521879	12729.193246
663.863013	12700.882126
664.204097	12669.692507
664.545129	12800.596149
664.886110	12777.555555
665.227040	12867.726674
665.567918	12864.689379
665.908746	12887.049417
666.249522	12879.974157
666.590248	12931.318309
666.930922	13049.614025
667.271545	13021.650745
667.612118	13104.791975
667.952639	13005.675328
668.293109	13028.993185
668.633528	12974.362201
668.973896	12955.009212
669.314213	13019.982123
669.654480	12753.085794
669.994695	12844.670957
670.334859	12867.895553
670.674973	12808.725009
671.015035	12843.055267
671.355047	12786.128037
671.695008	12760.874377
672.034918	12765.915531
672.374777	12810.315493
672.714585	12725.361969
673.054342	12761.746497
673.394049	12710.135163
673.733705	12815.961586
674.073310	12711.118188
674.412864	12730.483781
674.752368	12577.361253
675.091820	12624.054941
675.431223	12603.398813
675.770574	12457.596041
676.109875	12382.883620
676.449125	12333.437463
676.788324	12297.776341
677.127473	12126.298972
677.466571	12117.237498
677.805619	12002.856238
678.144616	11940.718975
678.483562	11909.547001
678.822458	11779.765015
679.161303	11759.484453
679.500098	11742.677247
679.838842	11695.512211
680.177535	11732.415978
680.516179	11795.412757
680.854771	11744.605488
681.193314	11955.056017
681.531805	12114.472425
681.870247	12550.943087
682.208638	12971.138383
682.546978	13266.882715
682.885268	13296.499494
683.223508	12999.726767
683.561697	12844.887726
683.899836	12749.524219
684.237925	12546.852190
684.575963	12455.960187
684.913951	12376.924977
685.251889	12336.507526
685.589776	12425.234354
685.927614	12345.069925
686.265401	12324.925475
686.603137	12368.082793
686.940824	12527.945343
687.278460	12651.935042
687.616046	12692.564222
687.953582	12844.723889
688.291068	12785.099642
688.628504	13018.888193
688.965889	13029.008309
689.303224	12989.626815
689.640510	12872.160369
689.977745	12550.993498
690.314930	12327.667862
690.652065	12240.012279
690.989150	11940.633276
691.326185	11717.274872
691.663170	11513.907164
692.000105	11280.809252
692.336990	11160.371045
692.673825	10897.878164
693.010610	10785.825917
693.347345	10576.733979
693.684030	10383.660308
694.020665	10320.870216
694.357251	10126.168251
694.693786	10051.657477
695.030272	9898.756760
695.366707	9787.972363
695.703093	9721.842507
696.039429	9715.760355
696.375716	9618.405592
696.711952	9490.135953
697.048139	9545.515548
697.384276	9499.693981
697.720363	9519.679635
698.056400	9452.599521
698.392388	9398.094566
698.728326	9358.660140
699.064214	9304.959249
699.400053	9338.543416
699.735842	9162.103031
700.071581	9120.999983
700.407270	9040.767499
700.742910	8959.211712
701.078501	8869.774081
701.414042	8738.522600
701.749533	8685.461935
702.084974	8540.947178
702.420366	8661.677771
702.755709	8542.593114
703.091002	8409.857013
703.426246	8435.763503
703.761440	8385.800627
704.096584	8344.879060
704.431679	8279.470089
704.766725	8262.877131
705.101721	8218.439360
705.436668	8266.884849
705.771565	8155.498034
706.106413	8248.734174
706.441212	8274.433977
706.775961	8236.126248
707.110661	8282.976212
707.445311	8416.476048
707.779913	8313.160120
708.114465	8439.108308
708.448967	8481.136408
708.783421	8639.128690
709.117825	8812.032705
709.452180	8840.779885
709.786485	8930.945963
710.120742	9221.981856
710.454949	9226.017300
710.789107	9324.556734
711.123216	9552.953771
711.457275	9720.733453
711.791286	9869.472698
712.125247	9869.898675
712.459159	9860.902736
712.793023	10088.924207
713.126837	9674.193521
713.460602	9824.641716
713.794318	9648.851641
714.127985	9677.694602
714.461602	9345.056586
714.795171	9292.774780
715.128691	9041.329588
715.462162	8795.928739
715.795584	8737.511848
716.128957	8576.179802
716.462281	8406.305520
716.795556	8458.846946
717.128782	8245.780058
717.461960	7995.106162
717.795088	8060.399187
718.128167	7970.706978
718.461198	7810.073131
718.794180	7752.999708
719.127113	7743.305569
719.459997	7573.121256
719.792833	7351.297884
720.125619	7423.537619
720.458357	7274.684949
720.791046	7266.425018
721.123686	7254.210302
721.456278	7094.584686
721.788821	7115.870958
722.121315	7020.376381
722.453761	7089.556135
722.786158	7019.836978
723.118506	7035.020933
723.450805	6995.863771
723.783056	7061.146713
724.115259	6973.024823
724.447412	6979.883313
724.779518	7027.154212
725.111574	7026.113214
725.443582	7104.651871
725.775542	7085.384581
726.107453	7284.921012
726.439315	7188.710590
726.771129	7256.662824
727.102895	7432.483146
727.434612	7537.142541
727.766281	7581.673574
728.097901	7655.778535
728.429473	7658.359606
728.760996	7644.728326
729.092471	7610.987883
729.423897	7549.697535
729.755276	7552.497896
730.086606	7467.758620
730.417887	7581.204747
730.749120	7793.923795
731.080305	7974.704613
731.411442	8088.002025
731.742530	8074.779078
732.073570	8187.393414
732.404562	8277.498998
732.735506	8131.411401
733.066401	8270.945498
733.397249	8184.721603
733.728048	7943.096578
734.058798	7614.476362
734.389501	7379.949282
734.720156	7202.117539
735.050762	6981.239383
735.381320	6893.926599
735.711831	6827.196845
736.042293	6723.381843
736.372707	6740.925059
736.703073	6605.726354
737.033391	6642.332693
737.363661	6655.215361
737.693883	6694.581732
738.024056	6772.361694
738.354182	6810.939124
738.684260	6844.672005
739.014290	6972.583722
739.344272	7078.548776
739.674207	7113.804085
740.004093	7183.785383
740.333931	7196.564708
740.663722	7204.065945
740.993464	7278.869106
741.323159	7261.681292
741.652806	7014.591657
741.982405	7046.066101
742.311956	7085.485404
742.641460	6904.334061
742.970915	6716.490586
743.300323	6706.909873
743.629683	6662.855230
743.958996	6528.427821
744.288260	6441.377177
744.617477	6388.563528
744.946647	6380.679164
745.275768	6220.907354
745.604842	6178.959913
745.933869	6158.228168
746.262847	6121.137879
746.591778	6096.912614
746.920662	6063.046142
747.249498	6062.151337
747.578286	6106.639520
747.907027	6183.348238
748.235720	6240.109109
748.564365	6207.828081
748.892963	6254.133599
749.221514	6391.540330
749.550017	6210.683894
749.878473	6095.755669
750.206881	6158.389485
750.535242	6108.371157
750.863555	6038.972112
751.191821	6045.112238
751.520039	6043.879675
751.848210	5950.005829
752.176334	5983.388350
752.504411	6025.615575
752.832440	5947.046672
753.160421	5878.408842
753.488356	5931.048570
753.816243	5958.721984
754.144082	5809.466022
754.471875	5785.550788
754.799620	5825.025543
755.127318	5836.839487
755.454969	5793.722498
755.782572	5764.698055
756.110129	5807.527698
756.437638	5779.778667
756.765100	5727.343105
757.092515	5729.004165
757.419882	5785.306292
757.747203	5762.177478
758.074477	5820.228885
758.401703	5805.717924
758.728882	5754.824955
759.056014	5828.627447
759.383099	5948.984995
759.710138	5960.685513
760.037129	5941.019972
760.364073	5947.404594
760.690970	6031.670001
761.017820	6008.213512
761.344623	5972.002904
761.671379	6070.653243
761.998088	6202.313058
762.324751	6462.103881
762.651366	7095.519820
762.977935	8458.854508
763.304456	10111.397671
763.630931	10972.600667
763.957359	10517.056800
764.283740	9564.422396
764.610074	8697.434675
764.936362	7696.228754
765.262602	7101.765810
765.588796	6573.331899
765.914943	6242.458287
766.241044	6069.271967
766.567097	5859.254978
766.893104	5599.108754
767.219064	5429.867137
767.544978	5365.534452
767.870845	5283.976145
768.196665	5178.147202
768.522438	5105.476449
768.848165	5068.008073
769.173846	5004.212271
769.499479	4958.857010
769.825066	4905.143515
770.150607	4844.271583
770.476101	4827.986135
770.801548	4817.709743
771.126949	4731.440477
771.452303	4683.725956
771.777611	4646.151716
772.102872	4665.517308
772.428087	4627.564982
772.753256	4582.880194
773.078378	4532.327503
773.403453	4462.837718
773.728482	4453.660297
774.053465	4406.273451
774.378401	4396.586874
774.703291	4390.164444
775.028135	4313.155778
775.352932	4268.763377
775.677683	4258.464300
776.002388	4274.817803
776.327046	4287.128301
776.651658	4208.277093
776.976224	4147.972290
777.300743	4156.895132
777.625216	4177.374820
777.949643	4169.377029
778.274024	4126.512098
778.598359	4087.264195
778.922647	4110.488791
779.246889	4098.054785
779.571086	4092.305349
779.895236	4077.870005
780.219339	4064.926842
780.543397	4059.522725
780.867409	4114.060448
781.191374	4126.900267
781.515294	4059.636151
781.839167	4055.116757
782.162995	4079.112649
782.486776	4064.621852
782.810511	4077.940581
783.134201	4067.354158
783.457844	4017.295500
783.781441	3966.997387
784.104993	3970.624498
784.428498	3988.818022
784.751958	3985.143021
785.075372	3966.858756
785.398739	3925.339813
785.722061	3939.187862
786.045337	3986.950274
786.368568	4013.665869
786.691752	3926.716048
787.014891	3983.870129
787.337983	4114.375520
787.661030	4278.669245
787.984031	4440.767547
788.306987	4607.203761
788.629897	4694.254406
788.952760	4643.348834
789.275579	4577.607147
789.598351	4508.117362
789.921078	4357.081872
790.243759	4158.697345
790.566395	4148.118483
790.888984	4144.521620
791.211529	4030.871327
791.534027	3970.362358
791.856480	3958.976912
792.178888	3894.795462
792.501249	3854.854400
792.823566	3861.291953
793.145836	3887.745408
793.468062	3832.743899
793.790241	3794.027837
794.112375	3823.337106
794.434464	3891.369997
794.756507	3911.869850
795.078505	3890.029051
795.400457	3928.929114
795.722364	4068.339703
796.044226	4174.435827
796.366042	4249.501128
796.687812	4222.876274
797.009538	4227.622521
797.331218	4188.679607
797.652852	4162.999970
797.974442	4141.378461
798.295986	4138.835199
798.617484	4053.516190
798.938938	3968.577789
799.260346	4014.008668
799.581709	4005.620188
799.903026	3930.383487
800.224299	3897.489958
800.545526	3891.226325
800.866708	3848.346270
801.187845	3789.881488
801.508936	3823.591684
801.829983	3814.867967
802.150984	3739.742172
802.471940	3732.467787
802.792851	3740.064806
803.113717	3743.722163
803.434538	3742.502204
803.755314	3681.363090
804.076045	3661.251407
804.396731	3683.626568
804.717372	3711.078171
805.037967	3689.958257
805.358518	3676.833613
805.679024	3710.294272
805.999485	3725.473186
806.319901	3728.213053
806.640272	3742.870208
806.960598	3752.355139
807.280879	3729.473342
807.601115	3746.696444
807.921306	3760.511726
808.241453	3798.348106
808.561554	3768.144033
808.881611	3704.234805
809.201623	3743.233171
809.521590	3755.533587
809.841513	3728.505440
810.161390	3756.292280
810.481223	3731.293198
810.801011	3682.600693
811.120755	3678.240095
811.440453	3709.144889
811.760107	3708.718911
812.079716	3664.881037
812.399281	3636.206954
812.718801	3660.399452
813.038276	3632.221922
813.357707	3633.996408
813.677093	3645.570898
813.996434	3593.301694
814.315731	3605.861729
814.634983	3612.016978
814.954191	3622.961323
815.273354	3648.779592
815.592473	3644.398829
815.911547	3656.845438
816.230577	3700.675750
816.549562	3752.461003
816.868502	3793.243938
817.187399	3813.640446
817.506250	3815.172957
817.825058	3789.485758
818.143821	3884.692989
818.462539	3987.575377
818.781213	4029.575751
819.099843	4092.317952
819.418429	4358.059856
819.736970	4599.760498
820.055466	4853.171740
820.373919	5224.482967
820.692327	5640.242049
821.010691	6128.497963
821.329011	7591.443330
821.647286	10469.024686
821.965517	15182.616958
822.283704	19201.414722
822.601847	21231.094166
822.919945	19306.840372
823.237999	16649.824621
823.556010	14135.259273
823.873976	11984.476191
824.191897	9863.221667
824.509775	8533.347638
824.827609	7406.667398
825.145398	6878.510750
825.463144	6760.767040
825.780845	6865.194542
826.098502	7092.071671
826.416116	8031.657048
826.733685	9393.560048
827.051210	10487.533282
827.368692	10445.633732
827.686129	9127.198082
828.003522	7615.807227
828.320872	6592.021977
828.638177	5877.730806
828.955439	5310.245597
829.272656	4806.470491
829.589830	4535.694994
829.906960	4359.181513
830.224046	4169.306453
830.541088	4043.023029
830.858086	3994.975791
831.175041	3916.709357
831.491952	3905.573448
831.808819	3913.974531
832.125642	3996.853621
832.442421	4150.462620
832.759157	4440.507927
833.075849	5021.853789
833.392497	5912.008132
833.709101	6696.411670
834.025662	7013.538056
834.342179	6599.082113
834.658653	5919.436272
834.975083	5260.426394
835.291469	4679.982899
835.607811	4278.507928
835.924110	4132.929487
836.240366	3933.345165
836.556578	3727.640882
836.872746	3619.835807
837.188871	3574.316709
837.504952	3510.694827
837.820990	3427.397321
838.136984	3383.461145
838.452935	3405.876635
838.768842	3400.742220
839.084706	3428.377825
839.400526	3595.789503
839.716303	3954.608752
840.032037	4503.804655
840.347727	4738.175459
840.663373	4430.939817
840.978977	4042.753327
841.294537	3734.270000
841.610054	3507.960001
841.925527	3404.013929
842.240957	3331.746468
842.556344	3276.848302
842.871687	3218.043243
843.186987	3165.650531
843.502244	3130.869090
843.817458	3096.543873
844.132629	3067.882393
844.447756	3073.208372
844.762840	3053.182389
845.077881	3022.184334
845.392879	3008.059021
845.707833	3004.257991
846.022745	3003.655573
846.337613	3004.459637
846.652438	2991.214005
846.967221	2987.349961
847.281960	2972.970069
847.596656	2971.707260
847.911309	2974.978969
848.225919	2964.763071
848.540485	2960.931794
848.855009	2957.513892
849.169490	2949.773200
849.483928	2939.436314
849.798323	2939.927826
850.112675	2936.643515
850.426984	2949.919393
850.741251	2946.123404
851.055474	2932.252670
851.369654	2929.283430
851.683792	2932.103956
851.997887	2943.882612
852.311938	2945.478137
852.625947	2931.158739
852.939914	2935.461364
853.253837	2940.545368
853.567718	2924.123809
853.881555	2926.271341
854.195350	2939.222065
854.509103	2932.295519
854.822812	2928.814603
855.136479	2921.933428
855.450103	2930.757968
855.763685	2918.901174
856.077224	2915.548806
856.390720	2931.002463
856.704173	2940.784823
857.017584	2931.882145
857.330953	2930.268976
857.644278	2937.888680
857.957561	2946.776234
858.270802	2950.564661
858.584000	2951.182202
858.897155	2936.724173
859.210268	2935.783998
859.523339	2933.374326
859.836367	2936.056220
860.149352	2925.792431
860.462295	2924.224632
860.775195	2929.011208
861.088054	2930.168153
861.400869	2913.539907
861.713642	2913.693662
862.026373	2927.067843
862.339062	2932.192176
862.651708	2934.538833
862.964312	2938.904472
863.276873	2932.008174
863.589392	2940.747014
863.901869	2953.944755
864.214303	2976.602221
864.526696	2990.329283
864.839045	2986.044302
865.151353	2986.414827
865.463619	2983.465752
865.775842	2989.510095
866.088023	3008.560615
866.400162	3012.646471
866.712258	2982.964157
867.024313	2973.292703
867.336325	2981.529948
867.648296	3005.835872
867.960224	2995.866990
868.272110	2982.424753
868.583954	2985.343581
868.895755	2999.058040
869.207515	2985.779641
869.519233	2991.471104
869.830909	3006.413084
870.142542	3014.289887
870.454134	3013.377438
870.765684	3014.184023
871.077191	3015.613190
871.388657	3022.587626
871.700081	3038.058927
872.011463	3046.946481
872.322803	3048.594939
872.634101	3050.823129
872.945357	3064.522464
873.256571	3094.232504
873.567744	3083.262954
873.878874	3078.546954
874.189963	3099.455140
874.501010	3102.527723
874.812015	3092.137905
875.122979	3090.728902
875.433900	3089.466093
875.744780	3096.377515
876.055618	3104.002261
876.366415	3101.718618
876.677169	3110.906121
876.987882	3106.699278
877.298554	3104.329936
877.609183	3128.991260
877.919771	3151.787358
878.230317	3177.464475
878.540822	3229.625294
878.851285	3271.303033
879.161707	3315.652584
879.472087	3427.641817
879.782425	3674.565094
880.092722	4128.800782
880.402977	4671.052495
880.713191	5332.164534
881.023363	6547.067488
881.333494	7857.704473
881.643583	8378.140593
881.953631	8056.207468
882.263637	7373.569702
882.573602	6762.596979
882.883526	6175.337844
883.193408	5604.379280
883.503248	5143.312829
883.813048	4830.887319
884.122806	4508.611395
884.432522	4183.731715
884.742197	3942.893110
885.051831	3751.856065
885.361424	3623.498206
885.670975	3545.907286
885.980485	3452.262812
886.289954	3374.024105
886.599382	3330.715552
886.908768	3294.353709
887.218113	3250.167996
887.527417	3189.994263
887.836680	3140.341418
888.145901	3136.018629
888.455082	3122.566310
888.764221	3067.320305
889.073319	3043.463044
889.382376	3038.016077
889.691392	3043.344577
890.000366	3042.273332
890.309300	3030.550128
890.618193	3042.069165
890.927044	3060.940724
891.235855	3059.599778
891.544625	3046.364228
891.853353	3055.466031
892.162041	3073.636870
892.470687	3118.296452
892.779293	3168.861746
893.087858	3219.984087
893.396381	3291.802885
893.704864	3423.583688
894.013306	3675.364117
894.321707	3985.649657
894.630068	4186.043084
894.938387	4177.909182
895.246665	4134.464518
895.554903	4002.242615
895.863100	3795.696459
896.171256	3624.650109
896.479371	3483.291114
896.787446	3356.803523
897.095480	3253.545569
897.403473	3187.677853
897.711425	3152.299035
898.019336	3141.649597
898.327207	3112.388220
898.635038	3072.996644
898.942827	3059.166238
899.250576	3047.911862
899.558284	3017.876668
899.865952	2995.451095
900.173579	2974.164823
900.481165	2967.407156
900.788711	2953.332254
901.096216	2930.248811
901.403681	2918.938982
901.711105	2927.249324
902.018489	2922.004004
902.325832	2922.074580
902.633135	2933.918771
902.940397	2972.206334
903.247619	3059.360323
903.554800	3264.802465
903.861941	3634.308960
904.169041	4077.149120
904.476101	4370.997977
904.783121	4299.406031
905.090100	4044.522772
905.397039	3757.237497
905.703938	3507.337418
906.010796	3320.391269
906.317614	3205.982282
906.624391	3108.677931
906.931129	3038.454658
907.237826	2974.328660
907.544483	2924.751433
907.851099	2897.698081
908.157675	2873.162785
908.464211	2855.057481
908.770707	2840.153309
909.077163	2823.202430
909.383578	2811.401088
909.689954	2797.444654
909.996289	2800.033287
910.302584	2799.612350
910.608839	2799.672844
910.915054	2794.064560
911.221229	2784.889660
911.527363	2789.832512
911.833458	2798.762916
912.139513	2802.206024
912.445527	2806.614513
912.751502	2814.748415
913.057436	2824.099755
913.363331	2837.549553
913.669186	2861.605940
913.975000	2901.630181
914.280775	2964.112762
914.586510	3036.092877
914.892205	3115.917028
915.197859	3251.206473
915.503475	3460.772280
915.809050	3679.263449
916.114585	3826.734843
916.420081	3838.818489
916.725536	3776.030918
917.030952	3648.411588
917.336328	3517.520549
917.641665	3383.667832
917.946961	3280.775361
918.252218	3208.104608
918.557435	3125.838018
918.862612	3061.154973
919.167750	3013.727798
919.472848	2973.680872
919.777906	2946.786316
920.082925	2921.643561
920.387904	2889.962430
920.692843	2871.267311
920.997743	2858.566124
921.302603	2847.296624
921.607423	2834.824810
921.912204	2819.814774
922.216946	2807.718526
922.521647	2799.183852
922.826310	2795.279478
923.130932	2787.047274
923.435516	2777.879936
923.740059	2770.197217
924.044564	2757.838829
924.349028	2754.814137
924.653454	2750.876995
924.957840	2742.100347
925.262186	2738.148082
925.566493	2734.178173
925.870761	2729.764643
926.174989	2725.222563
926.479178	2720.635113
926.783328	2716.196377
927.087438	2712.912066
927.391509	2713.292673
927.695541	2708.180943
927.999533	2706.280428
928.303486	2704.705067
928.607400	2702.607947
928.911275	2700.465457
929.215110	2699.149716
929.518906	2699.684078
929.822663	2698.854808
930.126381	2700.546115
930.430060	2699.414376
930.733699	2700.445292
931.037299	2704.309337
931.340861	2702.635674
931.644383	2702.839840
931.947866	2701.292206
932.251309	2701.859336
932.554714	2701.140972
932.858080	2695.847760
933.161407	2694.811803
933.464694	2695.441947
933.767943	2691.653520
934.071153	2692.331555
934.374323	2692.621422
934.677455	2692.618901
934.980548	2690.047912
935.283602	2692.024045
935.586617	2688.747295
935.889593	2690.020186
936.192530	2690.579754
936.495428	2692.114786
936.798287	2691.537573
937.101108	2694.705939
937.403890	2700.145344
937.706632	2705.060469
938.009336	2711.268650
938.312002	2721.194682
938.614628	2730.004098
938.917216	2734.231105
939.219765	2736.287896
939.522275	2735.864439
939.824747	2733.792525
940.127179	2730.538460
940.429573	2729.189952
940.731929	2724.824312
941.034246	2720.572099
941.336524	2720.874568
941.638763	2717.776779
941.940964	2717.542366
942.243126	2712.518856
942.545250	2711.472816
942.847335	2709.204297
943.149381	2704.276569
943.451389	2699.764737
943.753359	2698.401104
944.055290	2698.696012
944.357182	2698.779191
944.659036	2695.038655
944.960851	2695.391536
945.262628	2692.697039
945.564367	2692.944055
945.866067	2693.428006
946.167729	2694.746268
946.469352	2693.261648
946.770937	2694.957996
947.072484	2691.461956
947.373992	2689.823581
947.675462	2690.811647
947.976893	2688.979188
948.278286	2684.258147
948.579641	2685.563806
948.880958	2684.467355
949.182236	2686.685463
949.483476	2683.527180
949.784678	2683.239834
950.085841	2683.943075
950.386967	2686.022551
950.688054	2684.832839
950.989103	2688.091945
951.290114	2686.531708
951.591087	2688.999352
951.892021	2693.188551
952.192917	2693.183510
952.493776	2695.633511
952.794596	2696.853470
953.095378	2696.876155
953.396122	2697.695343
953.696828	2693.561597
953.997496	2692.923891
954.298126	2688.797706
954.598718	2690.068077
954.899272	2684.152283
955.199788	2681.273784
955.500266	2681.838393
955.800706	2680.177333
956.101108	2675.789009
956.401472	2675.942764
956.701798	2674.629543
957.002087	2672.260201
957.302337	2669.729542
957.602550	2666.593944
957.902724	2665.389108
958.202861	2666.430107
958.502960	2665.701660
958.803022	2666.556136
959.103045	2662.303922
959.403031	2662.404745
959.702979	2660.421051
960.002889	2660.065650
960.302762	2660.610095
960.602596	2660.267296
960.902393	2657.892913
961.202153	2660.872235
961.501875	2659.143119
961.801559	2660.189158
962.101205	2657.058602
962.400814	2657.582882
962.700385	2653.986018
962.999918	2654.603560
963.299414	2656.514157
963.598873	2653.703714
963.898293	2654.235556
964.197677	2657.378715
964.497022	2657.640855
964.796331	2658.152532
965.095601	2655.452994
965.394835	2654.714465
965.694030	2654.795124
965.993189	2659.566576
966.292309	2657.393838
966.591393	2657.076246
966.890439	2654.192706
967.189447	2656.957779
967.488419	2655.205978
967.787353	2653.633138
968.086249	2656.698159
968.385108	2656.675474
968.683930	2656.675474
968.982714	2655.218581
969.281462	2656.125988
969.580172	2657.272851
969.878844	2655.190854
970.177480	2656.597336
970.476078	2655.442912
970.774639	2657.819816
971.073162	2658.810403
971.371649	2655.836122
971.670098	2660.988181
971.968510	2658.107162
972.266885	2656.259579
972.565223	2657.655978
972.863524	2656.529281
973.161788	2657.109013
973.460014	2654.207829
973.758204	2656.448622
974.056356	2657.338386
974.354471	2656.773777
974.652550	2656.937614
974.950591	2656.791421
975.248595	2657.477017
975.546563	2657.164466
975.844493	2654.374187
976.142386	2655.354692
976.440243	2655.001811
976.738062	2656.574651
977.035845	2655.947027
977.333590	2655.994918
977.631299	2654.167500
977.928971	2653.895278
978.226606	2650.817653
978.524204	2652.698004
978.821765	2648.234062
979.119290	2652.266985
979.416777	2655.326965
979.714228	2654.472490
980.011642	2653.164310
980.309020	2654.641368
980.606360	2653.897798
980.903664	2654.016265
981.200931	2652.675318
981.498162	2652.990391
981.795356	2656.781338
982.092513	2657.207316
982.389633	2658.772594
982.686717	2663.907009
982.983764	2667.566887
983.280775	2668.532268
983.577749	2673.961591
983.874686	2671.267094
984.171587	2669.338852
984.468451	2666.518327
984.765279	2664.491783
985.062070	2662.472801
985.358824	2661.194868
985.655543	2658.626401
985.952224	2656.882161
986.248869	2656.131029
986.545478	2654.832932
986.842050	2653.668426
987.138586	2653.880154
987.435086	2653.739002
987.731549	2651.394865
988.027975	2654.837973
988.324366	2651.946872
988.620719	2650.981491
988.917037	2649.655667
989.213318	2649.587612
989.509563	2648.828918
989.805772	2651.289001
990.101944	2650.212715
990.398080	2651.087355
990.694180	2649.741367
990.990244	2650.797489
991.286271	2650.069042
991.582262	2651.515853
991.878217	2648.350008
992.174136	2650.182468
992.470019	2651.682211
992.765865	2648.791109
993.061676	2650.121974
993.357450	2648.503764
993.653188	2648.100471
993.948890	2651.173055
994.244556	2651.596512
994.540186	2651.888898
994.835780	2653.307983
995.131337	2650.820174
995.426859	2652.362767
995.722345	2652.821512
996.017795	2653.517191
996.313208	2655.452994
996.608586	2656.415855
996.903928	2653.744043
997.199234	2657.343427
997.494504	2655.332007
997.789738	2653.804537
998.084936	2654.933755
998.380099	2653.655823
998.675225	2653.186996
998.970316	2652.216573
999.265371	2650.888229
999.560390	2652.766059
999.855373	2652.773621
1000.150320	2649.534680
1000.445232	2651.689773
1000.740108	2651.220946
1001.034948	2650.253044
1001.329752	2650.923517
1001.624521	2649.186840
1001.919254	2649.968219
1002.213951	2648.876809
1002.508613	2650.618528
1002.803239	2650.951244
1003.097829	2648.339926
1003.392384	2647.931593
1003.686903	2647.614000
1003.981386	2649.978301
1004.275834	2648.541572
1004.570246	2648.798671
1004.864623	2652.390493
1005.158964	2648.871768
1005.453270	2648.521408
1005.747540	2649.554844
1006.041775	2649.164155
1006.335974	2646.663742
1006.630138	2648.130718
1006.924266	2650.278250
1007.218359	2648.949906
1007.512416	2645.191726
1007.806438	2644.438073
1008.100425	2646.401602
1008.394376	2644.002013
1008.688292	2648.284473
1008.982172	2645.078300
1009.276017	2648.919659
1009.569827	2647.490492
1009.863602	2647.513177
1010.157341	2649.322951
1010.451045	2647.588794
1010.744714	2647.785399
1011.038347	2646.888074
1011.331945	2649.053249
1011.625508	2648.518887
1011.919036	2648.617190
1012.212528	2647.984525
1012.505986	2646.736839
1012.799408	2646.825059
1013.092795	2647.908908
1013.386147	2647.467807
1013.679464	2648.619710
1013.972745	2648.758342
1014.265992	2649.975781
1014.559204	2648.423105
1014.852380	2646.076448
1015.145521	2648.738177
1015.438628	2647.550986
1015.731699	2647.001500
1016.024736	2645.569812
1016.317737	2646.595687
1016.610703	2648.148362
1016.903635	2650.253044
1017.196531	2645.053094
1017.489393	2646.741880
1017.782219	2646.764566
1018.075011	2646.073927
1018.367768	2647.563588
1018.660490	2646.812457
1018.953177	2646.812457
1019.245829	2646.812457
