Dividing Wavelength (nm)	Counts (n)	Blue Motor Position (mm): 0.000000	Red Motor Position (mm): 29.200000	
326.493990	2128.380195
326.888308	2128.380195
327.282561	2128.380195
327.676750	2096.666296
328.070874	2094.259145
328.464933	2095.539598
328.858929	2102.239292
329.252859	2114.784203
329.646726	2127.019083
330.040528	2137.338325
330.434265	2154.074956
330.827938	2173.881650
331.221547	2190.116686
331.615091	2209.489840
332.008571	2227.562376
332.401986	2247.553072
332.795338	2265.171905
333.188625	2289.934052
333.581847	2304.387040
333.975006	2323.697180
334.368100	2340.874912
334.761129	2360.774867
335.154095	2375.220293
335.546996	2393.716287
335.939833	2412.867630
336.332606	2425.505803
336.725315	2440.231013
337.117960	2449.443722
337.510540	2458.210288
337.903056	2468.826958
338.295508	2476.585294
338.687896	2483.642909
339.080220	2494.917450
339.472480	2499.872904
339.864676	2502.653101
340.256807	2507.890859
340.648875	2508.783144
341.040879	2511.555778
341.432818	2515.840759
341.824694	2517.025430
342.216506	2516.816222
342.608253	2515.145080
342.999937	2514.028464
343.391557	2516.334792
343.783113	2515.573578
344.174605	2516.075173
344.566033	2511.787671
344.957397	2512.309431
345.348697	2508.982269
345.739934	2512.216169
346.131106	2506.680983
346.522215	2503.565549
346.913260	2505.604696
347.304241	2503.376506
347.695159	2499.129334
348.086012	2499.260404
348.476802	2494.872080
348.867528	2498.433655
349.258191	2494.793942
349.648789	2491.081132
350.039324	2490.360247
350.429796	2491.287819
350.820203	2489.571306
351.210548	2488.847901
351.600828	2487.932931
351.991045	2486.995277
352.381198	2488.353868
352.771288	2487.839670
353.161314	2485.006542
353.551276	2486.647437
353.941175	2483.176603
354.331010	2486.443270
354.720782	2484.504947
355.110490	2486.657519
355.500135	2486.042499
355.889717	2486.854124
356.279235	2485.772797
356.668689	2487.973261
357.058080	2485.883702
357.447408	2484.462097
357.836672	2483.348002
358.225873	2486.236583
358.615010	2484.515029
359.004084	2489.354537
359.393095	2487.121306
359.782043	2491.232367
360.170927	2490.755977
360.559748	2489.478045
360.948505	2492.689260
361.337199	2494.168839
361.725830	2493.256390
362.114398	2491.108858
362.502903	2492.109527
362.891344	2495.804693
363.279722	2491.675988
363.668037	2497.974910
364.056289	2497.899292
364.444478	2498.874756
364.832603	2498.680671
365.220665	2497.770743
365.608665	2500.394664
365.996601	2500.608913
366.384474	2502.884994
366.772284	2499.514982
367.160031	2502.451454
367.547715	2506.640653
367.935336	2508.576456
368.322893	2510.915552
368.710388	2515.838238
369.097820	2524.133457
369.485189	2521.474248
369.872495	2533.446989
370.259738	2536.035621
370.646918	2544.787064
371.034035	2550.660009
371.421090	2561.251473
371.808081	2575.437280
372.195010	2582.540266
372.581875	2594.003849
372.968678	2608.590428
373.355418	2617.069649
373.742096	2638.497073
374.128710	2651.099958
374.515262	2665.028666
374.901751	2681.609021
375.288177	2694.252235
375.674540	2719.936914
376.060841	2736.877711
376.447079	2754.781369
376.833254	2774.943464
377.219367	2787.886626
377.605417	2825.385249
377.991404	2833.987978
378.377329	2858.954293
378.763191	2873.261087
379.148991	2911.581418
379.534727	2937.714760
379.920402	2966.098977
380.306013	2977.507108
380.691563	3027.086856
381.077049	3045.482026
381.462474	3066.198648
381.847835	3105.076026
382.233134	3127.763739
382.618371	3128.028400
383.003545	3193.886034
383.388657	3199.569935
383.773706	3234.313567
384.158693	3251.186309
384.543618	3278.658077
384.928480	3316.585198
385.313280	3362.563041
385.698017	3356.574151
386.082692	3412.667069
386.467305	3416.432811
386.851856	3448.222328
387.236344	3469.649752
387.620770	3500.940194
388.005133	3527.822147
388.389435	3558.031261
388.773674	3565.197261
389.157851	3611.923716
389.541965	3625.688587
389.926018	3590.397989
390.310008	3662.027744
390.693936	3677.541895
391.077802	3721.838514
391.461606	3710.934498
391.845348	3771.569497
392.229027	3770.805762
392.612645	3782.954943
392.996200	3864.072149
393.379694	3901.389291
393.763125	3964.365905
394.146494	3933.839198
394.529801	3998.166842
394.913047	4042.309705
395.296230	4009.214530
395.679351	4063.313673
396.062410	4088.136314
396.445408	4071.745003
396.828343	4106.266824
397.211217	4128.944455
397.594028	4047.068555
397.976778	4111.595324
398.359466	4140.203872
398.742092	4169.130013
399.124656	4093.245524
399.507158	4171.698481
399.889598	4194.595401
400.271977	4258.741563
400.654294	4225.467428
401.036549	4233.840784
401.418742	4206.457236
401.800874	4308.792659
402.182944	4333.723686
402.564952	4394.446904
402.946898	4378.597517
403.328783	4376.838154
403.710606	4292.602994
404.092367	4487.977952
404.474067	4449.566881
404.855705	4457.055515
405.237282	4383.825193
405.618797	4494.823839
406.000250	4531.261299
406.381642	4607.024800
406.762972	4569.637083
407.144240	4583.699382
407.525447	4579.918516
407.906593	4641.942352
408.287677	4682.947098
408.668700	4613.790029
409.049661	4662.018748
409.430560	4706.244790
409.811399	4630.125888
410.192176	4791.248727
410.572891	4732.925097
410.953545	4832.051826
411.334138	4716.185946
411.714669	4781.874701
412.095139	4678.520965
412.475547	4817.505576
412.855894	4800.882372
413.236180	4812.421573
413.616405	4761.780662
413.996568	4845.645297
414.376670	4793.169406
414.756711	4747.620061
415.136691	4780.866470
415.516609	4855.160475
415.896466	4890.398140
416.276262	4932.784162
416.655997	4911.507972
417.035670	5088.959108
417.415283	5182.822872
417.794834	5123.357421
418.174324	5079.126338
418.553753	4988.614941
418.933121	5171.535729
419.312428	5236.642231
419.691674	5177.612840
420.070859	5301.514319
420.449983	5216.906113
420.829045	5326.989790
421.208047	5235.966716
421.586988	5307.893899
421.965867	5321.502494
422.344686	5449.126865
422.723444	5307.871214
423.102141	5127.554182
423.480777	5421.624850
423.859352	5193.527762
424.237866	5450.926557
424.616319	5443.626966
424.994712	5552.606630
425.373044	5431.308907
425.751314	5571.581533
426.129524	5377.413931
426.507673	5569.176903
426.885762	5651.609851
427.263789	5588.023257
427.641756	5468.144618
428.019662	5592.388896
428.397508	5597.437611
428.775292	5540.318818
429.153016	5639.677439
429.530679	5568.012396
429.908282	5653.487680
430.285824	5527.063104
430.663305	5798.093178
431.040726	5533.223394
431.418086	5533.281367
431.795385	5640.453777
432.172624	5652.822248
432.549802	5646.997195
432.926920	5659.307692
433.303977	5664.187529
433.680974	5703.841246
434.057910	5721.351693
434.434786	5734.516667
434.811601	5697.953178
435.188355	5930.393220
435.565050	5803.930835
435.941683	5792.237878
436.318257	6000.659343
436.694770	5977.832998
437.071222	6016.511251
437.447614	5948.115396
437.823946	5863.008117
438.200218	6017.343042
438.576429	5886.177260
438.952580	5979.783925
439.328670	6025.935688
439.704700	5933.319610
440.080670	5918.412918
440.456580	6190.100863
440.832429	6075.031486
441.208218	5918.828813
441.583947	6073.211629
441.959616	6079.646662
442.335224	5999.741853
442.710773	6141.037833
443.086261	6167.478685
443.461689	5960.922448
443.837057	6111.927691
444.212365	6262.912769
444.587612	6158.573487
444.962800	6315.786911
445.337927	6290.359331
445.712995	5901.714096
446.088002	6478.621221
446.462949	6308.116795
446.837837	6237.124746
447.212664	6413.207209
447.587431	6557.122069
447.962139	7099.136848
448.336786	8022.940893
448.711374	7760.957169
449.085901	6840.729823
449.460369	6760.023470
449.834776	6690.296751
450.209124	7083.847029
450.583412	7229.334729
450.957640	7381.663274
451.331808	7148.426730
451.705917	6696.162133
452.079965	6619.259331
452.453954	6837.190933
452.827883	6704.873247
453.201752	6800.234234
453.575562	6600.949861
453.949311	6805.590460
454.323001	6693.986875
454.696632	6762.160919
455.070202	6897.062196
455.443713	7052.100362
455.817164	7150.435630
456.190556	7229.685089
456.563888	7301.014895
456.937160	7341.636513
457.310373	7000.753690
457.683526	7022.954931
458.056619	6913.695483
458.429653	6893.170426
458.802628	6826.317164
459.175542	6931.659635
459.548398	7279.136287
459.921194	7431.507683
460.293930	7436.387520
460.666607	7943.804860
461.039224	8245.381807
461.411782	8362.686936
461.784280	8373.525417
462.156719	8261.397553
462.529099	8138.761403
462.901419	7726.747899
463.273680	7607.983356
463.645882	7613.634489
464.018024	7475.668191
464.390106	7624.722507
464.762130	7997.067171
465.134094	8426.631452
465.505999	9382.986228
465.877845	10525.984683
466.249631	11143.095011
466.621358	10756.824159
466.993026	10150.723712
467.364634	9892.218384
467.736184	9527.790852
468.107674	9187.412144
468.479105	9193.353144
468.850477	8957.729613
469.221790	8721.538952
469.593043	8386.461018
469.964238	8238.992144
470.335373	8224.118220
470.706449	8259.434023
471.077467	8209.072896
471.448425	9359.073515
471.819324	10300.342637
472.190164	10302.041506
472.560945	9148.098706
472.931667	8393.574086
473.302330	8246.662260
473.672934	7898.989003
474.043479	8184.230090
474.413965	8086.537570
474.784393	7938.272194
475.154761	8044.872433
475.525070	8078.489368
475.895321	7895.687047
476.265513	8000.701843
476.635645	8100.569622
477.005719	8044.338071
477.375734	8093.819517
477.745691	8243.083041
478.115588	8294.739744
478.485427	8436.728883
478.855207	8794.877658
479.224928	9343.062810
479.594591	9767.139795
479.964194	9561.014576
480.333739	9464.284916
480.703226	9311.674066
481.072653	9302.504207
481.442022	9380.316937
481.811333	9441.841699
482.180584	9223.758863
482.549777	8929.473946
482.918912	8732.818534
483.287988	8661.760950
483.657005	8588.732275
484.025964	8297.257801
484.394864	8296.680588
484.763706	8199.255249
485.132489	7967.737738
485.501213	7856.897889
485.869879	7830.434352
486.238487	7625.604709
486.607036	7629.378013
486.975527	7399.703043
487.343959	7433.544309
487.712333	7368.629371
488.080648	7253.703666
488.448905	7184.407966
488.817104	7069.187353
489.185244	7128.887218
489.553326	7114.774507
489.921350	7308.276677
490.289315	7731.539516
490.657222	7821.997981
491.025070	7654.931622
491.392861	7499.316243
491.760593	7230.516879
492.128267	6971.628423
492.495883	6732.304686
492.863440	6493.820300
493.230939	6252.613692
493.598380	6142.144367
493.965763	5996.094578
494.333088	5891.510800
494.700354	5766.654023
495.067563	5725.525769
495.434713	5568.919804
495.801805	5545.687647
496.168839	5447.503614
496.535815	5344.059137
496.902733	5277.309219
497.269593	5171.828116
497.636395	5144.033714
498.003139	5057.802257
498.369825	4956.575887
498.736453	4927.954737
499.103023	4845.854505
499.469535	4780.100215
499.835989	4713.809042
500.202385	4636.908760
500.568723	4535.727762
500.935003	4539.279254
501.301226	4419.292231
501.667390	4429.931586
502.033497	4390.792068
502.399546	4300.431906
502.765537	4224.733940
503.131470	4175.870035
503.497345	4153.202487
503.863163	4038.032286
504.228923	4037.044220
504.594625	3996.162983
504.960269	3902.914240
505.325856	3884.274573
505.691385	3807.888490
506.056856	3786.516518
506.422270	3741.075557
506.787625	3687.755273
507.152924	3652.288235
507.518164	3612.253912
507.883347	3559.243659
508.248472	3513.936288
508.613540	3501.693846
508.978550	3448.829787
509.343503	3411.444590
509.708398	3388.469531
510.073236	3364.612270
510.438016	3330.085408
510.802738	3292.632155
511.167403	3268.364041
511.532010	3226.804768
511.896561	3220.604149
512.261053	3194.743030
512.625488	3154.388593
512.989866	3124.910446
513.354186	3099.283741
513.718449	3066.672516
514.082655	3057.558110
514.446803	3029.304963
514.810894	3017.743077
515.174927	2987.223932
515.538904	2972.259267
515.902822	2956.578758
516.266684	2933.006322
516.630488	2912.453538
516.994235	2900.637073
517.357925	2884.381873
517.721558	2875.534648
518.085133	2858.772811
518.448651	2844.869309
518.812112	2828.450271
519.175516	2815.844866
519.538863	2806.780871
519.902152	2795.299643
520.265385	2789.956020
520.628560	2777.534617
520.991678	2765.251846
521.354739	2760.661875
521.717743	2748.406830
522.080690	2741.316447
522.443580	2736.008112
522.806413	2728.706001
523.169189	2722.041595
523.531908	2716.708055
523.894569	2705.683051
524.257174	2700.294058
524.619722	2699.469829
524.982213	2695.036134
525.344647	2690.511699
525.707025	2685.223528
526.069345	2682.506346
526.431608	2677.437466
526.793815	2677.336643
527.155964	2669.898421
527.518057	2671.219203
527.880093	2666.725014
528.242072	2659.690084
528.603995	2659.765701
528.965860	2655.858807
529.327669	2653.305463
529.689421	2653.002993
530.051117	2650.356388
530.412755	2648.448311
530.774337	2645.990748
531.135862	2644.611993
531.497331	2641.541930
531.858743	2635.913482
532.220098	2637.304840
532.581396	2633.793677
532.942638	2631.578090
533.303824	2635.321146
533.664953	2634.955663
534.026025	2631.802421
534.387040	2632.356948
534.747999	2629.276803
535.108902	2631.028604
535.469748	2626.771349
535.830537	2626.451236
536.191270	2622.927470
536.551947	2625.775722
536.912567	2625.243880
537.273131	2623.358488
537.633638	2622.264558
537.994089	2623.635752
538.354483	2622.637603
538.714821	2621.410082
539.075103	2619.960751
539.435328	2620.694238
539.795497	2619.958230
540.155609	2617.909001
540.515665	2618.864300
540.875665	2617.301542
541.235609	2614.057559
541.595496	2617.813219
541.955328	2619.910339
542.315102	2614.090327
542.674821	2616.447066
543.034483	2613.150152
543.394090	2613.021602
543.753640	2613.624020
544.113134	2613.676952
544.472571	2616.396655
544.831953	2612.525049
545.191278	2614.062601
545.550548	2613.256016
545.909761	2615.345574
546.268918	2609.855758
546.628019	2616.053856
546.987064	2611.035388
547.346053	2612.187291
547.704986	2611.655450
548.063863	2611.458845
548.422684	2611.171499
548.781449	2611.413474
549.140158	2609.124790
549.498811	2610.352311
549.857408	2608.078751
550.215949	2607.620006
550.574434	2606.049687
550.932864	2608.010695
551.291237	2605.888370
551.649555	2610.127980
552.007817	2609.923813
552.366022	2611.778958
552.724173	2607.793926
553.082267	2610.024636
553.440305	2610.264091
553.798288	2606.339553
554.156215	2611.027826
554.514086	2611.403392
554.871902	2607.541868
555.229661	2611.904987
555.587365	2607.110849
555.945014	2607.370469
556.302606	2610.024636
556.660143	2608.398864
557.017625	2609.094543
557.375050	2607.751076
557.732421	2607.937599
558.089735	2609.989348
558.446994	2607.493977
558.804197	2609.752414
559.161345	2607.877105
559.518437	2608.736622
559.875474	2605.477516
560.232455	2608.860130
560.589381	2607.536827
560.946251	2608.439193
561.303065	2608.537496
561.659825	2606.707557
562.016528	2607.738473
562.373177	2608.136724
562.729770	2607.236878
563.086307	2606.402567
563.442789	2607.856940
563.799216	2605.898452
564.155587	2606.584049
564.511904	2606.218565
564.868164	2605.258225
565.224370	2607.612444
565.580520	2604.877618
565.936615	2606.228647
566.292654	2606.579008
566.648638	2606.074892
567.004567	2605.278390
567.360441	2604.192021
567.716260	2603.902155
568.072023	2604.890221
568.427732	2601.497525
568.783385	2600.577514
569.138982	2599.954932
569.494525	2603.163626
569.850013	2600.897627
570.205445	2604.323091
570.560823	2603.912237
570.916145	2604.340735
571.271412	2602.513317
571.626625	2604.318050
571.981782	2604.406270
572.336884	2603.413163
572.691931	2607.657815
573.046923	2605.742176
573.401860	2602.591455
573.756743	2600.421238
574.111570	2601.260590
574.466342	2603.259408
574.821059	2601.021136
575.175722	2601.147164
575.530330	2601.643718
575.884882	2604.300406
576.239380	2601.268152
576.593823	2601.157247
576.948211	2599.223964
577.302544	2599.045003
577.656823	2600.648090
578.011047	2601.989037
578.365216	2601.157247
578.719330	2599.193717
579.073389	2599.768409
579.427394	2598.188007
579.781344	2598.291351
580.135239	2600.733790
580.489080	2599.770929
580.842866	2599.889397
581.196597	2600.161619
581.550273	2599.206320
581.903895	2597.509972
582.257463	2600.567432
582.610975	2600.005343
582.964434	2598.999633
583.317837	2598.611464
583.671186	2598.379571
584.024481	2599.299582
584.377721	2597.189859
584.730906	2594.626432
585.084037	2599.108018
585.437113	2596.859663
585.790135	2598.777822
586.143103	2596.395877
586.496016	2596.403439
586.848874	2594.573500
587.201679	2596.259766
587.554428	2590.341451
587.907124	2593.464446
588.259765	2593.850094
588.612352	2595.317070
588.964884	2595.128027
589.317362	2597.676330
589.669786	2595.342276
590.022155	2597.275558
590.374470	2593.721545
590.726731	2595.208685
591.078937	2592.302460
591.431090	2598.308995
591.783188	2592.567121
592.135232	2592.640217
592.487222	2592.204157
592.839157	2595.785897
593.191038	2592.526791
593.542866	2590.767429
593.894639	2591.037130
594.246358	2592.158787
594.598022	2592.725917
594.949633	2590.991760
595.301190	2591.664754
595.652692	2592.932604
596.004141	2591.480752
596.355535	2593.320773
596.706876	2588.919846
597.058162	2590.089393
597.409395	2590.971595
597.760573	2594.112234
598.111698	2592.698191
598.462768	2591.407655
598.813785	2593.368664
599.164748	2590.517892
599.515657	2588.970257
599.866511	2588.435895
600.217312	2590.850608
600.568060	2589.426482
600.918753	2592.985536
601.269392	2589.237438
601.619978	2590.437233
601.970510	2589.590319
602.320988	2588.665268
602.671412	2589.832295
603.021783	2584.992787
603.372100	2587.402458
603.722363	2590.296081
604.072572	2587.878847
604.422728	2591.541246
604.772830	2588.022520
605.122878	2584.392890
605.472872	2587.246183
605.822813	2586.588312
606.172701	2585.897674
606.522534	2590.046544
606.872314	2592.355392
607.222041	2586.850452
607.571714	2587.767942
607.921333	2588.511512
608.270899	2587.364650
608.620411	2588.554362
608.969870	2592.151225
609.319276	2591.347161
609.668627	2591.362285
610.017926	2594.961669
610.367171	2599.173553
610.716362	2597.439396
611.065500	2595.985023
611.414585	2591.556369
611.763616	2594.447471
612.112594	2592.509147
612.461518	2591.011925
612.810389	2589.638210
613.159207	2593.613160
613.507971	2591.357244
613.856682	2592.607450
614.205340	2590.162490
614.553945	2589.867583
614.902496	2590.200299
615.250994	2592.040320
615.599439	2589.023189
615.947830	2590.038982
616.296169	2588.592171
616.644454	2592.932604
616.992686	2592.035279
617.340864	2591.843715
617.688990	2589.381111
618.037063	2591.846236
618.385082	2590.429671
618.733048	2590.749785
619.080961	2589.852459
619.428821	2590.081832
619.776628	2591.634507
620.124382	2590.316245
620.472083	2592.781370
620.819731	2589.973447
621.167326	2589.421441
621.514868	2590.512850
621.862357	2589.184506
622.209793	2588.468662
622.557176	2586.820205
622.904506	2586.069073
623.251783	2581.718557
623.599007	2582.653692
623.946179	2585.229721
624.293297	2583.951789
624.640363	2585.633013
624.987376	2586.787438
625.334336	2586.603436
625.681243	2583.876171
626.028097	2583.881212
626.374899	2582.913311
626.721647	2582.605801
627.068343	2586.353898
627.414987	2581.466500
627.761577	2585.653178
628.108115	2586.346337
628.454600	2581.416088
628.801032	2583.402303
629.147412	2584.972622
629.493739	2581.894998
629.840014	2582.028588
630.186236	2586.734506
630.532405	2584.377766
630.878521	2581.342992
631.224585	2584.324834
631.570597	2579.132446
631.916556	2580.415419
632.262462	2582.341140
632.608316	2580.390213
632.954117	2580.238979
633.299866	2582.343661
633.645562	2579.616396
633.991206	2580.919535
634.336797	2577.794019
634.682336	2578.824935
635.027823	2578.303176
635.373257	2577.695717
635.718639	2577.756211
636.063968	2575.782599
636.409245	2576.238823
636.754470	2580.604462
637.099642	2575.414595
637.444762	2576.697568
637.789829	2579.137487
638.134845	2577.025243
638.479808	2576.720253
638.824719	2574.618092
639.169577	2576.289235
639.514383	2575.757393
639.859137	2573.022567
640.203839	2576.390058
640.548489	2572.848647
640.893086	2569.922257
641.237632	2568.717422
641.582125	2572.016857
641.926566	2568.626681
642.270955	2573.952660
642.615292	2575.152455
642.959576	2575.608679
643.303809	2574.255129
643.647990	2576.579101
643.992118	2573.952660
644.336195	2573.055335
644.680219	2572.369738
645.024192	2572.732701
645.368112	2573.887125
645.711981	2573.481312
646.055797	2573.536765
646.399562	2576.087589
646.743274	2575.001220
647.086935	2576.231262
647.430544	2576.309399
647.774101	2575.656570
648.117606	2576.246385
648.461059	2578.141859
648.804460	2576.306879
649.147810	2578.353587
649.491108	2575.792681
649.834354	2574.948288
650.177548	2574.855027
650.520690	2574.769327
650.863781	2572.863771
651.206820	2575.732187
651.549807	2572.523493
651.892742	2573.443503
652.235626	2571.991651
652.578458	2575.273442
652.921238	2568.987123
653.263967	2571.661456
653.606644	2570.446538
653.949269	2572.926785
654.291843	2572.372258
654.634365	2570.653225
654.976836	2569.682803
655.319255	2570.771692
655.661622	2570.973338
656.003938	2570.960735
656.346203	2569.677762
656.688416	2570.373441
657.030577	2569.914696
657.372687	2570.915365
657.714746	2569.032494
658.056753	2568.336815
658.398708	2564.835733
658.740612	2566.784139
659.082465	2567.925961
659.424266	2566.285065
659.766016	2565.281875
660.107715	2568.893862
660.449362	2569.405539
660.790958	2569.448389
661.132503	2569.972669
661.473996	2570.970817
661.815438	2571.744635
662.156829	2570.852350
662.498168	2567.321022
662.839456	2570.396126
663.180693	2568.369582
663.521879	2570.723801
663.863013	2569.929819
664.204097	2569.138358
664.545129	2571.600962
664.886110	2571.001064
665.227040	2570.363358
665.567918	2571.174984
665.908746	2569.990313
666.249522	2571.210272
666.590248	2572.367217
666.930922	2570.169274
667.271545	2569.581980
667.612118	2571.240519
667.952639	2569.960066
668.293109	2569.665159
668.633528	2571.260684
668.973896	2568.490570
669.314213	2571.167422
669.654480	2572.599110
669.994695	2569.612227
670.334859	2567.850343
670.674973	2569.740776
671.015035	2572.016857
671.355047	2570.048286
671.695008	2573.965263
672.034918	2570.207083
672.374777	2570.628019
672.714585	2571.255643
673.054342	2571.137176
673.394049	2570.048286
673.733705	2572.919223
674.073310	2568.092319
674.412864	2572.357135
674.752368	2571.074161
675.091820	2569.977710
675.431223	2569.987793
675.770574	2567.678944
676.109875	2564.394632
676.449125	2566.665672
676.788324	2562.872204
677.127473	2567.315981
677.466571	2564.447564
677.805619	2571.749676
678.144616	2563.497307
678.483562	2566.466547
678.822458	2569.340004
679.161303	2567.827658
679.500098	2567.888152
679.838842	2563.835064
680.177535	2565.682647
680.516179	2568.460323
680.854771	2565.170970
681.193314	2567.948646
681.531805	2570.590210
681.870247	2570.005437
682.208638	2572.324367
682.546978	2571.023750
682.885268	2569.682803
683.223508	2571.404357
683.561697	2568.682134
683.899836	2570.151630
684.237925	2569.972669
684.575963	2567.396639
684.913951	2570.388564
685.251889	2569.541650
685.589776	2570.244891
685.927614	2570.920406
686.265401	2567.893193
686.603137	2568.790518
686.940824	2569.728173
687.278460	2571.462330
687.616046	2572.296641
687.953582	2570.628019
688.291068	2569.551733
688.628504	2571.832855
688.965889	2571.232957
689.303224	2570.454099
689.640510	2567.994016
689.977745	2570.348235
690.314930	2568.356979
690.652065	2567.089129
690.989150	2566.519479
691.326185	2566.698440
691.663170	2565.569221
692.000105	2565.155847
692.336990	2563.981258
692.673825	2563.373799
693.010610	2565.428069
693.347345	2560.207954
693.684030	2559.267779
694.020665	2559.371122
694.357251	2558.418344
694.693786	2561.334652
695.030272	2561.185938
695.366707	2562.627708
695.703093	2562.035372
696.039429	2560.749878
696.375716	2560.860783
696.711952	2561.506051
697.048139	2558.987995
697.384276	2560.318859
697.720363	2561.127965
698.056400	2561.861452
698.392388	2559.008159
698.728326	2561.929508
699.064214	2562.128634
699.400053	2560.928839
699.735842	2556.979095
700.071581	2559.517316
700.407270	2553.959444
700.742910	2557.601677
701.078501	2554.859290
701.414042	2558.272151
701.749533	2554.045143
702.084974	2559.217367
702.420366	2555.980947
702.755709	2557.614280
703.091002	2555.794424
703.426246	2556.739640
703.761440	2557.798282
704.096584	2558.753581
704.431679	2559.386246
704.766725	2557.047151
705.101721	2555.063457
705.436668	2557.493293
705.771565	2556.953889
706.106413	2558.224260
706.441212	2557.120247
706.775961	2557.654610
707.110661	2554.287119
707.445311	2558.980433
707.779913	2555.514640
708.114465	2559.497151
708.448967	2560.210475
708.783421	2560.767522
709.117825	2558.781308
709.452180	2559.068653
709.786485	2559.749209
710.120742	2561.420352
710.454949	2559.519837
710.789107	2560.207954
711.123216	2558.115875
711.457275	2559.721483
711.791286	2558.057902
712.125247	2559.948335
712.459159	2561.737944
712.793023	2565.586865
713.126837	2560.046637
713.460602	2560.185269
713.794318	2559.056050
714.127985	2563.033521
714.461602	2560.795248
714.795171	2561.480845
715.128691	2557.349620
715.462162	2560.339024
715.795584	2560.255845
716.128957	2557.261400
716.462281	2557.478169
716.795556	2557.647048
717.128782	2556.459856
717.461960	2553.795606
717.795088	2556.220401
718.128167	2557.810885
718.461198	2555.035730
718.794180	2555.063457
719.127113	2555.968344
719.459997	2554.395504
719.792833	2552.346275
720.125619	2554.894578
720.458357	2554.773590
720.791046	2554.992880
721.123686	2552.989022
721.456278	2552.323589
721.788821	2552.290822
722.121315	2554.735782
722.453761	2551.537169
722.786158	2551.718651
723.118506	2552.971378
723.450805	2551.769062
723.783056	2552.550441
724.115259	2555.207129
724.447412	2550.702858
724.779518	2553.901471
725.111574	2556.797613
725.443582	2555.517160
725.775542	2553.737633
726.107453	2552.958775
726.439315	2553.467931
726.771129	2557.498334
727.102895	2554.216543
727.434612	2554.685370
727.766281	2555.033210
728.097901	2555.633107
728.429473	2550.854093
728.760996	2555.270144
729.092471	2548.131870
729.423897	2556.664023
729.755276	2555.653272
730.086606	2557.057233
730.417887	2554.574465
730.749120	2558.037737
731.080305	2555.844835
731.411442	2557.959599
731.742530	2558.987995
732.073570	2559.136709
732.404562	2558.040258
732.735506	2557.548745
733.066401	2559.013201
733.397249	2556.553117
733.728048	2554.955072
734.058798	2554.060267
734.389501	2553.634289
734.720156	2552.005997
735.050762	2552.673950
735.381320	2551.267468
735.711831	2551.670760
736.042293	2549.417364
736.372707	2552.563044
736.703073	2551.764021
737.033391	2552.205122
737.363661	2551.108671
737.693883	2552.767211
738.024056	2556.394321
738.354182	2557.087480
738.684260	2554.370298
739.014290	2554.899619
739.344272	2554.629917
739.674207	2554.685370
740.004093	2553.044474
740.333931	2551.905174
740.663722	2557.331976
740.993464	2550.105482
741.323159	2555.791903
741.652806	2555.002963
741.982405	2553.863662
742.311956	2550.813764
742.641460	2552.484906
742.970915	2550.871737
743.300323	2555.431461
743.629683	2551.358208
743.958996	2551.522046
744.288260	2556.878272
744.617477	2552.419371
744.946647	2544.078782
745.275768	2548.167158
745.604842	2548.454504
745.933869	2548.464586
746.262847	2547.877292
746.591778	2551.315359
746.920662	2547.489123
747.249498	2548.484751
747.578286	2551.063301
747.907027	2554.277037
748.235720	2552.245452
748.564365	2553.057077
748.892963	2549.634134
749.221514	2551.133877
749.550017	2549.989535
749.878473	2549.298897
750.206881	2551.597663
750.535242	2550.042467
750.863555	2552.106820
751.191821	2550.334854
751.520039	2552.089176
751.848210	2549.772766
752.176334	2548.421736
752.504411	2549.230842
752.832440	2549.924000
753.160421	2551.075904
753.488356	2549.969371
753.816243	2546.874102
754.144082	2548.396531
754.471875	2549.550955
754.799620	2550.455842
755.127318	2547.922662
755.454969	2550.430636
755.782572	2548.809905
756.110129	2548.509957
756.437638	2549.939124
756.765100	2547.317724
757.092515	2548.371325
757.419882	2548.136911
757.747203	2549.964329
758.074477	2547.824360
758.401703	2549.238403
758.728882	2548.232693
759.056014	2548.227652
759.383099	2548.920811
759.710138	2551.272509
760.037129	2550.980122
760.364073	2551.078424
760.690970	2552.379042
761.017820	2552.331151
761.344623	2552.152190
761.671379	2550.017262
761.998088	2547.650440
762.324751	2549.266130
762.651366	2553.190668
762.977935	2564.250959
763.304456	2564.301371
763.630931	2571.974007
763.957359	2565.801114
764.283740	2562.017728
764.610074	2559.996226
764.936362	2557.669733
765.262602	2552.600853
765.588796	2551.002807
765.914943	2549.177909
766.241044	2549.644216
766.567097	2548.157076
766.893104	2547.093392
767.219064	2548.086500
767.544978	2547.552137
767.870845	2550.206305
768.196665	2545.989380
768.522438	2545.344112
768.848165	2547.247147
769.173846	2545.941489
769.499479	2547.700851
769.825066	2545.507949
770.150607	2541.840510
770.476101	2544.237579
770.801548	2545.712116
771.126949	2542.105171
771.452303	2545.364277
771.777611	2544.719009
772.102872	2543.539379
772.428087	2544.139276
772.753256	2544.134235
773.078378	2544.676159
773.403453	2545.760007
773.728482	2544.328319
774.053465	2544.358566
774.378401	2542.339584
774.703291	2543.201622
775.028135	2543.108360
775.352932	2543.226827
775.677683	2541.326312
776.002388	2542.137938
776.327046	2543.914945
776.651658	2541.127187
776.976224	2539.748431
777.300743	2541.328833
777.625216	2542.667259
777.949643	2539.438400
778.274024	2544.761859
778.598359	2539.100643
778.922647	2536.950591
779.246889	2540.648277
779.571086	2538.064686
779.895236	2542.389996
780.219339	2541.182639
780.543397	2542.952084
780.867409	2544.701365
781.191374	2543.645243
781.515294	2544.333361
781.839167	2539.882022
782.162995	2542.677342
782.486776	2540.711292
782.810511	2541.744728
783.134201	2541.641384
783.457844	2539.090561
783.781441	2541.928730
784.104993	2541.754810
784.428498	2540.590304
784.751958	2539.887063
785.075372	2541.832948
785.398739	2539.335057
785.722061	2544.187167
786.045337	2540.285314
786.368568	2542.248843
786.691752	2541.888401
787.014891	2542.823535
787.337983	2541.497712
787.661030	2543.511652
787.984031	2543.415871
788.306987	2545.240768
788.629897	2546.352343
788.952760	2545.707075
789.275579	2543.614996
789.598351	2544.111550
789.921078	2543.355377
790.243759	2543.163813
790.566395	2537.759696
790.888984	2542.422763
791.211529	2541.817825
791.534027	2539.140972
791.856480	2540.005530
792.178888	2544.650953
792.501249	2545.863351
792.823566	2541.553164
793.145836	2540.217258
793.468062	2539.254398
793.790241	2540.665921
794.112375	2541.525438
794.434464	2540.247505
794.756507	2542.269008
795.078505	2541.233051
795.400457	2538.208359
795.722364	2537.477391
796.044226	2539.055272
796.366042	2539.720705
796.687812	2541.238092
797.009538	2542.216076
797.331218	2543.960315
797.652852	2540.625592
797.974442	2543.287321
798.295986	2541.901004
798.617484	2542.702547
798.938938	2541.414532
799.260346	2541.195242
799.581709	2542.291693
799.903026	2542.233720
800.224299	2540.552495
800.545526	2541.679193
800.866708	2541.144831
801.187845	2541.016281
801.508936	2543.554502
801.829983	2541.447300
802.150984	2538.664583
802.471940	2540.416384
802.792851	2541.943854
803.113717	2542.415202
803.434538	2538.810777
803.755314	2536.496887
804.076045	2539.849254
804.396731	2539.052752
804.717372	2537.573173
805.037967	2541.480068
805.358518	2539.130890
805.679024	2541.961498
805.999485	2539.997968
806.319901	2540.625592
806.640272	2542.155582
806.960598	2540.839841
807.280879	2539.831610
807.601115	2540.557536
807.921306	2540.010571
808.241453	2540.776827
808.561554	2538.210879
808.881611	2539.970242
809.201623	2542.064841
809.521590	2539.035108
809.841513	2539.181301
810.161390	2542.001827
810.481223	2539.987886
810.801011	2539.453524
811.120755	2539.849254
811.440453	2540.207176
811.760107	2538.808256
812.079716	2537.079140
812.399281	2536.312885
812.718801	2537.648791
813.038276	2533.144520
813.357707	2539.463606
813.677093	2539.060314
813.996434	2540.262629
814.315731	2539.327495
814.634983	2537.928575
814.954191	2538.551157
815.273354	2540.486960
815.592473	2537.915972
815.911547	2539.259439
816.230577	2541.747249
816.549562	2539.090561
816.868502	2541.782537
817.187399	2541.752290
817.506250	2540.534851
817.825058	2541.507794
818.143821	2541.487629
818.462539	2541.953936
818.781213	2541.381765
819.099843	2542.765562
819.418429	2544.197249
819.736970	2548.489792
820.055466	2549.767724
820.373919	2551.650595
820.692327	2556.021276
821.010691	2560.215516
821.329011	2572.959553
821.647286	2602.548605
821.965517	2632.538429
822.283704	2653.577685
822.601847	2658.661689
822.919945	2645.645429
823.237999	2627.030969
823.556010	2610.107815
823.873976	2594.785228
824.191897	2581.816860
824.509775	2574.731518
824.827609	2567.860426
825.145398	2566.363203
825.463144	2562.662996
825.780845	2564.999571
826.098502	2570.481826
826.416116	2574.537434
826.733685	2582.845255
827.051210	2588.289702
827.368692	2587.954465
827.686129	2573.080540
828.003522	2565.954869
828.320872	2558.743499
828.638177	2555.040771
828.955439	2548.477189
829.272656	2548.731767
829.589830	2543.337733
829.906960	2543.100798
830.224046	2543.862013
830.541088	2544.620706
830.858086	2541.749769
831.175041	2541.028884
831.491952	2540.900335
831.808819	2543.010058
832.125642	2543.068031
832.442421	2543.710778
832.759157	2550.186140
833.075849	2551.806871
833.392497	2560.339024
833.709101	2563.683830
834.025662	2565.027297
834.342179	2559.613098
834.658653	2555.083621
834.975083	2551.451470
835.291469	2552.288301
835.607811	2545.886036
835.924110	2544.053577
836.240366	2543.952753
836.556578	2541.469985
836.872746	2542.967208
837.188871	2540.605427
837.504952	2538.762886
837.820990	2540.605427
838.136984	2536.144006
838.452935	2535.564273
838.768842	2540.953267
839.084706	2540.325643
839.400526	2542.014430
839.716303	2544.908052
840.032037	2550.559186
840.347727	2549.233362
840.663373	2544.892929
840.978977	2543.607434
841.294537	2540.660880
841.610054	2538.604089
841.925527	2540.796991
842.240957	2540.771785
842.556344	2540.083668
842.871687	2536.877494
843.186987	2537.729449
843.502244	2536.239788
843.817458	2535.949922
844.132629	2533.023532
844.447756	2538.130221
844.762840	2531.942204
845.077881	2533.023532
845.392879	2533.192411
845.707833	2533.588141
846.022745	2529.653521
846.337613	2532.501773
846.652438	2534.966897
846.967221	2535.140817
847.281960	2536.068389
847.596656	2537.545447
847.911309	2533.255425
848.225919	2533.822555
848.540485	2536.156609
848.855009	2535.334901
849.169490	2536.270035
849.483928	2535.465971
849.798323	2534.296423
850.112675	2537.361445
850.426984	2536.675848
850.741251	2533.028573
851.055474	2533.308357
851.369654	2536.325488
851.683792	2535.080323
851.997887	2531.647297
852.311938	2535.067720
852.625947	2535.576876
852.939914	2534.881197
853.253837	2537.374048
853.567718	2535.592000
853.881555	2535.682741
854.195350	2534.866074
854.509103	2534.054448
854.822812	2534.283820
855.136479	2533.141999
855.450103	2534.014119
855.763685	2534.251053
856.077224	2532.653007
856.390720	2535.690302
856.704173	2534.092257
857.017584	2534.351876
857.330953	2531.591844
857.644278	2532.658048
857.957561	2538.115097
858.270802	2536.358255
858.584000	2536.164171
858.897155	2532.905065
859.210268	2532.526978
859.523339	2534.125024
859.836367	2531.559077
860.149352	2534.140147
860.462295	2536.189377
860.775195	2527.216123
861.088054	2531.392719
861.400869	2529.656041
861.713642	2531.705270
862.026373	2533.361289
862.339062	2532.852133
862.651708	2532.678213
862.964312	2533.941022
863.276873	2533.888090
863.589392	2535.748276
863.901869	2537.626105
864.214303	2534.188038
864.526696	2532.955476
864.839045	2533.101670
865.151353	2535.294572
865.463619	2536.010416
865.775842	2534.568646
866.088023	2531.869108
866.400162	2534.175436
866.712258	2536.456558
867.024313	2536.885056
867.336325	2534.049407
867.648296	2532.607637
867.960224	2534.268697
868.272110	2533.830117
868.583954	2534.417411
868.895755	2535.481094
869.207515	2538.215920
869.519233	2538.084850
869.830909	2535.443286
870.142542	2537.447144
870.454134	2535.463450
870.765684	2537.444624
871.077191	2535.980169
871.388657	2536.542257
871.700081	2534.992103
872.011463	2535.667617
872.322803	2537.842875
872.634101	2535.397915
872.945357	2537.079140
873.256571	2537.832793
873.567744	2537.179963
873.878874	2533.658717
874.189963	2536.632998
874.501010	2538.410005
874.812015	2536.985879
875.122979	2536.998482
875.433900	2535.317257
875.744780	2533.399098
876.055618	2537.550488
876.366415	2535.410518
876.677169	2539.907227
876.987882	2536.650642
877.298554	2533.270548
877.609183	2534.152750
877.919771	2535.080323
878.230317	2539.072917
878.540822	2542.447969
878.851285	2542.158103
879.161707	2541.240613
879.472087	2544.378731
879.782425	2546.881664
880.092722	2552.109340
880.402977	2563.126782
880.713191	2574.282856
881.023363	2591.395052
881.333494	2603.287134
881.643583	2601.094232
881.953631	2603.224120
882.263637	2597.845209
882.573602	2591.815989
882.883526	2586.895822
883.193408	2578.618248
883.503248	2570.711198
883.813048	2565.430589
884.122806	2560.369271
884.432522	2557.672254
884.742197	2549.561037
885.051831	2550.823846
885.361424	2546.803526
885.670975	2546.438042
885.980485	2543.443597
886.289954	2542.742877
886.599382	2540.625592
886.908768	2543.332692
887.218113	2539.960160
887.527417	2539.403112
887.836680	2537.177443
888.145901	2540.436549
888.455082	2539.594676
888.764221	2541.369162
889.073319	2537.437062
889.382376	2538.203318
889.691392	2535.549150
890.000366	2536.380940
890.309300	2539.519059
890.618193	2537.479912
890.927044	2538.029398
891.235855	2539.574511
891.544625	2540.091230
891.853353	2541.011240
892.162041	2537.726928
892.470687	2539.806404
892.779293	2538.457896
893.087858	2539.866898
893.396381	2538.447813
893.704864	2542.329502
894.013306	2542.142979
894.321707	2552.343754
894.630068	2556.787531
894.938387	2561.816082
895.246665	2562.685681
895.554903	2555.101265
895.863100	2552.613456
896.171256	2548.595656
896.479371	2547.831921
896.787446	2545.986859
897.095480	2541.744728
897.403473	2541.134748
897.711425	2541.674152
898.019336	2541.210366
898.327207	2539.435880
898.635038	2540.769265
898.942827	2538.273894
899.250576	2537.971424
899.558284	2537.416897
899.865952	2536.161650
900.173579	2536.322967
900.481165	2538.523431
900.788711	2538.939326
901.096216	2536.590148
901.403681	2533.814993
901.711105	2537.069058
902.018489	2537.563091
902.325832	2541.475026
902.633135	2535.203831
902.940397	2540.015612
903.247619	2539.456044
903.554800	2544.051056
903.861941	2554.871893
904.169041	2562.935218
904.476101	2569.740776
904.783121	2567.338666
905.090100	2562.826833
905.397039	2557.868859
905.703938	2551.093548
906.010796	2548.134391
906.317614	2548.711603
906.624391	2542.707588
906.931129	2541.633823
907.237826	2540.718853
907.544483	2535.982689
907.851099	2535.836496
908.157675	2537.363965
908.464211	2534.515713
908.770707	2530.170239
909.077163	2532.133768
909.383578	2531.738038
909.689954	2529.673685
909.996289	2529.134282
910.302584	2533.320960
910.608839	2531.556556
910.915054	2534.941691
911.221229	2533.078985
911.527363	2535.791125
911.833458	2535.269366
912.139513	2533.063861
912.445527	2535.425642
912.751502	2536.459078
913.057436	2535.158461
913.363331	2536.529654
913.669186	2535.279448
913.975000	2538.319264
914.280775	2536.779192
914.586510	2540.776827
914.892205	2543.315047
915.197859	2549.679504
915.503475	2554.786193
915.809050	2560.681822
916.114585	2565.170970
916.420081	2567.719273
916.725536	2565.226423
917.030952	2561.087635
917.336328	2558.912378
917.641665	2555.648230
917.946961	2554.660164
918.252218	2548.066335
918.557435	2545.465100
918.862612	2543.856972
919.167750	2539.892104
919.472848	2540.746580
919.777906	2540.108874
920.082925	2537.651311
920.387904	2537.792463
920.692843	2536.925385
920.997743	2538.667104
921.302603	2536.892617
921.607423	2537.111908
921.912204	2536.683410
922.216946	2535.846578
922.521647	2535.458409
922.826310	2534.661907
923.130932	2536.438914
923.435516	2533.832637
923.740059	2535.791125
924.044564	2532.978162
924.349028	2534.046886
924.653454	2529.414066
924.957840	2530.041689
925.262186	2530.437420
925.566493	2530.835671
925.870761	2530.898686
926.174989	2534.354397
926.479178	2534.104859
926.783328	2530.843233
927.087438	2531.259128
927.391509	2533.988913
927.695541	2533.459592
927.999533	2530.273583
928.303486	2531.370033
928.607400	2531.478418
928.911275	2531.180990
929.215110	2529.499765
929.518906	2530.215609
929.822663	2531.453212
930.126381	2529.477080
930.430060	2532.206865
930.733699	2530.747451
931.037299	2532.098480
931.340861	2531.954807
931.644383	2529.628315
931.947866	2530.563449
932.251309	2533.235260
932.554714	2530.155115
932.858080	2531.092770
933.161407	2531.916999
933.464694	2527.952131
933.767943	2531.047400
934.071153	2532.363141
934.374323	2529.736700
934.677455	2529.603109
934.980548	2529.678726
935.283602	2530.765095
935.586617	2530.331556
935.889593	2531.818696
936.192530	2531.226361
936.495428	2532.589993
936.798287	2529.366175
937.101108	2532.705939
937.403890	2528.718387
937.706632	2532.600075
938.009336	2530.447502
938.312002	2534.112421
938.614628	2536.212062
938.917216	2535.105528
939.219765	2531.957328
939.522275	2530.603778
939.824747	2533.772143
940.127179	2528.143695
940.429573	2528.108407
940.731929	2532.093439
941.034246	2528.461288
941.336524	2530.818027
941.638763	2531.937163
941.940964	2532.327853
942.243126	2531.175949
942.545250	2531.871628
942.847335	2532.728624
943.149381	2531.082688
943.451389	2530.283665
943.753359	2528.821730
944.055290	2533.482277
944.357182	2531.412883
944.659036	2529.116638
944.960851	2530.260980
945.262628	2533.303316
945.564367	2532.610157
945.866067	2529.396422
946.167729	2531.977492
946.469352	2529.431710
946.770937	2532.063192
947.072484	2532.539581
947.373992	2530.356762
947.675462	2528.320135
947.976893	2530.364323
948.278286	2530.356762
948.579641	2531.949766
948.880958	2530.457585
949.182236	2531.682585
949.483476	2529.910619
949.784678	2530.792821
950.085841	2528.254600
950.386967	2527.190917
950.688054	2528.763757
950.989103	2530.366844
951.290114	2530.898686
951.591087	2532.680733
951.892021	2530.024045
952.192917	2531.274252
952.493776	2532.537061
952.794596	2531.244005
953.095378	2531.826258
953.396122	2531.536392
953.696828	2529.643438
953.997496	2534.745086
954.298126	2529.214940
954.598718	2529.608150
954.899272	2531.566638
955.199788	2528.990609
955.500266	2531.695188
955.800706	2524.927439
956.101108	2524.884589
956.401472	2527.667306
956.701798	2527.644621
957.002087	2524.728313
957.302337	2527.571524
957.602550	2528.007584
957.902724	2529.280475
958.202861	2527.251411
958.502960	2525.098838
958.803022	2528.811648
959.103045	2528.438602
959.403031	2528.446164
959.702979	2529.925743
960.002889	2527.269055
960.302762	2531.977493
960.602596	2526.540608
960.902393	2530.681916
961.202153	2528.884745
961.501875	2526.422141
961.801559	2529.235105
962.101205	2529.892975
962.400814	2527.382481
962.700385	2526.951462
962.999918	2529.968593
963.299414	2528.859539
963.598873	2529.177132
963.898293	2528.889786
964.197677	2529.555218
964.497022	2525.466842
964.796331	2528.292409
965.095601	2528.057995
965.394835	2529.726617
965.694030	2530.818027
965.993189	2527.513551
966.292309	2529.978675
966.591393	2529.802235
966.890439	2526.628828
967.189447	2527.672347
967.488419	2528.178983
967.787353	2528.352903
968.086249	2525.918026
968.385108	2527.770650
968.683930	2528.814168
968.982714	2528.267203
969.281462	2526.344003
969.580172	2525.436595
969.878844	2527.957172
970.177480	2528.292409
970.476078	2526.313756
970.774639	2529.898017
971.073162	2527.816020
971.371649	2526.568334
971.670098	2524.977850
971.968510	2526.661596
972.266885	2523.556245
972.565223	2526.696884
972.863524	2527.841226
973.161788	2528.544467
973.460014	2529.144364
973.758204	2527.344672
974.056356	2529.353572
974.354471	2526.243180
974.652550	2530.064375
974.950591	2529.459436
975.248595	2527.959693
975.546563	2526.964065
975.844493	2530.044210
976.142386	2528.819210
976.440243	2526.351565
976.738062	2527.284178
977.035845	2528.244518
977.333590	2528.057995
977.631299	2524.935001
977.928971	2529.340969
978.226606	2526.802748
978.524204	2527.634538
978.821765	2527.042203
979.119290	2527.579086
979.416777	2526.464991
979.714228	2528.564631
980.011642	2527.440454
980.309020	2530.591175
980.606360	2530.964221
980.903664	2530.228212
981.200931	2526.331400
981.498162	2525.981040
981.795356	2529.245187
982.092513	2526.243180
982.389633	2529.847605
982.686717	2529.764426
982.983764	2530.087060
983.280775	2531.382636
983.577749	2530.422297
983.874686	2529.945908
984.171587	2527.165711
984.468451	2529.048582
984.765279	2526.137316
985.062070	2528.599919
985.358824	2528.199148
985.655543	2529.156967
985.952224	2530.497914
986.248869	2525.890299
986.545478	2523.679753
986.842050	2524.541791
987.138586	2522.870648
987.435086	2525.577748
987.731549	2522.043899
988.027975	2527.652183
988.324366	2528.965403
988.620719	2527.485824
988.917037	2525.411390
989.213318	2526.883407
989.509563	2526.396935
989.805772	2526.628828
990.101944	2525.837367
990.398080	2528.073119
990.694180	2525.066071
990.990244	2526.749816
991.286271	2527.097656
991.582262	2527.521113
991.878217	2526.739734
992.174136	2527.785773
992.470019	2526.220495
992.765865	2528.078160
993.061676	2527.425331
993.357450	2526.906092
993.653188	2526.883407
993.948890	2526.951462
994.244556	2526.134795
994.540186	2528.645290
994.835780	2527.463139
995.131337	2526.654034
995.426859	2528.201668
995.722345	2526.722090
996.017795	2526.661596
996.313208	2528.141174
996.608586	2527.143026
996.903928	2530.883562
997.199234	2527.957172
997.494504	2529.212420
997.789738	2527.904240
998.084936	2526.959024
998.380099	2528.073119
998.675225	2525.671009
998.970316	2526.591020
999.265371	2526.996833
999.560390	2528.801566
999.855373	2530.830630
1000.150320	2526.041534
1000.445232	2529.318284
1000.740108	2524.393077
1001.034948	2529.240146
1001.329752	2525.232429
1001.624521	2526.772501
1001.919254	2523.273940
1002.213951	2525.960875
1002.508613	2521.980884
1002.803239	2523.445340
1003.097829	2523.841070
1003.392384	2523.800741
1003.686903	2525.176976
1003.981386	2528.095804
1004.275834	2524.690505
1004.570246	2526.364168
1004.864623	2527.180835
1005.158964	2526.112110
1005.453270	2525.789476
1005.747540	2528.357944
1006.041775	2528.093283
1006.335974	2529.454395
1006.630138	2524.405679
1006.924266	2527.682429
1007.218359	2526.520443
1007.512416	2527.657224
1007.806438	2527.611853
1008.100425	2524.388035
1008.394376	2524.204033
1008.688292	2526.588499
1008.982172	2525.857532
1009.276017	2527.301822
1009.569827	2528.050434
1009.863602	2527.689991
1010.157341	2526.911133
1010.451045	2525.683612
1010.744714	2526.391894
1011.038347	2526.079342
1011.331945	2525.797038
1011.625508	2524.735875
1011.919036	2527.049765
1012.212528	2523.715041
1012.505986	2526.444826
1012.799408	2525.381143
1013.092795	2525.905423
1013.386147	2526.412059
1013.679464	2527.054806
1013.972745	2527.347193
1014.265992	2527.100176
1014.559204	2527.553880
1014.852380	2526.102028
1015.145521	2526.843077
1015.438628	2525.892820
1015.731699	2525.116482
1016.024736	2526.308715
1016.317737	2527.490866
1016.610703	2526.422141
1016.903635	2522.621111
1017.196531	2522.278312
1017.489393	2523.314270
1017.782219	2519.692201
1018.075011	2524.819054
1018.367768	2525.363499
1018.660490	2526.772501
1018.953177	2526.772501
1019.245829	2526.772501
