Dividing Wavelength (nm)	Counts (n)	Blue Motor Position (mm): 0.000000	Red Motor Position (mm): 35.000000	
326.493990	2139.684983
326.888308	2139.684983
327.282561	2139.684983
327.676750	2116.548607
328.070874	2117.395521
328.464933	2125.103445
328.858929	2132.148458
329.252859	2144.106074
329.646726	2158.720379
330.040528	2172.117246
330.434265	2189.751202
330.827938	2210.944213
331.221547	2230.796277
331.615091	2248.556262
332.008571	2270.392019
332.401986	2289.150153
332.795338	2309.208904
333.188625	2330.076760
333.581847	2350.329596
333.975006	2368.404653
334.368100	2386.726727
334.761129	2402.329098
335.154095	2423.272572
335.546996	2437.450817
335.939833	2458.384208
336.332606	2473.631178
336.725315	2480.298104
337.117960	2491.663385
337.510540	2498.322749
337.903056	2506.575118
338.295508	2515.629031
338.687896	2520.498785
339.080220	2529.562780
339.472480	2538.697351
339.864676	2540.005530
340.256807	2540.403781
340.648875	2544.010727
341.040879	2547.549617
341.432818	2547.156407
341.824694	2548.527601
342.216506	2547.491643
342.608253	2547.045501
342.999937	2547.337888
343.391557	2547.083310
343.783113	2544.073741
344.174605	2547.461397
344.566033	2541.142310
344.957397	2541.671631
345.348697	2538.561239
345.739934	2537.477391
346.131106	2537.842875
346.522215	2535.037473
346.913260	2533.860363
347.304241	2533.532688
347.695159	2527.695032
348.086012	2525.945752
348.476802	2526.512882
348.867528	2525.812161
349.258191	2524.110772
349.648789	2525.963396
350.039324	2520.403003
350.429796	2518.948630
350.820203	2520.307221
351.210548	2518.530215
351.600828	2519.971985
351.991045	2518.086593
352.381198	2520.418127
352.771288	2518.633558
353.161314	2514.832528
353.551276	2516.818743
353.941175	2516.430574
354.331010	2516.831346
354.720782	2516.990142
355.110490	2518.202540
355.500135	2517.857221
355.889717	2517.038033
356.279235	2519.535925
356.668689	2517.930317
357.058080	2518.275636
357.447408	2516.768331
357.836672	2517.022910
358.225873	2519.654392
358.615010	2517.703465
359.004084	2521.408713
359.393095	2521.549866
359.782043	2524.259486
360.170927	2521.544825
360.559748	2523.755371
360.948505	2522.555576
361.337199	2525.247552
361.725830	2525.938190
362.114398	2526.031452
362.502903	2528.869621
362.891344	2527.359796
363.279722	2528.471370
363.668037	2526.457429
364.056289	2528.761236
364.444478	2528.589837
364.832603	2528.655372
365.220665	2528.337779
365.608665	2528.166380
365.996601	2530.407173
366.384474	2530.230733
366.772284	2528.680578
367.160031	2530.954138
367.547715	2533.446989
367.935336	2531.536392
368.322893	2529.104035
368.710388	2530.412214
369.097820	2533.000847
369.485189	2530.049251
369.872495	2537.164840
370.259738	2532.524458
370.646918	2533.348686
371.034035	2533.943543
371.421090	2533.260466
371.808081	2534.803059
372.195010	2537.134593
372.581875	2534.031763
372.968678	2537.336239
373.355418	2538.231044
373.742096	2538.407484
374.128710	2540.423946
374.515262	2540.663401
374.901751	2543.688093
375.288177	2543.156251
375.674540	2543.007537
376.060841	2543.100798
376.447079	2545.694472
376.833254	2549.366953
377.219367	2546.553989
377.605417	2549.399720
377.991404	2555.363405
378.377329	2556.417006
378.763191	2558.579661
379.148991	2563.111659
379.534727	2568.316650
379.920402	2572.258832
380.306013	2574.933164
380.691563	2580.662436
381.077049	2581.519432
381.462474	2590.545618
381.847835	2593.872779
382.233134	2598.548450
382.618371	2603.390478
383.003545	2609.666714
383.388657	2615.544700
383.773706	2624.016359
384.158693	2628.392080
384.543618	2635.457257
384.928480	2641.466313
385.313280	2652.163641
385.698017	2660.257214
386.082692	2666.825837
386.467305	2670.805828
386.851856	2677.802950
387.236344	2689.193437
387.620770	2695.515044
388.005133	2707.429811
388.389435	2717.864999
388.773674	2723.962275
389.157851	2732.275138
389.541965	2743.703433
389.926018	2747.272570
390.310008	2757.090217
390.693936	2768.067330
391.077802	2776.687703
391.461606	2784.204063
391.845348	2793.704118
392.229027	2804.023360
392.612645	2819.918118
392.996200	2828.319201
393.379694	2838.519976
393.763125	2858.251052
394.146494	2863.529140
394.529801	2875.078423
394.913047	2893.652555
395.296230	2895.500138
395.679351	2897.498955
396.062410	2922.193047
396.445408	2913.766758
396.828343	2926.856114
397.211217	2934.238884
397.594028	2930.536157
397.976778	2941.339349
398.359466	2957.927266
398.742092	2950.514249
399.124656	2968.972434
399.507158	2981.812253
399.889598	2986.850886
400.271977	3001.949142
400.654294	3006.143382
401.036549	3020.727440
401.418742	3029.201620
401.800874	3046.863302
402.182944	3054.374622
402.564952	3083.872933
402.946898	3076.999320
403.328783	3082.290011
403.710606	3100.455809
404.092367	3122.861217
404.474067	3147.588077
404.855705	3138.342601
405.237282	3140.016264
405.618797	3173.111439
406.000250	3192.217412
406.381642	3224.538770
406.762972	3226.837536
407.144240	3215.883108
407.525447	3241.862695
407.906593	3241.063672
408.287677	3258.480858
408.668700	3281.788633
409.049661	3278.365690
409.430560	3295.482928
409.811399	3297.887558
410.192176	3319.314983
410.572891	3327.527022
410.953545	3366.734596
411.334138	3334.198989
411.714669	3387.400806
412.095139	3333.062209
412.475547	3383.156155
412.855894	3375.763303
413.236180	3405.221285
413.616405	3383.808984
413.996568	3409.624733
414.376670	3410.098602
414.756711	3403.744227
415.136691	3433.683640
415.516609	3453.868420
415.896466	3460.109368
416.276262	3489.784120
416.655997	3515.010054
417.035670	3525.167979
417.415283	3590.070314
417.794834	3610.071092
418.174324	3596.240687
418.553753	3596.192796
418.933121	3639.539157
419.312428	3632.267293
419.691674	3626.104482
420.070859	3662.736027
420.449983	3643.067965
420.829045	3690.943803
421.208047	3680.034746
421.586988	3719.035633
421.965867	3754.916045
422.344686	3762.071963
422.723444	3799.757109
423.102141	3704.444013
423.480777	3804.349600
423.859352	3772.776853
424.237866	3874.484653
424.616319	3856.228114
424.994712	3917.755397
425.373044	3908.293151
425.751314	3973.243377
426.129524	3907.055548
426.507673	4007.245960
426.885762	3982.196466
427.263789	4004.927029
427.641756	4010.658821
428.019662	4037.714694
428.397508	4042.750806
428.775292	4081.643308
429.153016	4085.310748
429.530679	4098.072429
429.908282	4106.707925
430.285824	4086.918876
430.663305	4155.617200
431.040726	4118.403402
431.418086	4106.528964
431.795385	4180.696940
432.172624	4214.757496
432.549802	4182.678114
432.926920	4199.628993
433.303977	4194.618087
433.680974	4236.527719
434.057910	4256.795678
434.434786	4264.208695
434.811601	4258.817181
435.188355	4364.323490
435.565050	4334.522709
435.941683	4328.571627
436.318257	4421.999331
436.694770	4425.311369
437.071222	4479.629802
437.447614	4418.110081
437.823946	4420.063528
438.200218	4436.452319
438.576429	4416.514555
438.952580	4444.992033
439.328670	4451.646357
439.704700	4489.843179
440.080670	4455.633909
440.456580	4518.297972
440.832429	4553.142427
441.208218	4453.529227
441.583947	4507.850181
441.959616	4522.434239
442.335224	4546.858629
442.710773	4571.421651
443.086261	4625.089775
443.461689	4577.271910
443.837057	4585.292386
444.212365	4661.746525
444.587612	4664.176362
444.962800	4635.111589
445.337927	4674.520809
445.712995	4563.113830
446.088002	4755.491822
446.462949	4776.780615
446.837837	4792.168737
447.212664	4779.916213
447.587431	5002.936859
447.962139	5304.957427
448.336786	5637.648375
448.711374	5626.414164
449.085901	5276.169918
449.460369	5210.241708
449.834776	5142.952386
450.209124	5380.204210
450.583412	5388.910283
450.957640	5510.749930
451.331808	5373.247417
451.705917	5227.716868
452.079965	5215.429055
452.453954	5253.550261
452.827883	5220.981886
453.201752	5226.433894
453.575562	5258.609058
453.949311	5391.572012
454.323001	5393.432198
454.696632	5390.173092
455.070202	5542.456267
455.443713	5567.541048
455.817164	5663.937992
456.190556	5736.356688
456.563888	5709.494900
456.937160	5787.423576
457.310373	5634.389269
457.683526	5685.501528
458.056619	5677.302091
458.429653	5661.049411
458.802628	5710.533377
459.175542	5740.986988
459.548398	5880.203492
459.921194	6061.102778
460.293930	6118.579493
460.666607	6372.078955
461.039224	6588.767912
461.411782	6711.802313
461.784280	6634.039994
462.156719	6632.840200
462.529099	6597.161433
462.901419	6455.172294
463.273680	6324.845864
463.645882	6315.736499
464.018024	6315.290357
464.390106	6378.846704
464.762130	6639.123998
465.134094	7023.942997
465.505999	7651.942217
465.877845	8356.047737
466.249631	8717.115340
466.621358	8638.901838
466.993026	8449.540976
467.364634	8229.038386
467.736184	7953.972868
468.107674	7794.432951
468.479105	7708.267029
468.850477	7643.604149
469.221790	7474.349929
469.593043	7251.810713
469.964238	7152.925960
470.335373	7129.388812
470.706449	7286.241794
471.077467	7461.610933
471.448425	8116.000593
471.819324	8698.972227
472.190164	8742.197601
472.560945	8263.116586
472.931667	7791.720811
473.302330	7603.025381
473.672934	7480.162379
474.043479	7554.625263
474.413965	7456.264790
474.784393	7407.806698
475.154761	7558.186838
475.525070	7573.070845
475.895321	7526.288937
476.265513	7619.779656
476.635645	7787.256869
477.005719	7771.629292
477.375734	7862.365020
477.745691	7961.519475
478.115588	8170.155189
478.485427	8405.478771
478.855207	8874.230461
479.224928	9304.044279
479.594591	9690.511736
479.964194	9705.241987
480.333739	9784.962794
480.703226	9786.069328
481.072653	9882.113391
481.442022	10002.387760
481.811333	10153.697993
482.180584	9994.899126
482.549777	9927.965206
482.918912	9864.645793
483.287988	9854.339154
483.657005	9763.986553
484.025964	9683.295324
484.394864	9737.044107
484.763706	9697.004742
485.132489	9606.405125
485.501213	9599.854146
485.869879	9658.961675
486.238487	9602.306667
486.607036	9674.347276
486.975527	9619.721333
487.343959	9676.285600
487.712333	9715.783040
488.080648	9757.054967
488.448905	9861.114464
488.817104	9862.112613
489.185244	10030.613180
489.553326	10238.205375
489.921350	10706.657117
490.289315	11328.969915
490.657222	11625.656942
491.025070	11802.866103
491.392861	11718.688916
491.760593	11563.948178
492.128267	11317.435755
492.495883	11069.726058
492.863440	10840.900523
493.230939	10614.106573
493.598380	10436.201733
493.965763	10413.035111
494.333088	10275.711560
494.700354	10205.004336
495.067563	10180.746303
495.434713	10185.832828
495.801805	10231.810671
496.168839	10190.412716
496.535815	10159.381893
496.902733	10194.760711
497.269593	10153.670266
497.636395	10166.547894
498.003139	10271.537484
498.369825	10200.444612
498.736453	10294.187388
499.103023	10234.111958
499.469535	10235.949459
499.835989	10289.927613
500.202385	10263.852245
500.568723	10281.730697
500.935003	10335.091311
501.301226	10307.019646
501.667390	10478.877621
502.033497	10572.093597
502.399546	10503.226394
502.765537	10414.897817
503.131470	10514.019505
503.497345	10608.190779
503.863163	10374.606395
504.228923	10508.111273
504.594625	10624.710640
504.960269	10531.749243
505.325856	10680.735504
505.691385	10560.075486
506.056856	10617.128745
506.422270	10721.417615
506.787625	10660.439818
507.152924	10712.956038
507.518164	10771.730851
507.883347	10642.001798
508.248472	10709.429751
508.613540	10823.511063
508.978550	10894.074614
509.343503	10869.887158
509.708398	10916.585886
510.073236	11051.124200
510.438016	11063.230531
510.802738	10974.912036
511.167403	11099.456263
511.532010	11163.612507
511.896561	11252.019222
512.261053	11451.837958
512.625488	11356.746673
512.989866	11345.136895
513.354186	11330.235245
513.718449	11336.740854
514.082655	11472.862090
514.446803	11425.644122
514.810894	11532.551872
515.174927	11530.742098
515.538904	11509.163439
515.902822	11665.156903
516.266684	11533.134125
516.630488	11636.508026
516.994235	11616.749223
517.357925	11730.187788
517.721558	11789.504525
518.085133	11847.394615
518.448651	11874.246321
518.812112	11831.003303
519.175516	11833.959940
519.538863	11921.514700
519.902152	11933.631113
520.265385	12036.097606
520.628560	12045.083463
520.991678	11998.553613
521.354739	12045.766539
521.717743	12107.170314
522.080690	12080.563104
522.443580	12202.869058
522.806413	12217.848846
523.169189	12206.707896
523.531908	12269.530756
523.894569	12219.910678
524.257174	12228.384858
524.619722	12314.283599
524.982213	12291.026236
525.344647	12281.213630
525.707025	12289.549177
526.069345	12385.860422
526.431608	12355.265659
526.793815	12435.170468
527.155964	12323.120742
527.518057	12338.655057
527.880093	12301.897484
528.242072	12391.204045
528.603995	12318.629073
528.965860	12322.568735
529.327669	12344.616222
529.689421	12284.510544
530.051117	12291.633695
530.412755	12314.046665
530.774337	12312.836788
531.135862	12255.675144
531.497331	12304.541569
531.858743	12268.590580
532.220098	12335.708503
532.581396	12251.508631
532.942638	12171.719768
533.303824	12217.289278
533.664953	12194.084847
534.026025	12138.871610
534.387040	12211.648227
534.747999	12176.839060
535.108902	12207.453987
535.469748	12086.730955
535.830537	12089.392685
536.191270	12114.424534
536.551947	12039.003831
536.912567	12074.639748
537.273131	12094.007861
537.633638	11965.087913
537.994089	12003.962771
538.354483	11911.465160
538.714821	12004.555107
539.075103	12064.948130
539.435328	11983.717497
539.795497	11943.824326
540.155609	11930.475351
540.515665	11994.185453
540.875665	11848.193638
541.235609	11919.835996
541.595496	11860.504135
541.955328	11981.885038
542.315102	11834.511946
542.674821	11757.160482
543.034483	11747.549522
543.394090	11727.304248
543.753640	11677.064109
544.113134	11860.090761
544.472571	11634.763787
544.831953	11848.428051
545.191278	11670.850887
545.550548	11587.099677
545.909761	11657.547282
546.268918	11656.712971
546.628019	11689.336798
546.987064	11564.142263
547.346053	11417.590879
547.704986	11542.588809
548.063863	11421.374265
548.422684	11428.797364
548.781449	11361.838238
549.140158	11415.307236
549.498811	11349.941115
549.857408	11209.101359
550.215949	11334.094248
550.574434	11272.332552
550.932864	11188.384737
551.291237	11314.222019
551.649555	11189.549244
552.007817	11202.278157
552.366022	11101.765111
552.724173	11097.172620
553.082267	11126.255037
553.440305	11157.011116
553.798288	10983.653397
554.156215	10998.550007
554.514086	10995.338792
554.871902	10914.443396
555.229661	10880.463498
555.587365	10799.835284
555.945014	10776.618250
556.302606	10717.109949
556.660143	10729.793492
557.017625	10704.408762
557.375050	10635.859152
557.732421	10659.781948
558.089735	10606.139030
558.446994	10543.089318
558.804197	10581.117262
559.161345	10532.296208
559.518437	10345.312250
559.875474	10363.972081
560.232455	10345.770995
560.589381	10324.804836
560.946251	10237.950797
561.303065	10305.408997
561.659825	10229.965609
562.016528	10114.755079
562.373177	10025.854331
562.729770	10055.796264
563.086307	9926.972098
563.442789	9951.003279
563.799216	9925.719372
564.155587	9835.371812
564.511904	9800.618098
564.868164	9752.349050
565.224370	9746.171116
565.580520	9650.668977
565.936615	9645.181681
566.292654	9533.278148
566.648638	9532.108600
567.004567	9481.074479
567.360441	9420.628524
567.716260	9346.750414
568.072023	9348.635806
568.427732	9272.572356
568.783385	9156.865272
569.138982	9165.596551
569.494525	9113.685269
569.850013	9021.694293
570.205445	8964.000808
570.560823	8922.577647
570.916145	8838.292075
571.271412	8787.063870
571.626625	8702.705202
571.981782	8648.918611
572.336884	8560.466525
572.691931	8552.468735
573.046923	8438.218544
573.401860	8371.002320
573.756743	8311.171385
574.111570	8271.469778
574.466342	8202.413532
574.821059	8178.190788
575.175722	8055.955410
575.530330	8006.158892
575.884882	7923.289885
576.239380	7863.300154
576.593823	7800.273128
576.948211	7739.260043
577.302544	7628.394988
577.656823	7579.584016
578.011047	7549.561424
578.365216	7464.958259
578.719330	7386.127216
579.073389	7313.285064
579.427394	7269.870647
579.781344	7207.929989
580.135239	7132.448793
580.489080	7085.472801
580.842866	6988.314643
581.196597	6975.235369
581.550273	6917.352841
581.903895	6853.990578
582.257463	6846.605288
582.610975	6735.394913
582.964434	6713.239042
583.317837	6629.608820
583.671186	6566.354942
584.024481	6535.137597
584.377721	6441.057063
584.730906	6416.594864
585.084037	6377.157918
585.437113	6294.417460
585.790135	6261.965032
586.143103	6177.064439
586.496016	6140.712679
586.848874	6096.572336
587.201679	6047.050561
587.554428	5959.705009
587.907124	5927.116470
588.259765	5862.662798
588.612352	5841.888203
588.964884	5754.270428
589.317362	5727.201952
589.669786	5680.223440
590.022155	5627.939113
590.374470	5610.242142
590.726731	5533.878744
591.078937	5453.747083
591.431090	5421.342546
591.783188	5360.926838
592.135232	5296.989883
592.487222	5267.741109
592.839157	5230.544955
593.191038	5173.053116
593.542866	5122.833141
593.894639	5040.513620
594.246358	5025.128018
594.598022	4984.705526
594.949633	4920.844189
595.301190	4880.391450
595.652692	4835.431919
596.004141	4819.209486
596.355535	4733.835025
596.706876	4691.917831
597.058162	4653.468951
597.409395	4638.088390
597.760573	4608.834575
598.111698	4549.268301
598.462768	4519.429711
598.813785	4484.151717
599.164748	4425.278601
599.515657	4408.872166
599.866511	4352.242364
600.217312	4345.799770
600.568060	4271.508286
600.918753	4274.439717
601.269392	4242.050303
601.619978	4192.692366
601.970510	4171.542205
602.320988	4153.416736
602.671412	4133.864621
603.021783	4097.601081
603.372100	4058.345616
603.722363	4028.592726
604.072572	4006.668748
604.422728	3981.757886
604.772830	3941.584931
605.122878	3916.043925
605.472872	3886.447311
605.822813	3869.241853
606.172701	3841.026515
606.522534	3827.425482
606.872314	3808.261535
607.222041	3776.908079
607.571714	3764.806789
607.921333	3720.608473
608.270899	3706.833520
608.620411	3693.746684
608.969870	3665.919515
609.319276	3645.039056
609.668627	3621.960654
610.017926	3613.529324
610.367171	3598.065584
610.716362	3573.989034
611.065500	3555.702248
611.414585	3539.724311
611.763616	3526.967671
612.112594	3504.279958
612.461518	3489.756394
612.810389	3478.018067
613.159207	3453.707103
613.507971	3436.688168
613.856682	3432.193979
614.205340	3411.404260
614.553945	3407.731780
614.902496	3380.643140
615.250994	3372.630226
615.599439	3357.688246
615.947830	3341.667459
616.296169	3326.914522
616.644454	3316.839776
616.992686	3303.205975
617.340864	3299.878814
617.688990	3276.324022
618.037063	3276.876029
618.385082	3264.565531
618.733048	3256.696290
619.080961	3244.143817
619.428821	3229.970613
619.776628	3217.372769
620.124382	3203.517158
620.472083	3189.885878
620.819731	3178.800381
621.167326	3157.335148
621.514868	3144.107160
621.862357	3122.064715
622.209793	3109.615585
622.557176	3090.514653
622.904506	3074.138465
623.251783	3056.204560
623.599007	3039.198228
623.946179	3029.428472
624.293297	3013.173271
624.640363	3000.855212
624.987376	2988.819457
625.334336	2978.636326
625.681243	2963.412042
626.028097	2953.581792
626.374899	2945.977211
626.721647	2936.572938
627.068343	2927.405600
627.414987	2918.931421
627.761577	2906.764596
628.108115	2903.535737
628.454600	2892.016700
628.801032	2885.647202
629.147412	2879.774258
629.493739	2876.958774
629.840014	2865.240612
630.186236	2862.200796
630.532405	2854.271061
630.878521	2849.819722
631.224585	2844.312261
631.570597	2835.376816
631.916556	2834.418997
632.262462	2829.221567
632.608316	2825.907009
632.954117	2818.080617
633.299866	2815.063487
633.645562	2810.609627
633.991206	2803.095787
634.336797	2796.343162
634.682336	2788.254631
635.027823	2780.685338
635.373257	2774.605707
635.718639	2769.811569
636.063968	2762.562390
636.409245	2758.836977
636.754470	2753.692480
637.099642	2745.326685
637.444762	2743.577405
637.789829	2739.121025
638.134845	2738.034656
638.479808	2729.290775
638.824719	2729.066443
639.169577	2723.463201
639.514383	2719.813405
639.859137	2716.196377
640.203839	2714.386603
640.548489	2713.330482
640.893086	2705.529296
641.237632	2702.383616
641.582125	2699.948739
641.926566	2695.779704
642.270955	2699.283306
642.615292	2696.848429
642.959576	2694.889941
643.303809	2693.334745
643.647990	2691.124199
643.992118	2688.865762
644.336195	2687.527336
644.680219	2687.544980
645.024192	2686.319979
645.368112	2685.757891
645.711981	2680.757066
646.055797	2685.407530
646.399562	2680.419309
646.743274	2686.393076
647.086935	2687.176975
647.430544	2684.595905
647.774101	2683.776717
648.117606	2686.405679
648.461059	2684.116995
648.804460	2681.616583
649.147810	2676.341015
649.491108	2674.770696
649.834354	2673.722136
650.177548	2671.443534
650.520690	2666.243584
650.863781	2666.906496
651.206820	2666.939263
651.549807	2662.712256
651.892742	2661.215033
652.235626	2655.387459
652.578458	2657.449291
652.921238	2653.713796
653.263967	2656.549445
653.606644	2654.122130
653.949269	2652.670277
654.291843	2647.619041
654.634365	2651.415030
654.976836	2649.532159
655.319255	2647.951757
655.661622	2646.701551
656.003938	2646.832621
656.346203	2645.403454
656.688416	2644.228865
657.030577	2643.197949
657.372687	2639.336425
657.714746	2643.881026
658.056753	2642.817342
658.398708	2638.182001
658.740612	2635.094294
659.082465	2636.329377
659.424266	2633.599592
659.766016	2635.553039
660.107715	2636.195787
660.449362	2637.990437
660.790958	2636.687299
661.132503	2637.501445
661.473996	2636.135293
661.815438	2636.551188
662.156829	2636.654532
662.498168	2636.536064
662.839456	2635.323667
663.180693	2633.493728
663.521879	2634.786784
663.863013	2634.413739
664.204097	2635.109418
664.545129	2632.298975
664.886110	2636.117649
665.227040	2635.036321
665.567918	2631.535240
665.908746	2630.912657
666.249522	2631.905765
666.590248	2631.749489
666.930922	2632.813172
667.271545	2633.161012
667.612118	2631.736886
667.952639	2629.874180
668.293109	2630.741258
668.633528	2630.726135
668.973896	2632.480456
669.314213	2629.823768
669.654480	2629.712863
669.994695	2630.360651
670.334859	2628.061885
670.674973	2626.647841
671.015035	2629.259159
671.355047	2627.673716
671.695008	2627.950979
672.034918	2628.596247
672.374777	2626.683129
672.714585	2624.704476
673.054342	2627.154477
673.394049	2624.356637
673.733705	2628.432410
674.073310	2622.980402
674.412864	2627.353603
674.752368	2624.565845
675.091820	2626.423510
675.431223	2622.120885
675.770574	2623.204733
676.109875	2620.958899
676.449125	2620.351440
676.788324	2617.624176
677.127473	2619.146604
677.466571	2615.111161
677.805619	2619.123919
678.144616	2619.766666
678.483562	2619.839763
678.822458	2618.738271
679.161303	2619.375977
679.500098	2618.806326
679.838842	2618.902108
680.177535	2616.016048
680.516179	2618.082921
680.854771	2619.436471
681.193314	2620.575771
681.531805	2621.939403
681.870247	2622.486369
682.208638	2624.313787
682.546978	2622.619959
682.885268	2623.401338
683.223508	2623.754219
683.561697	2623.406379
683.899836	2622.478807
684.237925	2621.152983
684.575963	2622.491410
684.913951	2620.132150
685.251889	2620.893364
685.589776	2620.401852
685.927614	2621.440329
686.265401	2618.413116
686.603137	2621.155504
686.940824	2621.062243
687.278460	2621.392438
687.616046	2620.616101
687.953582	2622.178858
688.291068	2622.090638
688.628504	2620.338837
688.965889	2623.970988
689.303224	2622.756070
689.640510	2619.572582
689.977745	2620.830350
690.314930	2619.633076
690.652065	2619.086110
690.989150	2616.499998
691.326185	2614.775924
691.663170	2613.097220
692.000105	2616.482354
692.336990	2613.719802
692.673825	2613.755090
693.010610	2613.326592
693.347345	2606.001796
693.684030	2603.680344
694.020665	2607.378031
694.357251	2603.650097
694.693786	2605.842999
695.030272	2606.231168
695.366707	2603.829058
695.703093	2604.237392
696.039429	2607.259563
696.375716	2605.417022
696.711952	2605.348966
697.048139	2604.577670
697.384276	2605.106991
697.720363	2604.262597
698.056400	2606.405088
698.392388	2605.777464
698.728326	2605.265787
699.064214	2606.846189
699.400053	2602.891404
699.735842	2601.706732
700.071581	2604.343256
700.407270	2603.871908
700.742910	2601.532813
701.078501	2601.610951
701.414042	2600.464088
701.749533	2600.713625
702.084974	2602.536002
702.420366	2598.994592
702.755709	2602.639346
703.091002	2598.974427
703.426246	2600.862339
703.761440	2599.657503
704.096584	2600.234716
704.431679	2598.760178
704.766725	2601.000971
705.101721	2597.608274
705.436668	2599.377719
705.771565	2600.539705
706.106413	2597.802359
706.441212	2598.006526
706.775961	2598.908892
707.110661	2599.198758
707.445311	2598.843357
707.779913	2598.913933
708.114465	2600.214551
708.448967	2599.823862
708.783421	2602.798142
709.117825	2602.034408
709.452180	2602.765375
709.786485	2601.530292
710.120742	2603.382916
710.454949	2604.297886
710.789107	2601.812597
711.123216	2601.318564
711.457275	2600.423759
711.791286	2603.060282
712.125247	2603.773606
712.459159	2606.498349
712.793023	2608.356014
713.126837	2604.897783
713.460602	2605.321240
713.794318	2605.026332
714.127985	2605.845520
714.461602	2603.705550
714.795171	2603.907196
715.128691	2603.498863
715.462162	2603.697988
715.795584	2599.896958
716.128957	2604.439038
716.462281	2601.164808
716.795556	2601.978955
717.128782	2601.283276
717.461960	2598.540888
717.795088	2596.980651
718.128167	2598.447627
718.461198	2596.610126
718.794180	2596.398397
719.127113	2597.547781
719.459997	2595.821185
719.792833	2595.387646
720.125619	2595.879159
720.458357	2593.028386
720.791046	2595.143150
721.123686	2593.540063
721.456278	2593.401432
721.788821	2592.950248
722.121315	2594.631473
722.453761	2594.528129
722.786158	2593.640886
723.118506	2593.570310
723.450805	2595.001998
723.783056	2593.040989
724.115259	2591.556369
724.447412	2591.430340
724.779518	2594.770105
725.111574	2593.202306
725.443582	2592.723396
725.775542	2592.337748
726.107453	2594.397059
726.439315	2593.650969
726.771129	2596.852101
727.102895	2596.237081
727.434612	2597.484766
727.766281	2594.218098
728.097901	2595.269179
728.429473	2595.372523
728.760996	2595.901844
729.092471	2592.519230
729.423897	2593.686257
729.755276	2598.848398
730.086606	2598.402256
730.417887	2599.680189
730.749120	2597.071392
731.080305	2598.951742
731.411442	2598.329159
731.742530	2597.940991
732.073570	2598.372009
732.404562	2598.283789
732.735506	2602.533482
733.066401	2599.670106
733.397249	2599.692792
733.728048	2599.183635
734.058798	2598.682040
734.389501	2595.624580
734.720156	2595.601895
735.050762	2593.923191
735.381320	2591.611822
735.711831	2595.543922
736.042293	2591.284147
736.372707	2592.935125
736.703073	2592.037799
737.033391	2592.637697
737.363661	2592.146184
737.693883	2590.507809
738.024056	2597.331011
738.354182	2593.764395
738.684260	2593.441761
739.014290	2593.736668
739.344272	2595.387646
739.674207	2595.206165
740.004093	2594.777667
740.333931	2595.717842
740.663722	2593.686257
740.993464	2597.089036
741.323159	2598.997112
741.652806	2594.369333
741.982405	2594.724734
742.311956	2595.987543
742.641460	2593.512337
742.970915	2592.173911
743.300323	2592.960331
743.629683	2594.457553
743.958996	2593.051071
744.288260	2592.189034
744.617477	2591.090062
744.946647	2585.398600
745.275768	2588.486307
745.604842	2584.977663
745.933869	2586.666450
746.262847	2586.908425
746.591778	2593.083839
746.920662	2589.257603
747.249498	2589.169383
747.578286	2587.183168
747.907027	2590.883375
748.235720	2589.159301
748.564365	2590.021338
748.892963	2589.048395
749.221514	2589.595360
749.550017	2591.823550
749.878473	2589.015628
750.206881	2589.439085
750.535242	2592.728437
750.863555	2589.587799
751.191821	2591.430340
751.520039	2591.440423
751.848210	2590.280957
752.176334	2591.304312
752.504411	2588.781214
752.832440	2590.737182
753.160421	2591.326997
753.488356	2590.154928
753.816243	2590.512850
754.144082	2588.425813
754.471875	2586.880699
754.799620	2584.309711
755.127318	2584.541604
755.454969	2589.086204
755.782572	2589.817171
756.110129	2589.363467
756.437638	2586.477407
756.765100	2587.742736
757.092515	2591.695001
757.419882	2585.527149
757.747203	2589.018148
758.074477	2589.285329
758.401703	2588.476224
758.728882	2591.074939
759.056014	2588.115782
759.383099	2587.553693
759.710138	2588.488827
760.037129	2588.917325
760.364073	2589.986050
760.690970	2589.764239
761.017820	2590.777511
761.344623	2593.630804
761.671379	2593.630804
761.998088	2585.847262
762.324751	2589.184506
762.651366	2593.172059
762.977935	2600.930395
763.304456	2606.510952
763.630931	2611.300048
763.957359	2612.479678
764.283740	2609.001282
764.610074	2607.599841
764.936362	2602.576332
765.262602	2602.626743
765.588796	2599.823862
765.914943	2592.418407
766.241044	2592.272213
766.567097	2588.335072
766.893104	2588.940010
767.219064	2587.241142
767.544978	2585.322982
767.870845	2584.150914
768.196665	2587.467993
768.522438	2584.922211
768.848165	2583.334247
769.173846	2584.372725
769.499479	2584.786100
769.825066	2582.774679
770.150607	2584.705441
770.476101	2582.053794
770.801548	2586.258117
771.126949	2580.889288
771.452303	2583.989597
771.777611	2583.863568
772.102872	2584.657550
772.428087	2580.085224
772.753256	2579.818042
773.078378	2580.218814
773.403453	2581.045563
773.728482	2579.870975
774.053465	2580.289390
774.378401	2579.356777
774.703291	2581.728640
775.028135	2579.659246
775.352932	2580.223855
775.677683	2578.270408
776.002388	2581.519432
776.327046	2578.338464
776.651658	2577.980542
776.976224	2579.361818
777.300743	2579.104719
777.625216	2578.353587
777.949643	2579.618917
778.274024	2579.321489
778.598359	2573.771178
778.922647	2572.823442
779.246889	2574.489543
779.571086	2573.133472
779.895236	2576.944585
780.219339	2576.042218
780.543397	2580.034812
780.867409	2578.260326
781.191374	2577.436097
781.515294	2578.782085
781.839167	2578.441807
782.162995	2577.642785
782.486776	2579.825604
782.810511	2579.966757
783.134201	2578.308217
783.457844	2578.882908
783.781441	2580.720409
784.104993	2579.094637
784.428498	2578.852662
784.751958	2578.272929
785.075372	2578.247723
785.398739	2579.069431
785.722061	2577.088258
786.045337	2578.247723
786.368568	2578.179667
786.691752	2577.352918
787.014891	2581.098496
787.337983	2578.872826
787.661030	2578.716550
787.984031	2581.196798
788.306987	2580.922055
788.629897	2583.281315
788.952760	2580.934658
789.275579	2580.632189
789.598351	2584.463466
789.921078	2580.906932
790.243759	2583.959350
790.566395	2580.435584
790.888984	2580.649833
791.211529	2579.205542
791.534027	2579.069431
791.856480	2576.102712
792.178888	2579.513053
792.501249	2580.606983
792.823566	2576.684965
793.145836	2578.000707
793.468062	2576.818556
793.790241	2579.127404
794.112375	2580.417940
794.434464	2579.737384
794.756507	2576.243864
795.078505	2577.756211
795.400457	2573.970304
795.722364	2575.538103
796.044226	2576.271591
796.366042	2575.805284
796.687812	2576.122877
797.009538	2579.797878
797.331218	2579.966757
797.652852	2579.593711
797.974442	2580.541448
798.295986	2579.134966
798.617484	2579.598752
798.938938	2578.030953
799.260346	2578.504822
799.581709	2580.117991
799.903026	2581.058166
800.224299	2580.405337
800.545526	2579.087075
800.866708	2578.240161
801.187845	2579.082034
801.508936	2579.482806
801.829983	2576.090109
802.150984	2579.013978
802.471940	2575.555747
802.792851	2578.388875
803.113717	2576.102712
803.434538	2574.829821
803.755314	2579.911304
804.076045	2577.776375
804.396731	2575.160016
804.717372	2574.913000
805.037967	2576.954667
805.358518	2577.042887
805.679024	2575.833010
805.999485	2576.937023
806.319901	2576.362332
806.640272	2576.080027
806.960598	2579.046746
807.280879	2574.950808
807.601115	2577.917527
807.921306	2574.093812
808.241453	2577.680593
808.561554	2574.121539
808.881611	2577.615058
809.201623	2577.524318
809.521590	2578.086406
809.841513	2577.310068
810.161390	2577.035326
810.481223	2574.900397
810.801011	2576.584142
811.120755	2576.160685
811.440453	2575.719584
811.760107	2575.492732
812.079716	2571.658935
812.399281	2572.568863
812.718801	2571.001064
813.038276	2569.448389
813.357707	2573.846796
813.677093	2575.646488
813.996434	2577.650346
814.315731	2576.039698
814.634983	2575.865778
814.954191	2576.838721
815.273354	2578.109091
815.592473	2574.915520
815.911547	2576.173288
816.230577	2575.288566
816.549562	2577.781416
816.868502	2576.208576
817.187399	2579.034143
817.506250	2578.928279
817.825058	2577.733525
818.143821	2576.692527
818.462539	2578.542631
818.781213	2578.043556
819.099843	2581.045563
819.418429	2581.660584
819.736970	2585.254927
820.055466	2588.539239
820.373919	2588.201481
820.692327	2592.259610
821.010691	2603.332505
821.329011	2615.174175
821.647286	2647.838331
821.965517	2677.427384
822.283704	2704.314378
822.601847	2715.672097
822.919945	2709.257229
823.237999	2699.550487
823.556010	2684.931141
823.873976	2669.951353
824.191897	2657.509785
824.509775	2647.606438
824.827609	2633.849129
825.145398	2627.577934
825.463144	2622.440998
825.780845	2618.493775
826.098502	2619.643158
826.416116	2625.228756
826.733685	2633.723101
827.051210	2637.614871
827.368692	2638.512197
827.686129	2629.659931
828.003522	2622.446039
828.320872	2608.925665
828.638177	2603.655138
828.955439	2599.143306
829.272656	2593.691298
829.589830	2590.679208
829.906960	2589.373550
830.224046	2585.759042
830.541088	2586.873137
830.858086	2584.902046
831.175041	2577.816704
831.491952	2580.803588
831.808819	2580.014648
832.125642	2581.179154
832.442421	2583.223342
832.759157	2585.950606
833.075849	2590.502768
833.392497	2594.923860
833.709101	2602.460385
834.025662	2603.408122
834.342179	2606.710078
834.658653	2599.108018
834.975083	2598.225816
835.291469	2599.632298
835.607811	2591.165680
835.924110	2588.609815
836.240366	2585.617890
836.556578	2581.650502
836.872746	2582.557910
837.188871	2578.487178
837.504952	2579.482806
837.820990	2574.320664
838.136984	2572.377299
838.452935	2574.038360
838.768842	2575.331416
839.084706	2573.070458
839.400526	2578.575398
839.716303	2577.483988
840.032037	2583.185533
840.347727	2586.127047
840.663373	2584.534042
840.978977	2581.247210
841.294537	2578.882908
841.610054	2577.456262
841.925527	2575.117167
842.240957	2573.685479
842.556344	2576.374934
842.871687	2573.955181
843.186987	2575.379307
843.502244	2572.780592
843.817458	2571.122052
844.132629	2570.285221
844.447756	2572.783112
844.762840	2567.671382
845.077881	2565.357493
845.392879	2568.271280
845.707833	2566.958059
846.022745	2566.640466
846.337613	2571.875705
846.652438	2569.173646
846.967221	2568.379664
847.281960	2568.079716
847.596656	2569.559294
847.911309	2571.021229
848.225919	2566.118707
848.540485	2568.472926
848.855009	2568.669531
849.169490	2567.187432
849.483928	2568.188101
849.798323	2566.716084
850.112675	2567.227761
850.426984	2570.373441
850.741251	2567.676423
851.055474	2570.300344
851.369654	2569.584500
851.683792	2567.956207
851.997887	2566.706001
852.311938	2569.329922
852.625947	2567.215158
852.939914	2568.722463
853.253837	2568.558625
853.567718	2568.299006
853.881555	2568.941753
854.195350	2567.731876
854.509103	2568.238512
854.822812	2566.920250
855.136479	2568.094839
855.450103	2568.137689
855.763685	2571.404357
856.077224	2572.188256
856.390720	2567.890672
856.704173	2568.535940
857.017584	2568.155333
857.330953	2567.699109
857.644278	2568.979562
857.957561	2569.226578
858.270802	2571.348904
858.584000	2571.459809
858.897155	2568.790518
859.210268	2570.189439
859.523339	2568.946794
859.836367	2568.452761
860.149352	2569.884449
860.462295	2567.429407
860.775195	2562.889848
861.088054	2563.487225
861.400869	2565.584345
861.713642	2564.732390
862.026373	2564.601320
862.339062	2568.820765
862.651708	2569.004767
862.964312	2568.392267
863.276873	2568.311609
863.589392	2569.627350
863.901869	2570.822103
864.214303	2567.757082
864.526696	2569.425704
864.839045	2570.607854
865.151353	2567.767164
865.463619	2571.154820
865.775842	2567.300857
866.088023	2568.845971
866.400162	2569.720611
866.712258	2570.232288
867.024313	2569.408060
867.336325	2567.752041
867.648296	2569.710529
867.960224	2568.382185
868.272110	2567.595765
868.583954	2570.108780
868.895755	2567.862946
869.207515	2570.701116
869.519233	2572.720098
869.830909	2570.585169
870.142542	2569.783626
870.454134	2568.213306
870.765684	2570.388564
871.077191	2569.526527
871.388657	2570.927968
871.700081	2568.404870
872.011463	2569.213975
872.322803	2570.050807
872.634101	2570.247412
872.945357	2572.833524
873.256571	2568.606516
873.567744	2570.315467
873.878874	2574.499625
874.189963	2571.560633
874.501010	2574.489543
874.812015	2571.036352
875.122979	2570.529717
875.433900	2574.789492
875.744780	2569.466033
876.055618	2573.488874
876.366415	2570.791857
876.677169	2573.559450
876.987882	2571.497618
877.298554	2567.983934
877.609183	2567.988975
877.919771	2570.514593
878.230317	2570.396126
878.540822	2575.275963
878.851285	2576.790830
879.161707	2576.770665
879.472087	2577.836869
879.782425	2580.475913
880.092722	2588.624938
880.402977	2596.821854
880.713191	2609.434821
881.023363	2625.362347
881.333494	2637.813997
881.643583	2640.838689
881.953631	2645.348001
882.263637	2641.552012
882.573602	2637.428349
882.883526	2634.481794
883.193408	2628.467698
883.503248	2623.209774
883.813048	2620.865638
884.122806	2613.903804
884.432522	2609.215531
884.742197	2604.779316
885.051831	2601.752103
885.361424	2594.371854
885.670975	2591.309353
885.980485	2587.420102
886.289954	2589.166862
886.599382	2584.085379
886.908768	2583.160327
887.218113	2580.299473
887.527417	2578.577919
887.836680	2577.448700
888.145901	2577.947774
888.455082	2576.006930
888.764221	2576.001889
889.073319	2577.413412
889.382376	2571.580797
889.691392	2571.560632
890.000366	2574.262691
890.309300	2572.241188
890.618193	2574.915520
890.927044	2573.912331
891.235855	2572.248750
891.544625	2570.005437
891.853353	2572.155489
892.162041	2571.565674
892.470687	2574.890315
892.779293	2576.841241
893.087858	2572.553740
893.396381	2575.933833
893.704864	2576.538772
894.013306	2580.854000
894.321707	2590.298601
894.630068	2591.319435
894.938387	2594.487800
895.246665	2594.812955
895.554903	2589.741554
895.863100	2590.845567
896.171256	2588.461101
896.479371	2585.849783
896.787446	2586.283322
897.095480	2584.201326
897.403473	2582.535224
897.711425	2578.678742
898.019336	2580.811150
898.327207	2577.652867
898.635038	2576.289235
898.942827	2572.523493
899.250576	2576.034657
899.558284	2573.103226
899.865952	2573.831672
900.173579	2572.198338
900.481165	2570.756568
900.788711	2572.931826
901.096216	2573.652711
901.403681	2573.700602
901.711105	2571.399316
902.018489	2570.088616
902.325832	2574.769327
902.633135	2573.148596
902.940397	2571.724470
903.247619	2575.444842
903.554800	2580.687642
903.861941	2587.226018
904.169041	2591.442943
904.476101	2598.414859
904.783121	2601.132041
905.090100	2595.717842
905.397039	2592.902357
905.703938	2593.477049
906.010796	2586.827767
906.317614	2587.044537
906.624391	2584.002200
906.931129	2582.734350
907.237826	2580.730491
907.544483	2578.497260
907.851099	2578.527507
908.157675	2576.155644
908.464211	2572.767989
908.770707	2567.807493
909.077163	2565.871690
909.383578	2565.816238
909.689954	2563.802297
909.996289	2565.186093
910.302584	2571.117011
910.608839	2568.029304
910.915054	2569.050138
911.221229	2567.653738
911.527363	2568.601475
911.833458	2567.792370
912.139513	2567.678944
912.445527	2566.211968
912.751502	2569.786146
913.057436	2571.180025
913.363331	2569.145920
913.669186	2570.151630
913.975000	2573.239337
914.280775	2573.715726
914.586510	2574.993658
914.892205	2577.771334
915.197859	2579.737384
915.503475	2587.646954
915.809050	2589.761718
916.114585	2595.851432
916.420081	2595.208685
916.725536	2597.489807
917.030952	2599.518872
917.336328	2594.881010
917.641665	2593.948397
917.946961	2593.431678
918.252218	2589.073601
918.557435	2590.717017
918.862612	2585.738878
919.167750	2588.314907
919.472848	2583.866089
919.777906	2582.036150
920.082925	2579.639082
920.387904	2579.061869
920.692843	2579.591191
920.997743	2572.800756
921.302603	2574.645819
921.607423	2574.083730
921.912204	2573.319995
922.216946	2573.015005
922.521647	2567.754561
922.826310	2571.394274
923.130932	2572.767989
923.435516	2568.109963
923.740059	2568.087277
924.044564	2570.121383
924.349028	2568.934191
924.653454	2565.158367
924.957840	2563.658624
925.262186	2564.555949
925.566493	2563.940928
925.870761	2564.008984
926.174989	2565.791032
926.479178	2566.176680
926.783328	2565.266752
927.087438	2564.218192
927.391509	2566.315312
927.695541	2564.240877
927.999533	2564.409756
928.303486	2563.787173
928.607400	2564.808007
928.911275	2563.640980
929.215110	2567.053841
929.518906	2563.305743
929.822663	2565.730538
930.126381	2564.084601
930.430060	2563.860270
930.733699	2565.362534
931.037299	2564.523182
931.340861	2565.644838
931.644383	2567.010991
931.947866	2564.145095
932.251309	2566.257339
932.554714	2562.244580
932.858080	2566.915209
933.161407	2564.039231
933.464694	2565.123079
933.767943	2565.609550
934.071153	2565.481001
934.374323	2562.859601
934.677455	2565.906978
934.980548	2564.235836
935.283602	2562.975547
935.586617	2561.059909
935.889593	2566.582493
936.192530	2559.897923
936.495428	2562.395815
936.798287	2562.161401
937.101108	2565.680127
937.403890	2568.004098
937.706632	2566.562328
938.009336	2565.846485
938.312002	2565.291958
938.614628	2566.229612
938.917216	2568.404870
939.219765	2566.151474
939.522275	2568.162895
939.824747	2567.842782
940.127179	2564.369427
940.429573	2561.879097
940.731929	2562.463870
941.034246	2562.967986
941.336524	2562.635270
941.638763	2565.216340
941.940964	2569.410580
942.243126	2566.605178
942.545250	2564.744993
942.847335	2565.778429
943.149381	2562.680640
943.451389	2564.379509
943.753359	2566.834551
944.055290	2565.193655
944.357182	2565.216340
944.659036	2563.270455
944.960851	2565.871690
945.262628	2565.639797
945.564367	2567.442010
945.866067	2568.687175
946.167729	2563.963614
946.469352	2563.822461
946.770937	2565.919581
947.072484	2562.037893
947.373992	2565.216340
947.675462	2565.881773
947.976893	2566.673234
948.278286	2563.361196
948.579641	2564.873542
948.880958	2564.185424
949.182236	2564.820610
949.483476	2561.311967
949.784678	2566.579972
950.085841	2563.998902
950.386967	2566.438820
950.688054	2563.262893
950.989103	2562.277348
951.290114	2562.756257
951.591087	2563.328428
951.892021	2565.009653
952.192917	2567.124417
952.493776	2565.254149
952.794596	2563.393963
953.095378	2564.278686
953.396122	2566.365723
953.696828	2566.038048
953.997496	2570.355797
954.298126	2565.249108
954.598718	2566.731207
954.899272	2567.484860
955.199788	2564.455126
955.500266	2565.349931
955.800706	2561.906823
956.101108	2558.186451
956.401472	2560.215516
956.701798	2559.605536
957.002087	2560.094528
957.302337	2563.159550
957.602550	2563.172152
957.902724	2563.646021
958.202861	2565.947308
958.502960	2563.199879
958.803022	2563.242729
959.103045	2563.174673
959.403031	2562.456309
959.702979	2560.580999
960.002889	2563.393963
960.302762	2562.088304
960.602596	2565.728017
960.902393	2562.007646
961.202153	2559.340876
961.501875	2559.875238
961.801559	2562.426062
962.101205	2561.243911
962.400814	2562.748696
962.700385	2563.756926
962.999918	2561.987481
963.299414	2558.912377
963.598873	2559.774415
963.898293	2560.528067
964.197677	2564.487894
964.497022	2562.310115
964.796331	2560.396997
965.095601	2560.137378
965.394835	2562.957903
965.694030	2561.405228
965.993189	2560.333983
966.292309	2560.911195
966.591393	2559.492110
966.890439	2562.398335
967.189447	2560.175187
967.488419	2559.202244
967.787353	2559.071174
968.086249	2559.807182
968.385108	2561.460681
968.683930	2561.553942
968.982714	2559.277861
969.281462	2562.121072
969.580172	2563.237688
969.878844	2559.580330
970.177480	2561.037224
970.476078	2560.575958
970.774639	2561.319528
971.073162	2561.581668
971.371649	2559.177038
971.670098	2556.424568
971.968510	2558.257028
972.266885	2555.285267
972.565223	2560.165104
972.863524	2561.858932
973.161788	2559.345917
973.460014	2562.032852
973.758204	2562.156360
974.056356	2561.478325
974.354471	2561.264076
974.652550	2561.974878
974.950591	2561.072512
975.248595	2559.844991
975.546563	2562.378171
975.844493	2561.238870
976.142386	2562.413459
976.440243	2557.216029
976.738062	2560.936401
977.035845	2560.321380
977.333590	2562.277348
977.631299	2560.704508
977.928971	2561.347255
978.226606	2561.667368
978.524204	2561.271637
978.821765	2563.386402
979.119290	2562.292471
979.416777	2561.130485
979.714228	2559.935732
980.011642	2561.669889
980.309020	2563.502348
980.606360	2557.649568
980.903664	2561.785835
981.200931	2562.090825
981.498162	2561.120403
981.795356	2560.671740
982.092513	2562.529405
982.389633	2564.339180
982.686717	2565.123079
982.983764	2564.092163
983.280775	2565.962431
983.577749	2566.234653
983.874686	2566.592575
984.171587	2567.126938
984.468451	2565.763306
984.765279	2564.147616
985.062070	2564.518141
985.358824	2564.392112
985.655543	2563.658624
985.952224	2564.414797
986.248869	2562.879766
986.545478	2558.166287
986.842050	2559.744168
987.138586	2557.889023
987.435086	2556.974054
987.731549	2557.256358
988.027975	2559.734086
988.324366	2558.980433
988.620719	2559.968499
988.917037	2559.834909
989.213318	2561.531257
989.509563	2558.506565
989.805772	2560.649055
990.101944	2558.322563
990.398080	2559.691236
990.694180	2557.906667
990.990244	2559.381205
991.286271	2559.252655
991.582262	2560.081925
991.878217	2561.874055
992.174136	2558.869528
992.470019	2557.344579
992.765865	2561.979920
993.061676	2560.127296
993.357450	2557.919270
993.653188	2558.788869
993.948890	2559.436657
994.244556	2558.740978
994.540186	2561.914385
994.835780	2561.541339
995.131337	2559.121585
995.426859	2562.025290
995.722345	2559.686195
996.017795	2560.034034
996.313208	2561.448078
996.608586	2561.629559
996.903928	2560.835578
997.199234	2562.292471
997.494504	2562.615105
997.789738	2562.292471
998.084936	2563.988819
998.380099	2559.119065
998.675225	2562.257183
998.970316	2563.719118
999.265371	2563.189797
999.560390	2559.572769
999.855373	2560.507903
1000.150320	2558.506565
1000.445232	2561.616957
1000.740108	2561.354817
1001.034948	2558.814075
1001.329752	2559.653427
1001.624521	2564.210630
1001.919254	2555.975905
1002.213951	2554.478683
1002.508613	2554.897098
1002.803239	2555.549928
1003.097829	2554.042623
1003.392384	2557.730227
1003.686903	2557.400031
1003.981386	2557.667212
1004.275834	2556.883313
1004.570246	2559.965979
1004.864623	2557.687377
1005.158964	2558.345248
1005.453270	2559.144271
1005.747540	2556.260731
1006.041775	2558.146122
1006.335974	2558.320042
1006.630138	2558.602347
1006.924266	2557.047151
1007.218359	2556.676626
1007.512416	2556.616132
1007.806438	2557.006821
1008.100425	2557.309291
1008.394376	2560.281051
1008.688292	2560.641493
1008.982172	2559.739127
1009.276017	2558.836760
1009.569827	2557.485731
1009.863602	2559.817265
1010.157341	2558.441030
1010.451045	2557.982285
1010.744714	2558.874569
1011.038347	2559.222408
1011.331945	2559.056050
1011.625508	2556.762325
1011.919036	2558.219219
1012.212528	2560.069322
1012.505986	2555.383570
1012.799408	2554.682849
1013.092795	2558.635114
1013.386147	2555.623025
1013.679464	2558.879610
1013.972745	2557.437840
1014.265992	2557.503375
1014.559204	2557.778118
1014.852380	2558.683005
1015.145521	2559.282902
1015.438628	2560.543191
1015.731699	2560.092008
1016.024736	2555.900288
1016.317737	2558.100752
1016.610703	2557.692418
1016.903635	2554.718137
1017.196531	2553.430123
1017.489393	2556.192675
1017.782219	2554.594629
1018.075011	2557.810885
1018.367768	2557.266441
1018.660490	2555.915412
1018.953177	2555.915412
1019.245829	2555.915412
