Dividing Wavelength (nm)	Counts (n)	Blue Motor Position (mm): 23.000000	Red Motor Position (mm): 0.000000	
326.493990	2195.172963
326.888308	2195.172963
327.282561	2195.172963
327.676750	2151.965233
328.070874	2151.947589
328.464933	2149.308545
328.858929	2156.371202
329.252859	2156.862714
329.646726	2168.260763
330.040528	2178.988338
330.434265	2191.921419
330.827938	2210.896322
331.221547	2227.373333
331.615091	2245.239182
332.008571	2264.846750
332.401986	2282.445418
332.795338	2299.807152
333.188625	2319.523105
333.581847	2337.421722
333.975006	2354.594412
334.368100	2376.256250
334.761129	2395.067316
335.154095	2409.263205
335.546996	2437.397885
335.939833	2469.212607
336.332606	2487.632983
336.725315	2496.069354
337.117960	2509.181395
337.510540	2520.501306
337.903056	2532.736186
338.295508	2542.019471
338.687896	2551.511964
339.080220	2555.963303
339.472480	2564.205589
339.864676	2567.595765
340.256807	2574.686148
340.648875	2577.325192
341.040879	2581.027919
341.432818	2581.884916
341.824694	2587.427664
342.216506	2589.834815
342.608253	2591.294229
342.999937	2587.170565
343.391557	2589.701225
343.783113	2589.300453
344.174605	2586.900864
344.566033	2585.688466
344.957397	2588.067891
345.348697	2582.610842
345.739934	2584.859196
346.131106	2582.290728
346.522215	2579.616396
346.913260	2577.829307
347.304241	2573.410736
347.695159	2573.703123
348.086012	2572.369738
348.476802	2570.128945
348.867528	2566.280024
349.258191	2563.272976
349.648789	2559.850032
350.039324	2557.271482
350.429796	2561.944632
350.820203	2561.879097
351.210548	2559.512275
351.600828	2558.516647
351.991045	2557.737789
352.381198	2557.521019
352.771288	2556.724517
353.161314	2555.174362
353.551276	2554.445915
353.941175	2553.470452
354.331010	2555.807027
354.720782	2553.692263
355.110490	2555.663354
355.500135	2554.879454
355.889717	2553.427602
356.279235	2555.320555
356.668689	2554.534135
357.058080	2554.750905
357.447408	2556.583364
357.836672	2554.440874
358.225873	2552.381563
358.615010	2554.342572
359.004084	2554.859290
359.393095	2557.248797
359.782043	2558.196534
360.170927	2556.595967
360.559748	2557.566389
360.948505	2556.384239
361.337199	2558.922460
361.725830	2559.673592
362.114398	2558.698128
362.502903	2558.312480
362.891344	2559.965979
363.279722	2563.141906
363.668037	2561.727862
364.056289	2562.332800
364.444478	2565.622153
364.832603	2561.213664
365.220665	2564.291289
365.608665	2566.600137
365.996601	2564.765157
366.384474	2563.640980
366.772284	2563.315825
367.160031	2565.455795
367.547715	2565.599468
367.935336	2561.846329
368.322893	2564.114848
368.710388	2562.249621
369.097820	2565.901937
369.485189	2562.355486
369.872495	2568.556105
370.259738	2567.908317
370.646918	2569.914696
371.034035	2565.876732
371.421090	2569.904613
371.808081	2567.416804
372.195010	2568.873697
372.581875	2568.243553
372.968678	2570.680951
373.355418	2572.152968
373.742096	2571.243040
374.128710	2569.183728
374.515262	2569.962587
374.901751	2573.065417
375.288177	2574.020716
375.674540	2571.149778
376.060841	2573.249419
376.447079	2572.105077
376.833254	2573.917372
377.219367	2571.989131
377.605417	2573.521641
377.991404	2573.372927
378.377329	2573.670355
378.763191	2573.216652
379.148991	2576.077506
379.534727	2575.482650
379.920402	2574.285376
380.306013	2575.165057
380.691563	2576.183371
381.077049	2574.544996
381.462474	2576.667321
381.847835	2574.227403
382.233134	2576.180850
382.618371	2577.178998
383.003545	2579.611355
383.388657	2577.509194
383.773706	2575.522979
384.158693	2579.384503
384.543618	2575.820408
384.928480	2578.560275
385.313280	2581.146387
385.698017	2579.689493
386.082692	2580.485995
386.467305	2578.983732
386.851856	2578.910635
387.236344	2581.814339
387.620770	2578.603124
388.005133	2574.948288
388.389435	2574.708833
388.773674	2577.335274
389.157851	2584.801223
389.541965	2580.291911
389.926018	2583.445153
390.310008	2579.502970
390.693936	2580.130594
391.077802	2583.488002
391.461606	2582.910790
391.845348	2582.938517
392.229027	2582.373907
392.612645	2584.004721
392.996200	2582.628486
393.379694	2583.750142
393.763125	2583.266192
394.146494	2582.550348
394.529801	2586.580750
394.913047	2582.300811
395.296230	2585.781727
395.679351	2583.059504
396.062410	2584.632344
396.445408	2582.169741
396.828343	2587.601584
397.211217	2586.099320
397.594028	2586.568147
397.976778	2587.026892
398.359466	2586.207705
398.742092	2587.533528
399.124656	2587.856162
399.507158	2588.438416
399.889598	2587.089907
400.271977	2590.165011
400.654294	2586.384145
401.036549	2587.261306
401.418742	2589.865062
401.800874	2586.454722
402.182944	2587.127716
402.564952	2590.177614
402.946898	2588.181317
403.328783	2587.132757
403.710606	2588.657706
404.092367	2590.429671
404.474067	2591.100145
404.855705	2590.470001
405.237282	2591.455546
405.618797	2592.594847
406.000250	2591.977306
406.381642	2591.243818
406.762972	2589.451687
407.144240	2592.325145
407.525447	2588.997984
407.906593	2588.317428
408.287677	2593.003180
408.668700	2592.902357
409.049661	2595.087697
409.430560	2592.882193
409.811399	2593.207347
410.192176	2594.439909
410.572891	2595.274220
410.953545	2593.068715
411.334138	2594.996957
411.714669	2594.449992
412.095139	2595.617019
412.475547	2595.765733
412.855894	2593.552666
413.236180	2595.939652
413.616405	2594.467636
413.996568	2596.892431
414.376670	2598.709767
414.756711	2597.111721
415.136691	2596.600044
415.516609	2596.607605
415.896466	2595.122986
416.276262	2595.937132
416.655997	2599.135744
417.035670	2596.226998
417.415283	2599.133223
417.794834	2596.627770
418.174324	2599.428131
418.553753	2598.949221
418.933121	2600.128851
419.312428	2600.053234
419.691674	2599.695312
420.070859	2599.065168
420.449983	2600.285127
420.829045	2600.461567
421.208047	2598.987030
421.586988	2600.816969
421.965867	2600.083481
422.344686	2603.113214
422.723444	2601.021136
423.102141	2602.432659
423.480777	2602.404932
423.859352	2601.522730
424.237866	2601.389140
424.616319	2602.609099
424.994712	2604.413832
425.373044	2605.157402
425.751314	2599.370158
426.129524	2600.164139
426.507673	2601.920982
426.885762	2600.955601
427.263789	2605.492639
427.641756	2604.532299
428.019662	2604.023143
428.397508	2604.970880
428.775292	2605.969028
429.153016	2606.236209
429.530679	2606.284100
429.908282	2605.164964
430.285824	2604.955756
430.663305	2604.272680
431.040726	2605.900972
431.418086	2608.776951
431.795385	2606.808380
432.172624	2603.829058
432.549802	2607.778802
432.926920	2609.066817
433.303977	2606.490787
433.680974	2606.798298
434.057910	2611.350460
434.434786	2612.134359
434.811601	2607.627568
435.188355	2610.216200
435.565050	2608.358535
435.941683	2609.462548
436.318257	2611.174019
436.694770	2612.111674
437.071222	2610.243927
437.447614	2609.205449
437.823946	2612.071345
438.200218	2607.710747
438.576429	2612.094030
438.952580	2611.695779
439.328670	2612.240223
439.704700	2608.842486
440.080670	2610.813577
440.456580	2610.470778
440.832429	2616.888167
441.208218	2613.132508
441.583947	2614.281891
441.959616	2613.654267
442.335224	2613.939092
442.710773	2614.425564
443.086261	2614.193671
443.461689	2613.066973
443.837057	2615.703496
444.212365	2617.528394
444.587612	2613.606376
444.962800	2611.718464
445.337927	2614.029833
445.712995	2610.453134
446.088002	2616.661315
446.462949	2616.547889
446.837837	2619.247427
447.212664	2619.270112
447.587431	2619.013014
447.962139	2619.847325
448.336786	2624.127264
448.711374	2623.562655
449.085901	2622.680453
449.460369	2622.483848
449.834776	2624.696915
450.209124	2622.037706
450.583412	2623.955865
450.957640	2626.332769
451.331808	2627.398973
451.705917	2625.740433
452.079965	2624.301184
452.453954	2625.001904
452.827883	2625.105248
453.201752	2626.151287
453.575562	2626.889817
453.949311	2629.710342
454.323001	2630.446351
454.696632	2629.412914
455.070202	2632.523306
455.443713	2632.891310
455.817164	2631.613378
456.190556	2632.016670
456.563888	2637.287196
456.937160	2638.965901
457.310373	2637.773668
457.683526	2640.823566
458.056619	2638.867598
458.429653	2641.224337
458.802628	2642.043525
459.175542	2644.606952
459.548398	2648.397899
459.921194	2650.946203
460.293930	2652.917294
460.666607	2659.695125
461.039224	2664.995898
461.411782	2672.224913
461.784280	2675.297496
462.156719	2678.261695
462.529099	2680.704134
462.901419	2681.649350
463.273680	2681.677077
463.645882	2684.994156
464.018024	2690.592357
464.390106	2697.816331
464.762130	2714.500029
465.134094	2729.041237
465.505999	2765.294695
465.877845	2821.899291
466.249631	2864.234901
466.621358	2869.896117
466.993026	2864.857484
467.364634	2878.158568
467.736184	2873.316540
468.107674	2884.321379
468.479105	2917.696338
468.850477	2933.185283
469.221790	2949.422840
469.593043	2964.450519
469.964238	2980.289825
470.335373	3002.801097
470.706449	3048.426060
471.077467	3067.375757
471.448425	3163.245901
471.819324	3360.952393
472.190164	3499.468177
472.560945	3413.004827
472.931667	3365.297867
473.302330	3393.583782
473.672934	3427.039399
474.043479	3507.642408
474.413965	3559.064698
474.784393	3605.375257
475.154761	3715.983214
475.525070	3789.319400
475.895321	3831.657530
476.265513	3957.154535
476.635645	4086.500460
477.005719	4151.914472
477.375734	4258.686111
477.745691	4403.127771
478.115588	4543.627250
478.485427	4713.395667
478.855207	4937.568217
479.224928	5282.347852
479.594591	5735.552624
479.964194	5854.750707
480.333739	6033.656215
480.703226	6059.295524
481.072653	6177.293812
481.442022	6443.996056
481.811333	6762.662514
482.180584	6926.336177
482.549777	6880.741461
482.918912	7018.606936
483.287988	7210.095165
483.657005	7334.057138
484.025964	7428.881242
484.394864	7587.609533
484.763706	7695.649021
485.132489	7778.840662
485.501213	7952.505892
485.869879	8143.966394
486.238487	8207.875622
486.607036	8496.821958
486.975527	8579.007889
487.343959	8842.330040
487.712333	9053.057832
488.080648	9096.605840
488.448905	9461.207292
488.817104	9567.121934
489.185244	9962.963416
489.553326	10206.163801
489.921350	10677.985554
490.289315	11705.602081
490.657222	12617.115793
491.025070	13067.447107
491.392861	13233.948857
491.760593	13152.682936
492.128267	13114.037451
492.495883	12872.417468
492.863440	12773.835183
493.230939	12602.070469
493.598380	12777.109413
493.965763	12808.142756
494.333088	12830.953977
494.700354	13015.414838
495.067563	13207.298797
495.434713	13295.579483
495.801805	13518.438812
496.168839	13706.859499
496.535815	13814.858658
496.902733	14126.233088
497.269593	14107.875726
497.636395	14462.369664
498.003139	14643.533610
498.369825	14755.096865
498.736453	15018.030847
499.103023	15147.371731
499.469535	15366.782911
499.835989	15688.227045
500.202385	15928.942141
500.568723	15813.192208
500.935003	16121.418436
501.301226	16094.546566
501.667390	16745.024290
502.033497	17154.484450
502.399546	17123.882125
502.765537	17106.666585
503.131470	17520.416766
503.497345	17817.149164
503.863163	17424.992765
504.228923	18087.622191
504.594625	18400.957629
504.960269	18193.748562
505.325856	18760.656559
505.691385	18514.126492
506.056856	19101.246995
506.422270	19281.201064
506.787625	19100.805894
507.152924	19623.553383
507.518164	19754.706563
507.883347	19757.491800
508.248472	19658.070164
508.613540	20436.963721
508.978550	20435.290058
509.343503	20557.031403
509.708398	20935.065009
510.073236	21181.988286
510.438016	21485.329637
510.802738	21380.234182
511.167403	21704.007329
511.532010	21565.952810
511.896561	22362.631558
512.261053	22484.619920
512.625488	22448.860495
512.989866	22476.675061
513.354186	22444.915792
513.718449	22664.982322
514.082655	23086.841199
514.446803	22980.351865
514.810894	23480.424245
515.174927	23105.223767
515.538904	23237.722934
515.902822	23764.019395
516.266684	23639.810406
516.630488	23627.678869
516.994235	23722.792839
517.357925	24049.235277
517.721558	24320.154447
518.085133	24470.090965
518.448651	24473.859227
518.812112	24284.039620
519.175516	24492.307330
519.538863	24744.206226
519.902152	24602.774134
520.265385	24955.410407
520.628560	24796.901407
520.991678	24866.749114
521.354739	25003.397151
521.717743	25091.882004
522.080690	24938.048673
522.443580	25305.503418
522.806413	25356.807241
523.169189	25492.003426
523.531908	25582.222435
523.894569	25238.158644
524.257174	25329.895041
524.619722	25571.381434
524.982213	25282.309070
525.344647	25389.294957
525.707025	25523.324114
526.069345	25568.220631
526.431608	25534.495311
526.793815	25761.082574
527.155964	25214.954213
527.518057	25413.963843
527.880093	25355.105852
528.242072	25602.132472
528.603995	25329.670710
528.965860	25146.833101
529.327669	25226.790842
529.689421	25211.120416
530.051117	25054.103597
530.412755	25249.985191
530.774337	25094.105152
531.135862	24952.912516
531.497331	25168.923437
531.858743	24722.418359
532.220098	25216.194337
532.581396	24902.279166
532.942638	24859.099163
533.303824	24960.597755
533.664953	24983.469470
534.026025	24652.308512
534.387040	24901.354115
534.747999	24973.737522
535.108902	25143.211032
535.469748	24633.832683
535.830537	24843.413613
536.191270	24945.164262
536.551947	24865.103177
536.912567	24527.686147
537.273131	24819.170704
537.633638	24558.361569
537.994089	24748.110599
538.354483	24323.542102
538.714821	24819.642052
539.075103	24861.760892
539.435328	24663.668752
539.795497	24206.060532
540.155609	24627.763134
540.515665	24907.663119
540.875665	24154.930629
541.235609	24418.653552
541.595496	24408.477983
541.955328	24761.439410
542.315102	24679.553428
542.674821	24255.665486
543.034483	24122.712615
543.394090	24296.166116
543.753640	24076.021448
544.113134	24706.190885
544.472571	24317.999353
544.831953	24601.430667
545.191278	24211.502458
545.550548	24147.134485
545.909761	24356.233985
546.268918	24601.181129
546.628019	24543.187696
546.987064	24256.139354
547.346053	24009.306818
547.704986	24157.720908
548.063863	24310.251100
548.422684	24292.682679
548.781449	23866.241392
549.140158	24264.406847
549.498811	23833.189067
549.857408	23560.409712
550.215949	24014.302602
550.574434	23681.203320
550.932864	23921.986472
551.291237	24050.213261
551.649555	23917.031017
552.007817	23968.412978
552.366022	23838.986394
552.724173	23895.956474
553.082267	23821.649866
553.440305	24294.500015
553.798288	23573.509150
554.156215	24112.940338
554.514086	24179.183620
554.871902	23558.443662
555.229661	23839.619059
555.587365	23707.961765
555.945014	23544.749368
556.302606	23815.083763
556.660143	23736.671136
557.017625	24020.755278
557.375050	23539.554459
557.732421	23936.860396
558.089735	23735.252051
558.446994	23813.175687
558.804197	23816.376819
559.161345	23796.169354
559.518437	23522.711964
559.875474	23742.450819
560.232455	23906.570623
560.589381	23738.720365
560.946251	23710.356313
561.303065	24035.495612
561.659825	24125.792760
562.016528	23730.503284
562.373177	23469.076607
562.729770	23822.892511
563.086307	23691.729249
563.442789	23868.593091
563.799216	23672.409027
564.155587	23705.168965
564.511904	23696.432646
564.868164	23619.318115
565.224370	23600.746505
565.580520	23492.523014
565.936615	23635.633810
566.292654	23306.209529
566.648638	23629.597028
567.004567	23445.826806
567.360441	23401.265526
567.716260	23113.461012
568.072023	23455.243681
568.427732	23203.538870
568.783385	23005.262727
569.138982	23236.843252
569.494525	23265.915587
569.850013	23008.685671
570.205445	23104.258386
570.560823	22909.647162
570.916145	22688.532072
571.271412	22842.274662
571.626625	22607.513168
571.981782	22713.891597
572.336884	22534.386190
572.691931	22662.665912
573.046923	22405.257035
573.401860	22285.035598
573.756743	22278.459413
574.111570	22198.854552
574.466342	22130.811578
574.821059	22211.780071
575.175722	21906.954100
575.530330	21912.350656
575.884882	21930.037544
576.239380	21831.717400
576.593823	21731.335424
576.948211	21711.616951
577.302544	21554.282539
577.656823	21423.880492
578.011047	21518.928927
578.365216	21405.258470
578.719330	21288.535593
579.073389	21178.078872
579.427394	21331.836584
579.781344	21105.030032
580.135239	20997.282930
580.489080	20967.446861
580.842866	20728.312167
581.196597	20905.322202
581.550273	20904.218189
581.903895	20800.267076
582.257463	21109.801484
582.610975	20635.721294
582.964434	20929.991088
583.317837	20657.698204
583.671186	20742.616441
584.024481	20704.787622
584.377721	20485.265537
584.730906	20527.676764
585.084037	20565.155222
585.437113	20465.053030
585.790135	20667.455357
586.143103	20141.549585
586.496016	20151.609208
586.848874	20385.682584
587.201679	20335.951601
587.554428	19998.038017
587.907124	20321.440640
588.259765	20107.494070
588.612352	20193.201247
588.964884	19754.451984
589.317362	19932.397153
589.669786	19976.542538
590.022155	20027.496000
590.374470	20202.287927
590.726731	20023.044661
591.078937	19754.651110
591.431090	19871.046311
591.783188	19605.445559
592.135232	19585.301108
592.487222	19683.623773
592.839157	19707.531445
593.191038	19602.756103
593.542866	19488.725203
593.894639	19203.320278
594.246358	19420.485624
594.598022	19329.454989
594.949633	19084.286033
595.301190	19044.337409
595.652692	19209.016782
596.004141	19453.472414
596.355535	18783.883675
596.706876	18795.997568
597.058162	18686.995219
597.409395	18903.389268
597.760573	18995.672631
598.111698	18767.935985
598.462768	18710.124033
598.813785	18664.108381
599.164748	18495.557402
599.515657	18519.596144
599.866511	18318.779260
600.217312	18678.243776
600.568060	18212.466366
600.918753	18509.506274
601.269392	18413.618487
601.619978	18192.309313
601.970510	18414.117561
602.320988	18344.738682
602.671412	18558.339932
603.021783	18451.482594
603.372100	18209.010655
603.722363	18340.042847
604.072572	18273.923073
604.422728	18412.161594
604.772830	18168.827618
605.122878	18118.960524
605.472872	18118.642932
605.822813	18090.140248
606.172701	18062.411381
606.522534	18261.315147
606.872314	18284.930432
607.222041	18126.434035
607.571714	18328.859047
607.921333	18162.722781
608.270899	18238.151045
608.620411	18430.660108
608.969870	18178.778856
609.319276	18190.053396
609.668627	18222.208396
610.017926	18348.632973
610.367171	18475.130646
610.716362	18511.162293
611.065500	18335.089913
611.414585	18460.654973
611.763616	18448.127706
612.112594	18391.901196
612.461518	18359.405919
612.810389	18551.650321
613.159207	18408.340399
613.507971	18310.836922
613.856682	18589.857226
614.205340	18528.365231
614.553945	18675.347633
614.902496	18411.876768
615.250994	18657.605292
615.599439	18584.168283
615.947830	18579.429599
616.296169	18621.659345
616.644454	18588.448223
616.992686	18556.366320
617.340864	18772.838507
617.688990	18530.704326
618.037063	18713.907419
618.385082	18550.584117
618.733048	18836.258743
619.080961	18703.076500
619.428821	18738.311645
619.776628	18636.997055
620.124382	18552.386329
620.472083	18588.798583
620.819731	18611.017469
621.167326	18301.064645
621.514868	18362.433132
621.862357	18106.513915
622.209793	18125.579559
622.557176	17958.593859
622.904506	17787.459288
623.251783	17691.894135
623.599007	17463.247561
623.946179	17400.316317
624.293297	17351.762444
624.640363	17108.355372
624.987376	17120.192001
625.334336	16924.133966
625.681243	16762.597753
626.028097	16762.023061
626.374899	16700.203392
626.721647	16566.580047
627.068343	16392.108233
627.414987	16324.047615
627.761577	16301.438040
628.108115	16347.481419
628.454600	16060.488530
628.801032	16161.631720
629.147412	16092.197388
629.493739	16127.805578
629.840014	15928.874086
630.186236	16023.390679
630.532405	15785.017199
630.878521	15999.241032
631.224585	15878.865839
631.570597	15706.917123
631.916556	15734.560290
632.262462	15719.154524
632.608316	15637.969262
632.954117	15573.326546
633.299866	15571.499128
633.645562	15490.830584
633.991206	15246.135497
634.336797	15116.083810
634.682336	15087.069449
635.027823	14983.998017
635.373257	14870.015008
635.718639	14757.062915
636.063968	14709.640781
636.409245	14462.142812
636.754470	14488.462677
637.099642	14341.288711
637.444762	14106.471764
637.789829	14145.467610
638.134845	13990.880627
638.479808	14008.048277
638.824719	13966.743583
639.169577	13810.752639
639.514383	13863.319270
639.859137	13670.548068
640.203839	13759.829423
640.548489	13593.700719
640.893086	13597.332870
641.237632	13467.974342
641.582125	13614.770221
641.926566	13442.612297
642.270955	13456.241056
642.615292	13416.776383
642.959576	13422.475408
643.303809	13456.183083
643.647990	13394.514648
643.992118	13457.075367
644.336195	13225.081467
644.680219	13425.474894
645.024192	13350.888502
645.368112	13591.414555
645.711981	13645.322134
646.055797	13817.147342
646.399562	13782.832208
646.743274	14054.547880
647.086935	14330.697246
647.430544	14294.516885
647.774101	14326.014014
648.117606	14482.556965
648.461059	14447.137818
648.804460	14436.385037
649.147810	14168.528368
649.491108	14070.114963
649.834354	14086.070215
650.177548	13787.568372
650.520690	13600.692799
650.863781	13526.824772
651.206820	13562.392633
651.549807	13389.493659
651.892742	13198.058362
652.235626	13136.014361
652.578458	13140.871513
652.921238	12826.300992
653.263967	13024.221733
653.606644	12848.013242
653.949269	12816.054847
654.291843	12625.307668
654.634365	12779.317438
654.976836	12632.700520
655.319255	12653.245742
655.661622	12593.548398
656.003938	12522.523582
656.346203	12445.227570
656.688416	12520.199610
657.030577	12475.726551
657.372687	12398.586815
657.714746	12364.327133
658.056753	12556.264025
658.398708	12377.928166
658.740612	12382.477808
659.082465	12476.084473
659.424266	12440.849328
659.766016	12465.888739
660.107715	12380.017724
660.449362	12443.198506
660.790958	12416.694639
661.132503	12352.261131
661.473996	12417.186152
661.815438	12433.892536
662.156829	12447.289402
662.498168	12425.433479
662.839456	12420.737645
663.180693	12437.673401
663.521879	12537.679811
663.863013	12510.026562
664.204097	12488.989827
664.545129	12607.058691
664.886110	12574.356726
665.227040	12663.438955
665.567918	12666.917352
665.908746	12698.913555
666.249522	12687.815455
666.590248	12730.561919
666.930922	12850.801000
667.271545	12830.729646
667.612118	12911.909867
667.952639	12825.290241
668.293109	12831.503463
668.633528	12781.195268
668.973896	12753.801638
669.314213	12844.363446
669.654480	12579.097931
669.994695	12646.505720
670.334859	12675.822550
670.674973	12618.973458
671.015035	12645.920946
671.355047	12589.641504
671.695008	12563.944223
672.034918	12567.039491
672.374777	12610.900050
672.714585	12526.188501
673.054342	12564.844068
673.394049	12512.884896
673.733705	12603.345881
674.073310	12514.911440
674.412864	12531.942978
674.752368	12407.527301
675.091820	12410.526788
675.431223	12410.168866
675.770574	12278.882096
676.109875	12202.785879
676.449125	12164.717605
676.788324	12100.296700
677.127473	11937.706886
677.466571	11924.083168
677.805619	11828.200422
678.144616	11750.117990
678.483562	11718.641025
678.822458	11588.964904
679.161303	11558.216386
679.500098	11557.271170
679.838842	11502.632624
680.177535	11529.196984
680.516179	11593.265008
680.854771	11537.356092
681.193314	11746.823596
681.531805	11893.720298
681.870247	12303.644244
682.208638	12717.036503
682.546978	13035.266901
682.885268	13094.255963
683.223508	12786.367492
683.561697	12622.625774
683.899836	12521.301102
684.237925	12327.740959
684.575963	12240.047567
684.913951	12171.871003
685.251889	12110.857918
685.589776	12216.245759
685.927614	12136.300621
686.265401	12099.986669
686.603137	12145.208340
686.940824	12296.037143
687.278460	12410.002508
687.616046	12462.763224
687.953582	12637.920635
688.291068	12557.015157
688.628504	12791.136423
688.965889	12800.041622
689.303224	12763.468051
689.640510	12667.277794
689.977745	12360.846216
690.314930	12136.560241
690.652065	12051.286603
690.989150	11759.723908
691.326185	11532.614886
691.663170	11331.901346
692.000105	11091.450910
692.336990	10978.697943
692.673825	10727.270395
693.010610	10610.169432
693.347345	10403.514892
693.684030	10197.102327
694.020665	10146.015274
694.357251	9953.357498
694.693786	9895.820288
695.030272	9735.337676
695.366707	9614.828893
695.703093	9543.864571
696.039429	9538.646976
696.375716	9470.974527
696.711952	9335.478394
697.048139	9375.565649
697.384276	9330.117127
697.720363	9339.241615
698.056400	9284.532493
698.392388	9234.582220
698.728326	9193.884985
699.064214	9131.175552
699.400053	9181.299745
699.735842	8989.768666
700.071581	8949.636040
700.407270	8879.894197
700.742910	8802.693968
701.078501	8709.238537
701.414042	8589.269158
701.749533	8514.975153
702.084974	8378.838793
702.420366	8494.591247
702.755709	8376.285449
703.091002	8247.834328
703.426246	8270.017926
703.761440	8224.062767
704.096584	8179.892177
704.431679	8113.943803
704.766725	8103.717822
705.101721	8050.659678
705.436668	8089.574865
705.771565	7993.671954
706.106413	8062.478663
706.441212	8116.857590
706.775961	8063.615443
707.110661	8100.594827
707.445311	8245.666632
707.779913	8141.337433
708.114465	8269.914582
708.448967	8310.271539
708.783421	8444.303217
709.117825	8626.069581
709.452180	8665.458636
709.786485	8752.647913
710.120742	9031.108648
710.454949	9033.384729
710.789107	9129.196899
711.123216	9342.740176
711.457275	9507.699333
711.791286	9668.423920
712.125247	9667.050206
712.459159	9654.038988
712.793023	9905.252287
713.126837	9479.665476
713.460602	9626.494123
713.794318	9457.713772
714.127985	9489.475562
714.461602	9175.116770
714.795171	9121.733471
715.128691	8878.039053
715.462162	8622.487841
715.795584	8568.991116
716.128957	8431.019777
716.462281	8253.772807
716.795556	8302.984551
717.128782	8098.843026
717.461960	7829.418559
717.795088	7903.800784
718.128167	7818.340623
718.461198	7646.313769
718.794180	7589.953669
719.127113	7583.916887
719.459997	7440.906914
719.792833	7203.798764
720.125619	7264.958042
720.458357	7122.066537
720.791046	7107.850483
721.123686	7108.974660
721.456278	6956.636032
721.788821	6972.427446
722.121315	6866.477516
722.453761	6929.524707
722.786158	6877.699124
723.118506	6886.034672
723.450805	6857.204313
723.783056	6922.351145
724.115259	6824.915723
724.447412	6825.908830
724.779518	6867.720160
725.111574	6869.908021
725.443582	6951.158818
725.775542	6931.687362
726.107453	7121.733820
726.439315	7037.491098
726.771129	7088.910868
727.102895	7256.325066
727.434612	7376.740588
727.766281	7402.916779
728.097901	7486.315108
728.429473	7478.415620
728.760996	7452.327648
729.092471	7424.896210
729.423897	7375.336626
729.755276	7388.531847
730.086606	7310.308262
730.417887	7409.087151
730.749120	7594.200841
731.080305	7792.784494
731.411442	7917.439626
731.742530	7908.904952
732.073570	8016.221035
732.404562	8103.538861
732.735506	7948.934234
733.066401	8092.700380
733.397249	8030.220320
733.728048	7795.415976
734.058798	7456.768905
734.389501	7241.236893
734.720156	7064.153761
735.050762	6826.228944
735.381320	6730.205045
735.711831	6680.310225
736.042293	6575.300470
736.372707	6591.764878
736.703073	6457.186235
737.033391	6494.150496
737.363661	6503.685838
737.693883	6525.057810
738.024056	6613.157015
738.354182	6659.840620
738.684260	6692.996289
739.014290	6804.448638
739.344272	6916.359733
739.674207	6941.139525
740.004093	7011.415730
740.333931	7024.958790
740.663722	7038.690893
740.993464	7113.042871
741.323159	7110.250072
741.652806	6852.805907
741.982405	6861.799325
742.311956	6927.293996
742.641460	6766.453462
742.970915	6573.629327
743.300323	6560.628192
743.629683	6505.034347
743.958996	6376.704214
744.288260	6288.594927
744.617477	6230.286421
744.946647	6246.511375
745.275768	6078.638431
745.604842	6033.207553
745.933869	6019.845974
746.262847	5973.061546
746.591778	5961.189629
746.920662	5916.547691
747.249498	5905.436988
747.578286	5956.690399
747.907027	6030.571029
748.235720	6091.470688
748.564365	6061.916924
748.892963	6085.562456
749.221514	6245.377115
749.550017	6082.361323
749.878473	5954.583197
750.206881	6013.932701
750.535242	5953.378361
750.863555	5884.044852
751.191821	5899.987501
751.520039	5906.122585
751.848210	5810.872503
752.176334	5827.447817
752.504411	5882.212392
752.832440	5812.430220
753.160421	5735.769393
753.488356	5782.873935
753.816243	5817.829296
754.144082	5670.642727
754.471875	5636.803982
754.799620	5686.424059
755.127318	5690.643505
755.454969	5646.636752
755.782572	5612.182986
756.110129	5656.696375
756.437638	5646.520806
756.765100	5585.011167
757.092515	5579.402883
757.419882	5629.063290
757.747203	5613.531495
758.074477	5671.103993
758.401703	5663.711140
758.728882	5611.172235
759.056014	5661.472868
759.383099	5796.860616
759.710138	5805.075177
760.037129	5789.588752
760.364073	5797.256347
760.690970	5878.068564
761.017820	5862.413260
761.344623	5813.196475
761.671379	5913.059213
761.998088	6026.938878
762.324751	6265.577019
762.651366	6848.556214
762.977935	8131.214796
763.304456	9742.186083
763.630931	10659.519808
763.957359	10294.101689
764.283740	9364.107107
764.610074	8549.186943
764.936362	7560.120121
765.262602	6960.908410
765.588796	6418.331542
765.914943	6080.816210
766.241044	5922.919709
766.567097	5732.424588
766.893104	5473.669723
767.219064	5291.966373
767.544978	5228.868771
767.870845	5149.142923
768.196665	5043.891193
768.522438	4974.534998
768.848165	4946.516265
769.173846	4877.102097
769.499479	4837.367722
769.825066	4780.344711
770.150607	4722.394127
770.476101	4694.824056
770.801548	4695.670970
771.126949	4622.964929
771.452303	4567.595416
771.777611	4525.922717
772.102872	4542.757651
772.428087	4505.072505
772.753256	4464.980208
773.078378	4425.843211
773.403453	4355.340153
773.728482	4336.670240
774.053465	4293.041574
774.378401	4280.602527
774.703291	4282.732415
775.028135	4213.610634
775.352932	4165.853263
775.677683	4149.920696
776.002388	4166.465763
776.327046	4180.399512
776.651658	4108.048872
776.976224	4045.218451
777.300743	4048.621230
777.625216	4067.389446
777.949643	4065.204106
778.274024	4021.396479
778.598359	3979.028101
778.922647	3997.995442
779.246889	3992.445132
779.571086	3988.865913
779.895236	3973.170280
780.219339	3961.948672
780.543397	3948.952577
780.867409	4000.107686
781.191374	4017.212321
781.515294	3957.237714
781.839167	3949.630612
782.162995	3969.830516
782.486776	3957.797282
782.810511	3963.246769
783.134201	3965.351451
783.457844	3918.294800
783.781441	3864.775390
784.104993	3866.103734
784.428498	3890.492837
784.751958	3884.992938
785.075372	3863.956203
785.398739	3823.450532
785.722061	3837.653983
786.045337	3878.366341
786.368568	3913.417484
786.691752	3822.104544
787.014891	3871.583469
787.337983	3997.400586
787.661030	4154.603928
787.984031	4315.452024
788.306987	4486.160616
788.629897	4564.384201
788.952760	4523.850803
789.275579	4452.906645
789.598351	4394.550248
789.921078	4259.406996
790.243759	4059.008527
790.566395	4034.858880
790.888984	4034.599261
791.211529	3927.338630
791.534027	3866.126420
791.856480	3858.289946
792.178888	3798.065802
792.501249	3749.544696
792.823566	3757.340840
793.145836	3788.701858
793.468062	3735.799990
793.790241	3690.883309
794.112375	3718.463462
794.434464	3781.165333
794.756507	3805.062923
795.078505	3787.222280
795.400457	3818.548010
795.722364	3954.689410
796.044226	4061.816450
796.366042	4131.399497
796.687812	4115.363586
797.009538	4122.166623
797.331218	4076.682813
797.652852	4049.493350
797.974442	4031.564486
798.295986	4033.109600
798.617484	3951.115232
798.938938	3864.276316
799.260346	3902.823499
799.581709	3901.989188
799.903026	3830.878672
800.224299	3792.734781
800.545526	3785.283956
800.866708	3747.961773
801.187845	3686.752083
801.508936	3722.534193
801.829983	3720.878174
802.150984	3644.923109
802.471940	3631.034731
802.792851	3645.243223
803.113717	3643.224241
803.434538	3645.770023
803.755314	3591.149121
804.076045	3560.282136
804.396731	3584.330961
804.717372	3607.633694
805.037967	3598.277313
805.358518	3584.111671
805.679024	3610.852471
805.999485	3622.505098
806.319901	3627.495841
806.640272	3640.050834
806.960598	3659.539935
807.280879	3629.287971
807.601115	3641.212820
807.921306	3660.296108
808.241453	3698.485369
808.561554	3676.016946
808.881611	3607.270731
809.201623	3646.193480
809.521590	3657.762928
809.841513	3631.932056
810.161390	3655.990963
810.481223	3641.880773
810.801011	3585.114860
811.120755	3572.751430
811.440453	3607.003550
811.760107	3613.408336
812.079716	3572.075916
812.399281	3539.179866
812.718801	3564.400759
813.038276	3537.659958
813.357707	3534.040410
813.677093	3549.799057
813.996434	3499.994977
814.315731	3505.822551
814.634983	3510.581401
814.954191	3525.576313
815.273354	3557.564954
815.592473	3551.603790
815.911547	3559.233576
816.230577	3592.240531
816.549562	3643.347749
816.868502	3686.348791
817.187399	3708.960887
817.506250	3706.878890
817.825058	3682.089016
818.143821	3765.988940
818.462539	3872.067419
818.781213	3914.705499
819.099843	3970.105259
819.418429	4206.545457
819.736970	4450.282724
820.055466	4685.757541
820.373919	5051.127769
820.692327	5453.487463
821.010691	5873.667636
821.329011	7209.281019
821.647286	9878.067865
821.965517	14360.021638
822.283704	18369.581488
822.601847	20596.044892
822.919945	18833.279421
823.237999	16292.563089
823.556010	13827.532119
823.873976	11753.467836
824.191897	9686.645171
824.509775	8339.472423
824.827609	7214.536422
825.145398	6668.788668
825.463144	6545.751747
825.780845	6662.537637
826.098502	6839.363670
826.416116	7683.028492
826.733685	8977.054876
827.051210	10097.325290
827.368692	10177.744296
827.686129	8960.081311
828.003522	7451.256403
828.320872	6439.948010
828.638177	5749.304892
828.955439	5196.391138
829.272656	4698.085683
829.589830	4416.756531
829.906960	4240.870673
830.224046	4055.746901
830.541088	3934.345834
830.858086	3886.850603
831.175041	3812.125580
831.491952	3798.325421
831.808819	3804.228612
832.125642	3874.393912
832.442421	4016.703164
832.759157	4280.436169
833.075849	4817.576152
833.392497	5664.278270
833.709101	6437.626558
834.025662	6782.141533
834.342179	6444.192661
834.658653	5783.373009
834.975083	5147.807018
835.291469	4575.202517
835.607811	4166.589271
835.924110	4029.502654
836.240366	3834.959486
836.556578	3629.797127
836.872746	3520.585570
837.188871	3481.546875
837.504952	3419.129829
837.820990	3338.569670
838.136984	3287.918676
838.452935	3312.511945
838.768842	3310.755103
839.084706	3331.375943
839.400526	3479.142245
839.716303	3806.928150
840.032037	4321.844207
840.347727	4594.734467
840.663373	4330.073890
840.978977	3955.735450
841.294537	3650.448214
841.610054	3420.541352
841.925527	3316.587718
842.240957	3245.925865
842.556344	3191.191537
842.871687	3137.392343
843.186987	3085.448294
843.502244	3048.405895
843.817458	3019.210053
844.132629	2981.285453
844.447756	2992.849859
844.762840	2979.740339
845.077881	2949.420319
845.392879	2931.156219
845.707833	2927.546753
846.022745	2926.256217
846.337613	2927.791248
846.652438	2916.063004
846.967221	2912.619896
847.281960	2900.024573
847.596656	2894.297822
847.911309	2894.428892
848.225919	2886.824312
848.540485	2881.944475
848.855009	2885.531256
849.169490	2873.739997
849.483928	2862.863707
849.798323	2863.443440
850.112675	2859.778521
850.426984	2871.562218
850.741251	2868.187166
851.055474	2859.465970
851.369654	2853.053622
851.683792	2859.344982
851.997887	2862.679705
852.311938	2867.680530
852.625947	2856.809282
852.939914	2863.410673
853.253837	2865.137268
853.567718	2850.157479
853.881555	2849.910463
854.195350	2864.302957
854.509103	2860.927904
854.822812	2852.055474
855.136479	2851.692511
855.450103	2850.084382
855.763685	2844.254288
856.077224	2839.442507
856.390720	2853.207377
856.704173	2861.648789
857.017584	2857.358767
857.330953	2853.804754
857.644278	2860.567462
857.957561	2871.315202
858.270802	2873.682024
858.584000	2874.753269
858.897155	2861.421937
859.210268	2858.361957
859.523339	2857.875486
859.836367	2856.988243
860.149352	2853.784589
860.462295	2847.150431
860.775195	2857.744416
861.088054	2857.585619
861.400869	2839.946622
861.713642	2836.226251
862.026373	2850.648992
862.339062	2853.540093
862.651708	2863.745909
862.964312	2861.394211
863.276873	2854.197964
863.589392	2864.123996
863.901869	2874.939792
864.214303	2898.676064
864.526696	2914.984197
864.839045	2912.125863
865.151353	2910.338774
865.463619	2906.295768
865.775842	2907.654359
866.088023	2927.750919
866.400162	2934.385078
866.712258	2906.131931
867.024313	2895.452247
867.336325	2902.487177
867.648296	2925.522729
867.960224	2915.687438
868.272110	2902.212434
868.583954	2907.866088
868.895755	2921.237748
869.207515	2910.174936
869.519233	2911.765420
869.830909	2925.873089
870.142542	2932.673606
870.454134	2933.981785
870.765684	2937.324070
871.077191	2936.557815
871.388657	2943.065945
871.700081	2953.775876
872.011463	2967.150057
872.322803	2969.716004
872.634101	2968.402784
872.945357	2982.200422
873.256571	3006.453413
873.567744	3001.089625
873.878874	2995.216681
874.189963	3016.316431
874.501010	3018.852131
874.812015	3011.388703
875.122979	3010.236799
875.433900	3007.146572
875.744780	3009.029443
876.055618	3017.813653
876.366415	3015.136801
876.677169	3024.624252
876.987882	3024.909077
877.298554	3016.011441
877.609183	3035.845861
877.919771	3059.645148
878.230317	3085.347471
878.540822	3137.203300
878.851285	3175.949608
879.161707	3217.841597
879.472087	3314.112512
879.782425	3531.260214
880.092722	3958.331644
880.402977	4477.653669
880.713191	5087.048511
881.023363	6219.586572
881.333494	7486.781414
881.643583	8056.177221
881.953631	7767.077130
882.263637	7154.128275
882.573602	6584.740030
882.883526	6007.522874
883.193408	5436.072797
883.503248	4977.461388
883.813048	4676.806972
884.122806	4383.492477
884.432522	4071.457657
884.742197	3840.540043
885.051831	3644.134169
885.361424	3508.895135
885.670975	3439.675051
885.980485	3356.866538
886.289954	3282.985907
886.599382	3239.778178
886.908768	3199.146478
887.218113	3159.056702
887.527417	3101.925305
887.836680	3052.096020
888.145901	3047.052346
888.455082	3036.675130
888.764221	2987.849035
889.073319	2957.314766
889.382376	2955.260496
889.691392	2961.430868
890.000366	2960.064715
890.309300	2946.753549
890.618193	2956.634210
890.927044	2973.970738
891.235855	2974.958804
891.544625	2961.042699
891.853353	2968.455716
892.162041	2988.461535
892.470687	3029.211702
892.779293	3079.618199
893.087858	3124.366002
893.396381	3191.796475
893.704864	3308.017757
894.013306	3543.444683
894.321707	3837.409487
894.630068	4044.421949
894.938387	4043.645611
895.246665	4004.251514
895.554903	3883.888925
895.863100	3686.091692
896.171256	3523.524563
896.479371	3386.160683
896.787446	3265.712394
897.095480	3161.315139
897.403473	3102.918412
897.711425	3064.373750
898.019336	3053.321020
898.327207	3027.230529
898.635038	2991.309787
898.942827	2976.677838
899.250576	2967.225674
899.558284	2934.349790
899.865952	2915.470668
900.173579	2898.756723
900.481165	2890.637945
900.788711	2878.395503
901.096216	2851.989939
901.403681	2838.928309
901.711105	2847.145390
902.018489	2843.699761
902.325832	2845.809484
902.633135	2855.657378
902.940397	2888.437481
903.247619	2964.183338
903.554800	3151.968839
903.861941	3486.751866
904.169041	3905.739807
904.476101	4203.309036
904.783121	4169.460208
905.090100	3929.322324
905.397039	3663.217457
905.703938	3415.747214
906.010796	3230.658730
906.317614	3119.733181
906.624391	3030.532484
906.931129	2957.367698
907.237826	2896.944428
907.544483	2850.452387
907.851099	2820.802840
908.157675	2800.010601
908.464211	2780.639968
908.770707	2767.832916
909.077163	2757.768253
909.383578	2740.898031
909.689954	2729.812534
909.996289	2727.725496
910.302584	2728.305229
910.608839	2732.244891
910.915054	2725.504868
911.221229	2718.263251
911.527363	2718.497664
911.833458	2724.289950
912.139513	2729.494941
912.445527	2736.741600
912.751502	2741.520614
913.057436	2750.254413
913.363331	2763.863008
913.669186	2781.456635
913.975000	2816.593477
914.280775	2874.788557
914.586510	2944.880760
914.892205	3023.333717
915.197859	3146.161430
915.503475	3335.466839
915.809050	3541.241698
916.114585	3688.660160
916.420081	3711.352914
916.725536	3653.956857
917.030952	3538.804300
917.336328	3412.329312
917.641665	3286.350878
917.946961	3181.396575
918.252218	3118.785444
918.557435	3039.755275
918.862612	2981.333343
919.167750	2931.718307
919.472848	2895.537946
919.777906	2868.653473
920.082925	2841.138855
920.387904	2811.885039
920.692843	2795.024900
920.997743	2785.610545
921.302603	2772.236364
921.607423	2762.665734
921.912204	2749.347005
922.216946	2738.664800
922.521647	2731.075343
922.826310	2722.701987
923.130932	2716.841645
923.435516	2707.603731
923.740059	2700.921681
924.044564	2693.606967
924.349028	2686.451049
924.653454	2682.014834
924.957840	2676.603155
925.262186	2672.005623
925.566493	2668.645694
925.870761	2661.376350
926.174989	2660.060609
926.479178	2652.529125
926.783328	2649.191881
927.087438	2648.874288
927.391509	2647.339257
927.695541	2646.842703
927.999533	2639.890952
928.303486	2638.529841
928.607400	2636.848616
928.911275	2635.089253
929.215110	2635.593369
929.518906	2636.042031
929.822663	2636.089922
930.126381	2634.451547
930.430060	2636.178142
930.733699	2632.435086
931.037299	2636.780560
931.340861	2636.989768
931.644383	2636.699902
931.947866	2634.575056
932.251309	2637.627474
932.554714	2634.217134
932.858080	2632.961886
933.161407	2630.388377
933.464694	2630.287554
933.767943	2623.643313
934.071153	2629.236474
934.374323	2628.114817
934.677455	2629.158336
934.980548	2624.603653
935.283602	2623.862604
935.586617	2625.485855
935.889593	2624.709517
936.192530	2626.668006
936.495428	2627.547687
936.798287	2628.737399
937.101108	2631.326032
937.403890	2634.431383
937.706632	2639.527989
938.009336	2645.632827
938.312002	2655.906698
938.614628	2664.010353
938.917216	2669.273317
939.219765	2668.577638
939.522275	2669.764830
939.824747	2666.730055
940.127179	2665.784839
940.429573	2660.995743
940.731929	2657.971051
941.034246	2657.000628
941.336524	2653.280257
941.638763	2650.200112
941.940964	2647.485451
942.243126	2646.935965
942.545250	2647.457724
942.847335	2642.540079
943.149381	2638.686117
943.451389	2637.012453
943.753359	2633.186218
944.055290	2630.456433
944.357182	2632.372071
944.659036	2631.396608
944.960851	2630.539612
945.262628	2625.566514
945.564367	2626.720938
945.866067	2629.221350
946.167729	2629.549025
946.469352	2628.334107
946.770937	2631.547843
947.072484	2629.140692
947.373992	2625.606843
947.675462	2624.795217
947.976893	2620.127109
948.278286	2617.092334
948.579641	2618.866820
948.880958	2617.288939
949.182236	2618.360184
949.483476	2617.896398
949.784678	2619.270112
950.085841	2619.302880
950.386967	2620.933693
950.688054	2622.466204
950.989103	2620.742129
951.290114	2622.922428
951.591087	2624.956534
951.892021	2625.755557
952.192917	2628.026597
952.493776	2630.527009
952.794596	2632.344345
953.095378	2630.796711
953.396122	2631.983902
953.696828	2628.729838
953.997496	2625.327059
954.298126	2622.350257
954.598718	2623.885289
954.899272	2621.919239
955.199788	2618.314814
955.500266	2616.973867
955.800706	2613.356839
956.101108	2613.150152
956.401472	2609.215531
956.701798	2606.997423
957.002087	2603.602206
957.302337	2605.308637
957.602550	2603.672782
957.902724	2602.372165
958.202861	2602.062134
958.502960	2598.268666
958.803022	2601.827720
959.103045	2596.864704
959.403031	2599.158429
959.702979	2597.109200
960.002889	2598.160281
960.302762	2594.238263
960.602596	2595.745568
960.902393	2597.928388
961.202153	2594.384457
961.501875	2595.438058
961.801559	2593.489652
962.101205	2591.374888
962.400814	2596.383274
962.700385	2594.024014
962.999918	2590.447315
963.299414	2588.650144
963.598873	2591.505958
963.898293	2586.162335
964.197677	2592.259610
964.497022	2589.837336
964.796331	2592.100814
965.095601	2589.771801
965.394835	2591.586616
965.694030	2591.737851
965.993189	2591.795824
966.292309	2591.737851
966.591393	2592.569641
966.890439	2591.763057
967.189447	2591.352202
967.488419	2591.934456
967.787353	2591.263982
968.086249	2589.610484
968.385108	2591.281626
968.683930	2592.705752
968.982714	2590.691811
969.281462	2589.302973
969.580172	2588.793817
969.878844	2595.241453
970.177480	2588.186358
970.476078	2590.855649
970.774639	2590.759867
971.073162	2591.349682
971.371649	2592.519230
971.670098	2589.981009
971.968510	2593.532502
972.266885	2590.976637
972.565223	2591.866400
972.863524	2591.944538
973.161788	2591.717686
973.460014	2591.296750
973.758204	2592.466297
974.056356	2590.608632
974.354471	2592.932604
974.652550	2592.370516
974.950591	2592.425968
975.248595	2591.531163
975.546563	2592.360433
975.844493	2591.160639
976.142386	2590.427151
976.440243	2591.160639
976.738062	2588.312387
977.035845	2590.754826
977.333590	2588.919846
977.631299	2590.964034
977.928971	2587.508323
978.226606	2585.741398
978.524204	2588.667788
978.821765	2583.641758
979.119290	2591.964703
979.416777	2589.917994
979.714228	2589.151739
980.011642	2588.743405
980.309020	2587.813312
980.606360	2589.509661
980.903664	2591.478231
981.200931	2588.743405
981.498162	2588.690473
981.795356	2589.086204
982.092513	2589.600402
982.389633	2596.037955
982.686717	2597.842688
982.983764	2605.273349
983.280775	2607.143617
983.577749	2608.459358
983.874686	2606.939450
984.171587	2602.510797
984.468451	2600.025508
984.765279	2599.065168
985.062070	2597.270517
985.358824	2595.876638
985.655543	2593.756833
985.952224	2593.310691
986.248869	2593.401432
986.545478	2591.299270
986.842050	2589.895309
987.138586	2588.032603
987.435086	2591.352202
987.731549	2586.311049
988.027975	2586.689135
988.324366	2587.636872
988.620719	2584.413054
988.917037	2587.324321
989.213318	2584.594536
989.509563	2586.217787
989.805772	2589.993612
990.101944	2585.900195
990.398080	2586.028744
990.694180	2586.656368
990.990244	2586.484968
991.286271	2586.716862
991.582262	2583.624114
991.878217	2584.937334
992.174136	2585.335585
992.470019	2585.101172
992.765865	2586.490010
993.061676	2578.693865
993.357450	2585.645616
993.653188	2582.447004
993.948890	2585.721234
994.244556	2585.804413
994.540186	2588.468662
994.835780	2586.953796
995.131337	2587.717531
995.426859	2586.661409
995.722345	2586.810123
996.017795	2586.817685
996.313208	2589.330700
996.608586	2586.333734
996.903928	2593.262800
997.199234	2589.746595
997.494504	2591.163159
997.789738	2587.783066
998.084936	2587.571337
998.380099	2590.845567
998.675225	2590.669126
998.970316	2587.634352
999.265371	2590.064188
999.560390	2584.889443
999.855373	2587.730133
1000.150320	2586.787438
1000.445232	2584.952458
1000.740108	2583.634196
1001.034948	2584.939855
1001.329752	2584.506316
1001.624521	2584.581933
1001.919254	2582.278126
1002.213951	2586.583271
1002.508613	2585.010431
1002.803239	2586.250555
1003.097829	2583.946748
1003.392384	2584.531521
1003.686903	2584.566809
1003.981386	2585.940524
1004.275834	2583.525811
1004.570246	2585.292736
1004.864623	2585.587643
1005.158964	2581.345512
1005.453270	2582.968764
1005.747540	2582.275605
1006.041775	2580.342322
1006.335974	2584.922211
1006.630138	2584.060173
1006.924266	2585.806933
1007.218359	2582.872982
1007.512416	2581.804257
1007.806438	2578.945923
1008.100425	2580.758218
1008.394376	2578.903073
1008.688292	2582.376428
1008.982172	2581.479103
1009.276017	2580.738053
1009.569827	2586.333734
1009.863602	2582.441963
1010.157341	2584.760894
1010.451045	2586.240472
1010.744714	2584.677715
1011.038347	2583.238465
1011.331945	2581.529514
1011.625508	2584.259299
1011.919036	2584.140832
1012.212528	2583.818198
1012.505986	2581.090934
1012.799408	2581.199319
1013.092795	2582.658733
1013.386147	2582.623445
1013.679464	2581.053125
1013.972745	2581.436253
1014.265992	2583.666963
1014.559204	2583.810636
1014.852380	2579.853331
1015.145521	2583.886254
1015.438628	2584.463466
1015.731699	2583.046902
1016.024736	2584.150914
1016.317737	2582.835173
1016.610703	2583.455235
1016.903635	2583.583784
1017.196531	2582.157138
1017.489393	2582.467169
1017.782219	2585.101172
1018.075011	2581.438773
1018.367768	2583.858527
1018.660490	2581.922724
1018.953177	2581.922724
1019.245829	2581.922724
