Dividing Wavelength (nm)	Counts (n)	Blue Motor Position (mm): 0.000000	Red Motor Position (mm): 16.500000	
326.493990	2130.815072
326.888308	2130.815072
327.282561	2130.815072
327.676750	2097.190576
328.070874	2094.417942
328.464933	2096.101687
328.858929	2107.116608
329.252859	2115.258072
329.646726	2124.616974
330.040528	2137.426546
330.434265	2155.292395
330.827938	2175.215035
331.221547	2189.892354
331.615091	2209.857844
332.008571	2229.155381
332.401986	2249.940058
332.795338	2266.321288
333.188625	2286.697632
333.581847	2306.335446
333.975006	2324.808755
334.368100	2341.298369
334.761129	2361.478108
335.154095	2376.523431
335.546996	2394.870711
335.939833	2408.499470
336.332606	2422.183682
336.725315	2437.561722
337.117960	2445.897270
337.510540	2454.099227
337.903056	2466.601289
338.295508	2471.599593
338.687896	2480.512353
339.080220	2487.282622
339.472480	2497.009529
339.864676	2499.673779
340.256807	2503.331136
340.648875	2509.768689
341.040879	2507.674090
341.432818	2512.790861
341.824694	2513.300017
342.216506	2515.071983
342.608253	2513.584843
342.999937	2516.851510
343.391557	2516.082734
343.783113	2510.860099
344.174605	2511.775068
344.566033	2509.136024
344.957397	2506.585201
345.348697	2507.810201
345.739934	2504.800632
346.131106	2503.119407
346.522215	2500.944149
346.913260	2498.705877
347.304241	2496.144971
347.695159	2496.311329
348.086012	2496.568428
348.476802	2495.149343
348.867528	2493.982316
349.258191	2488.177427
349.648789	2491.398725
350.039324	2487.010400
350.429796	2491.305463
350.820203	2485.573671
351.210548	2486.113075
351.600828	2483.355564
351.991045	2484.968733
352.381198	2482.261633
352.771288	2483.423619
353.161314	2481.417240
353.551276	2480.167034
353.941175	2482.407827
354.331010	2481.437405
354.720782	2482.659884
355.110490	2482.022178
355.500135	2483.090903
355.889717	2482.059987
356.279235	2484.265492
356.668689	2482.193578
357.058080	2484.570482
357.447408	2485.268682
357.836672	2480.416571
358.225873	2480.484627
358.615010	2478.790799
359.004084	2486.465956
359.393095	2483.960502
359.782043	2487.138950
360.170927	2486.297077
360.559748	2488.439567
360.948505	2488.041316
361.337199	2488.361429
361.725830	2490.403097
362.114398	2490.846718
362.502903	2490.473673
362.891344	2491.307984
363.279722	2489.490648
363.668037	2495.771926
364.056289	2490.758498
364.444478	2494.226812
364.832603	2497.523727
365.220665	2496.076915
365.608665	2493.546256
365.996601	2496.092039
366.384474	2497.359889
366.772284	2499.310816
367.160031	2501.360045
367.547715	2502.393481
367.935336	2503.399191
368.322893	2507.555623
368.710388	2511.288597
369.097820	2516.637261
369.485189	2517.537107
369.872495	2526.099507
370.259738	2531.029756
370.646918	2538.117618
371.034035	2547.955430
371.421090	2557.566389
371.808081	2569.249263
372.195010	2577.627661
372.581875	2590.543097
372.968678	2602.997268
373.355418	2611.829369
373.742096	2630.801752
374.128710	2647.417395
374.515262	2661.981288
374.901751	2672.802125
375.288177	2690.078159
375.674540	2715.220914
376.060841	2731.052658
376.447079	2750.191398
376.833254	2770.451796
377.219367	2783.173147
377.605417	2818.766214
377.991404	2829.846670
378.377329	2853.348530
378.763191	2868.295551
379.148991	2907.457754
379.534727	2934.231323
379.920402	2961.103193
380.306013	2972.009729
380.691563	3022.091072
381.077049	3041.708723
381.462474	3060.834860
381.847835	3100.675099
382.233134	3122.788120
382.618371	3119.125722
383.003545	3189.525436
383.388657	3195.514326
383.773706	3228.906929
384.158693	3242.933940
384.543618	3273.523662
384.928480	3307.634629
385.313280	3354.701362
385.698017	3351.858151
386.082692	3404.936460
386.467305	3408.858478
386.851856	3443.710495
387.236344	3461.089873
387.620770	3496.899709
388.005133	3521.455169
388.389435	3545.645146
388.773674	3558.973957
389.157851	3602.209413
389.541965	3615.729787
389.926018	3579.289807
390.310008	3652.928462
390.693936	3669.695339
391.077802	3711.766289
391.461606	3698.255997
391.845348	3762.492899
392.229027	3762.273609
392.612645	3774.868932
392.996200	3852.200232
393.379694	3893.106675
393.763125	3957.391469
394.146494	3924.593722
394.529801	3983.900376
394.913047	4034.107748
395.296230	3999.089373
395.679351	4050.672980
396.062410	4076.329932
396.445408	4055.446952
396.828343	4085.774534
397.211217	4108.598358
397.594028	4027.604660
397.976778	4090.072117
398.359466	4115.542547
398.742092	4140.460971
399.124656	4060.881316
399.507158	4131.775063
399.889598	4150.364318
400.271977	4203.475394
400.654294	4165.621370
401.036549	4162.236235
401.418742	4124.334320
401.800874	4208.572000
402.182944	4218.465265
402.564952	4267.016618
402.946898	4239.562494
403.328783	4213.945870
403.710606	4118.499184
404.092367	4274.633801
404.474067	4220.426274
404.855705	4207.404973
405.237282	4125.413127
405.618797	4192.278991
406.000250	4190.317982
406.381642	4235.564859
406.762972	4177.586548
407.144240	4161.109537
407.525447	4128.480669
407.906593	4144.423318
408.287677	4144.783760
408.668700	4056.918969
409.049661	4064.778128
409.430560	4055.739339
409.811399	3967.856904
410.192176	4034.158160
410.572891	3962.180565
410.953545	3985.634533
411.334138	3872.949621
411.714669	3871.840568
412.095139	3774.740383
412.475547	3808.087615
412.855894	3757.174482
413.236180	3719.403637
413.616405	3655.454080
413.996568	3657.299142
414.376670	3585.810539
414.756711	3523.637989
415.136691	3500.262159
415.516609	3489.527022
415.896466	3466.257055
416.276262	3439.153292
416.655997	3387.662946
417.035670	3407.449475
417.415283	3402.123496
417.794834	3335.013136
418.174324	3286.126546
418.553753	3219.033830
418.933121	3228.727968
419.312428	3205.521017
419.691674	3151.510094
420.070859	3144.976759
420.449983	3087.285794
420.829045	3073.619226
421.208047	3025.710621
421.586988	3001.583658
421.965867	2973.935450
422.344686	2961.884572
422.723444	2913.310534
423.102141	2861.716845
423.480777	2870.513658
423.859352	2819.010710
424.237866	2823.633448
424.616319	2803.400777
424.994712	2787.931997
425.373044	2756.671802
425.751314	2746.660070
426.129524	2712.765872
426.507673	2709.118597
426.885762	2699.129551
427.263789	2677.439987
427.641756	2660.506751
428.019662	2652.536687
428.397508	2641.607465
428.775292	2628.422327
429.153016	2620.200205
429.530679	2610.271653
429.908282	2601.721856
430.285824	2593.003180
430.663305	2589.509661
431.040726	2579.702096
431.418086	2574.313102
431.795385	2574.043401
432.172624	2568.140210
432.549802	2565.254149
432.926920	2558.279713
433.303977	2558.607388
433.680974	2555.950700
434.057910	2554.077911
434.434786	2551.769062
434.811601	2550.889381
435.188355	2549.480379
435.565050	2546.450645
435.941683	2543.957795
436.318257	2541.827907
436.694770	2539.113246
437.071222	2541.207845
437.447614	2536.741383
437.823946	2538.735159
438.200218	2541.691796
438.576429	2542.878988
438.952580	2540.199614
439.328670	2540.852444
439.704700	2542.755479
440.080670	2539.884542
440.456580	2537.285827
440.832429	2540.197094
441.208218	2539.103163
441.583947	2538.599048
441.959616	2539.463606
442.335224	2538.803215
442.710773	2538.127700
443.086261	2538.110056
443.461689	2540.141641
443.837057	2535.801208
444.212365	2539.032587
444.587612	2540.509645
444.962800	2539.161137
445.337927	2539.932433
445.712995	2535.806249
446.088002	2541.482588
446.462949	2539.002340
446.837837	2543.521735
447.212664	2540.960829
447.587431	2542.901673
447.962139	2541.031405
448.336786	2548.245296
448.711374	2543.834286
449.085901	2541.505273
449.460369	2540.267670
449.834776	2538.939326
450.209124	2542.735315
450.583412	2542.977290
450.957640	2541.757331
451.331808	2542.417722
451.705917	2539.771116
452.079965	2543.395706
452.453954	2542.294214
452.827883	2543.473844
453.201752	2541.979142
453.575562	2541.747249
453.949311	2542.238761
454.323001	2540.426466
454.696632	2541.288504
455.070202	2544.277908
455.443713	2543.672969
455.817164	2542.069882
456.190556	2539.960160
456.563888	2544.124153
456.937160	2538.316743
457.310373	2545.485264
457.683526	2541.792619
458.056619	2543.156251
458.429653	2542.349667
458.802628	2541.283462
459.175542	2544.658515
459.548398	2545.379400
459.921194	2545.097095
460.293930	2547.042981
460.666607	2548.482230
461.039224	2549.767724
461.411782	2549.155224
461.784280	2550.281922
462.156719	2550.964998
462.529099	2551.650595
462.901419	2549.901315
463.273680	2548.956099
463.645882	2550.596994
464.018024	2546.473330
464.390106	2550.614638
464.762130	2552.031202
465.134094	2553.725030
465.505999	2555.174362
465.877845	2559.522357
466.249631	2564.374468
466.621358	2560.155022
466.993026	2564.797925
467.364634	2560.795248
467.736184	2557.548745
468.107674	2558.549414
468.479105	2555.744012
468.850477	2557.208468
469.221790	2556.099414
469.593043	2555.638148
469.964238	2555.446584
470.335373	2557.843653
470.706449	2557.160577
471.077467	2553.689742
471.448425	2561.014539
471.819324	2564.142575
472.190164	2566.053172
472.560945	2563.063768
472.931667	2557.788200
473.302330	2556.477500
473.672934	2556.497665
474.043479	2559.575289
474.413965	2556.971533
474.784393	2550.360060
475.154761	2556.230484
475.525070	2553.026830
475.895321	2555.693601
476.265513	2555.988508
476.635645	2559.247614
477.005719	2559.552604
477.375734	2561.253993
477.745691	2561.344734
478.115588	2560.308777
478.485427	2562.786504
478.855207	2565.906978
479.224928	2569.060220
479.594591	2572.873853
479.964194	2569.304716
480.333739	2569.665159
480.703226	2568.556105
481.072653	2572.790674
481.442022	2569.957546
481.811333	2569.866805
482.180584	2570.738924
482.549777	2568.331773
482.918912	2567.462174
483.287988	2568.147771
483.657005	2566.590055
484.025964	2568.417473
484.394864	2566.385888
484.763706	2565.982596
485.132489	2565.546536
485.501213	2565.833882
485.869879	2565.402863
486.238487	2560.593602
486.607036	2565.775908
486.975527	2565.589386
487.343959	2566.239695
487.712333	2564.273645
488.080648	2563.507389
488.448905	2565.075188
488.817104	2562.935218
489.185244	2566.015363
489.553326	2569.203893
489.921350	2569.450910
490.289315	2570.015519
490.657222	2572.755386
491.025070	2570.040725
491.392861	2572.344532
491.760593	2572.755386
492.128267	2568.440158
492.495883	2567.063923
492.863440	2568.374623
493.230939	2564.109807
493.598380	2565.183573
493.965763	2558.960268
494.333088	2562.179045
494.700354	2558.821637
495.067563	2563.346072
495.434713	2562.020249
495.801805	2564.692060
496.168839	2563.245249
496.535815	2565.246587
496.902733	2563.378840
497.269593	2564.240877
497.636395	2565.176011
498.003139	2563.646021
498.369825	2564.326577
498.736453	2561.952193
499.103023	2565.211299
499.469535	2566.249777
499.835989	2565.533933
500.202385	2565.123079
500.568723	2563.575445
500.935003	2565.831361
501.301226	2563.391443
501.667390	2562.277348
502.033497	2566.307750
502.399546	2565.866649
502.765537	2564.051834
503.131470	2565.256670
503.497345	2566.050651
503.863163	2566.111145
504.228923	2565.901937
504.594625	2566.138872
504.960269	2566.302709
505.325856	2566.257339
505.691385	2563.809858
506.056856	2564.434962
506.422270	2565.599468
506.787625	2565.244067
507.152924	2565.596948
507.518164	2565.007132
507.883347	2565.057544
508.248472	2568.087277
508.613540	2564.301371
508.978550	2562.156360
509.343503	2562.824313
509.708398	2569.821434
510.073236	2568.263718
510.438016	2567.434448
510.802738	2565.775908
511.167403	2564.210630
511.532010	2566.443861
511.896561	2569.181208
512.261053	2568.120045
512.625488	2564.266083
512.989866	2564.354303
513.354186	2563.046124
513.718449	2562.720969
514.082655	2564.371947
514.446803	2563.373799
514.810894	2566.337997
515.174927	2565.279355
515.538904	2563.635939
515.902822	2565.382698
516.266684	2567.373954
516.630488	2566.330435
516.994235	2566.595096
517.357925	2566.718604
517.721558	2566.421176
518.085133	2566.227092
518.448651	2568.556105
518.812112	2569.342525
519.175516	2565.352452
519.538863	2567.210117
519.902152	2568.631722
520.265385	2566.736248
520.628560	2567.232802
520.991678	2568.152813
521.354739	2569.035014
521.717743	2571.656414
522.080690	2567.739438
522.443580	2567.933522
522.806413	2567.860426
523.169189	2568.634243
523.531908	2567.913358
523.894569	2567.300858
524.257174	2566.388409
524.619722	2570.093657
524.982213	2568.677092
525.344647	2568.654407
525.707025	2568.422514
526.069345	2567.126938
526.431608	2567.865467
526.793815	2566.005281
527.155964	2568.208265
527.518057	2566.416135
527.880093	2569.516445
528.242072	2566.388409
528.603995	2567.900755
528.965860	2567.686506
529.327669	2569.718091
529.689421	2566.055693
530.051117	2568.765313
530.412755	2568.540981
530.774337	2569.561815
531.135862	2568.732545
531.497331	2563.693912
531.858743	2559.928170
532.220098	2562.925136
532.581396	2562.743654
532.942638	2563.991340
533.303824	2565.082750
533.664953	2563.227605
534.026025	2567.623491
534.387040	2570.007957
534.747999	2564.775239
535.108902	2567.396639
535.469748	2567.931002
535.830537	2569.100549
536.191270	2565.670044
536.551947	2563.187276
536.912567	2566.900086
537.273131	2567.694067
537.633638	2564.848336
537.994089	2564.606361
538.354483	2564.286248
538.714821	2566.181721
539.075103	2566.988306
539.435328	2562.829354
539.795497	2567.066444
540.155609	2566.436300
540.515665	2567.784808
540.875665	2569.203893
541.235609	2564.167780
541.595496	2566.637946
541.955328	2568.379664
542.315102	2569.188770
542.674821	2568.004098
543.034483	2566.829510
543.394090	2565.594427
543.753640	2565.937225
544.113134	2568.717422
544.472571	2566.431258
544.831953	2566.438820
545.191278	2565.349931
545.550548	2568.470405
545.909761	2564.661813
546.268918	2567.434448
546.628019	2567.235323
546.987064	2564.825651
547.346053	2565.251628
547.704986	2565.067626
548.063863	2565.601989
548.422684	2565.090312
548.781449	2568.538461
549.140158	2567.822617
549.498811	2567.210117
549.857408	2569.009809
550.215949	2566.985785
550.574434	2560.941442
550.932864	2562.148798
551.291237	2562.978068
551.649555	2565.564180
552.007817	2565.642318
552.366022	2565.337328
552.724173	2565.556618
553.082267	2564.873542
553.440305	2564.487894
553.798288	2567.411763
554.156215	2564.840774
554.514086	2566.678275
554.871902	2566.166598
555.229661	2567.555436
555.587365	2566.033007
555.945014	2564.480332
556.302606	2564.329097
556.660143	2563.283058
557.017625	2563.872873
557.375050	2566.096022
557.732421	2565.944787
558.089735	2566.204407
558.446994	2565.586865
558.804197	2564.853377
559.161345	2566.577452
559.518437	2565.493604
559.875474	2567.903275
560.232455	2565.392781
560.589381	2566.348079
560.946251	2567.104252
561.303065	2566.458985
561.659825	2568.356979
562.016528	2564.376988
562.373177	2565.783470
562.729770	2567.000909
563.086307	2567.573080
563.442789	2563.572924
563.799216	2564.719787
564.155587	2565.120558
564.511904	2569.050138
564.868164	2562.456309
565.224370	2566.302709
565.580520	2566.259859
565.936615	2565.002091
566.292654	2564.298850
566.648638	2565.405384
567.004567	2565.735579
567.360441	2566.055693
567.716260	2565.281875
568.072023	2565.670044
568.427732	2560.747357
568.783385	2562.799107
569.138982	2559.865156
569.494525	2564.734910
569.850013	2560.825495
570.205445	2562.836916
570.560823	2565.211299
570.916145	2564.717266
571.271412	2566.847154
571.626625	2563.363716
571.981782	2564.180383
572.336884	2566.025446
572.691931	2565.826320
573.046923	2564.452606
573.401860	2563.504869
573.756743	2562.494117
574.111570	2565.183573
574.466342	2563.046124
574.821059	2559.774415
575.175722	2560.696946
575.530330	2563.333469
575.884882	2563.275496
576.239380	2564.414797
576.593823	2567.099211
576.948211	2561.629559
577.302544	2563.356155
577.656823	2562.063099
578.011047	2564.624005
578.365216	2563.116700
578.719330	2562.690722
579.073389	2563.610733
579.427394	2558.640155
579.781344	2561.720300
580.135239	2563.381360
580.489080	2562.123593
580.842866	2561.737944
581.196597	2563.714077
581.550273	2560.785166
581.903895	2562.136195
582.257463	2560.548232
582.610975	2563.570404
582.964434	2558.204095
583.317837	2561.334652
583.671186	2561.306926
584.024481	2562.456309
584.377721	2562.247101
584.730906	2562.673078
585.084037	2561.627039
585.437113	2561.168294
585.790135	2559.686195
586.143103	2560.248283
586.496016	2562.869683
586.848874	2557.563869
587.201679	2559.822306
587.554428	2554.718137
587.907124	2558.458674
588.259765	2558.209137
588.612352	2559.471946
588.964884	2562.040413
589.317362	2561.120403
589.669786	2556.303580
590.022155	2561.248952
590.374470	2562.758778
590.726731	2563.033521
591.078937	2562.055537
591.431090	2561.218705
591.783188	2559.794579
592.135232	2559.267779
592.487222	2557.377346
592.839157	2561.100238
593.191038	2558.103272
593.542866	2559.466904
593.894639	2557.586554
594.246358	2557.213509
594.598022	2557.276523
594.949633	2559.567727
595.301190	2560.891030
595.652692	2558.448591
596.004141	2558.430947
596.355535	2559.338355
596.706876	2555.872562
597.058162	2557.248797
597.409395	2556.059084
597.760573	2555.678477
598.111698	2558.743499
598.462768	2560.880948
598.813785	2558.022614
599.164748	2556.769887
599.515657	2561.478325
599.866511	2558.496482
600.217312	2557.916750
600.568060	2556.258210
600.918753	2558.410783
601.269392	2557.097562
601.619978	2559.156873
601.970510	2557.682336
602.320988	2557.450443
602.671412	2558.693087
603.021783	2559.587892
603.372100	2558.640155
603.722363	2558.554456
604.072572	2558.662840
604.422728	2560.729713
604.772830	2555.494475
605.122878	2550.755791
605.472872	2555.570093
605.822813	2553.916594
606.172701	2552.862993
606.522534	2558.340207
606.872314	2558.408262
607.222041	2559.729044
607.571714	2558.930022
607.921333	2556.916081
608.270899	2560.187789
608.620411	2560.714590
608.969870	2559.013201
609.319276	2559.040927
609.668627	2560.686864
610.017926	2564.671896
610.367171	2565.755744
610.716362	2563.325908
611.065500	2562.337842
611.414585	2563.671227
611.763616	2560.994374
612.112594	2558.065464
612.461518	2558.637635
612.810389	2557.752912
613.159207	2560.384394
613.507971	2559.343396
613.856682	2559.010680
614.205340	2560.787687
614.553945	2560.427244
614.902496	2559.923129
615.250994	2556.071687
615.599439	2556.081770
615.947830	2559.681153
616.296169	2556.474980
616.644454	2557.513457
616.992686	2560.253324
617.340864	2557.757953
617.688990	2558.095711
618.037063	2557.548745
618.385082	2558.378015
618.733048	2557.780638
619.080961	2555.928014
619.428821	2559.890361
619.776628	2558.458674
620.124382	2558.867007
620.472083	2556.469938
620.819731	2559.096380
621.167326	2557.936914
621.514868	2557.178221
621.862357	2556.807696
622.209793	2555.461708
622.557176	2558.178890
622.904506	2553.498178
623.251783	2554.705535
623.599007	2551.524567
623.946179	2553.273847
624.293297	2555.577654
624.640363	2554.824002
624.987376	2556.351471
625.334336	2556.800134
625.681243	2553.810730
626.028097	2555.900288
626.374899	2555.444064
626.721647	2555.207129
627.068343	2557.684857
627.414987	2552.555482
627.761577	2554.740823
628.108115	2554.738302
628.454600	2555.439023
628.801032	2553.205791
629.147412	2555.691080
629.493739	2553.435164
629.840014	2551.585060
630.186236	2555.877603
630.532405	2555.761656
630.878521	2557.437840
631.224585	2554.342572
631.570597	2553.387273
631.916556	2555.305432
632.262462	2554.697973
632.608316	2554.869372
632.954117	2555.176882
633.299866	2556.112017
633.645562	2551.799309
633.991206	2555.648230
634.336797	2551.222097
634.682336	2553.576316
635.027823	2551.695966
635.373257	2551.960626
635.718639	2552.394166
636.063968	2552.421892
636.409245	2551.406099
636.754470	2548.666232
637.099642	2551.118754
637.444762	2555.217212
637.789829	2549.487940
638.134845	2553.775442
638.479808	2550.007179
638.824719	2552.323589
639.169577	2552.774773
639.514383	2550.536500
639.859137	2550.065153
640.203839	2549.014072
640.548489	2549.707231
640.893086	2547.327806
641.237632	2547.295038
641.582125	2548.215049
641.926566	2545.248330
642.270955	2553.155380
642.615292	2550.929710
642.959576	2552.263096
643.303809	2551.174206
643.647990	2552.295863
643.992118	2551.524567
644.336195	2550.292004
644.680219	2552.202602
645.024192	2548.283105
645.368112	2551.590102
645.711981	2552.462221
646.055797	2548.280584
646.399562	2553.034392
646.743274	2548.648588
647.086935	2551.796789
647.430544	2548.036088
647.774101	2552.265616
648.117606	2553.956923
648.461059	2551.711089
648.804460	2555.194527
649.147810	2553.087324
649.491108	2550.080276
649.834354	2549.676984
650.177548	2550.816284
650.520690	2552.782334
650.863781	2549.916438
651.206820	2552.184958
651.549807	2552.963816
651.892742	2549.492982
652.235626	2548.739329
652.578458	2549.825698
652.921238	2551.098589
653.263967	2551.637993
653.606644	2549.641696
653.949269	2550.261758
654.291843	2550.135729
654.634365	2551.128836
654.976836	2548.462066
655.319255	2548.532642
655.661622	2545.911242
656.003938	2549.286294
656.346203	2547.063145
656.688416	2547.161448
657.030577	2550.251675
657.372687	2546.153217
657.714746	2547.786551
658.056753	2549.966850
658.398708	2546.672456
658.740612	2546.259081
659.082465	2548.580533
659.424266	2547.794113
659.766016	2543.733463
660.107715	2551.239741
660.449362	2548.270502
660.790958	2549.160265
661.132503	2547.025337
661.473996	2550.203784
661.815438	2549.276212
662.156829	2551.297715
662.498168	2545.253371
662.839456	2551.731254
663.180693	2549.084648
663.521879	2548.905687
663.863013	2548.073897
664.204097	2547.249668
664.545129	2549.253527
664.886110	2550.362581
665.227040	2548.565409
665.567918	2554.234187
665.908746	2546.251520
666.249522	2548.328475
666.590248	2545.616334
666.930922	2550.665050
667.271545	2549.533311
667.612118	2549.293856
667.952639	2551.456511
668.293109	2547.559699
668.633528	2550.390307
668.973896	2547.715975
669.314213	2547.733619
669.654480	2550.377704
669.994695	2551.605225
670.334859	2549.790410
670.674973	2546.614483
671.015035	2551.194371
671.355047	2548.114226
671.695008	2550.768393
672.034918	2549.876109
672.374777	2548.741850
672.714585	2546.508618
673.054342	2548.822508
673.394049	2550.160934
673.733705	2550.980122
674.073310	2549.898794
674.412864	2547.045501
674.752368	2549.573640
675.091820	2546.375028
675.431223	2547.572302
675.770574	2549.268650
676.109875	2543.632640
676.449125	2544.713968
676.788324	2544.141797
677.127473	2547.201777
677.466571	2545.089534
677.805619	2549.377035
678.144616	2546.208670
678.483562	2547.726057
678.822458	2547.821839
679.161303	2546.962322
679.500098	2546.672456
679.838842	2546.722868
680.177535	2545.460058
680.516179	2546.871582
680.854771	2546.990049
681.193314	2545.500388
681.531805	2547.715975
681.870247	2550.818805
682.208638	2548.283105
682.546978	2547.506767
682.885268	2548.199926
683.223508	2548.946016
683.561697	2546.241437
683.899836	2549.356870
684.237925	2547.980635
684.575963	2549.447611
684.913951	2548.804864
685.251889	2548.451983
685.589776	2549.750080
685.927614	2547.264792
686.265401	2548.719164
686.603137	2546.758156
686.940824	2548.333516
687.278460	2549.457693
687.616046	2548.106664
687.953582	2550.775955
688.291068	2549.543393
688.628504	2548.197405
688.965889	2547.146324
689.303224	2549.167827
689.640510	2547.295038
689.977745	2545.664225
690.314930	2547.297559
690.652065	2549.399720
690.989150	2547.108516
691.326185	2548.431819
691.663170	2548.578012
692.000105	2545.949050
692.336990	2547.499205
692.673825	2543.804039
693.010610	2546.533824
693.347345	2546.959802
693.684030	2541.754810
694.020665	2543.420912
694.357251	2541.986703
694.693786	2545.215562
695.030272	2544.615665
695.366707	2547.872251
695.703093	2543.766231
696.039429	2545.883515
696.375716	2543.700696
696.711952	2544.242620
697.048139	2543.246992
697.384276	2545.087013
697.720363	2544.078782
698.056400	2543.279759
698.392388	2545.190357
698.728326	2545.520552
699.064214	2545.722198
699.400053	2546.443083
699.735842	2545.283618
700.071581	2546.790923
700.407270	2542.858823
700.742910	2545.908721
701.078501	2543.935109
701.414042	2542.886549
701.749533	2544.025850
702.084974	2540.088709
702.420366	2543.055428
702.755709	2544.076262
703.091002	2542.755479
703.426246	2544.756818
703.761440	2544.817311
704.096584	2542.105171
704.431679	2542.904193
704.766725	2541.825387
705.101721	2542.669780
705.436668	2543.395706
705.771565	2543.325130
706.106413	2545.812939
706.441212	2545.437373
706.775961	2545.543237
707.110661	2543.468803
707.445311	2542.601724
707.779913	2545.465100
708.114465	2546.433001
708.448967	2543.541899
708.783421	2543.713299
709.117825	2543.778834
709.452180	2544.819832
709.786485	2542.195911
710.120742	2543.423432
710.454949	2545.903680
710.789107	2542.987373
711.123216	2540.040818
711.457275	2545.223124
711.791286	2541.565767
712.125247	2541.288504
712.459159	2547.138763
712.793023	2545.129863
713.126837	2544.333361
713.460602	2544.998793
713.794318	2544.986190
714.127985	2545.838145
714.461602	2541.129707
714.795171	2544.726571
715.128691	2545.069369
715.462162	2544.421581
715.795584	2541.500232
716.128957	2541.596014
716.462281	2542.906714
716.795556	2543.763710
717.128782	2542.964687
717.461960	2543.698175
717.795088	2543.962836
718.128167	2542.289173
718.461198	2542.672300
718.794180	2542.374872
719.127113	2541.270860
719.459997	2542.276570
719.792833	2542.354708
720.125619	2543.403268
720.458357	2539.511497
720.791046	2542.614327
721.123686	2540.542413
721.456278	2541.787578
721.788821	2540.471837
722.121315	2542.397558
722.453761	2539.075437
722.786158	2539.082999
723.118506	2539.566950
723.450805	2542.536189
723.783056	2541.202804
724.115259	2541.653987
724.447412	2541.575849
724.779518	2541.069213
725.111574	2542.216076
725.443582	2540.434028
725.775542	2542.009389
726.107453	2541.260777
726.439315	2538.684748
726.771129	2547.030378
727.102895	2543.499050
727.434612	2542.475695
727.766281	2540.885211
728.097901	2538.762886
728.429473	2540.749100
728.760996	2542.190870
729.092471	2536.113759
729.423897	2543.110881
729.755276	2541.946374
730.086606	2542.553833
730.417887	2540.678524
730.749120	2541.157434
731.080305	2541.863195
731.411442	2545.409647
731.742530	2541.222969
732.073570	2545.417209
732.404562	2542.332022
732.735506	2542.866385
733.066401	2544.686241
733.397249	2544.847558
733.728048	2541.472506
734.058798	2543.730943
734.389501	2543.549461
734.720156	2544.713968
735.050762	2540.066024
735.381320	2542.105171
735.711831	2540.663401
736.042293	2541.129707
736.372707	2540.834800
736.703073	2541.832948
737.033391	2541.843031
737.363661	2541.001158
737.693883	2542.155582
738.024056	2544.257743
738.354182	2538.553678
738.684260	2542.911755
739.014290	2542.299255
739.344272	2543.478885
739.674207	2540.844882
740.004093	2540.222300
740.333931	2541.724563
740.663722	2542.783206
740.993464	2542.251364
741.323159	2544.212373
741.652806	2539.211548
741.982405	2539.279604
742.311956	2539.945036
742.641460	2540.658359
742.970915	2541.323792
743.300323	2539.077958
743.629683	2541.134748
743.958996	2539.617361
744.288260	2537.290869
744.617477	2539.960160
744.946647	2534.924047
745.275768	2535.327339
745.604842	2539.196425
745.933869	2536.406146
746.262847	2534.886238
746.591778	2539.123328
746.920662	2539.748431
747.249498	2539.637526
747.578286	2540.943185
747.907027	2539.821528
748.235720	2536.484284
748.564365	2540.688606
748.892963	2536.675848
749.221514	2540.597866
749.550017	2536.943029
749.878473	2542.566436
750.206881	2540.658359
750.535242	2541.008720
750.863555	2538.031918
751.191821	2540.829759
751.520039	2539.841693
751.848210	2538.720036
752.176334	2539.819007
752.504411	2540.774306
752.832440	2540.290355
753.160421	2539.319933
753.488356	2539.458565
753.816243	2541.500232
754.144082	2540.766744
754.471875	2537.507638
754.799620	2540.126518
755.127318	2537.235416
755.454969	2537.623585
755.782572	2541.192722
756.110129	2540.822197
756.437638	2539.440921
756.765100	2534.878677
757.092515	2538.929244
757.419882	2539.259439
757.747203	2537.527803
758.074477	2537.961342
758.401703	2537.984027
758.728882	2539.609799
759.056014	2538.440252
759.383099	2537.250539
759.710138	2540.403781
760.037129	2541.253216
760.364073	2540.449152
760.690970	2536.990920
761.017820	2542.047197
761.344623	2538.745242
761.671379	2538.377237
761.998088	2535.410518
762.324751	2538.888914
762.651366	2539.198945
762.977935	2544.131714
763.304456	2542.074924
763.630931	2548.159596
763.957359	2545.956612
764.283740	2545.291180
764.610074	2542.279090
764.936362	2541.585932
765.262602	2541.175078
765.588796	2536.401105
765.914943	2540.494522
766.241044	2540.212217
766.567097	2541.681714
766.893104	2539.786240
767.219064	2537.202648
767.544978	2538.273894
767.870845	2541.764893
768.196665	2540.663401
768.522438	2539.093081
768.848165	2535.796167
769.173846	2540.492001
769.499479	2538.692309
769.825066	2534.016639
770.150607	2537.928575
770.476101	2536.239788
770.801548	2540.376055
771.126949	2537.464788
771.452303	2536.108718
771.777611	2536.595189
772.102872	2535.644932
772.428087	2535.355066
772.753256	2538.926723
773.078378	2540.043339
773.403453	2535.302133
773.728482	2535.324819
774.053465	2536.706095
774.378401	2536.169212
774.703291	2536.017977
775.028135	2535.168543
775.352932	2535.082843
775.677683	2537.724408
776.002388	2537.691640
776.327046	2537.016126
776.651658	2536.065868
776.976224	2535.024870
777.300743	2538.430169
777.625216	2537.890766
777.949643	2538.954449
778.274024	2536.748945
778.598359	2532.171577
778.922647	2530.734848
779.246889	2531.334745
779.571086	2533.903213
779.895236	2534.019160
780.219339	2537.411856
780.543397	2535.960004
780.867409	2534.432534
781.191374	2537.237937
781.515294	2534.687113
781.839167	2535.365148
782.162995	2535.060158
782.486776	2537.401774
782.810511	2536.615354
783.134201	2537.764737
783.457844	2536.096115
783.781441	2536.244829
784.104993	2535.120652
784.428498	2536.045704
784.751958	2535.992772
785.075372	2538.213400
785.398739	2535.975127
785.722061	2535.662576
786.045337	2535.808769
786.368568	2537.701723
786.691752	2536.091074
787.014891	2537.331198
787.337983	2534.608975
787.661030	2535.997813
787.984031	2536.194418
788.306987	2536.706095
788.629897	2535.667617
788.952760	2535.730632
789.275579	2537.575694
789.598351	2539.519059
789.921078	2535.594520
790.243759	2535.602082
790.566395	2538.241126
790.888984	2537.416897
791.211529	2536.791794
791.534027	2535.856660
791.856480	2534.687113
792.178888	2538.823379
792.501249	2534.777853
792.823566	2537.305992
793.145836	2537.006043
793.468062	2537.487474
793.790241	2533.411701
794.112375	2535.886907
794.434464	2535.138296
794.756507	2536.801877
795.078505	2538.258770
795.400457	2537.429500
795.722364	2530.747451
796.044226	2536.138965
796.366042	2534.775333
796.687812	2532.635363
797.009538	2534.162833
797.331218	2539.377906
797.652852	2537.830272
797.974442	2537.794984
798.295986	2533.431865
798.617484	2533.331042
798.938938	2535.400436
799.260346	2536.118800
799.581709	2537.106867
799.903026	2536.761547
800.224299	2536.564943
800.545526	2536.272556
800.866708	2532.612678
801.187845	2535.120652
801.508936	2534.233409
801.829983	2534.951773
802.150984	2535.904551
802.471940	2532.385826
802.792851	2536.138965
803.113717	2537.064017
803.434538	2535.501259
803.755314	2535.400436
804.076045	2533.905734
804.396731	2536.799356
804.717372	2534.785415
805.037967	2538.102494
805.358518	2534.815662
805.679024	2534.820703
805.999485	2534.934129
806.319901	2536.632998
806.640272	2534.747607
806.960598	2535.861702
807.280879	2537.492515
807.601115	2536.892618
807.921306	2533.966228
808.241453	2535.410518
808.561554	2535.723070
808.881611	2536.209541
809.201623	2531.196114
809.521590	2536.338091
809.841513	2535.360107
810.161390	2536.547298
810.481223	2534.954294
810.801011	2535.486136
811.120755	2535.208872
811.440453	2535.612164
811.760107	2534.732483
812.079716	2534.830786
812.399281	2530.742410
812.718801	2532.695857
813.038276	2527.763088
813.357707	2534.301464
813.677093	2534.064530
813.996434	2534.954294
814.315731	2538.455375
814.634983	2536.917823
814.954191	2531.894313
815.273354	2535.745755
815.592473	2534.324150
815.911547	2537.691640
816.230577	2536.144006
816.549562	2535.826413
816.868502	2535.097967
817.187399	2535.990251
817.506250	2534.160312
817.825058	2537.928575
818.143821	2534.588810
818.462539	2534.276259
818.781213	2534.644263
819.099843	2536.663245
819.418429	2537.429500
819.736970	2536.038142
820.055466	2540.897814
820.373919	2543.035263
820.692327	2539.811446
821.010691	2545.054246
821.329011	2548.545245
821.647286	2561.032183
821.965517	2571.129614
822.283704	2578.940882
822.601847	2585.091089
822.919945	2578.056159
823.237999	2569.183728
823.556010	2562.136195
823.873976	2557.319373
824.191897	2553.513302
824.509775	2548.905687
824.827609	2547.897456
825.145398	2543.423432
825.463144	2547.002652
825.780845	2543.425953
826.098502	2549.051881
826.416116	2550.720502
826.733685	2550.775955
827.051210	2553.510781
827.368692	2552.532797
827.686129	2549.288815
828.003522	2549.258568
828.320872	2539.294727
828.638177	2542.256405
828.955439	2535.385313
829.272656	2536.862371
829.589830	2533.061341
829.906960	2536.154088
830.224046	2535.344983
830.541088	2537.673996
830.858086	2536.096115
831.175041	2537.563091
831.491952	2534.180477
831.808819	2535.816331
832.125642	2535.970086
832.442421	2537.255581
832.759157	2537.520241
833.075849	2538.994779
833.392497	2543.955274
833.709101	2545.318906
834.025662	2545.623896
834.342179	2542.281611
834.658653	2541.069213
834.975083	2540.265149
835.291469	2541.568288
835.607811	2537.691640
835.924110	2536.093595
836.240366	2535.642411
836.556578	2535.846578
836.872746	2534.548481
837.188871	2534.424973
837.504952	2534.182997
837.820990	2533.504962
838.136984	2535.115611
838.452935	2533.119314
838.768842	2536.010416
839.084706	2534.974458
839.400526	2536.562422
839.716303	2537.923533
840.032037	2536.612833
840.347727	2540.423946
840.663373	2537.006043
840.978977	2537.237937
841.294537	2535.433203
841.610054	2537.550488
841.925527	2534.303985
842.240957	2534.790456
842.556344	2535.528985
842.871687	2533.872966
843.186987	2534.140147
843.502244	2533.774664
843.817458	2535.707946
844.132629	2532.043028
844.447756	2533.930940
844.762840	2527.896678
845.077881	2529.086391
845.392879	2528.345341
845.707833	2531.566638
846.022745	2527.488345
846.337613	2533.820034
846.652438	2531.543953
846.967221	2534.722401
847.281960	2531.682585
847.596656	2534.813142
847.911309	2534.324150
848.225919	2532.287523
848.540485	2534.016639
848.855009	2529.393901
849.169490	2534.780374
849.483928	2532.741227
849.798323	2532.980682
850.112675	2534.193080
850.426984	2533.063861
850.741251	2533.225178
851.055474	2532.484128
851.369654	2534.112421
851.683792	2532.254756
851.997887	2531.125538
852.311938	2533.678882
852.625947	2532.393388
852.939914	2532.705939
853.253837	2531.924560
853.567718	2533.499921
853.881555	2530.865918
854.195350	2533.361289
854.509103	2533.152081
854.822812	2532.786598
855.136479	2534.727442
855.450103	2532.625281
855.763685	2531.793490
856.077224	2531.785929
856.390720	2533.089067
856.704173	2534.714839
857.017584	2526.825433
857.330953	2533.331042
857.644278	2532.879859
857.957561	2532.131248
858.270802	2532.474046
858.584000	2534.261135
858.897155	2533.898172
859.210268	2534.591331
859.523339	2533.464633
859.836367	2533.651156
860.149352	2530.477749
860.462295	2535.521424
860.775195	2528.400794
861.088054	2529.348531
861.400869	2528.758716
861.713642	2527.967255
862.026373	2530.341638
862.339062	2529.880373
862.651708	2532.544622
862.964312	2536.605272
863.276873	2529.247708
863.589392	2533.323481
863.901869	2528.819210
864.214303	2533.381454
864.526696	2532.690816
864.839045	2533.212575
865.151353	2529.434230
865.463619	2533.260466
865.775842	2533.676361
866.088023	2531.909437
866.400162	2535.201310
866.712258	2531.450692
867.024313	2533.643594
867.336325	2532.045548
867.648296	2533.197452
867.960224	2532.070754
868.272110	2531.644776
868.583954	2531.249046
868.895755	2533.169725
869.207515	2533.217616
869.519233	2532.907585
869.830909	2530.954138
870.142542	2532.043028
870.454134	2532.365661
870.765684	2533.389016
871.077191	2531.596885
871.388657	2534.316588
871.700081	2533.933460
872.011463	2531.959848
872.322803	2533.709129
872.634101	2531.052441
872.945357	2532.302647
873.256571	2534.016639
873.567744	2531.019673
873.878874	2533.084026
874.189963	2533.532688
874.501010	2533.903213
874.812015	2533.341125
875.122979	2532.804242
875.433900	2532.118645
875.744780	2534.535878
876.055618	2535.105528
876.366415	2531.929602
876.677169	2532.864736
876.987882	2530.911288
877.298554	2528.292409
877.609183	2530.447502
877.919771	2528.509179
878.230317	2532.529499
878.540822	2533.799870
878.851285	2532.998326
879.161707	2536.020498
879.472087	2537.275745
879.782425	2536.859850
880.092722	2540.963349
880.402977	2541.974101
880.713191	2548.358722
881.023363	2556.580844
881.333494	2561.632080
881.643583	2561.127965
881.953631	2563.111659
882.263637	2558.627552
882.573602	2556.792572
882.883526	2554.340051
883.193408	2549.505584
883.503248	2547.176571
883.813048	2547.330327
884.122806	2545.936448
884.432522	2538.117618
884.742197	2539.831610
885.051831	2538.001671
885.361424	2536.759027
885.670975	2537.850437
885.980485	2537.880684
886.289954	2536.731301
886.599382	2535.644932
886.908768	2537.482433
887.218113	2533.719211
887.527417	2534.445137
887.836680	2532.902544
888.145901	2531.932122
888.455082	2533.018491
888.764221	2531.952287
889.073319	2531.929602
889.382376	2534.868594
889.691392	2531.112935
890.000366	2535.097967
890.309300	2531.821217
890.618193	2533.842719
890.927044	2534.354397
891.235855	2533.900693
891.544625	2533.530168
891.853353	2531.904396
892.162041	2536.212062
892.470687	2534.364479
892.779293	2535.750796
893.087858	2533.167205
893.396381	2531.009591
893.704864	2534.525796
894.013306	2535.556712
894.321707	2539.531662
894.630068	2541.722043
894.938387	2540.865047
895.246665	2543.337733
895.554903	2540.910417
895.863100	2537.568132
896.171256	2538.588966
896.479371	2535.894469
896.787446	2537.921013
897.095480	2535.203831
897.403473	2535.798687
897.711425	2537.996630
898.019336	2534.603934
898.327207	2534.480425
898.635038	2535.690302
898.942827	2532.118645
899.250576	2532.078316
899.558284	2532.252235
899.865952	2533.477236
900.173579	2532.481608
900.481165	2532.277441
900.788711	2532.514375
901.096216	2531.659900
901.403681	2534.815662
901.711105	2531.213758
902.018489	2532.680733
902.325832	2532.529499
902.633135	2533.537730
902.940397	2533.401618
903.247619	2533.668800
903.554800	2536.512010
903.861941	2538.485622
904.169041	2543.246992
904.476101	2543.257074
904.783121	2544.068700
905.090100	2544.056097
905.397039	2539.297248
905.703938	2537.172402
906.010796	2538.919161
906.317614	2536.829603
906.624391	2537.719367
906.931129	2533.320960
907.237826	2535.060158
907.544483	2532.685775
907.851099	2532.378264
908.157675	2533.434386
908.464211	2531.430527
908.770707	2526.714528
909.077163	2531.508665
909.383578	2527.442975
909.689954	2528.229395
909.996289	2527.432892
910.302584	2532.796680
910.608839	2530.928932
910.915054	2532.947915
911.221229	2532.685775
911.527363	2530.954138
911.833458	2530.591175
912.139513	2528.655372
912.445527	2532.373223
912.751502	2529.852646
913.057436	2532.960517
913.363331	2532.214427
913.669186	2531.090249
913.975000	2532.186700
914.280775	2532.345497
914.586510	2532.796680
914.892205	2533.363810
915.197859	2537.837834
915.503475	2540.970911
915.809050	2543.559543
916.114585	2545.364277
916.420081	2545.220604
916.725536	2544.257743
917.030952	2540.333205
917.336328	2540.436549
917.641665	2538.926723
917.946961	2538.725077
918.252218	2536.542257
918.557435	2533.615868
918.862612	2536.428831
919.167750	2533.681403
919.472848	2534.074612
919.777906	2532.151412
920.082925	2533.121834
920.387904	2531.760723
920.692843	2535.329860
920.997743	2532.348017
921.302603	2534.457740
921.607423	2531.836340
921.912204	2531.322143
922.216946	2530.908768
922.521647	2530.616381
922.826310	2532.539581
923.130932	2528.955321
923.435516	2529.703932
923.740059	2530.825589
924.044564	2530.876000
924.349028	2529.724097
924.653454	2524.040196
924.957840	2528.463808
925.262186	2524.209074
925.566493	2527.611853
925.870761	2525.368540
926.174989	2529.978675
926.479178	2526.613705
926.783328	2530.639066
927.087438	2530.200486
927.391509	2529.673685
927.695541	2529.139323
927.999533	2530.502955
928.303486	2527.190917
928.607400	2527.879034
928.911275	2530.402132
929.215110	2529.041020
929.518906	2531.543953
929.822663	2530.994468
930.126381	2530.669313
930.430060	2526.641431
930.733699	2531.798532
931.037299	2529.545136
931.340861	2529.167049
931.644383	2530.858356
931.947866	2529.570342
932.251309	2528.615043
932.554714	2530.074457
932.858080	2529.633356
933.161407	2529.635877
933.464694	2531.145702
933.767943	2529.459436
934.071153	2531.919519
934.374323	2531.488501
934.677455	2531.264169
934.980548	2527.677388
935.283602	2531.128058
935.586617	2529.761905
935.889593	2530.593696
936.192530	2528.743592
936.495428	2529.487162
936.798287	2527.397604
937.101108	2530.349200
937.403890	2531.362472
937.706632	2530.351720
938.009336	2530.976823
938.312002	2532.244674
938.614628	2531.440610
938.917216	2529.845084
939.219765	2529.335928
939.522275	2530.329035
939.824747	2531.876669
940.127179	2527.813499
940.429573	2529.466998
940.731929	2528.849457
941.034246	2524.700587
941.336524	2528.027748
941.638763	2530.863397
941.940964	2530.969262
942.243126	2528.279806
942.545250	2529.744261
942.847335	2531.304498
943.149381	2528.126051
943.451389	2526.974147
943.753359	2528.781401
944.055290	2528.098325
944.357182	2527.695032
944.659036	2529.124199
944.960851	2526.611184
945.262628	2529.419107
945.564367	2527.258973
945.866067	2527.332069
946.167729	2529.230064
946.469352	2530.331556
946.770937	2528.400794
947.072484	2529.620753
947.373992	2529.351051
947.675462	2529.376257
947.976893	2530.031607
948.278286	2526.512882
948.579641	2530.334076
948.880958	2526.510361
949.182236	2531.279293
949.483476	2528.292409
949.784678	2528.942718
950.085841	2527.218643
950.386967	2529.719056
950.688054	2526.245701
950.989103	2531.924560
951.290114	2527.085053
951.591087	2529.177132
951.892021	2527.740403
952.192917	2527.589168
952.493776	2528.264683
952.794596	2529.829961
953.095378	2526.260824
953.396122	2528.975485
953.696828	2529.986237
953.997496	2527.763088
954.298126	2528.504138
954.598718	2528.015146
954.899272	2528.546987
955.199788	2529.318284
955.500266	2528.831812
955.800706	2528.095804
956.101108	2526.026410
956.401472	2524.824095
956.701798	2524.188910
957.002087	2525.512213
957.302337	2528.229395
957.602550	2528.690660
957.902724	2526.054137
958.202861	2526.911133
958.502960	2526.359127
958.803022	2527.483304
959.103045	2527.957172
959.403031	2529.658562
959.702979	2527.369878
960.002889	2529.010773
960.302762	2525.638242
960.602596	2531.672503
960.902393	2527.732841
961.202153	2527.977337
961.501875	2528.357944
961.801559	2526.593540
962.101205	2528.874662
962.400814	2528.231915
962.700385	2526.011287
962.999918	2527.200999
963.299414	2528.052954
963.598873	2530.820548
963.898293	2526.437264
964.197677	2529.837523
964.497022	2529.895496
964.796331	2529.209899
965.095601	2528.665454
965.394835	2527.248890
965.694030	2525.665968
965.993189	2530.203006
966.292309	2528.020187
966.591393	2524.660258
966.890439	2528.458767
967.189447	2527.753006
967.488419	2528.821730
967.787353	2529.146885
968.086249	2526.462470
968.385108	2527.952131
968.683930	2526.948942
968.982714	2528.652852
969.281462	2526.633869
969.580172	2527.508510
969.878844	2529.628315
970.177480	2529.812317
970.476078	2527.758047
970.774639	2529.288037
971.073162	2528.579755
971.371649	2523.959537
971.670098	2526.291071
971.968510	2526.036493
972.266885	2523.278982
972.565223	2527.175793
972.863524	2524.912315
973.161788	2528.826771
973.460014	2529.151926
973.758204	2527.911802
974.056356	2527.591689
974.354471	2529.260311
974.652550	2524.483817
974.950591	2525.429034
975.248595	2526.802748
975.546563	2526.507841
975.844493	2525.378622
976.142386	2528.683098
976.440243	2529.174611
976.738062	2528.489014
977.035845	2529.426669
977.333590	2530.344159
977.631299	2528.080681
977.928971	2528.317615
978.226606	2526.906092
978.524204	2527.536236
978.821765	2528.824251
979.119290	2527.879034
979.416777	2527.200999
979.714228	2529.033459
980.011642	2527.216123
980.309020	2529.499765
980.606360	2526.570855
980.903664	2528.922553
981.200931	2526.096987
981.498162	2527.074970
981.795356	2526.986750
982.092513	2529.139323
982.389633	2529.393901
982.686717	2528.375588
982.983764	2526.838036
983.280775	2528.057995
983.577749	2528.514220
983.874686	2528.970444
984.171587	2528.426000
984.468451	2528.718387
984.765279	2529.530012
985.062070	2527.296781
985.358824	2527.132944
985.655543	2527.453057
985.952224	2527.223684
986.248869	2526.059178
986.545478	2524.279651
986.842050	2525.391225
987.138586	2524.415762
987.435086	2522.127078
987.731549	2526.349044
988.027975	2524.251924
988.324366	2528.466329
988.620719	2525.434075
988.917037	2525.955834
989.213318	2526.351565
989.509563	2527.959693
989.805772	2527.120341
990.101944	2525.766791
990.398080	2527.392563
990.694180	2526.883407
990.990244	2527.969775
991.286271	2526.152439
991.582262	2526.570855
991.878217	2525.928108
992.174136	2529.852646
992.470019	2529.063706
992.765865	2527.846267
993.061676	2525.116482
993.357450	2529.270393
993.653188	2526.777542
993.948890	2528.864580
994.244556	2526.515402
994.540186	2527.768129
994.835780	2525.862573
995.131337	2530.409694
995.426859	2529.716535
995.722345	2523.478107
996.017795	2529.005732
996.313208	2529.913140
996.608586	2527.614374
996.903928	2526.956503
997.199234	2525.134126
997.494504	2527.029600
997.789738	2522.553055
998.084936	2527.493386
998.380099	2526.137316
998.675225	2527.705115
998.970316	2527.011956
999.265371	2528.226874
999.560390	2524.632531
999.855373	2529.686288
1000.150320	2526.162522
1000.445232	2526.845598
1000.740108	2526.739734
1001.034948	2526.603623
1001.329752	2524.304856
1001.624521	2523.649506
1001.919254	2522.323683
1002.213951	2527.135464
1002.508613	2523.901564
1002.803239	2524.458612
1003.097829	2520.705473
1003.392384	2526.956503
1003.686903	2525.285361
1003.981386	2527.185876
1004.275834	2524.279651
1004.570246	2528.254600
1004.864623	2528.446164
1005.158964	2523.747809
1005.453270	2523.347037
1005.747540	2526.659075
1006.041775	2525.802079
1006.335974	2525.363499
1006.630138	2526.689322
1006.924266	2528.204189
1007.218359	2527.405166
1007.512416	2526.230577
1007.806438	2527.095135
1008.100425	2527.891637
1008.394376	2525.774353
1008.688292	2530.621422
1008.982172	2528.597399
1009.276017	2526.664116
1009.569827	2523.881399
1009.863602	2527.448016
1010.157341	2526.797707
1010.451045	2527.284178
1010.744714	2525.754188
1011.038347	2527.155629
1011.331945	2525.698735
1011.625508	2526.482635
1011.919036	2526.568334
1012.212528	2526.780063
1012.505986	2526.563293
1012.799408	2525.653365
1013.092795	2525.860052
1013.386147	2527.016997
1013.679464	2527.599250
1013.972745	2527.987419
1014.265992	2526.762419
1014.559204	2525.454239
1014.852380	2525.166894
1015.145521	2526.689322
1015.438628	2526.475073
1015.731699	2525.565145
1016.024736	2526.217974
1016.317737	2526.807789
1016.610703	2527.556401
1016.903635	2523.273940
1017.196531	2523.823426
1017.489393	2523.248735
1017.782219	2521.149094
1018.075011	2524.188910
1018.367768	2524.652696
1018.660490	2526.800228
1018.953177	2526.800228
1019.245829	2526.800228
