Dividing Wavelength (nm)	Counts (n)	Blue Motor Position (mm): 0.000000	Red Motor Position (mm): 20.200000	
326.493990	2126.600668
326.888308	2126.600668
327.282561	2126.600668
327.676750	2095.975658
328.070874	2093.991964
328.464933	2095.408528
328.858929	2102.937492
329.252859	2113.317227
329.646726	2124.722838
330.040528	2138.618778
330.434265	2153.807775
330.827938	2169.994920
331.221547	2188.919412
331.615091	2208.390868
332.008571	2226.566748
332.401986	2248.094996
332.795338	2268.070568
333.188625	2287.042951
333.581847	2303.338480
333.975006	2321.496717
334.368100	2342.228462
334.761129	2360.124558
335.154095	2377.645088
335.546996	2392.128323
335.939833	2407.188770
336.332606	2422.607139
336.725315	2435.943512
337.117960	2446.429112
337.510540	2454.321038
337.903056	2465.348562
338.295508	2471.178657
338.687896	2478.891622
339.080220	2489.311687
339.472480	2495.408962
339.864676	2499.237719
340.256807	2502.143944
340.648875	2506.396157
341.040879	2510.930675
341.432818	2509.272136
341.824694	2513.668022
342.216506	2509.877074
342.608253	2513.095851
342.999937	2513.100892
343.391557	2512.387569
343.783113	2511.674245
344.174605	2512.422857
344.566033	2511.240706
344.957397	2507.293483
345.348697	2509.493946
345.739934	2509.516632
346.131106	2504.082268
346.522215	2500.941629
346.913260	2495.650938
347.304241	2498.229488
347.695159	2495.227481
348.086012	2495.902996
348.476802	2491.141626
348.867528	2494.425938
349.258191	2489.036944
349.648789	2489.747747
350.039324	2485.621562
350.429796	2486.657519
350.820203	2483.922693
351.210548	2482.866572
351.600828	2484.731799
351.991045	2483.912611
352.381198	2480.918166
352.771288	2482.422950
353.161314	2483.930255
353.551276	2484.482262
353.941175	2480.434215
354.331010	2480.998824
354.720782	2480.963536
355.110490	2481.152579
355.500135	2483.088382
355.889717	2481.563433
356.279235	2482.438074
356.668689	2483.922693
357.058080	2483.700883
357.447408	2482.501088
357.836672	2480.091417
358.225873	2480.633341
358.615010	2478.758031
359.004084	2488.041316
359.393095	2485.069556
359.782043	2484.232724
360.170927	2487.471666
360.559748	2489.190699
360.948505	2489.021821
361.337199	2490.783704
361.725830	2488.820174
362.114398	2492.094404
362.502903	2491.083652
362.891344	2490.166162
363.279722	2491.232367
363.668037	2494.269662
364.056289	2495.237563
364.444478	2493.601709
364.832603	2494.982985
365.220665	2494.914929
365.608665	2497.644714
365.996601	2495.827378
366.384474	2497.911895
366.772284	2500.056906
367.160031	2498.428614
367.547715	2504.394819
367.935336	2503.371465
368.322893	2504.440190
368.710388	2510.580315
369.097820	2516.188599
369.485189	2521.449043
369.872495	2526.238139
370.259738	2532.728624
370.646918	2538.374717
371.034035	2546.344781
371.421090	2557.125288
371.808081	2566.360682
372.195010	2576.291755
372.581875	2589.323138
372.968678	2603.035077
373.355418	2611.728546
373.742096	2634.154119
374.128710	2648.682725
374.515262	2659.090187
374.901751	2677.082065
375.288177	2693.410362
375.674540	2713.098588
376.060841	2727.722976
376.447079	2749.846079
376.833254	2771.911210
377.219367	2783.100051
377.605417	2822.534477
377.991404	2829.967658
378.377329	2850.056656
378.763191	2869.258411
379.148991	2906.424318
379.534727	2931.428441
379.920402	2960.309211
380.306013	2971.903865
380.691563	3021.599560
381.077049	3044.982952
381.462474	3061.497772
381.847835	3099.732403
382.233134	3123.372894
382.618371	3122.979684
383.003545	3188.771783
383.388657	3194.475849
383.773706	3230.469687
384.158693	3247.281935
384.543618	3272.225564
384.928480	3309.930875
385.313280	3353.937627
385.698017	3352.916793
386.082692	3407.668765
386.467305	3413.725712
386.851856	3444.096143
387.236344	3464.248156
387.620770	3496.350223
388.005133	3524.948689
388.389435	3548.163203
388.773674	3561.287847
389.157851	3602.504320
389.541965	3616.526290
389.926018	3580.603027
390.310008	3655.466683
390.693936	3670.388498
391.077802	3712.719067
391.461606	3701.510061
391.845348	3767.770987
392.229027	3762.916356
392.612645	3777.399591
392.996200	3856.875902
393.379694	3898.649424
393.763125	3960.683342
394.146494	3929.415586
394.529801	3987.255264
394.913047	4033.472563
395.296230	4002.066174
395.679351	4058.509453
396.062410	4083.984924
396.445408	4062.431471
396.828343	4096.592850
397.211217	4114.425932
397.594028	4037.533212
397.976778	4107.249849
398.359466	4132.821102
398.742092	4160.665915
399.124656	4082.248247
399.507158	4162.377387
399.889598	4188.762786
400.271977	4246.468874
400.654294	4216.811766
401.036549	4226.210998
401.418742	4199.288716
401.800874	4299.403510
402.182944	4321.350174
402.564952	4384.450296
402.946898	4370.138461
403.328783	4364.923387
403.710606	4283.077734
404.092367	4470.991784
404.474067	4438.483904
404.855705	4443.724183
405.237282	4374.156260
405.618797	4487.108353
406.000250	4516.420142
406.381642	4596.897122
406.762972	4555.942788
407.144240	4565.210950
407.525447	4568.870828
407.906593	4625.273777
408.287677	4667.460673
408.668700	4596.685394
409.049661	4648.694978
409.430560	4686.269218
409.811399	4611.163588
410.192176	4768.434985
410.572891	4708.783011
410.953545	4809.044000
411.334138	4688.935989
411.714669	4749.298765
412.095139	4645.836644
412.475547	4775.101911
412.855894	4751.065689
413.236180	4753.475361
413.616405	4707.923495
413.996568	4784.143220
414.376670	4719.818097
414.756711	4665.645858
415.136691	4685.744938
415.516609	4752.071399
415.896466	4770.970685
416.276262	4796.526815
416.655997	4764.409623
417.035670	4921.691103
417.415283	4989.068645
417.794834	4920.811422
418.174324	4860.378069
418.553753	4756.381586
418.933121	4906.187034
419.312428	4943.829330
419.691674	4872.456674
420.070859	4961.105364
420.449983	4857.519735
420.829045	4932.252320
421.208047	4826.801464
421.586988	4856.269529
421.965867	4837.133309
422.344686	4909.647786
422.723444	4762.632617
423.102141	4586.953446
423.480777	4793.270229
423.859352	4579.923557
424.237866	4738.926591
424.616319	4692.308521
424.994712	4736.937856
425.373044	4604.847022
425.751314	4660.113192
426.129524	4481.081654
426.507673	4569.153132
426.885762	4585.168878
427.263789	4488.668590
427.641756	4373.200962
428.019662	4400.829005
428.397508	4355.894680
428.775292	4274.227988
429.153016	4282.029174
429.530679	4196.586657
429.908282	4190.620452
430.285824	4076.430755
430.663305	4161.724558
431.040726	3977.064572
431.418086	3937.173921
431.795385	3936.765588
432.172624	3892.211870
432.549802	3842.884180
432.926920	3797.433137
433.303977	3750.555447
433.680974	3723.769276
434.057910	3677.458716
434.434786	3635.944814
434.811601	3581.238213
435.188355	3608.127727
435.565050	3525.651930
435.941683	3473.821307
436.318257	3488.417968
436.694770	3436.287396
437.071222	3401.200965
437.447614	3340.621419
437.823946	3283.154786
438.200218	3275.398971
438.576429	3208.709547
438.952580	3189.122143
439.328670	3165.711025
439.704700	3111.304372
440.080670	3078.378076
440.456580	3083.346133
440.832429	3032.848895
441.208218	2978.601038
441.583947	2974.179946
441.959616	2944.908486
442.335224	2912.103178
442.710773	2896.788152
443.086261	2871.726056
443.461689	2835.260870
443.837057	2824.893737
444.212365	2811.653146
444.587612	2787.342182
444.962800	2777.645522
445.337927	2758.784045
445.712995	2716.834083
446.088002	2730.573748
446.462949	2708.289328
446.837837	2690.504137
447.212664	2686.173786
447.587431	2676.552744
447.962139	2685.815864
448.336786	2702.739017
448.711374	2682.864268
449.085901	2645.768938
449.460369	2634.953142
449.834776	2623.174486
450.209124	2624.578447
450.583412	2621.500823
450.957640	2619.282715
451.331808	2608.020778
451.705917	2593.109045
452.079965	2591.755495
452.453954	2588.483786
452.827883	2582.625965
453.201752	2581.663105
453.575562	2577.645305
453.949311	2574.968452
454.323001	2572.241188
454.696632	2569.342525
455.070202	2573.413257
455.443713	2570.491908
455.817164	2565.244067
456.190556	2567.096691
456.563888	2565.216340
456.937160	2563.562842
457.310373	2562.085784
457.683526	2562.189127
458.056619	2559.476987
458.429653	2557.828529
458.802628	2559.295505
459.175542	2560.644014
459.548398	2562.864642
459.921194	2560.301215
460.293930	2562.325239
460.666607	2563.595609
461.039224	2566.227092
461.411782	2565.871690
461.784280	2564.893707
462.156719	2562.917574
462.529099	2559.620660
462.901419	2561.717780
463.273680	2559.799621
463.645882	2560.568397
464.018024	2557.916750
464.390106	2557.573951
464.762130	2560.293654
465.134094	2561.770712
465.505999	2569.929819
465.877845	2575.775037
466.249631	2578.154462
466.621358	2577.574729
466.993026	2577.809143
467.364634	2575.543144
467.736184	2569.657597
468.107674	2569.014850
468.479105	2570.849830
468.850477	2567.182390
469.221790	2566.191804
469.593043	2565.188614
469.964238	2562.037893
470.335373	2562.194169
470.706449	2565.317163
471.077467	2563.381360
471.448425	2572.674727
471.819324	2578.262847
472.190164	2578.822415
472.560945	2571.570715
472.931667	2568.046948
473.302330	2565.833882
473.672934	2566.385888
474.043479	2564.717266
474.413965	2564.666855
474.784393	2557.959599
475.154761	2565.420507
475.525070	2562.489076
475.895321	2563.252811
476.265513	2561.513613
476.635645	2568.190621
477.005719	2569.294634
477.375734	2572.762948
477.745691	2568.614078
478.115588	2571.878225
478.485427	2574.749162
478.855207	2577.559606
479.224928	2580.972467
479.594591	2583.440112
479.964194	2583.309042
480.333739	2581.786613
480.703226	2583.102354
481.072653	2583.548496
481.442022	2582.978846
481.811333	2584.128229
482.180584	2582.928434
482.549777	2584.692838
482.918912	2581.799216
483.287988	2583.432550
483.657005	2579.165213
484.025964	2578.761921
484.394864	2580.425502
484.763706	2580.238979
485.132489	2581.395924
485.501213	2580.392734
485.869879	2583.051943
486.238487	2577.080696
486.607036	2579.508012
486.975527	2580.806109
487.343959	2576.649677
487.712333	2578.116653
488.080648	2578.164544
488.448905	2577.756211
488.817104	2579.734863
489.185244	2579.732343
489.553326	2581.158989
489.921350	2583.498085
490.289315	2587.725092
490.657222	2588.138467
491.025070	2589.071080
491.392861	2586.535380
491.760593	2585.958168
492.128267	2584.057653
492.495883	2581.118660
492.863440	2578.656057
493.230939	2578.119174
493.598380	2577.509194
493.965763	2572.490725
494.333088	2573.564491
494.700354	2570.779254
495.067563	2575.175140
495.434713	2570.890159
495.801805	2576.911817
496.168839	2572.757907
496.535815	2574.126580
496.902733	2574.199677
497.269593	2574.245047
497.636395	2573.514080
498.003139	2575.139852
498.369825	2572.528534
498.736453	2572.321847
499.103023	2574.756724
499.469535	2574.885273
499.835989	2574.141703
500.202385	2574.469378
500.568723	2573.052814
500.935003	2573.506518
501.301226	2571.366548
501.667390	2575.732187
502.033497	2574.582804
502.399546	2571.989131
502.765537	2574.038360
503.131470	2575.396951
503.497345	2573.803946
503.863163	2572.488205
504.228923	2574.081209
504.594625	2572.888977
504.960269	2575.076837
505.325856	2573.725808
505.691385	2572.896538
506.056856	2573.168761
506.422270	2574.797053
506.787625	2574.146744
507.152924	2574.683627
507.518164	2578.124215
507.883347	2573.503997
508.248472	2575.338977
508.613540	2576.621951
508.978550	2576.347208
509.343503	2575.190263
509.708398	2575.830490
510.073236	2574.277814
510.438016	2576.032136
510.802738	2575.273442
511.167403	2574.963411
511.532010	2574.960891
511.896561	2577.292424
512.261053	2578.348546
512.625488	2574.277814
512.989866	2572.800756
513.354186	2573.214131
513.718449	2572.221024
514.082655	2575.200346
514.446803	2575.371745
514.810894	2575.550706
515.174927	2578.109091
515.538904	2577.259657
515.902822	2576.127918
516.266684	2576.266550
516.630488	2577.108422
516.994235	2578.373752
517.357925	2578.971129
517.721558	2579.719740
518.085133	2577.196643
518.448651	2580.284349
518.812112	2577.811663
519.175516	2576.977352
519.538863	2578.028433
519.902152	2579.984401
520.265385	2580.428022
520.628560	2579.823084
520.991678	2578.565316
521.354739	2579.016499
521.717743	2577.955336
522.080690	2580.647312
522.443580	2580.269226
522.806413	2584.430698
523.169189	2580.304514
523.531908	2581.794175
523.894569	2580.080182
524.257174	2580.140676
524.619722	2582.406675
524.982213	2582.767118
525.344647	2580.347364
525.707025	2580.869123
526.069345	2577.489029
526.431608	2579.107240
526.793815	2580.130594
527.155964	2580.039853
527.518057	2579.218145
527.880093	2578.761921
528.242072	2579.218145
528.603995	2578.630851
528.965860	2579.656726
529.327669	2581.337950
529.689421	2577.640264
530.051117	2580.869123
530.412755	2578.804771
530.774337	2581.406006
531.135862	2579.870975
531.497331	2576.833679
531.858743	2575.454924
532.220098	2577.725964
532.581396	2573.536765
532.942638	2576.372414
533.303824	2578.908114
533.664953	2581.963053
534.026025	2580.057497
534.387040	2577.950295
534.747999	2579.571026
535.108902	2579.820563
535.469748	2578.015830
535.830537	2580.740574
536.191270	2580.133115
536.551947	2580.347364
536.912567	2578.129256
537.273131	2578.351067
537.633638	2577.045408
537.994089	2577.998186
538.354483	2579.838207
538.714821	2581.201839
539.075103	2580.894329
539.435328	2578.051118
539.795497	2576.732856
540.155609	2579.999524
540.515665	2579.422312
540.875665	2577.335274
541.235609	2578.139338
541.595496	2579.238310
541.955328	2580.370049
542.315102	2581.398444
542.674821	2577.700758
543.034483	2577.738567
543.394090	2579.356777
543.753640	2580.541448
544.113134	2579.457600
544.472571	2579.560944
544.831953	2579.064390
545.191278	2578.366190
545.550548	2579.563464
545.909761	2580.596901
546.268918	2579.785275
546.628019	2577.413412
546.987064	2577.776375
547.346053	2577.993145
547.704986	2580.538927
548.063863	2577.514235
548.422684	2578.842579
548.781449	2578.310738
549.140158	2578.751838
549.498811	2579.046746
549.857408	2577.824266
550.215949	2576.546334
550.574434	2573.362845
550.932864	2575.908628
551.291237	2576.246385
551.649555	2581.340471
552.007817	2578.635892
552.366022	2580.528845
552.724173	2578.494740
553.082267	2577.751169
553.440305	2578.230079
553.798288	2577.632702
554.156215	2580.266705
554.514086	2583.422467
554.871902	2577.756211
555.229661	2580.715368
555.587365	2579.331571
555.945014	2578.787127
556.302606	2578.013309
556.660143	2577.052970
557.017625	2582.792323
557.375050	2579.334092
557.732421	2579.762590
558.089735	2581.058166
558.446994	2578.376273
558.804197	2580.359967
559.161345	2581.789134
559.518437	2581.340471
559.875474	2579.079513
560.232455	2580.009606
560.589381	2579.510532
560.946251	2580.634709
561.303065	2578.177147
561.659825	2578.348546
562.016528	2579.210583
562.373177	2580.087744
562.729770	2581.113619
563.086307	2579.608835
563.442789	2580.377611
563.799216	2577.433577
564.155587	2577.794019
564.511904	2577.637743
564.868164	2579.581108
565.224370	2577.431056
565.580520	2577.630182
565.936615	2579.064390
566.292654	2577.415933
566.648638	2576.747980
567.004567	2579.684452
567.360441	2577.506673
567.716260	2577.572208
568.072023	2577.088258
568.427732	2574.451734
568.783385	2570.028122
569.138982	2571.237999
569.494525	2571.374110
569.850013	2571.999213
570.205445	2576.463155
570.560823	2577.337795
570.916145	2578.015830
571.271412	2574.056004
571.626625	2576.604307
571.981782	2574.522310
572.336884	2577.317630
572.691931	2571.245560
573.046923	2576.563978
573.401860	2575.880901
573.756743	2576.470716
574.111570	2575.580953
574.466342	2574.824780
574.821059	2572.994841
575.175722	2573.040211
575.530330	2574.751683
575.884882	2573.403174
576.239380	2574.340829
576.593823	2573.435942
576.948211	2574.106415
577.302544	2575.754873
577.656823	2576.367373
578.011047	2575.608679
578.365216	2575.192784
578.719330	2573.773699
579.073389	2573.269584
579.427394	2571.792526
579.781344	2573.211610
580.135239	2573.584656
580.489080	2571.946281
580.842866	2571.905952
581.196597	2577.446180
581.550273	2570.214644
581.903895	2572.853688
582.257463	2571.182546
582.610975	2570.643142
582.964434	2574.300500
583.317837	2573.309913
583.671186	2571.069120
584.024481	2572.042063
584.377721	2572.858730
584.730906	2570.224727
585.084037	2569.690364
585.437113	2573.239337
585.790135	2573.110787
586.143103	2570.501990
586.496016	2570.406208
586.848874	2565.876732
587.201679	2566.640466
587.554428	2568.087278
587.907124	2568.818245
588.259765	2566.317832
588.612352	2570.353276
588.964884	2569.556774
589.317362	2569.987792
589.669786	2568.432597
590.022155	2571.842937
590.374470	2569.597103
590.726731	2571.810170
591.078937	2568.760272
591.431090	2571.817731
591.783188	2569.264387
592.135232	2567.744479
592.487222	2569.065261
592.839157	2569.680282
593.191038	2570.128945
593.542866	2567.452092
593.894639	2568.558625
594.246358	2569.576938
594.598022	2565.932184
594.949633	2568.452761
595.301190	2568.079716
595.652692	2565.959911
596.004141	2565.942267
596.355535	2566.852195
596.706876	2565.788511
597.058162	2566.663152
597.409395	2564.853377
597.760573	2565.349931
598.111698	2566.469067
598.462768	2567.126938
598.813785	2566.020404
599.164748	2564.674416
599.515657	2565.503686
599.866511	2567.210117
600.217312	2564.550908
600.568060	2566.716084
600.918753	2569.340004
601.269392	2568.079716
601.619978	2563.535116
601.970510	2567.225240
602.320988	2565.062585
602.671412	2565.836402
603.021783	2565.947308
603.372100	2564.790363
603.722363	2563.341031
604.072572	2565.027297
604.422728	2566.083419
604.772830	2562.136195
605.122878	2561.518654
605.472872	2565.135682
605.822813	2561.286761
606.172701	2563.618295
606.522534	2563.290620
606.872314	2565.402863
607.222041	2564.192986
607.571714	2564.727348
607.921333	2566.579972
608.270899	2565.410425
608.620411	2565.299519
608.969870	2566.995868
609.319276	2565.170970
609.668627	2569.907134
610.017926	2572.820921
610.367171	2572.004254
610.716362	2573.929975
611.065500	2569.410580
611.414585	2568.266238
611.763616	2571.328739
612.112594	2569.942422
612.461518	2566.073337
612.810389	2566.869839
613.159207	2567.666341
613.507971	2566.917730
613.856682	2568.667010
614.205340	2563.905640
614.553945	2565.617112
614.902496	2566.043090
615.250994	2565.523851
615.599439	2566.640466
615.947830	2564.936556
616.296169	2565.561659
616.644454	2566.534602
616.992686	2566.040569
617.340864	2566.370765
617.688990	2566.474108
618.037063	2566.539643
618.385082	2566.965621
618.733048	2565.980075
619.080961	2564.886145
619.428821	2566.794222
619.776628	2563.232646
620.124382	2568.125086
620.472083	2566.645507
620.819731	2566.322874
621.167326	2565.536454
621.514868	2568.445199
621.862357	2564.006463
622.209793	2566.239695
622.557176	2566.398491
622.904506	2559.958417
623.251783	2560.885989
623.599007	2561.064950
623.946179	2558.025134
624.293297	2560.447409
624.640363	2560.926318
624.987376	2564.734910
625.334336	2563.230126
625.681243	2563.068809
626.028097	2562.610064
626.374899	2560.759960
626.721647	2561.420352
627.068343	2562.307595
627.414987	2563.819941
627.761577	2559.910526
628.108115	2564.558470
628.454600	2561.828685
628.801032	2562.199210
629.147412	2562.771381
629.493739	2559.925649
629.840014	2562.935218
630.186236	2561.027142
630.532405	2560.719631
630.878521	2560.422203
631.224585	2559.262738
631.570597	2560.560835
631.916556	2561.536298
632.262462	2560.833057
632.608316	2558.672923
632.954117	2558.738458
633.299866	2560.059240
633.645562	2561.004456
633.991206	2561.042265
634.336797	2557.906667
634.682336	2560.472615
635.027823	2556.595967
635.373257	2557.102603
635.718639	2557.873900
636.063968	2558.052861
636.409245	2558.884651
636.754470	2556.618652
637.099642	2556.593447
637.444762	2558.647717
637.789829	2558.062943
638.134845	2556.013714
638.479808	2555.822150
638.824719	2555.996070
639.169577	2555.257541
639.514383	2554.171172
639.859137	2552.585729
640.203839	2557.132850
640.548489	2554.297201
640.893086	2552.293343
641.237632	2549.979453
641.582125	2550.964998
641.926566	2549.190512
642.270955	2552.253013
642.615292	2554.821481
642.959576	2556.669064
643.303809	2555.847356
643.647990	2554.640000
643.992118	2556.603529
644.336195	2553.818292
644.680219	2552.288301
645.024192	2553.288970
645.368112	2555.156718
645.711981	2554.604712
646.055797	2551.653116
646.399562	2556.888354
646.743274	2556.732078
647.086935	2558.357851
647.430544	2554.763508
647.774101	2555.476831
648.117606	2556.969013
648.461059	2555.386090
648.804460	2559.635783
649.147810	2557.271482
649.491108	2556.154866
649.834354	2554.539177
650.177548	2552.805020
650.520690	2554.304763
650.863781	2553.546069
651.206820	2554.967675
651.549807	2555.128992
651.892742	2557.818447
652.235626	2554.466080
652.578458	2553.956923
652.921238	2553.906512
653.263967	2553.427602
653.606644	2554.113199
653.949269	2553.094886
654.291843	2551.655637
654.634365	2553.530946
654.976836	2553.326779
655.319255	2557.725186
655.661622	2551.264947
656.003938	2553.725030
656.346203	2553.339382
656.688416	2552.285781
657.030577	2550.775955
657.372687	2550.924669
657.714746	2551.010369
658.056753	2551.257385
658.398708	2548.751932
658.740612	2551.075904
659.082465	2548.204967
659.424266	2547.473999
659.766016	2548.028526
660.107715	2552.681511
660.449362	2550.707900
660.790958	2556.001111
661.132503	2552.053888
661.473996	2554.735782
661.815438	2553.891388
662.156829	2555.166800
662.498168	2552.628579
662.839456	2551.741336
663.180693	2552.903322
663.521879	2550.400389
663.863013	2551.726213
664.204097	2551.396017
664.545129	2552.608415
664.886110	2552.558003
665.227040	2552.174875
665.567918	2551.511964
665.908746	2550.360060
666.249522	2551.610266
666.590248	2552.747046
666.930922	2551.975750
667.271545	2553.770401
667.612118	2551.297715
667.952639	2552.621018
668.293109	2551.582540
668.633528	2559.376164
668.973896	2554.211502
669.314213	2553.684701
669.654480	2553.140256
669.994695	2554.065308
670.334859	2553.094886
670.674973	2552.815102
671.015035	2553.339382
671.355047	2551.816953
671.695008	2552.694114
672.034918	2552.941131
672.374777	2552.250493
672.714585	2551.890050
673.054342	2551.330482
673.394049	2550.778476
673.733705	2553.294012
674.073310	2554.241748
674.412864	2554.602191
674.752368	2552.978939
675.091820	2550.851572
675.431223	2553.414999
675.770574	2552.023641
676.109875	2547.307641
676.449125	2546.843855
676.788324	2550.753270
677.127473	2550.768393
677.466571	2547.174051
677.805619	2553.535987
678.144616	2549.591284
678.483562	2552.421892
678.822458	2549.505584
679.161303	2550.959957
679.500098	2549.850903
679.838842	2550.102961
680.177535	2550.665050
680.516179	2550.614638
680.854771	2552.512633
681.193314	2549.374514
681.531805	2553.614125
681.870247	2552.691594
682.208638	2552.721841
682.546978	2552.711758
682.885268	2548.668753
683.223508	2553.321738
683.561697	2551.091027
683.899836	2555.796944
684.237925	2551.635472
684.575963	2552.379042
684.913951	2551.738816
685.251889	2553.470452
685.589776	2551.007848
685.927614	2550.163455
686.265401	2554.002294
686.603137	2552.041285
686.940824	2548.141952
687.278460	2555.560010
687.616046	2551.214536
687.953582	2551.133877
688.291068	2553.631769
688.628504	2553.737633
688.965889	2552.714279
689.303224	2551.224618
689.640510	2552.063970
689.977745	2551.791748
690.314930	2552.139587
690.652065	2553.127653
690.989150	2548.825029
691.326185	2549.412323
691.663170	2548.008362
692.000105	2549.687066
692.336990	2548.812426
692.673825	2547.320244
693.010610	2551.585060
693.347345	2547.766386
693.684030	2546.087682
694.020665	2546.236396
694.357251	2541.336395
694.693786	2544.461910
695.030272	2548.066335
695.366707	2546.092723
695.703093	2547.907539
696.039429	2547.443752
696.375716	2550.392827
696.711952	2547.186654
697.048139	2547.254709
697.384276	2545.611293
697.720363	2545.265974
698.056400	2544.804708
698.392388	2546.299411
698.728326	2545.878474
699.064214	2547.544576
699.400053	2549.145142
699.735842	2546.826211
700.071581	2547.363094
700.407270	2544.151879
700.742910	2544.081303
701.078501	2544.913093
701.414042	2548.056253
701.749533	2544.343443
702.084974	2547.363094
702.420366	2545.611293
702.755709	2547.080789
703.091002	2542.987372
703.426246	2546.712785
703.761440	2544.779503
704.096584	2544.109029
704.431679	2543.713299
704.766725	2546.949719
705.101721	2545.994421
705.436668	2545.762528
705.771565	2545.916283
706.106413	2544.847558
706.441212	2547.181613
706.775961	2547.317724
707.110661	2543.761190
707.445311	2545.263453
707.779913	2547.665563
708.114465	2548.033568
708.448967	2545.596170
708.783421	2547.947868
709.117825	2544.623227
709.452180	2544.628268
709.786485	2547.577343
710.120742	2546.674977
710.454949	2549.109854
710.789107	2545.966694
711.123216	2540.839841
711.457275	2546.526263
711.791286	2542.868905
712.125247	2541.787578
712.459159	2548.585574
712.793023	2548.487271
713.126837	2548.182282
713.460602	2545.891077
713.794318	2547.121119
714.127985	2546.947199
714.461602	2546.017106
714.795171	2547.418547
715.128691	2545.011396
715.462162	2548.154555
715.795584	2544.315717
716.128957	2545.470141
716.462281	2543.592311
716.795556	2545.394523
717.128782	2543.844369
717.461960	2545.838145
717.795088	2546.110367
718.128167	2545.109698
718.461198	2546.526262
718.794180	2546.400234
719.127113	2543.168854
719.459997	2543.947712
719.792833	2542.533669
720.125619	2544.207332
720.458357	2542.851261
720.791046	2542.906714
721.123686	2545.908721
721.456278	2544.784544
721.788821	2542.778165
722.121315	2543.957795
722.453761	2541.916127
722.786158	2541.533000
723.118506	2540.567619
723.450805	2544.406457
723.783056	2544.784544
724.115259	2542.717671
724.447412	2541.853113
724.779518	2543.375541
725.111574	2543.957795
725.443582	2544.345963
725.775542	2540.255067
726.107453	2542.886549
726.439315	2541.780016
726.771129	2546.979966
727.102895	2542.722712
727.434612	2545.928886
727.766281	2544.222455
728.097901	2542.329502
728.429473	2539.700540
728.760996	2543.577188
729.092471	2538.949408
729.423897	2543.433515
729.755276	2543.085675
730.086606	2546.105326
730.417887	2544.857641
730.749120	2544.451828
731.080305	2544.668597
731.411442	2545.180274
731.742530	2544.257743
732.073570	2545.744884
732.404562	2545.933927
732.735506	2544.731612
733.066401	2545.606252
733.397249	2543.950233
733.728048	2545.147507
734.058798	2544.638350
734.389501	2541.898483
734.720156	2542.163144
735.050762	2544.860161
735.381320	2543.614996
735.711831	2540.577701
736.042293	2544.381252
736.372707	2541.374203
736.703073	2543.088196
737.033391	2541.797660
737.363661	2544.913093
737.693883	2543.047866
738.024056	2542.974770
738.354182	2539.471168
738.684260	2542.768082
739.014290	2540.865047
739.344272	2543.627599
739.674207	2543.748587
740.004093	2543.120963
740.333931	2541.979142
740.663722	2544.998793
740.993464	2543.809081
741.323159	2547.042981
741.652806	2543.352856
741.982405	2544.068700
742.311956	2542.500901
742.641460	2545.018957
742.970915	2543.763710
743.300323	2543.902342
743.629683	2540.441590
743.958996	2540.020653
744.288260	2539.246836
744.617477	2539.980324
744.946647	2537.807587
745.275768	2537.910931
745.604842	2536.222144
745.933869	2536.907741
746.262847	2536.685930
746.591778	2541.137269
746.920662	2538.767927
747.249498	2543.143648
747.578286	2541.190201
747.907027	2541.336395
748.235720	2540.945705
748.564365	2540.209697
748.892963	2539.090561
749.221514	2539.705581
749.550017	2542.299255
749.878473	2541.913607
750.206881	2541.147351
750.535242	2540.378575
750.863555	2540.434028
751.191821	2542.483257
751.520039	2541.283463
751.848210	2542.090047
752.176334	2540.408822
752.504411	2539.919830
752.832440	2541.485109
753.160421	2540.340767
753.488356	2539.456044
753.816243	2540.307999
754.144082	2540.111394
754.471875	2541.840510
754.799620	2538.047042
755.127318	2538.818338
755.454969	2540.474357
755.782572	2540.239944
756.110129	2539.967721
756.437638	2542.344625
756.765100	2540.265149
757.092515	2541.492670
757.419882	2538.523431
757.747203	2540.252547
758.074477	2540.179450
758.401703	2540.973432
758.728882	2539.952598
759.056014	2539.246836
759.383099	2541.883360
759.710138	2537.759696
760.037129	2542.016950
760.364073	2541.550644
760.690970	2541.069213
761.017820	2539.685417
761.344623	2540.688606
761.671379	2542.637012
761.998088	2539.680376
762.324751	2539.619882
762.651366	2542.637012
762.977935	2549.946685
763.304456	2547.632796
763.630931	2550.995245
763.957359	2554.145967
764.283740	2547.428629
764.610074	2544.184647
764.936362	2543.733463
765.262602	2543.249512
765.588796	2541.386806
765.914943	2539.453524
766.241044	2539.294727
766.567097	2541.424615
766.893104	2541.643905
767.219064	2538.616692
767.544978	2538.478060
767.870845	2540.184491
768.196665	2537.789943
768.522438	2538.014274
768.848165	2538.740200
769.173846	2538.921682
769.499479	2537.016126
769.825066	2538.024357
770.150607	2540.350849
770.476101	2538.465457
770.801548	2540.181970
771.126949	2539.788760
771.452303	2536.464119
771.777611	2538.750283
772.102872	2538.697351
772.428087	2538.024357
772.753256	2536.280117
773.078378	2536.446475
773.403453	2534.281300
773.728482	2539.861857
774.053465	2537.230375
774.378401	2535.718029
774.703291	2538.208359
775.028135	2534.659386
775.352932	2534.742565
775.677683	2536.693492
776.002388	2536.716177
776.327046	2536.418749
776.651658	2536.980838
776.976224	2538.946888
777.300743	2533.348686
777.625216	2536.272556
777.949643	2535.765920
778.274024	2537.946219
778.598359	2535.856660
778.922647	2532.645445
779.246889	2534.225847
779.571086	2533.757020
779.895236	2533.986392
780.219339	2538.737680
780.543397	2535.440765
780.867409	2535.400436
781.191374	2538.707433
781.515294	2536.743903
781.839167	2537.076620
782.162995	2538.750283
782.486776	2537.537885
782.810511	2535.385312
783.134201	2538.931764
783.457844	2535.576876
783.781441	2538.725077
784.104993	2535.692823
784.428498	2537.802546
784.751958	2535.213913
785.075372	2536.945550
785.398739	2537.726928
785.722061	2534.901362
786.045337	2534.974458
786.368568	2537.298430
786.691752	2536.161650
787.014891	2537.797505
787.337983	2535.624767
787.661030	2533.653676
787.984031	2539.680376
788.306987	2537.595858
788.629897	2538.243647
788.952760	2536.615354
789.275579	2537.946219
789.598351	2538.173071
789.921078	2536.731301
790.243759	2537.636188
790.566395	2537.585776
790.888984	2535.375230
791.211529	2536.101156
791.534027	2536.937988
791.856480	2534.452699
792.178888	2536.948070
792.501249	2538.049562
792.823566	2537.414377
793.145836	2536.275076
793.468062	2536.159130
793.790241	2535.438245
794.112375	2536.270035
794.434464	2537.852957
794.756507	2533.903213
795.078505	2532.995806
795.400457	2534.430014
795.722364	2534.624098
796.044226	2532.761392
796.366042	2531.735517
796.687812	2532.680733
797.009538	2534.727442
797.331218	2537.104346
797.652852	2533.777184
797.974442	2535.372710
798.295986	2538.233564
798.617484	2535.929757
798.938938	2537.323636
799.260346	2536.199459
799.581709	2536.413708
799.903026	2536.958152
800.224299	2537.694161
800.545526	2536.144006
800.866708	2534.782895
801.187845	2532.095960
801.508936	2534.243491
801.829983	2534.240971
802.150984	2534.956814
802.471940	2535.660055
802.792851	2537.384130
803.113717	2535.103008
803.434538	2536.514531
803.755314	2535.531506
804.076045	2532.111083
804.396731	2534.122503
804.717372	2534.543440
805.037967	2535.281969
805.358518	2536.073430
805.679024	2536.058307
805.999485	2536.975797
806.319901	2537.159799
806.640272	2534.934129
806.960598	2536.302802
807.280879	2533.439427
807.601115	2533.328522
807.921306	2536.106197
808.241453	2536.635519
808.561554	2534.873635
808.881611	2535.753317
809.201623	2535.617206
809.521590	2535.770961
809.841513	2533.928419
810.161390	2533.073943
810.481223	2535.859181
810.801011	2533.787267
811.120755	2537.215251
811.440453	2536.272556
811.760107	2538.210879
812.079716	2532.746268
812.399281	2531.208717
812.718801	2537.401774
813.038276	2530.387008
813.357707	2533.464633
813.677093	2533.920857
813.996434	2535.460930
814.315731	2535.075282
814.634983	2536.443955
814.954191	2532.660569
815.273354	2537.812628
815.592473	2534.553522
815.911547	2535.997813
816.230577	2536.617875
816.549562	2536.133924
816.868502	2535.791125
817.187399	2539.372865
817.506250	2535.869263
817.825058	2535.599562
818.143821	2537.003523
818.462539	2537.711805
818.781213	2536.534696
819.099843	2535.153419
819.418429	2537.240457
819.736970	2541.101981
820.055466	2538.281455
820.373919	2540.895294
820.692327	2544.177085
821.010691	2546.001982
821.329011	2554.007335
821.647286	2571.127093
821.965517	2586.658888
822.283704	2598.498038
822.601847	2601.900817
822.919945	2591.349682
823.237999	2582.164700
823.556010	2572.765468
823.873976	2563.991340
824.191897	2559.144271
824.509775	2551.133877
824.827609	2550.259237
825.145398	2547.345450
825.463144	2550.730585
825.780845	2549.666901
826.098502	2550.470965
826.416116	2553.256203
826.733685	2558.309960
827.051210	2562.047975
827.368692	2560.885989
827.686129	2555.658313
828.003522	2548.719164
828.320872	2543.620037
828.638177	2542.001827
828.955439	2537.500077
829.272656	2537.820190
829.589830	2532.617719
829.906960	2536.882535
830.224046	2537.031249
830.541088	2536.852288
830.858086	2536.557381
831.175041	2535.833975
831.491952	2535.806249
831.808819	2536.002854
832.125642	2536.761548
832.442421	2538.316743
832.759157	2538.631816
833.075849	2541.744728
833.392497	2544.915614
833.709101	2547.645399
834.025662	2549.268650
834.342179	2545.991900
834.658653	2543.811601
834.975083	2541.875798
835.291469	2545.384441
835.607811	2537.323636
835.924110	2536.701054
836.240366	2535.733152
836.556578	2536.696013
836.872746	2534.548481
837.188871	2535.602082
837.504952	2536.829603
837.820990	2534.971938
838.136984	2532.975641
838.452935	2532.940353
838.768842	2534.687113
839.084706	2531.874149
839.400526	2532.741227
839.716303	2537.689120
840.032037	2538.097453
840.347727	2539.763555
840.663373	2541.270860
840.978977	2537.104346
841.294537	2537.215251
841.610054	2536.927906
841.925527	2536.312885
842.240957	2536.045704
842.556344	2533.280631
842.871687	2533.827596
843.186987	2533.414221
843.502244	2533.419262
843.817458	2535.846578
844.132629	2534.757689
844.447756	2532.663089
844.762840	2530.150074
845.077881	2528.673016
845.392879	2529.139323
845.707833	2530.611340
846.022745	2528.453726
846.337613	2532.370703
846.652438	2533.479756
846.967221	2532.663089
847.281960	2532.670651
847.596656	2530.853315
847.911309	2531.329704
848.225919	2534.014119
848.540485	2533.620909
848.855009	2532.116124
849.169490	2533.119314
849.483928	2531.332225
849.798323	2532.680733
850.112675	2530.533202
850.426984	2530.298788
850.741251	2529.693850
851.055474	2528.327697
851.369654	2530.119827
851.683792	2534.278779
851.997887	2534.697195
852.311938	2531.743079
852.625947	2533.580579
852.939914	2529.028418
853.253837	2532.448840
853.567718	2530.886083
853.881555	2533.573018
854.195350	2530.404652
854.509103	2530.563449
854.822812	2531.216278
855.136479	2529.340969
855.450103	2532.237112
855.763685	2531.309540
856.077224	2530.097142
856.390720	2532.756351
856.704173	2533.215096
857.017584	2532.196783
857.330953	2529.605630
857.644278	2531.796011
857.957561	2532.128727
858.270802	2531.927081
858.584000	2531.412883
858.897155	2532.562266
859.210268	2530.523120
859.523339	2535.072761
859.836367	2529.865249
860.149352	2532.121165
860.462295	2535.692823
860.775195	2528.226874
861.088054	2526.744775
861.400869	2527.745444
861.713642	2528.872142
862.026373	2532.640404
862.339062	2529.761905
862.651708	2531.841381
862.964312	2531.778367
863.276873	2533.084026
863.589392	2531.692667
863.901869	2530.076977
864.214303	2532.746268
864.526696	2529.436751
864.839045	2530.061854
865.151353	2531.599406
865.463619	2531.516227
865.775842	2532.645445
866.088023	2531.644776
866.400162	2532.393388
866.712258	2530.649148
867.024313	2532.317770
867.336325	2530.266021
867.648296	2530.654190
867.960224	2532.400949
868.272110	2533.978831
868.583954	2530.024045
868.895755	2531.831299
869.207515	2533.946063
869.519233	2532.242153
869.830909	2534.399767
870.142542	2531.869108
870.454134	2532.678213
870.765684	2533.116793
871.077191	2533.189890
871.388657	2534.573687
871.700081	2534.208203
872.011463	2533.368851
872.322803	2532.693336
872.634101	2531.856505
872.945357	2532.519417
873.256571	2530.462626
873.567744	2533.326001
873.878874	2534.180477
874.189963	2531.788449
874.501010	2533.502442
874.812015	2530.767616
875.122979	2531.801052
875.433900	2531.364992
875.744780	2531.153264
876.055618	2534.261135
876.366415	2532.721063
876.677169	2532.814324
876.987882	2529.172090
877.298554	2527.838705
877.609183	2528.146216
877.919771	2529.635877
878.230317	2530.588655
878.540822	2537.416898
878.851285	2533.872966
879.161707	2535.246681
879.472087	2534.538399
879.782425	2536.388502
880.092722	2540.723894
880.402977	2546.783361
880.713191	2553.982129
881.023363	2564.369427
881.333494	2570.131465
881.643583	2571.553071
881.953631	2570.764130
882.263637	2570.383523
882.573602	2565.733059
882.883526	2557.498334
883.193408	2556.071687
883.503248	2551.280071
883.813048	2548.557847
884.122806	2545.311344
884.432522	2545.278577
884.742197	2539.819007
885.051831	2538.863709
885.361424	2538.740200
885.670975	2538.016795
885.980485	2535.241640
886.289954	2538.220962
886.599382	2535.110570
886.908768	2535.576876
887.218113	2533.104190
887.527417	2535.377751
887.836680	2535.339942
888.145901	2535.254243
888.455082	2533.293234
888.764221	2532.980682
889.073319	2532.680733
889.382376	2532.602596
889.691392	2530.989426
890.000366	2535.478574
890.309300	2531.874149
890.618193	2532.310209
890.927044	2533.489839
891.235855	2530.828109
891.544625	2534.790456
891.853353	2531.289375
892.162041	2531.682585
892.470687	2534.225847
892.779293	2532.718542
893.087858	2533.210055
893.396381	2532.295085
893.704864	2536.842206
894.013306	2536.365817
894.321707	2542.904193
894.630068	2546.921993
894.938387	2546.183464
895.246665	2546.052394
895.554903	2543.720860
895.863100	2541.550644
896.171256	2539.546785
896.479371	2536.043183
896.787446	2539.198945
897.095480	2537.169881
897.403473	2537.091743
897.711425	2536.706095
898.019336	2533.676361
898.327207	2536.345652
898.635038	2533.383974
898.942827	2532.466484
899.250576	2533.109232
899.558284	2533.837678
899.865952	2532.267359
900.173579	2530.855836
900.481165	2533.109232
900.788711	2532.978162
901.096216	2534.810621
901.403681	2531.962369
901.711105	2532.229550
902.018489	2533.757020
902.325832	2532.095960
902.633135	2530.850795
902.940397	2534.261135
903.247619	2535.912113
903.554800	2537.517721
903.861941	2541.999306
904.169041	2547.007693
904.476101	2550.387786
904.783121	2550.844011
905.090100	2548.207487
905.397039	2545.631458
905.703938	2541.754810
906.010796	2538.780530
906.317614	2537.333718
906.624391	2537.472350
906.931129	2535.125693
907.237826	2536.015457
907.544483	2531.838861
907.851099	2530.742410
908.157675	2534.190559
908.464211	2531.639735
908.770707	2528.184024
909.077163	2531.705270
909.383578	2527.924405
909.689954	2527.634538
909.996289	2525.113962
910.302584	2527.274096
910.608839	2528.239477
910.915054	2532.983203
911.221229	2534.062010
911.527363	2530.092101
911.833458	2532.353058
912.139513	2532.158974
912.445527	2531.743079
912.751502	2532.413552
913.057436	2530.502955
913.363331	2532.043027
913.669186	2532.625281
913.975000	2533.343645
914.280775	2534.059489
914.586510	2537.240457
914.892205	2537.641229
915.197859	2539.529141
915.503475	2543.879657
915.809050	2546.755635
916.114585	2545.646581
916.420081	2549.417364
916.725536	2548.547765
917.030952	2547.476520
917.336328	2543.166333
917.641665	2543.105840
917.946961	2542.337064
918.252218	2538.127700
918.557435	2535.932278
918.862612	2534.765251
919.167750	2535.677699
919.472848	2535.100487
919.777906	2533.242822
920.082925	2533.247863
920.387904	2530.190403
920.692843	2532.799201
920.997743	2532.060672
921.302603	2532.950435
921.607423	2533.414221
921.912204	2530.089580
922.216946	2531.934643
922.521647	2532.267359
922.826310	2530.318953
923.130932	2531.433048
923.435516	2530.419776
923.740059	2528.799045
924.044564	2530.749972
924.349028	2528.922553
924.653454	2523.931811
924.957840	2526.966586
925.262186	2526.454908
925.566493	2528.758716
925.870761	2524.337624
926.174989	2526.853160
926.479178	2530.356762
926.783328	2527.987419
927.087438	2528.138654
927.391509	2531.238963
927.695541	2530.253418
927.999533	2527.253931
928.303486	2530.936494
928.607400	2527.644621
928.911275	2527.884076
929.215110	2529.194776
929.518906	2528.932636
929.822663	2527.173273
930.126381	2529.577903
930.430060	2530.046731
930.733699	2529.179652
931.037299	2527.266534
931.340861	2525.918026
931.644383	2529.260311
931.947866	2529.346010
932.251309	2529.129241
932.554714	2528.957841
932.858080	2528.325177
933.161407	2528.214271
933.464694	2530.195445
933.767943	2527.599250
934.071153	2528.521782
934.374323	2528.080681
934.677455	2530.006401
934.980548	2526.233098
935.283602	2526.376771
935.586617	2526.913653
935.889593	2527.158149
936.192530	2528.196627
936.495428	2524.665299
936.798287	2528.299971
937.101108	2526.167563
937.403890	2527.599250
937.706632	2529.421628
938.009336	2529.661082
938.312002	2529.449354
938.614628	2529.361134
938.917216	2530.417255
939.219765	2529.590506
939.522275	2529.189734
939.824747	2529.986237
940.127179	2528.221833
940.429573	2526.480114
940.731929	2528.955321
941.034246	2525.217305
941.336524	2530.097142
941.638763	2529.751823
941.940964	2530.548325
942.243126	2529.305681
942.545250	2531.155784
942.847335	2529.136802
943.149381	2528.315094
943.451389	2528.730989
943.753359	2532.229550
944.055290	2526.948942
944.357182	2528.337779
944.659036	2530.679395
944.960851	2531.178470
945.262628	2526.969106
945.564367	2526.752337
945.866067	2528.945238
946.167729	2530.855836
946.469352	2529.466998
946.770937	2530.329035
947.072484	2529.819879
947.373992	2527.410207
947.675462	2527.866432
947.976893	2529.769467
948.278286	2530.623943
948.579641	2531.624612
948.880958	2527.392563
949.182236	2529.482121
949.483476	2527.029600
949.784678	2527.299302
950.085841	2528.541946
950.386967	2529.225023
950.688054	2527.997502
950.989103	2528.143695
951.290114	2528.867101
951.591087	2529.207378
951.892021	2527.385001
952.192917	2528.355423
952.493776	2527.785773
952.794596	2528.526823
953.095378	2529.537574
953.396122	2530.596216
953.696828	2528.433561
953.997496	2530.008922
954.298126	2528.751154
954.598718	2527.342152
954.899272	2527.107738
955.199788	2527.112779
955.500266	2529.194776
955.800706	2526.371729
956.101108	2521.229753
956.401472	2526.800228
956.701798	2523.992305
957.002087	2523.901564
957.302337	2528.226874
957.602550	2526.999353
957.902724	2526.666637
958.202861	2528.456247
958.502960	2527.269055
958.803022	2528.872142
959.103045	2526.817872
959.403031	2528.302491
959.702979	2526.608664
960.002889	2527.390043
960.302762	2527.385001
960.602596	2525.892820
960.902393	2528.194107
961.202153	2527.753006
961.501875	2526.457429
961.801559	2524.836698
962.101205	2527.652182
962.400814	2526.848118
962.700385	2528.325177
962.999918	2525.713859
963.299414	2527.377440
963.598873	2528.804086
963.898293	2527.659744
964.197677	2527.425331
964.497022	2528.962883
964.796331	2525.862573
965.095601	2526.245701
965.394835	2525.938190
965.694030	2527.024559
965.993189	2526.636390
966.292309	2526.727131
966.591393	2527.173273
966.890439	2528.173942
967.189447	2528.057995
967.488419	2526.795186
967.787353	2525.456760
968.086249	2525.940711
968.385108	2525.602953
968.683930	2525.819723
968.982714	2526.482635
969.281462	2525.814682
969.580172	2527.858870
969.878844	2525.421472
970.177480	2528.189065
970.476078	2527.689991
970.774639	2528.665454
971.073162	2527.022038
971.371649	2525.953314
971.670098	2524.251924
971.968510	2525.406348
972.266885	2521.809485
972.565223	2528.307533
972.863524	2524.693025
973.161788	2523.977181
973.460014	2527.382481
973.758204	2526.031452
974.056356	2525.870135
974.354471	2525.557583
974.652550	2526.666637
974.950591	2526.331400
975.248595	2526.787625
975.546563	2530.157636
975.844493	2528.163860
976.142386	2527.082532
976.440243	2523.997346
976.738062	2525.678571
977.035845	2525.383663
977.333590	2528.211751
977.631299	2526.447347
977.928971	2525.736544
978.226606	2524.476256
978.524204	2526.593540
978.821765	2526.752337
979.119290	2527.495907
979.416777	2526.462470
979.714228	2528.224353
980.011642	2526.049096
980.309020	2526.845598
980.606360	2525.151770
980.903664	2529.227543
981.200931	2526.540608
981.498162	2525.252593
981.795356	2525.940711
982.092513	2526.800228
982.389633	2525.045906
982.686717	2527.450536
982.983764	2526.374250
983.280775	2527.720238
983.577749	2528.541946
983.874686	2528.874662
984.171587	2527.717718
984.468451	2523.440298
984.765279	2526.212933
985.062070	2526.585978
985.358824	2526.023890
985.655543	2524.952645
985.952224	2526.928777
986.248869	2523.672192
986.545478	2523.571368
986.842050	2524.141019
987.138586	2521.058353
987.435086	2524.612367
987.731549	2523.024403
988.027975	2525.592871
988.324366	2524.428365
988.620719	2525.650844
988.917037	2526.273427
989.213318	2527.122861
989.509563	2524.198992
989.805772	2526.855680
990.101944	2524.451050
990.398080	2524.423323
990.694180	2525.358457
990.990244	2525.461801
991.286271	2526.777542
991.582262	2525.454239
991.878217	2525.529857
992.174136	2525.764270
992.470019	2525.436595
992.765865	2525.671009
993.061676	2526.560773
993.357450	2526.464991
993.653188	2526.291071
993.948890	2524.693025
994.244556	2525.681091
994.540186	2525.610515
994.835780	2525.222346
995.131337	2526.646472
995.426859	2527.417769
995.722345	2524.738396
996.017795	2525.607995
996.313208	2528.680578
996.608586	2524.503982
996.903928	2527.143026
997.199234	2528.194107
997.494504	2522.737058
997.789738	2525.350896
998.084936	2529.817358
998.380099	2524.950124
998.675225	2526.777542
998.970316	2525.459281
999.265371	2526.585978
999.560390	2525.975999
999.855373	2527.347193
1000.150320	2526.530526
1000.445232	2528.831813
1000.740108	2524.970289
1001.034948	2526.782583
1001.329752	2525.925587
1001.624521	2527.324508
1001.919254	2520.650020
1002.213951	2526.354085
1002.508613	2517.794206
1002.803239	2527.349713
1003.097829	2522.384177
1003.392384	2527.344672
1003.686903	2524.027593
1003.981386	2526.190248
1004.275834	2525.953314
1004.570246	2527.528674
1004.864623	2523.495751
1005.158964	2525.522295
1005.453270	2524.985412
1005.747540	2527.465660
1006.041775	2522.144722
1006.335974	2528.741072
1006.630138	2525.129085
1006.924266	2528.267203
1007.218359	2525.237470
1007.512416	2522.033817
1007.806438	2525.383663
1008.100425	2526.732172
1008.394376	2522.626152
1008.688292	2526.409538
1008.982172	2525.403828
1009.276017	2524.564476
1009.569827	2524.168745
1009.863602	2527.299302
1010.157341	2524.695546
1010.451045	2525.335772
1010.744714	2522.729496
1011.038347	2524.617408
1011.331945	2524.193951
1011.625508	2526.643952
1011.919036	2527.420289
1012.212528	2525.368540
1012.505986	2523.354599
1012.799408	2524.181348
1013.092795	2524.083046
1013.386147	2526.528005
1013.679464	2524.740916
1013.972745	2525.728982
1014.265992	2522.558097
1014.559204	2526.139836
1014.852380	2524.582120
1015.145521	2525.005577
1015.438628	2523.977181
1015.731699	2526.790145
1016.024736	2525.282840
1016.317737	2523.420134
1016.610703	2528.315094
1016.903635	2525.776873
1017.196531	2518.371418
1017.489393	2521.602798
1017.782219	2519.813188
1018.075011	2524.279651
1018.367768	2526.187727
1018.660490	2525.305525
1018.953177	2525.305525
1019.245829	2525.305525
