Dividing Wavelength (nm)	Counts (n)	Blue Motor Position (mm): 0.000000	Red Motor Position (mm): 0.000000	
326.493990	2024.023269
326.888308	2024.023269
327.282561	2024.023269
327.676750	2079.475962
328.070874	2036.626154
328.464933	2124.846346
328.858929	2026.543846
329.252859	2069.393654
329.646726	2097.120000
330.040528	2167.696154
330.434265	2160.134423
330.827938	2066.873077
331.221547	2112.243462
331.615091	2187.860769
332.008571	2122.325769
332.401986	2238.272308
332.795338	2228.190000
333.188625	2175.257885
333.581847	2218.107692
333.975006	2271.039808
334.368100	2313.889615
334.761129	2354.218846
335.154095	2321.451346
335.546996	2399.589231
335.939833	2318.930769
336.332606	2361.780577
336.725315	2457.562500
337.117960	2384.465769
337.510540	2424.795000
337.903056	2434.877308
338.295508	2500.412308
338.687896	2457.562500
339.080220	2507.974038
339.472480	2407.150962
339.864676	2482.768269
340.256807	2455.041923
340.648875	2472.685962
341.040879	2462.603654
341.432818	2507.974038
341.824694	2535.700385
342.216506	2457.562500
342.608253	2515.535769
342.999937	2465.124231
343.391557	2502.932885
343.783113	2528.138654
344.174605	2482.768269
344.566033	2432.356731
344.957397	2558.385577
345.348697	2480.247692
345.739934	2452.521346
346.131106	2470.165385
346.522215	2505.453462
346.913260	2432.356731
347.304241	2444.959615
347.695159	2444.959615
348.086012	2480.247692
348.476802	2482.768269
348.867528	2364.301154
349.258191	2523.097500
349.648789	2447.480192
350.039324	2364.301154
350.429796	2389.506923
350.820203	2482.768269
351.210548	2414.712692
351.600828	2467.644808
351.991045	2492.850577
352.381198	2344.136538
352.771288	2510.494615
353.161314	2417.233269
353.551276	2386.986346
353.941175	2364.301154
354.331010	2407.150962
354.720782	2490.330000
355.110490	2462.603654
355.500135	2407.150962
355.889717	2432.356731
356.279235	2477.727115
356.668689	2394.548077
357.058080	2409.671538
357.447408	2507.974038
357.836672	2495.371154
358.225873	2412.192115
358.615010	2497.891731
359.004084	2404.630385
359.393095	2573.509038
359.782043	2427.315577
360.170927	2450.000769
360.559748	2467.644808
360.948505	2376.904038
361.337199	2409.671538
361.725830	2402.109808
362.114398	2465.124231
362.502903	2422.274423
362.891344	2407.150962
363.279722	2419.753846
363.668037	2429.836154
364.056289	2518.056346
364.444478	2465.124231
364.832603	2472.685962
365.220665	2485.288846
365.608665	2495.371154
365.996601	2477.727115
366.384474	2467.644808
366.772284	2485.288846
367.160031	2457.562500
367.547715	2437.397885
367.935336	2427.315577
368.322893	2447.480192
368.710388	2472.685962
369.097820	2462.603654
369.485189	2447.480192
369.872495	2538.220962
370.259738	2402.109808
370.646918	2465.124231
371.034035	2475.206538
371.421090	2381.945192
371.808081	2472.685962
372.195010	2414.712692
372.581875	2417.233269
372.968678	2513.015192
373.355418	2434.877308
373.742096	2455.041923
374.128710	2477.727115
374.515262	2492.850577
374.901751	2434.877308
375.288177	2538.220962
375.674540	2447.480192
376.060841	2578.550192
376.447079	2424.795000
376.833254	2538.220962
377.219367	2402.109808
377.605417	2533.179808
377.991404	2477.727115
378.377329	2603.755962
378.763191	2528.138654
379.148991	2434.877308
379.534727	2465.124231
379.920402	2366.821731
380.306013	2490.330000
380.691563	2497.891731
381.077049	2472.685962
381.462474	2407.150962
381.847835	2518.056346
382.233134	2515.535769
382.618371	2472.685962
383.003545	2480.247692
383.388657	2437.397885
383.773706	2528.138654
384.158693	2513.015192
384.543618	2424.795000
384.928480	2354.218846
385.313280	2417.233269
385.698017	2523.097500
386.082692	2470.165385
386.467305	2417.233269
386.851856	2447.480192
387.236344	2402.109808
387.620770	2505.453462
388.005133	2550.823846
388.389435	2528.138654
388.773674	2543.262115
389.157851	2475.206538
389.541965	2482.768269
389.926018	2450.000769
390.310008	2467.644808
390.693936	2439.918462
391.077802	2442.439038
391.461606	2439.918462
391.845348	2384.465769
392.229027	2543.262115
392.612645	2475.206538
392.996200	2475.206538
393.379694	2505.453462
393.763125	2523.097500
394.146494	2490.330000
394.529801	2462.603654
394.913047	2437.397885
395.296230	2432.356731
395.679351	2545.782692
396.062410	2565.947308
396.445408	2510.494615
396.828343	2422.274423
397.211217	2480.247692
397.594028	2432.356731
397.976778	2492.850577
398.359466	2495.371154
398.742092	2455.041923
399.124656	2545.782692
399.507158	2475.206538
399.889598	2500.412308
400.271977	2452.521346
400.654294	2457.562500
401.036549	2513.015192
401.418742	2507.974038
401.800874	2419.753846
402.182944	2520.576923
402.564952	2502.932885
402.946898	2520.576923
403.328783	2492.850577
403.710606	2545.782692
404.092367	2419.753846
404.474067	2475.206538
404.855705	2434.877308
405.237282	2439.918462
405.618797	2543.262115
406.000250	2475.206538
406.381642	2447.480192
406.762972	2462.603654
407.144240	2389.506923
407.525447	2530.659231
407.906593	2477.727115
408.287677	2432.356731
408.668700	2570.988462
409.049661	2414.712692
409.430560	2444.959615
409.811399	2472.685962
410.192176	2450.000769
410.572891	2545.782692
410.953545	2462.603654
411.334138	2518.056346
411.714669	2505.453462
412.095139	2470.165385
412.475547	2477.727115
412.855894	2470.165385
413.236180	2366.821731
413.616405	2497.891731
413.996568	2460.083077
414.376670	2457.562500
414.756711	2450.000769
415.136691	2507.974038
415.516609	2482.768269
415.896466	2510.494615
416.276262	2472.685962
416.655997	2475.206538
417.035670	2417.233269
417.415283	2424.795000
417.794834	2500.412308
418.174324	2475.206538
418.553753	2502.932885
418.933121	2477.727115
419.312428	2578.550192
419.691674	2530.659231
420.070859	2447.480192
420.449983	2414.712692
420.829045	2538.220962
421.208047	2452.521346
421.586988	2429.836154
421.965867	2497.891731
422.344686	2447.480192
422.723444	2447.480192
423.102141	2510.494615
423.480777	2409.671538
423.859352	2452.521346
424.237866	2507.974038
424.616319	2593.673654
424.994712	2500.412308
425.373044	2450.000769
425.751314	2480.247692
426.129524	2432.356731
426.507673	2444.959615
426.885762	2480.247692
427.263789	2470.165385
427.641756	2465.124231
428.019662	2505.453462
428.397508	2507.974038
428.775292	2444.959615
429.153016	2460.083077
429.530679	2442.439038
429.908282	2422.274423
430.285824	2497.891731
430.663305	2452.521346
431.040726	2560.906154
431.418086	2490.330000
431.795385	2480.247692
432.172624	2502.932885
432.549802	2460.083077
432.926920	2495.371154
433.303977	2475.206538
433.680974	2429.836154
434.057910	2495.371154
434.434786	2586.111923
434.811601	2452.521346
435.188355	2417.233269
435.565050	2465.124231
435.941683	2487.809423
436.318257	2452.521346
436.694770	2419.753846
437.071222	2477.727115
437.447614	2472.685962
437.823946	2513.015192
438.200218	2490.330000
438.576429	2439.918462
438.952580	2497.891731
439.328670	2384.465769
439.704700	2550.823846
440.080670	2384.465769
440.456580	2535.700385
440.832429	2538.220962
441.208218	2533.179808
441.583947	2490.330000
441.959616	2477.727115
442.335224	2568.467885
442.710773	2538.220962
443.086261	2495.371154
443.461689	2515.535769
443.837057	2548.303269
444.212365	2543.262115
444.587612	2452.521346
444.962800	2452.521346
445.337927	2558.385577
445.712995	2548.303269
446.088002	2515.535769
446.462949	2480.247692
446.837837	2475.206538
447.212664	2462.603654
447.587431	2462.603654
447.962139	2548.303269
448.336786	2455.041923
448.711374	2437.397885
449.085901	2581.070769
449.460369	2510.494615
449.834776	2472.685962
450.209124	2447.480192
450.583412	2432.356731
450.957640	2399.589231
451.331808	2465.124231
451.705917	2434.877308
452.079965	2518.056346
452.453954	2490.330000
452.827883	2460.083077
453.201752	2452.521346
453.575562	2573.509038
453.949311	2422.274423
454.323001	2500.412308
454.696632	2429.836154
455.070202	2455.041923
455.443713	2500.412308
455.817164	2525.618077
456.190556	2434.877308
456.563888	2480.247692
456.937160	2502.932885
457.310373	2500.412308
457.683526	2502.932885
458.056619	2523.097500
458.429653	2480.247692
458.802628	2424.795000
459.175542	2515.535769
459.548398	2515.535769
459.921194	2470.165385
460.293930	2560.906154
460.666607	2492.850577
461.039224	2513.015192
461.411782	2644.085192
461.784280	2565.947308
462.156719	2485.288846
462.529099	2455.041923
462.901419	2515.535769
463.273680	2450.000769
463.645882	2447.480192
464.018024	2482.768269
464.390106	2528.138654
464.762130	2588.632500
465.134094	2550.823846
465.505999	2492.850577
465.877845	2455.041923
466.249631	2538.220962
466.621358	2467.644808
466.993026	2419.753846
467.364634	2480.247692
467.736184	2543.262115
468.107674	2402.109808
468.479105	2472.685962
468.850477	2450.000769
469.221790	2505.453462
469.593043	2465.124231
469.964238	2379.424615
470.335373	2419.753846
470.706449	2520.576923
471.077467	2507.974038
471.448425	2492.850577
471.819324	2485.288846
472.190164	2520.576923
472.560945	2470.165385
472.931667	2477.727115
473.302330	2465.124231
473.672934	2472.685962
474.043479	2414.712692
474.413965	2500.412308
474.784393	2452.521346
475.154761	2603.755962
475.525070	2460.083077
475.895321	2523.097500
476.265513	2475.206538
476.635645	2545.782692
477.005719	2515.535769
477.375734	2490.330000
477.745691	2450.000769
478.115588	2578.550192
478.485427	2543.262115
478.855207	2432.356731
479.224928	2439.918462
479.594591	2515.535769
479.964194	2442.439038
480.333739	2490.330000
480.703226	2525.618077
481.072653	2475.206538
481.442022	2513.015192
481.811333	2505.453462
482.180584	2525.618077
482.549777	2472.685962
482.918912	2578.550192
483.287988	2460.083077
483.657005	2487.809423
484.025964	2487.809423
484.394864	2480.247692
484.763706	2482.768269
485.132489	2540.741538
485.501213	2502.932885
485.869879	2583.591346
486.238487	2505.453462
486.607036	2475.206538
486.975527	2465.124231
487.343959	2520.576923
487.712333	2490.330000
488.080648	2528.138654
488.448905	2538.220962
488.817104	2437.397885
489.185244	2439.918462
489.553326	2555.865000
489.921350	2538.220962
490.289315	2477.727115
490.657222	2507.974038
491.025070	2515.535769
491.392861	2472.685962
491.760593	2472.685962
492.128267	2467.644808
492.495883	2487.809423
492.863440	2553.344423
493.230939	2540.741538
493.598380	2555.865000
493.965763	2497.891731
494.333088	2482.768269
494.700354	2460.083077
495.067563	2530.659231
495.434713	2513.015192
495.801805	2513.015192
496.168839	2485.288846
496.535815	2460.083077
496.902733	2439.918462
497.269593	2510.494615
497.636395	2515.535769
498.003139	2467.644808
498.369825	2581.070769
498.736453	2576.029615
499.103023	2495.371154
499.469535	2513.015192
499.835989	2533.179808
500.202385	2505.453462
500.568723	2502.932885
500.935003	2558.385577
501.301226	2470.165385
501.667390	2475.206538
502.033497	2502.932885
502.399546	2565.947308
502.765537	2573.509038
503.131470	2540.741538
503.497345	2558.385577
503.863163	2545.782692
504.228923	2563.426731
504.594625	2485.288846
504.960269	2535.700385
505.325856	2492.850577
505.691385	2533.179808
506.056856	2540.741538
506.422270	2427.315577
506.787625	2447.480192
507.152924	2475.206538
507.518164	2475.206538
507.883347	2510.494615
508.248472	2437.397885
508.613540	2477.727115
508.978550	2523.097500
509.343503	2472.685962
509.708398	2560.906154
510.073236	2482.768269
510.438016	2553.344423
510.802738	2470.165385
511.167403	2495.371154
511.532010	2586.111923
511.896561	2470.165385
512.261053	2565.947308
512.625488	2444.959615
512.989866	2528.138654
513.354186	2397.068654
513.718449	2530.659231
514.082655	2533.179808
514.446803	2563.426731
514.810894	2492.850577
515.174927	2502.932885
515.538904	2455.041923
515.902822	2520.576923
516.266684	2515.535769
516.630488	2434.877308
516.994235	2485.288846
517.357925	2452.521346
517.721558	2570.988462
518.085133	2558.385577
518.448651	2487.809423
518.812112	2507.974038
519.175516	2460.083077
519.538863	2450.000769
519.902152	2548.303269
520.265385	2467.644808
520.628560	2507.974038
520.991678	2510.494615
521.354739	2515.535769
521.717743	2533.179808
522.080690	2523.097500
522.443580	2381.945192
522.806413	2434.877308
523.169189	2558.385577
523.531908	2510.494615
523.894569	2555.865000
524.257174	2510.494615
524.619722	2528.138654
524.982213	2482.768269
525.344647	2510.494615
525.707025	2553.344423
526.069345	2515.535769
526.431608	2492.850577
526.793815	2570.988462
527.155964	2530.659231
527.518057	2540.741538
527.880093	2487.809423
528.242072	2439.918462
528.603995	2560.906154
528.965860	2480.247692
529.327669	2505.453462
529.689421	2462.603654
530.051117	2465.124231
530.412755	2560.906154
530.774337	2490.330000
531.135862	2613.838269
531.497331	2515.535769
531.858743	2578.550192
532.220098	2480.247692
532.581396	2450.000769
532.942638	2470.165385
533.303824	2518.056346
533.664953	2563.426731
534.026025	2480.247692
534.387040	2455.041923
534.747999	2424.795000
535.108902	2553.344423
535.469748	2525.618077
535.830537	2550.823846
536.191270	2548.303269
536.551947	2548.303269
536.912567	2530.659231
537.273131	2472.685962
537.633638	2545.782692
537.994089	2472.685962
538.354483	2513.015192
538.714821	2505.453462
539.075103	2540.741538
539.435328	2523.097500
539.795497	2570.988462
540.155609	2495.371154
540.515665	2583.591346
540.875665	2460.083077
541.235609	2429.836154
541.595496	2455.041923
541.955328	2507.974038
542.315102	2525.618077
542.674821	2540.741538
543.034483	2465.124231
543.394090	2548.303269
543.753640	2502.932885
544.113134	2523.097500
544.472571	2545.782692
544.831953	2437.397885
545.191278	2563.426731
545.550548	2465.124231
545.909761	2414.712692
546.268918	2497.891731
546.628019	2507.974038
546.987064	2616.358846
547.346053	2497.891731
547.704986	2502.932885
548.063863	2523.097500
548.422684	2558.385577
548.781449	2417.233269
549.140158	2492.850577
549.498811	2490.330000
549.857408	2520.576923
550.215949	2563.426731
550.574434	2533.179808
550.932864	2465.124231
551.291237	2475.206538
551.649555	2545.782692
552.007817	2470.165385
552.366022	2465.124231
552.724173	2472.685962
553.082267	2447.480192
553.440305	2497.891731
553.798288	2444.959615
554.156215	2492.850577
554.514086	2485.288846
554.871902	2487.809423
555.229661	2518.056346
555.587365	2603.755962
555.945014	2581.070769
556.302606	2568.467885
556.660143	2543.262115
557.017625	2467.644808
557.375050	2429.836154
557.732421	2389.506923
558.089735	2538.220962
558.446994	2475.206538
558.804197	2432.356731
559.161345	2460.083077
559.518437	2399.589231
559.875474	2523.097500
560.232455	2447.480192
560.589381	2500.412308
560.946251	2450.000769
561.303065	2555.865000
561.659825	2540.741538
562.016528	2492.850577
562.373177	2495.371154
562.729770	2495.371154
563.086307	2543.262115
563.442789	2409.671538
563.799216	2480.247692
564.155587	2507.974038
564.511904	2447.480192
564.868164	2530.659231
565.224370	2460.083077
565.580520	2525.618077
565.936615	2487.809423
566.292654	2543.262115
566.648638	2505.453462
567.004567	2429.836154
567.360441	2513.015192
567.716260	2507.974038
568.072023	2500.412308
568.427732	2528.138654
568.783385	2545.782692
569.138982	2465.124231
569.494525	2417.233269
569.850013	2565.947308
570.205445	2437.397885
570.560823	2502.932885
570.916145	2447.480192
571.271412	2482.768269
571.626625	2432.356731
571.981782	2533.179808
572.336884	2601.235385
572.691931	2518.056346
573.046923	2530.659231
573.401860	2475.206538
573.756743	2510.494615
574.111570	2444.959615
574.466342	2467.644808
574.821059	2429.836154
575.175722	2528.138654
575.530330	2515.535769
575.884882	2497.891731
576.239380	2462.603654
576.593823	2505.453462
576.948211	2553.344423
577.302544	2497.891731
577.656823	2518.056346
578.011047	2535.700385
578.365216	2452.521346
578.719330	2434.877308
579.073389	2472.685962
579.427394	2548.303269
579.781344	2462.603654
580.135239	2475.206538
580.489080	2553.344423
580.842866	2434.877308
581.196597	2543.262115
581.550273	2500.412308
581.903895	2482.768269
582.257463	2465.124231
582.610975	2487.809423
582.964434	2485.288846
583.317837	2495.371154
583.671186	2510.494615
584.024481	2553.344423
584.377721	2467.644808
584.730906	2553.344423
585.084037	2513.015192
585.437113	2535.700385
585.790135	2429.836154
586.143103	2462.603654
586.496016	2384.465769
586.848874	2470.165385
587.201679	2523.097500
587.554428	2480.247692
587.907124	2490.330000
588.259765	2472.685962
588.612352	2490.330000
588.964884	2500.412308
589.317362	2545.782692
589.669786	2530.659231
590.022155	2540.741538
590.374470	2470.165385
590.726731	2500.412308
591.078937	2427.315577
591.431090	2470.165385
591.783188	2581.070769
592.135232	2525.618077
592.487222	2505.453462
592.839157	2528.138654
593.191038	2455.041923
593.542866	2555.865000
593.894639	2497.891731
594.246358	2447.480192
594.598022	2477.727115
594.949633	2548.303269
595.301190	2502.932885
595.652692	2437.397885
596.004141	2477.727115
596.355535	2507.974038
596.706876	2538.220962
597.058162	2500.412308
597.409395	2457.562500
597.760573	2507.974038
598.111698	2523.097500
598.462768	2477.727115
598.813785	2500.412308
599.164748	2487.809423
599.515657	2558.385577
599.866511	2475.206538
600.217312	2482.768269
600.568060	2550.823846
600.918753	2457.562500
601.269392	2487.809423
601.619978	2467.644808
601.970510	2576.029615
602.320988	2485.288846
602.671412	2457.562500
603.021783	2502.932885
603.372100	2578.550192
603.722363	2497.891731
604.072572	2452.521346
604.422728	2467.644808
604.772830	2470.165385
605.122878	2497.891731
605.472872	2497.891731
605.822813	2485.288846
606.172701	2477.727115
606.522534	2480.247692
606.872314	2432.356731
607.222041	2538.220962
607.571714	2563.426731
607.921333	2492.850577
608.270899	2550.823846
608.620411	2424.795000
608.969870	2523.097500
609.319276	2530.659231
609.668627	2455.041923
610.017926	2475.206538
610.367171	2588.632500
610.716362	2550.823846
611.065500	2505.453462
611.414585	2407.150962
611.763616	2518.056346
612.112594	2558.385577
612.461518	2520.576923
612.810389	2442.439038
613.159207	2578.550192
613.507971	2462.603654
613.856682	2558.385577
614.205340	2560.906154
614.553945	2470.165385
614.902496	2457.562500
615.250994	2495.371154
615.599439	2497.891731
615.947830	2500.412308
616.296169	2560.906154
616.644454	2487.809423
616.992686	2487.809423
617.340864	2497.891731
617.688990	2480.247692
618.037063	2470.165385
618.385082	2523.097500
618.733048	2548.303269
619.080961	2588.632500
619.428821	2419.753846
619.776628	2545.782692
620.124382	2450.000769
620.472083	2563.426731
620.819731	2528.138654
621.167326	2505.453462
621.514868	2533.179808
621.862357	2540.741538
622.209793	2576.029615
622.557176	2427.315577
622.904506	2583.591346
623.251783	2510.494615
623.599007	2540.741538
623.946179	2472.685962
624.293297	2558.385577
624.640363	2470.165385
624.987376	2480.247692
625.334336	2450.000769
625.681243	2490.330000
626.028097	2472.685962
626.374899	2510.494615
626.721647	2439.918462
627.068343	2475.206538
627.414987	2505.453462
627.761577	2480.247692
628.108115	2525.618077
628.454600	2465.124231
628.801032	2523.097500
629.147412	2518.056346
629.493739	2530.659231
629.840014	2487.809423
630.186236	2533.179808
630.532405	2455.041923
630.878521	2422.274423
631.224585	2510.494615
631.570597	2518.056346
631.916556	2540.741538
632.262462	2457.562500
632.608316	2444.959615
632.954117	2470.165385
633.299866	2518.056346
633.645562	2475.206538
633.991206	2497.891731
634.336797	2467.644808
634.682336	2621.400000
635.027823	2492.850577
635.373257	2507.974038
635.718639	2528.138654
636.063968	2457.562500
636.409245	2535.700385
636.754470	2505.453462
637.099642	2523.097500
637.444762	2472.685962
637.789829	2492.850577
638.134845	2513.015192
638.479808	2442.439038
638.824719	2596.194231
639.169577	2505.453462
639.514383	2465.124231
639.859137	2530.659231
640.203839	2455.041923
640.548489	2598.714808
640.893086	2447.480192
641.237632	2507.974038
641.582125	2480.247692
641.926566	2568.467885
642.270955	2573.509038
642.615292	2513.015192
642.959576	2548.303269
643.303809	2409.671538
643.647990	2492.850577
643.992118	2475.206538
644.336195	2586.111923
644.680219	2513.015192
645.024192	2520.576923
645.368112	2550.823846
645.711981	2507.974038
646.055797	2467.644808
646.399562	2651.646923
646.743274	2480.247692
647.086935	2500.412308
647.430544	2533.179808
647.774101	2487.809423
648.117606	2455.041923
648.461059	2560.906154
648.804460	2505.453462
649.147810	2510.494615
649.491108	2467.644808
649.834354	2422.274423
650.177548	2515.535769
650.520690	2487.809423
650.863781	2475.206538
651.206820	2447.480192
651.549807	2535.700385
651.892742	2533.179808
652.235626	2497.891731
652.578458	2412.192115
652.921238	2492.850577
653.263967	2392.027500
653.606644	2520.576923
653.949269	2518.056346
654.291843	2480.247692
654.634365	2409.671538
654.976836	2485.288846
655.319255	2510.494615
655.661622	2533.179808
656.003938	2616.358846
656.346203	2555.865000
656.688416	2482.768269
657.030577	2570.988462
657.372687	2550.823846
657.714746	2472.685962
658.056753	2497.891731
658.398708	2520.576923
658.740612	2495.371154
659.082465	2515.535769
659.424266	2439.918462
659.766016	2548.303269
660.107715	2510.494615
660.449362	2528.138654
660.790958	2523.097500
661.132503	2434.877308
661.473996	2412.192115
661.815438	2535.700385
662.156829	2487.809423
662.498168	2535.700385
662.839456	2598.714808
663.180693	2505.453462
663.521879	2528.138654
663.863013	2472.685962
664.204097	2507.974038
664.545129	2492.850577
664.886110	2583.591346
665.227040	2548.303269
665.567918	2510.494615
665.908746	2518.056346
666.249522	2480.247692
666.590248	2515.535769
666.930922	2528.138654
667.271545	2525.618077
667.612118	2502.932885
667.952639	2550.823846
668.293109	2553.344423
668.633528	2523.097500
668.973896	2563.426731
669.314213	2450.000769
669.654480	2535.700385
669.994695	2450.000769
670.334859	2576.029615
670.674973	2485.288846
671.015035	2515.535769
671.355047	2573.509038
671.695008	2505.453462
672.034918	2533.179808
672.374777	2447.480192
672.714585	2538.220962
673.054342	2545.782692
673.394049	2543.262115
673.733705	2560.906154
674.073310	2513.015192
674.412864	2447.480192
674.752368	2452.521346
675.091820	2480.247692
675.431223	2530.659231
675.770574	2480.247692
676.109875	2528.138654
676.449125	2555.865000
676.788324	2545.782692
677.127473	2550.823846
677.466571	2404.630385
677.805619	2513.015192
678.144616	2427.315577
678.483562	2513.015192
678.822458	2550.823846
679.161303	2497.891731
679.500098	2520.576923
679.838842	2462.603654
680.177535	2525.618077
680.516179	2450.000769
680.854771	2573.509038
681.193314	2480.247692
681.531805	2530.659231
681.870247	2563.426731
682.208638	2525.618077
682.546978	2505.453462
682.885268	2560.906154
683.223508	2495.371154
683.561697	2530.659231
683.899836	2462.603654
684.237925	2543.262115
684.575963	2530.659231
684.913951	2477.727115
685.251889	2450.000769
685.589776	2550.823846
685.927614	2520.576923
686.265401	2475.206538
686.603137	2548.303269
686.940824	2555.865000
687.278460	2565.947308
687.616046	2485.288846
687.953582	2588.632500
688.291068	2477.727115
688.628504	2553.344423
688.965889	2447.480192
689.303224	2578.550192
689.640510	2442.439038
689.977745	2573.509038
690.314930	2455.041923
690.652065	2497.891731
690.989150	2472.685962
691.326185	2475.206538
691.663170	2480.247692
692.000105	2548.303269
692.336990	2462.603654
692.673825	2535.700385
693.010610	2548.303269
693.347345	2520.576923
693.684030	2462.603654
694.020665	2540.741538
694.357251	2533.179808
694.693786	2467.644808
695.030272	2475.206538
695.366707	2485.288846
695.703093	2525.618077
696.039429	2460.083077
696.375716	2548.303269
696.711952	2487.809423
697.048139	2528.138654
697.384276	2472.685962
697.720363	2555.865000
698.056400	2502.932885
698.392388	2477.727115
698.728326	2467.644808
699.064214	2500.412308
699.400053	2482.768269
699.735842	2540.741538
700.071581	2502.932885
700.407270	2487.809423
700.742910	2576.029615
701.078501	2540.741538
701.414042	2399.589231
701.749533	2444.959615
702.084974	2563.426731
702.420366	2452.521346
702.755709	2500.412308
703.091002	2434.877308
703.426246	2502.932885
703.761440	2485.288846
704.096584	2505.453462
704.431679	2560.906154
704.766725	2462.603654
705.101721	2535.700385
705.436668	2472.685962
705.771565	2472.685962
706.106413	2606.276538
706.441212	2495.371154
706.775961	2563.426731
707.110661	2520.576923
707.445311	2424.795000
707.779913	2492.850577
708.114465	2492.850577
708.448967	2555.865000
708.783421	2429.836154
709.117825	2477.727115
709.452180	2555.865000
709.786485	2495.371154
710.120742	2492.850577
710.454949	2470.165385
710.789107	2447.480192
711.123216	2573.509038
711.457275	2447.480192
711.791286	2485.288846
712.125247	2399.589231
712.459159	2467.644808
712.793023	2606.276538
713.126837	2548.303269
713.460602	2558.385577
713.794318	2470.165385
714.127985	2578.550192
714.461602	2492.850577
714.795171	2528.138654
715.128691	2457.562500
715.462162	2465.124231
715.795584	2467.644808
716.128957	2545.782692
716.462281	2492.850577
716.795556	2507.974038
717.128782	2492.850577
717.461960	2442.439038
717.795088	2502.932885
718.128167	2505.453462
718.461198	2457.562500
718.794180	2450.000769
719.127113	2394.548077
719.459997	2444.959615
719.792833	2528.138654
720.125619	2467.644808
720.458357	2530.659231
720.791046	2528.138654
721.123686	2502.932885
721.456278	2548.303269
721.788821	2492.850577
722.121315	2450.000769
722.453761	2558.385577
722.786158	2480.247692
723.118506	2457.562500
723.450805	2576.029615
723.783056	2581.070769
724.115259	2548.303269
724.447412	2581.070769
724.779518	2437.397885
725.111574	2502.932885
725.443582	2550.823846
725.775542	2462.603654
726.107453	2495.371154
726.439315	2477.727115
726.771129	2505.453462
727.102895	2480.247692
727.434612	2485.288846
727.766281	2513.015192
728.097901	2538.220962
728.429473	2553.344423
728.760996	2540.741538
729.092471	2523.097500
729.423897	2545.782692
729.755276	2447.480192
730.086606	2596.194231
730.417887	2540.741538
730.749120	2545.782692
731.080305	2447.480192
731.411442	2437.397885
731.742530	2523.097500
732.073570	2570.988462
732.404562	2482.768269
732.735506	2487.809423
733.066401	2482.768269
733.397249	2450.000769
733.728048	2530.659231
734.058798	2470.165385
734.389501	2513.015192
734.720156	2465.124231
735.050762	2470.165385
735.381320	2530.659231
735.711831	2530.659231
736.042293	2495.371154
736.372707	2502.932885
736.703073	2550.823846
737.033391	2510.494615
737.363661	2480.247692
737.693883	2412.192115
738.024056	2535.700385
738.354182	2485.288846
738.684260	2500.412308
739.014290	2439.918462
739.344272	2500.412308
739.674207	2492.850577
740.004093	2452.521346
740.333931	2505.453462
740.663722	2485.288846
740.993464	2520.576923
741.323159	2455.041923
741.652806	2545.782692
741.982405	2462.603654
742.311956	2427.315577
742.641460	2444.959615
742.970915	2442.439038
743.300323	2513.015192
743.629683	2475.206538
743.958996	2507.974038
744.288260	2452.521346
744.617477	2485.288846
744.946647	2424.795000
745.275768	2513.015192
745.604842	2502.932885
745.933869	2515.535769
746.262847	2523.097500
746.591778	2533.179808
746.920662	2485.288846
747.249498	2515.535769
747.578286	2452.521346
747.907027	2500.412308
748.235720	2444.959615
748.564365	2578.550192
748.892963	2487.809423
749.221514	2565.947308
749.550017	2485.288846
749.878473	2487.809423
750.206881	2507.974038
750.535242	2492.850577
750.863555	2538.220962
751.191821	2523.097500
751.520039	2477.727115
751.848210	2477.727115
752.176334	2455.041923
752.504411	2437.397885
752.832440	2439.918462
753.160421	2518.056346
753.488356	2487.809423
753.816243	2477.727115
754.144082	2507.974038
754.471875	2470.165385
754.799620	2497.891731
755.127318	2553.344423
755.454969	2457.562500
755.782572	2513.015192
756.110129	2490.330000
756.437638	2487.809423
756.765100	2455.041923
757.092515	2467.644808
757.419882	2444.959615
757.747203	2500.412308
758.074477	2427.315577
758.401703	2492.850577
758.728882	2422.274423
759.056014	2538.220962
759.383099	2550.823846
759.710138	2507.974038
760.037129	2470.165385
760.364073	2525.618077
760.690970	2437.397885
761.017820	2379.424615
761.344623	2497.891731
761.671379	2591.153077
761.998088	2437.397885
762.324751	2502.932885
762.651366	2470.165385
762.977935	2563.426731
763.304456	2465.124231
763.630931	2578.550192
763.957359	2560.906154
764.283740	2429.836154
764.610074	2525.618077
764.936362	2472.685962
765.262602	2528.138654
765.588796	2581.070769
765.914943	2455.041923
766.241044	2568.467885
766.567097	2505.453462
766.893104	2553.344423
767.219064	2540.741538
767.544978	2472.685962
767.870845	2477.727115
768.196665	2437.397885
768.522438	2434.877308
768.848165	2530.659231
769.173846	2560.906154
769.499479	2492.850577
769.825066	2477.727115
770.150607	2513.015192
770.476101	2480.247692
770.801548	2419.753846
771.126949	2515.535769
771.452303	2513.015192
771.777611	2525.618077
772.102872	2545.782692
772.428087	2550.823846
772.753256	2502.932885
773.078378	2480.247692
773.403453	2397.068654
773.728482	2482.768269
774.053465	2429.836154
774.378401	2500.412308
774.703291	2439.918462
775.028135	2392.027500
775.352932	2470.165385
775.677683	2460.083077
776.002388	2500.412308
776.327046	2450.000769
776.651658	2490.330000
776.976224	2450.000769
777.300743	2485.288846
777.625216	2525.618077
777.949643	2470.165385
778.274024	2510.494615
778.598359	2636.523462
778.922647	2392.027500
779.246889	2538.220962
779.571086	2485.288846
779.895236	2540.741538
780.219339	2462.603654
780.543397	2500.412308
780.867409	2437.397885
781.191374	2528.138654
781.515294	2520.576923
781.839167	2394.548077
782.162995	2485.288846
782.486776	2497.891731
782.810511	2518.056346
783.134201	2404.630385
783.457844	2497.891731
783.781441	2477.727115
784.104993	2538.220962
784.428498	2543.262115
784.751958	2482.768269
785.075372	2487.809423
785.398739	2513.015192
785.722061	2548.303269
786.045337	2545.782692
786.368568	2510.494615
786.691752	2477.727115
787.014891	2495.371154
787.337983	2482.768269
787.661030	2573.509038
787.984031	2540.741538
788.306987	2442.439038
788.629897	2518.056346
788.952760	2444.959615
789.275579	2515.535769
789.598351	2530.659231
789.921078	2535.700385
790.243759	2507.974038
790.566395	2497.891731
790.888984	2437.397885
791.211529	2465.124231
791.534027	2432.356731
791.856480	2492.850577
792.178888	2427.315577
792.501249	2427.315577
792.823566	2563.426731
793.145836	2545.782692
793.468062	2434.877308
793.790241	2497.891731
794.112375	2457.562500
794.434464	2444.959615
794.756507	2523.097500
795.078505	2492.850577
795.400457	2487.809423
795.722364	2553.344423
796.044226	2502.932885
796.366042	2500.412308
796.687812	2500.412308
797.009538	2507.974038
797.331218	2525.618077
797.652852	2520.576923
797.974442	2515.535769
798.295986	2505.453462
798.617484	2442.439038
798.938938	2402.109808
799.260346	2565.947308
799.581709	2492.850577
799.903026	2538.220962
800.224299	2525.618077
800.545526	2434.877308
800.866708	2502.932885
801.187845	2535.700385
801.508936	2528.138654
801.829983	2442.439038
802.150984	2502.932885
802.471940	2515.535769
802.792851	2467.644808
803.113717	2457.562500
803.434538	2470.165385
803.755314	2555.865000
804.076045	2462.603654
804.396731	2452.521346
804.717372	2518.056346
805.037967	2565.947308
805.358518	2538.220962
805.679024	2495.371154
805.999485	2470.165385
806.319901	2366.821731
806.640272	2507.974038
806.960598	2482.768269
807.280879	2497.891731
807.601115	2480.247692
807.921306	2533.179808
808.241453	2507.974038
808.561554	2515.535769
808.881611	2497.891731
809.201623	2530.659231
809.521590	2545.782692
809.841513	2502.932885
810.161390	2492.850577
810.481223	2553.344423
810.801011	2495.371154
811.120755	2492.850577
811.440453	2555.865000
811.760107	2424.795000
812.079716	2470.165385
812.399281	2553.344423
812.718801	2465.124231
813.038276	2502.932885
813.357707	2477.727115
813.677093	2555.865000
813.996434	2565.947308
814.315731	2538.220962
814.634983	2550.823846
814.954191	2507.974038
815.273354	2497.891731
815.592473	2472.685962
815.911547	2502.932885
816.230577	2560.906154
816.549562	2457.562500
816.868502	2462.603654
817.187399	2465.124231
817.506250	2450.000769
817.825058	2530.659231
818.143821	2467.644808
818.462539	2490.330000
818.781213	2487.809423
819.099843	2455.041923
819.418429	2480.247692
819.736970	2497.891731
820.055466	2525.618077
820.373919	2462.603654
820.692327	2528.138654
821.010691	2460.083077
821.329011	2477.727115
821.647286	2412.192115
821.965517	2465.124231
822.283704	2467.644808
822.601847	2525.618077
822.919945	2573.509038
823.237999	2470.165385
823.556010	2482.768269
823.873976	2518.056346
824.191897	2533.179808
824.509775	2520.576923
824.827609	2535.700385
825.145398	2576.029615
825.463144	2548.303269
825.780845	2550.823846
826.098502	2444.959615
826.416116	2578.550192
826.733685	2497.891731
827.051210	2528.138654
827.368692	2485.288846
827.686129	2447.480192
828.003522	2502.932885
828.320872	2513.015192
828.638177	2422.274423
828.955439	2412.192115
829.272656	2487.809423
829.589830	2450.000769
829.906960	2490.330000
830.224046	2570.988462
830.541088	2500.412308
830.858086	2523.097500
831.175041	2515.535769
831.491952	2495.371154
831.808819	2465.124231
832.125642	2480.247692
832.442421	2490.330000
832.759157	2472.685962
833.075849	2507.974038
833.392497	2507.974038
833.709101	2439.918462
834.025662	2424.795000
834.342179	2576.029615
834.658653	2437.397885
834.975083	2533.179808
835.291469	2520.576923
835.607811	2613.838269
835.924110	2467.644808
836.240366	2583.591346
836.556578	2444.959615
836.872746	2505.453462
837.188871	2520.576923
837.504952	2507.974038
837.820990	2495.371154
838.136984	2553.344423
838.452935	2523.097500
838.768842	2470.165385
839.084706	2523.097500
839.400526	2533.179808
839.716303	2470.165385
840.032037	2480.247692
840.347727	2429.836154
840.663373	2404.630385
840.978977	2495.371154
841.294537	2455.041923
841.610054	2450.000769
841.925527	2490.330000
842.240957	2523.097500
842.556344	2563.426731
842.871687	2402.109808
843.186987	2535.700385
843.502244	2530.659231
843.817458	2424.795000
844.132629	2596.194231
844.447756	2465.124231
844.762840	2457.562500
845.077881	2515.535769
845.392879	2502.932885
845.707833	2492.850577
846.022745	2437.397885
846.337613	2518.056346
846.652438	2477.727115
846.967221	2475.206538
847.281960	2505.453462
847.596656	2513.015192
847.911309	2462.603654
848.225919	2472.685962
848.540485	2543.262115
848.855009	2462.603654
849.169490	2480.247692
849.483928	2515.535769
849.798323	2525.618077
850.112675	2480.247692
850.426984	2444.959615
850.741251	2490.330000
851.055474	2628.961731
851.369654	2533.179808
851.683792	2465.124231
851.997887	2518.056346
852.311938	2510.494615
852.625947	2482.768269
852.939914	2495.371154
853.253837	2513.015192
853.567718	2583.591346
853.881555	2394.548077
854.195350	2555.865000
854.509103	2482.768269
854.822812	2530.659231
855.136479	2520.576923
855.450103	2548.303269
855.763685	2437.397885
856.077224	2535.700385
856.390720	2429.836154
856.704173	2409.671538
857.017584	2578.550192
857.330953	2487.809423
857.644278	2513.015192
857.957561	2439.918462
858.270802	2470.165385
858.584000	2573.509038
858.897155	2548.303269
859.210268	2485.288846
859.523339	2520.576923
859.836367	2455.041923
860.149352	2555.865000
860.462295	2538.220962
860.775195	2558.385577
861.088054	2500.412308
861.400869	2407.150962
861.713642	2502.932885
862.026373	2422.274423
862.339062	2492.850577
862.651708	2450.000769
862.964312	2492.850577
863.276873	2450.000769
863.589392	2530.659231
863.901869	2424.795000
864.214303	2530.659231
864.526696	2515.535769
864.839045	2429.836154
865.151353	2490.330000
865.463619	2497.891731
865.775842	2470.165385
866.088023	2442.439038
866.400162	2495.371154
866.712258	2475.206538
867.024313	2487.809423
867.336325	2520.576923
867.648296	2434.877308
867.960224	2513.015192
868.272110	2477.727115
868.583954	2402.109808
868.895755	2535.700385
869.207515	2482.768269
869.519233	2515.535769
869.830909	2558.385577
870.142542	2535.700385
870.454134	2467.644808
870.765684	2450.000769
871.077191	2427.315577
871.388657	2563.426731
871.700081	2513.015192
872.011463	2467.644808
872.322803	2444.959615
872.634101	2497.891731
872.945357	2505.453462
873.256571	2525.618077
873.567744	2482.768269
873.878874	2533.179808
874.189963	2432.356731
874.501010	2578.550192
874.812015	2452.521346
875.122979	2510.494615
875.433900	2530.659231
875.744780	2439.918462
876.055618	2472.685962
876.366415	2510.494615
876.677169	2495.371154
876.987882	2520.576923
877.298554	2434.877308
877.609183	2460.083077
877.919771	2424.795000
878.230317	2513.015192
878.540822	2424.795000
878.851285	2477.727115
879.161707	2500.412308
879.472087	2432.356731
879.782425	2465.124231
880.092722	2507.974038
880.402977	2492.850577
880.713191	2399.589231
881.023363	2450.000769
881.333494	2543.262115
881.643583	2497.891731
881.953631	2535.700385
882.263637	2510.494615
882.573602	2525.618077
882.883526	2586.111923
883.193408	2518.056346
883.503248	2563.426731
883.813048	2444.959615
884.122806	2502.932885
884.432522	2513.015192
884.742197	2523.097500
885.051831	2550.823846
885.361424	2452.521346
885.670975	2515.535769
885.980485	2505.453462
886.289954	2439.918462
886.599382	2414.712692
886.908768	2520.576923
887.218113	2477.727115
887.527417	2402.109808
887.836680	2510.494615
888.145901	2437.397885
888.455082	2450.000769
888.764221	2472.685962
889.073319	2545.782692
889.382376	2475.206538
889.691392	2507.974038
890.000366	2520.576923
890.309300	2429.836154
890.618193	2538.220962
890.927044	2513.015192
891.235855	2457.562500
891.544625	2510.494615
891.853353	2475.206538
892.162041	2457.562500
892.470687	2530.659231
892.779293	2513.015192
893.087858	2495.371154
893.396381	2477.727115
893.704864	2432.356731
894.013306	2439.918462
894.321707	2480.247692
894.630068	2437.397885
894.938387	2528.138654
895.246665	2515.535769
895.554903	2455.041923
895.863100	2465.124231
896.171256	2442.439038
896.479371	2472.685962
896.787446	2502.932885
897.095480	2462.603654
897.403473	2447.480192
897.711425	2555.865000
898.019336	2480.247692
898.327207	2500.412308
898.635038	2470.165385
898.942827	2528.138654
899.250576	2538.220962
899.558284	2439.918462
899.865952	2444.959615
900.173579	2490.330000
900.481165	2548.303269
900.788711	2573.509038
901.096216	2540.741538
901.403681	2462.603654
901.711105	2520.576923
902.018489	2402.109808
902.325832	2535.700385
902.633135	2515.535769
902.940397	2480.247692
903.247619	2510.494615
903.554800	2399.589231
903.861941	2518.056346
904.169041	2482.768269
904.476101	2560.906154
904.783121	2656.688077
905.090100	2560.906154
905.397039	2533.179808
905.703938	2530.659231
906.010796	2591.153077
906.317614	2487.809423
906.624391	2525.618077
906.931129	2470.165385
907.237826	2480.247692
907.544483	2510.494615
907.851099	2507.974038
908.157675	2513.015192
908.464211	2505.453462
908.770707	2485.288846
909.077163	2480.247692
909.383578	2502.932885
909.689954	2394.548077
909.996289	2502.932885
910.302584	2573.509038
910.608839	2460.083077
910.915054	2555.865000
911.221229	2477.727115
911.527363	2444.959615
911.833458	2495.371154
912.139513	2495.371154
912.445527	2462.603654
912.751502	2528.138654
913.057436	2492.850577
913.363331	2462.603654
913.669186	2497.891731
913.975000	2530.659231
914.280775	2482.768269
914.586510	2570.988462
914.892205	2545.782692
915.197859	2533.179808
915.503475	2465.124231
915.809050	2535.700385
916.114585	2490.330000
916.420081	2507.974038
916.725536	2485.288846
917.030952	2477.727115
917.336328	2502.932885
917.641665	2530.659231
917.946961	2442.439038
918.252218	2593.673654
918.557435	2407.150962
918.862612	2444.959615
919.167750	2439.918462
919.472848	2495.371154
919.777906	2490.330000
920.082925	2487.809423
920.387904	2467.644808
920.692843	2555.865000
920.997743	2457.562500
921.302603	2500.412308
921.607423	2482.768269
921.912204	2507.974038
922.216946	2462.603654
922.521647	2548.303269
922.826310	2465.124231
923.130932	2596.194231
923.435516	2427.315577
923.740059	2480.247692
924.044564	2442.439038
924.349028	2513.015192
924.653454	2442.439038
924.957840	2568.467885
925.262186	2500.412308
925.566493	2480.247692
925.870761	2545.782692
926.174989	2505.453462
926.479178	2533.179808
926.783328	2540.741538
927.087438	2505.453462
927.391509	2432.356731
927.695541	2507.974038
927.999533	2480.247692
928.303486	2510.494615
928.607400	2467.644808
928.911275	2495.371154
929.215110	2482.768269
929.518906	2495.371154
929.822663	2520.576923
930.126381	2548.303269
930.430060	2442.439038
930.733699	2500.412308
931.037299	2482.768269
931.340861	2485.288846
931.644383	2452.521346
931.947866	2535.700385
932.251309	2525.618077
932.554714	2525.618077
932.858080	2462.603654
933.161407	2555.865000
933.464694	2422.274423
933.767943	2487.809423
934.071153	2467.644808
934.374323	2520.576923
934.677455	2361.780577
934.980548	2485.288846
935.283602	2538.220962
935.586617	2513.015192
935.889593	2485.288846
936.192530	2434.877308
936.495428	2472.685962
936.798287	2553.344423
937.101108	2419.753846
937.403890	2528.138654
937.706632	2502.932885
938.009336	2470.165385
938.312002	2495.371154
938.614628	2439.918462
938.917216	2497.891731
939.219765	2520.576923
939.522275	2470.165385
939.824747	2518.056346
940.127179	2480.247692
940.429573	2422.274423
940.731929	2434.877308
941.034246	2434.877308
941.336524	2573.509038
941.638763	2444.959615
941.940964	2520.576923
942.243126	2487.809423
942.545250	2538.220962
942.847335	2515.535769
943.149381	2386.986346
943.451389	2500.412308
943.753359	2462.603654
944.055290	2452.521346
944.357182	2457.562500
944.659036	2568.467885
944.960851	2555.865000
945.262628	2515.535769
945.564367	2570.988462
945.866067	2502.932885
946.167729	2457.562500
946.469352	2578.550192
946.770937	2558.385577
947.072484	2455.041923
947.373992	2525.618077
947.675462	2502.932885
947.976893	2477.727115
948.278286	2497.891731
948.579641	2482.768269
948.880958	2573.509038
949.182236	2414.712692
949.483476	2412.192115
949.784678	2507.974038
950.085841	2520.576923
950.386967	2510.494615
950.688054	2492.850577
950.989103	2490.330000
951.290114	2482.768269
951.591087	2500.412308
951.892021	2525.618077
952.192917	2550.823846
952.493776	2510.494615
952.794596	2424.795000
953.095378	2510.494615
953.396122	2472.685962
953.696828	2535.700385
953.997496	2525.618077
954.298126	2462.603654
954.598718	2455.041923
954.899272	2485.288846
955.199788	2467.644808
955.500266	2482.768269
955.800706	2455.041923
956.101108	2507.974038
956.401472	2422.274423
956.701798	2472.685962
957.002087	2475.206538
957.302337	2583.591346
957.602550	2538.220962
957.902724	2485.288846
958.202861	2444.959615
958.502960	2422.274423
958.803022	2485.288846
959.103045	2417.233269
959.403031	2608.797115
959.702979	2528.138654
960.002889	2515.535769
960.302762	2407.150962
960.602596	2502.932885
960.902393	2477.727115
961.202153	2467.644808
961.501875	2497.891731
961.801559	2533.179808
962.101205	2399.589231
962.400814	2558.385577
962.700385	2497.891731
962.999918	2528.138654
963.299414	2470.165385
963.598873	2535.700385
963.898293	2548.303269
964.197677	2523.097500
964.497022	2518.056346
964.796331	2429.836154
965.095601	2523.097500
965.394835	2467.644808
965.694030	2475.206538
965.993189	2523.097500
966.292309	2505.453462
966.591393	2485.288846
966.890439	2558.385577
967.189447	2482.768269
967.488419	2475.206538
967.787353	2558.385577
968.086249	2432.356731
968.385108	2392.027500
968.683930	2450.000769
968.982714	2528.138654
969.281462	2492.850577
969.580172	2560.906154
969.878844	2510.494615
970.177480	2444.959615
970.476078	2558.385577
970.774639	2465.124231
971.073162	2576.029615
971.371649	2510.494615
971.670098	2427.315577
971.968510	2528.138654
972.266885	2452.521346
972.565223	2487.809423
972.863524	2465.124231
973.161788	2467.644808
973.460014	2381.945192
973.758204	2560.906154
974.056356	2487.809423
974.354471	2548.303269
974.652550	2538.220962
974.950591	2399.589231
975.248595	2500.412308
975.546563	2472.685962
975.844493	2548.303269
976.142386	2487.809423
976.440243	2480.247692
976.738062	2510.494615
977.035845	2500.412308
977.333590	2492.850577
977.631299	2538.220962
977.928971	2530.659231
978.226606	2424.795000
978.524204	2525.618077
978.821765	2525.618077
979.119290	2447.480192
979.416777	2505.453462
979.714228	2482.768269
980.011642	2563.426731
980.309020	2432.356731
980.606360	2558.385577
980.903664	2422.274423
981.200931	2510.494615
981.498162	2570.988462
981.795356	2560.906154
982.092513	2472.685962
982.389633	2480.247692
982.686717	2560.906154
982.983764	2444.959615
983.280775	2550.823846
983.577749	2570.988462
983.874686	2485.288846
984.171587	2439.918462
984.468451	2457.562500
984.765279	2470.165385
985.062070	2495.371154
985.358824	2472.685962
985.655543	2475.206538
985.952224	2427.315577
986.248869	2510.494615
986.545478	2553.344423
986.842050	2409.671538
987.138586	2533.179808
987.435086	2477.727115
987.731549	2525.618077
988.027975	2470.165385
988.324366	2535.700385
988.620719	2515.535769
988.917037	2477.727115
989.213318	2457.562500
989.509563	2510.494615
989.805772	2487.809423
990.101944	2497.891731
990.398080	2437.397885
990.694180	2497.891731
990.990244	2470.165385
991.286271	2482.768269
991.582262	2513.015192
991.878217	2523.097500
992.174136	2502.932885
992.470019	2485.288846
992.765865	2475.206538
993.061676	2480.247692
993.357450	2460.083077
993.653188	2465.124231
993.948890	2442.439038
994.244556	2502.932885
994.540186	2505.453462
994.835780	2535.700385
995.131337	2518.056346
995.426859	2429.836154
995.722345	2515.535769
996.017795	2452.521346
996.313208	2507.974038
996.608586	2467.644808
996.903928	2510.494615
997.199234	2427.315577
997.494504	2470.165385
997.789738	2523.097500
998.084936	2523.097500
998.380099	2535.700385
998.675225	2437.397885
998.970316	2520.576923
999.265371	2540.741538
999.560390	2576.029615
999.855373	2523.097500
1000.150320	2477.727115
1000.445232	2535.700385
1000.740108	2434.877308
1001.034948	2497.891731
1001.329752	2530.659231
1001.624521	2533.179808
1001.919254	2392.027500
1002.213951	2528.138654
1002.508613	2422.274423
1002.803239	2530.659231
1003.097829	2455.041923
1003.392384	2455.041923
1003.686903	2538.220962
1003.981386	2520.576923
1004.275834	2545.782692
1004.570246	2432.356731
1004.864623	2523.097500
1005.158964	2523.097500
1005.453270	2455.041923
1005.747540	2482.768269
1006.041775	2515.535769
1006.335974	2545.782692
1006.630138	2510.494615
1006.924266	2548.303269
1007.218359	2439.918462
1007.512416	2507.974038
1007.806438	2492.850577
1008.100425	2520.576923
1008.394376	2593.673654
1008.688292	2439.918462
1008.982172	2447.480192
1009.276017	2515.535769
1009.569827	2455.041923
1009.863602	2520.576923
1010.157341	2460.083077
1010.451045	2482.768269
1010.744714	2528.138654
1011.038347	2462.603654
1011.331945	2555.865000
1011.625508	2520.576923
1011.919036	2490.330000
1012.212528	2558.385577
1012.505986	2439.918462
1012.799408	2518.056346
1013.092795	2455.041923
1013.386147	2394.548077
1013.679464	2492.850577
1013.972745	2439.918462
1014.265992	2472.685962
1014.559204	2457.562500
1014.852380	2492.850577
1015.145521	2465.124231
1015.438628	2560.906154
1015.731699	2480.247692
1016.024736	2533.179808
1016.317737	2470.165385
1016.610703	2422.274423
1016.903635	2510.494615
1017.196531	2500.412308
1017.489393	2424.795000
1017.782219	2550.823846
1018.075011	2500.412308
1018.367768	2555.865000
1018.660490	2485.288846
1018.953177	2485.288846
1019.245829	2485.288846
