Dividing Wavelength (nm)	Counts (n)	Blue Motor Position (mm): 0.000000	Red Motor Position (mm): 5.900000	
326.493990	2170.216731
326.888308	2170.216731
327.282561	2170.216731
327.676750	2094.599423
328.070874	2066.873077
328.464933	2026.543846
328.858929	2094.599423
329.252859	2094.599423
329.646726	2134.928654
330.040528	2066.873077
330.434265	2122.325769
330.827938	2134.928654
331.221547	2185.340192
331.615091	2200.463654
332.008571	2243.313462
332.401986	2165.175577
332.795338	2170.216731
333.188625	2185.340192
333.581847	2208.025385
333.975006	2351.698269
334.368100	2265.998654
334.761129	2414.712692
335.154095	2316.410192
335.546996	2354.218846
335.939833	2359.260000
336.332606	2341.615962
336.725315	2281.122115
337.117960	2422.274423
337.510540	2356.739423
337.903056	2339.095385
338.295508	2399.589231
338.687896	2429.836154
339.080220	2455.041923
339.472480	2457.562500
339.864676	2429.836154
340.256807	2500.412308
340.648875	2505.453462
341.040879	2518.056346
341.432818	2457.562500
341.824694	2495.371154
342.216506	2470.165385
342.608253	2417.233269
342.999937	2558.385577
343.391557	2533.179808
343.783113	2442.439038
344.174605	2424.795000
344.566033	2402.109808
344.957397	2392.027500
345.348697	2470.165385
345.739934	2444.959615
346.131106	2563.426731
346.522215	2485.288846
346.913260	2495.371154
347.304241	2429.836154
347.695159	2462.603654
348.086012	2520.576923
348.476802	2397.068654
348.867528	2442.439038
349.258191	2475.206538
349.648789	2389.506923
350.039324	2460.083077
350.429796	2467.644808
350.820203	2490.330000
351.210548	2457.562500
351.600828	2465.124231
351.991045	2404.630385
352.381198	2502.932885
352.771288	2354.218846
353.161314	2407.150962
353.551276	2437.397885
353.941175	2381.945192
354.331010	2399.589231
354.720782	2497.891731
355.110490	2402.109808
355.500135	2437.397885
355.889717	2465.124231
356.279235	2379.424615
356.668689	2482.768269
357.058080	2419.753846
357.447408	2407.150962
357.836672	2452.521346
358.225873	2460.083077
358.615010	2434.877308
359.004084	2475.206538
359.393095	2386.986346
359.782043	2460.083077
360.170927	2424.795000
360.559748	2381.945192
360.948505	2361.780577
361.337199	2467.644808
361.725830	2545.782692
362.114398	2462.603654
362.502903	2409.671538
362.891344	2379.424615
363.279722	2407.150962
363.668037	2467.644808
364.056289	2419.753846
364.444478	2465.124231
364.832603	2444.959615
365.220665	2392.027500
365.608665	2543.262115
365.996601	2389.506923
366.384474	2487.809423
366.772284	2417.233269
367.160031	2505.453462
367.547715	2429.836154
367.935336	2419.753846
368.322893	2533.179808
368.710388	2407.150962
369.097820	2442.439038
369.485189	2434.877308
369.872495	2455.041923
370.259738	2409.671538
370.646918	2417.233269
371.034035	2419.753846
371.421090	2472.685962
371.808081	2523.097500
372.195010	2399.589231
372.581875	2487.809423
372.968678	2455.041923
373.355418	2404.630385
373.742096	2505.453462
374.128710	2480.247692
374.515262	2452.521346
374.901751	2482.768269
375.288177	2563.426731
375.674540	2412.192115
376.060841	2500.412308
376.447079	2470.165385
376.833254	2419.753846
377.219367	2399.589231
377.605417	2545.782692
377.991404	2480.247692
378.377329	2495.371154
378.763191	2455.041923
379.148991	2394.548077
379.534727	2361.780577
379.920402	2525.618077
380.306013	2513.015192
380.691563	2477.727115
381.077049	2502.932885
381.462474	2379.424615
381.847835	2513.015192
382.233134	2465.124231
382.618371	2472.685962
383.003545	2399.589231
383.388657	2429.836154
383.773706	2515.535769
384.158693	2477.727115
384.543618	2475.206538
384.928480	2414.712692
385.313280	2495.371154
385.698017	2467.644808
386.082692	2492.850577
386.467305	2467.644808
386.851856	2502.932885
387.236344	2386.986346
387.620770	2482.768269
388.005133	2500.412308
388.389435	2417.233269
388.773674	2470.165385
389.157851	2432.356731
389.541965	2389.506923
389.926018	2455.041923
390.310008	2452.521346
390.693936	2490.330000
391.077802	2475.206538
391.461606	2414.712692
391.845348	2523.097500
392.229027	2460.083077
392.612645	2429.836154
392.996200	2432.356731
393.379694	2507.974038
393.763125	2475.206538
394.146494	2424.795000
394.529801	2450.000769
394.913047	2424.795000
395.296230	2492.850577
395.679351	2442.439038
396.062410	2502.932885
396.445408	2404.630385
396.828343	2497.891731
397.211217	2444.959615
397.594028	2565.947308
397.976778	2429.836154
398.359466	2472.685962
398.742092	2427.315577
399.124656	2346.657115
399.507158	2487.809423
399.889598	2510.494615
400.271977	2545.782692
400.654294	2462.603654
401.036549	2543.262115
401.418742	2417.233269
401.800874	2550.823846
402.182944	2422.274423
402.564952	2530.659231
402.946898	2439.918462
403.328783	2457.562500
403.710606	2500.412308
404.092367	2444.959615
404.474067	2439.918462
404.855705	2490.330000
405.237282	2482.768269
405.618797	2510.494615
406.000250	2397.068654
406.381642	2510.494615
406.762972	2510.494615
407.144240	2555.865000
407.525447	2419.753846
407.906593	2482.768269
408.287677	2429.836154
408.668700	2636.523462
409.049661	2472.685962
409.430560	2465.124231
409.811399	2404.630385
410.192176	2414.712692
410.572891	2386.986346
410.953545	2470.165385
411.334138	2497.891731
411.714669	2452.521346
412.095139	2447.480192
412.475547	2492.850577
412.855894	2450.000769
413.236180	2518.056346
413.616405	2419.753846
413.996568	2497.891731
414.376670	2450.000769
414.756711	2424.795000
415.136691	2457.562500
415.516609	2505.453462
415.896466	2487.809423
416.276262	2434.877308
416.655997	2482.768269
417.035670	2442.439038
417.415283	2497.891731
417.794834	2482.768269
418.174324	2467.644808
418.553753	2500.412308
418.933121	2495.371154
419.312428	2462.603654
419.691674	2465.124231
420.070859	2523.097500
420.449983	2399.589231
420.829045	2502.932885
421.208047	2535.700385
421.586988	2407.150962
421.965867	2505.453462
422.344686	2490.330000
422.723444	2460.083077
423.102141	2472.685962
423.480777	2417.233269
423.859352	2502.932885
424.237866	2455.041923
424.616319	2414.712692
424.994712	2480.247692
425.373044	2523.097500
425.751314	2444.959615
426.129524	2447.480192
426.507673	2432.356731
426.885762	2439.918462
427.263789	2429.836154
427.641756	2523.097500
428.019662	2563.426731
428.397508	2460.083077
428.775292	2525.618077
429.153016	2510.494615
429.530679	2409.671538
429.908282	2530.659231
430.285824	2520.576923
430.663305	2553.344423
431.040726	2510.494615
431.418086	2520.576923
431.795385	2490.330000
432.172624	2505.453462
432.549802	2480.247692
432.926920	2515.535769
433.303977	2535.700385
433.680974	2540.741538
434.057910	2417.233269
434.434786	2530.659231
434.811601	2548.303269
435.188355	2432.356731
435.565050	2460.083077
435.941683	2548.303269
436.318257	2444.959615
436.694770	2477.727115
437.071222	2510.494615
437.447614	2414.712692
437.823946	2507.974038
438.200218	2583.591346
438.576429	2427.315577
438.952580	2525.618077
439.328670	2437.397885
439.704700	2467.644808
440.080670	2565.947308
440.456580	2492.850577
440.832429	2376.904038
441.208218	2482.768269
441.583947	2457.562500
441.959616	2477.727115
442.335224	2384.465769
442.710773	2502.932885
443.086261	2419.753846
443.461689	2371.862885
443.837057	2548.303269
444.212365	2558.385577
444.587612	2460.083077
444.962800	2570.988462
445.337927	2419.753846
445.712995	2487.809423
446.088002	2477.727115
446.462949	2535.700385
446.837837	2515.535769
447.212664	2505.453462
447.587431	2492.850577
447.962139	2467.644808
448.336786	2538.220962
448.711374	2573.509038
449.085901	2457.562500
449.460369	2470.165385
449.834776	2543.262115
450.209124	2487.809423
450.583412	2510.494615
450.957640	2523.097500
451.331808	2510.494615
451.705917	2460.083077
452.079965	2543.262115
452.453954	2550.823846
452.827883	2465.124231
453.201752	2520.576923
453.575562	2490.330000
453.949311	2470.165385
454.323001	2419.753846
454.696632	2533.179808
455.070202	2465.124231
455.443713	2434.877308
455.817164	2429.836154
456.190556	2444.959615
456.563888	2495.371154
456.937160	2467.644808
457.310373	2437.397885
457.683526	2520.576923
458.056619	2538.220962
458.429653	2417.233269
458.802628	2447.480192
459.175542	2497.891731
459.548398	2470.165385
459.921194	2386.986346
460.293930	2518.056346
460.666607	2457.562500
461.039224	2392.027500
461.411782	2394.548077
461.784280	2528.138654
462.156719	2513.015192
462.529099	2548.303269
462.901419	2475.206538
463.273680	2563.426731
463.645882	2513.015192
464.018024	2485.288846
464.390106	2467.644808
464.762130	2467.644808
465.134094	2460.083077
465.505999	2495.371154
465.877845	2533.179808
466.249631	2457.562500
466.621358	2538.220962
466.993026	2439.918462
467.364634	2558.385577
467.736184	2570.988462
468.107674	2437.397885
468.479105	2507.974038
468.850477	2530.659231
469.221790	2583.591346
469.593043	2455.041923
469.964238	2457.562500
470.335373	2538.220962
470.706449	2525.618077
471.077467	2495.371154
471.448425	2477.727115
471.819324	2553.344423
472.190164	2457.562500
472.560945	2482.768269
472.931667	2553.344423
473.302330	2472.685962
473.672934	2444.959615
474.043479	2523.097500
474.413965	2480.247692
474.784393	2606.276538
475.154761	2535.700385
475.525070	2528.138654
475.895321	2460.083077
476.265513	2439.918462
476.635645	2477.727115
477.005719	2518.056346
477.375734	2482.768269
477.745691	2636.523462
478.115588	2560.906154
478.485427	2523.097500
478.855207	2487.809423
479.224928	2535.700385
479.594591	2437.397885
479.964194	2500.412308
480.333739	2485.288846
480.703226	2482.768269
481.072653	2467.644808
481.442022	2462.603654
481.811333	2500.412308
482.180584	2447.480192
482.549777	2535.700385
482.918912	2477.727115
483.287988	2560.906154
483.657005	2490.330000
484.025964	2462.603654
484.394864	2472.685962
484.763706	2477.727115
485.132489	2520.576923
485.501213	2475.206538
485.869879	2465.124231
486.238487	2560.906154
486.607036	2437.397885
486.975527	2535.700385
487.343959	2462.603654
487.712333	2553.344423
488.080648	2460.083077
488.448905	2558.385577
488.817104	2553.344423
489.185244	2429.836154
489.553326	2439.918462
489.921350	2505.453462
490.289315	2386.986346
490.657222	2470.165385
491.025070	2450.000769
491.392861	2500.412308
491.760593	2482.768269
492.128267	2482.768269
492.495883	2525.618077
492.863440	2480.247692
493.230939	2465.124231
493.598380	2429.836154
493.965763	2545.782692
494.333088	2618.879423
494.700354	2505.453462
495.067563	2427.315577
495.434713	2475.206538
495.801805	2452.521346
496.168839	2482.768269
496.535815	2583.591346
496.902733	2518.056346
497.269593	2518.056346
497.636395	2490.330000
498.003139	2500.412308
498.369825	2550.823846
498.736453	2437.397885
499.103023	2482.768269
499.469535	2560.906154
499.835989	2495.371154
500.202385	2455.041923
500.568723	2462.603654
500.935003	2495.371154
501.301226	2560.906154
501.667390	2442.439038
502.033497	2432.356731
502.399546	2394.548077
502.765537	2502.932885
503.131470	2424.795000
503.497345	2465.124231
503.863163	2409.671538
504.228923	2513.015192
504.594625	2500.412308
504.960269	2482.768269
505.325856	2422.274423
505.691385	2555.865000
506.056856	2460.083077
506.422270	2470.165385
506.787625	2470.165385
507.152924	2495.371154
507.518164	2528.138654
507.883347	2515.535769
508.248472	2520.576923
508.613540	2444.959615
508.978550	2538.220962
509.343503	2472.685962
509.708398	2538.220962
510.073236	2530.659231
510.438016	2492.850577
510.802738	2518.056346
511.167403	2419.753846
511.532010	2538.220962
511.896561	2565.947308
512.261053	2439.918462
512.625488	2513.015192
512.989866	2465.124231
513.354186	2507.974038
513.718449	2513.015192
514.082655	2535.700385
514.446803	2414.712692
514.810894	2472.685962
515.174927	2482.768269
515.538904	2409.671538
515.902822	2502.932885
516.266684	2482.768269
516.630488	2475.206538
516.994235	2485.288846
517.357925	2576.029615
517.721558	2414.712692
518.085133	2379.424615
518.448651	2578.550192
518.812112	2528.138654
519.175516	2477.727115
519.538863	2482.768269
519.902152	2535.700385
520.265385	2528.138654
520.628560	2472.685962
520.991678	2487.809423
521.354739	2429.836154
521.717743	2518.056346
522.080690	2467.644808
522.443580	2495.371154
522.806413	2578.550192
523.169189	2450.000769
523.531908	2492.850577
523.894569	2487.809423
524.257174	2427.315577
524.619722	2553.344423
524.982213	2439.918462
525.344647	2450.000769
525.707025	2497.891731
526.069345	2442.439038
526.431608	2434.877308
526.793815	2515.535769
527.155964	2450.000769
527.518057	2513.015192
527.880093	2465.124231
528.242072	2507.974038
528.603995	2518.056346
528.965860	2475.206538
529.327669	2500.412308
529.689421	2381.945192
530.051117	2518.056346
530.412755	2553.344423
530.774337	2437.397885
531.135862	2480.247692
531.497331	2540.741538
531.858743	2507.974038
532.220098	2419.753846
532.581396	2497.891731
532.942638	2581.070769
533.303824	2560.906154
533.664953	2513.015192
534.026025	2515.535769
534.387040	2502.932885
534.747999	2535.700385
535.108902	2455.041923
535.469748	2540.741538
535.830537	2518.056346
536.191270	2480.247692
536.551947	2452.521346
536.912567	2507.974038
537.273131	2470.165385
537.633638	2523.097500
537.994089	2475.206538
538.354483	2515.535769
538.714821	2623.920577
539.075103	2480.247692
539.435328	2576.029615
539.795497	2538.220962
540.155609	2497.891731
540.515665	2379.424615
540.875665	2540.741538
541.235609	2477.727115
541.595496	2482.768269
541.955328	2593.673654
542.315102	2414.712692
542.674821	2500.412308
543.034483	2487.809423
543.394090	2465.124231
543.753640	2555.865000
544.113134	2492.850577
544.472571	2434.877308
544.831953	2467.644808
545.191278	2497.891731
545.550548	2507.974038
545.909761	2565.947308
546.268918	2482.768269
546.628019	2427.315577
546.987064	2513.015192
547.346053	2518.056346
547.704986	2502.932885
548.063863	2470.165385
548.422684	2492.850577
548.781449	2520.576923
549.140158	2467.644808
549.498811	2505.453462
549.857408	2485.288846
550.215949	2535.700385
550.574434	2535.700385
550.932864	2513.015192
551.291237	2427.315577
551.649555	2523.097500
552.007817	2452.521346
552.366022	2548.303269
552.724173	2565.947308
553.082267	2462.603654
553.440305	2475.206538
553.798288	2485.288846
554.156215	2472.685962
554.514086	2467.644808
554.871902	2510.494615
555.229661	2613.838269
555.587365	2422.274423
555.945014	2525.618077
556.302606	2502.932885
556.660143	2485.288846
557.017625	2570.988462
557.375050	2480.247692
557.732421	2553.344423
558.089735	2505.453462
558.446994	2518.056346
558.804197	2470.165385
559.161345	2545.782692
559.518437	2500.412308
559.875474	2578.550192
560.232455	2507.974038
560.589381	2570.988462
560.946251	2528.138654
561.303065	2525.618077
561.659825	2548.303269
562.016528	2427.315577
562.373177	2525.618077
562.729770	2472.685962
563.086307	2477.727115
563.442789	2543.262115
563.799216	2452.521346
564.155587	2457.562500
564.511904	2490.330000
564.868164	2492.850577
565.224370	2565.947308
565.580520	2530.659231
565.936615	2492.850577
566.292654	2439.918462
566.648638	2525.618077
567.004567	2548.303269
567.360441	2490.330000
567.716260	2429.836154
568.072023	2555.865000
568.427732	2467.644808
568.783385	2518.056346
569.138982	2505.453462
569.494525	2480.247692
569.850013	2558.385577
570.205445	2618.879423
570.560823	2492.850577
570.916145	2518.056346
571.271412	2530.659231
571.626625	2518.056346
571.981782	2447.480192
572.336884	2545.782692
572.691931	2437.397885
573.046923	2515.535769
573.401860	2538.220962
573.756743	2487.809423
574.111570	2523.097500
574.466342	2482.768269
574.821059	2563.426731
575.175722	2437.397885
575.530330	2502.932885
575.884882	2505.453462
576.239380	2520.576923
576.593823	2540.741538
576.948211	2447.480192
577.302544	2570.988462
577.656823	2538.220962
578.011047	2465.124231
578.365216	2525.618077
578.719330	2588.632500
579.073389	2601.235385
579.427394	2482.768269
579.781344	2518.056346
580.135239	2452.521346
580.489080	2528.138654
580.842866	2545.782692
581.196597	2465.124231
581.550273	2548.303269
581.903895	2480.247692
582.257463	2442.439038
582.610975	2513.015192
582.964434	2492.850577
583.317837	2518.056346
583.671186	2510.494615
584.024481	2560.906154
584.377721	2495.371154
584.730906	2525.618077
585.084037	2507.974038
585.437113	2510.494615
585.790135	2495.371154
586.143103	2482.768269
586.496016	2427.315577
586.848874	2533.179808
587.201679	2439.918462
587.554428	2518.056346
587.907124	2455.041923
588.259765	2553.344423
588.612352	2394.548077
588.964884	2470.165385
589.317362	2518.056346
589.669786	2432.356731
590.022155	2510.494615
590.374470	2381.945192
590.726731	2495.371154
591.078937	2502.932885
591.431090	2505.453462
591.783188	2545.782692
592.135232	2455.041923
592.487222	2573.509038
592.839157	2450.000769
593.191038	2543.262115
593.542866	2437.397885
593.894639	2533.179808
594.246358	2429.836154
594.598022	2419.753846
594.949633	2475.206538
595.301190	2507.974038
595.652692	2450.000769
596.004141	2535.700385
596.355535	2505.453462
596.706876	2553.344423
597.058162	2513.015192
597.409395	2490.330000
597.760573	2548.303269
598.111698	2543.262115
598.462768	2470.165385
598.813785	2515.535769
599.164748	2540.741538
599.515657	2598.714808
599.866511	2450.000769
600.217312	2490.330000
600.568060	2563.426731
600.918753	2550.823846
601.269392	2452.521346
601.619978	2515.535769
601.970510	2475.206538
602.320988	2550.823846
602.671412	2530.659231
603.021783	2419.753846
603.372100	2528.138654
603.722363	2447.480192
604.072572	2485.288846
604.422728	2455.041923
604.772830	2480.247692
605.122878	2452.521346
605.472872	2482.768269
605.822813	2487.809423
606.172701	2507.974038
606.522534	2465.124231
606.872314	2424.795000
607.222041	2540.741538
607.571714	2482.768269
607.921333	2528.138654
608.270899	2523.097500
608.620411	2477.727115
608.969870	2545.782692
609.319276	2570.988462
609.668627	2482.768269
610.017926	2565.947308
610.367171	2452.521346
610.716362	2492.850577
611.065500	2450.000769
611.414585	2510.494615
611.763616	2523.097500
612.112594	2565.947308
612.461518	2439.918462
612.810389	2480.247692
613.159207	2530.659231
613.507971	2560.906154
613.856682	2462.603654
614.205340	2500.412308
614.553945	2455.041923
614.902496	2480.247692
615.250994	2450.000769
615.599439	2495.371154
615.947830	2455.041923
616.296169	2513.015192
616.644454	2475.206538
616.992686	2465.124231
617.340864	2482.768269
617.688990	2548.303269
618.037063	2455.041923
618.385082	2528.138654
618.733048	2482.768269
619.080961	2525.618077
619.428821	2447.480192
619.776628	2492.850577
620.124382	2457.562500
620.472083	2424.795000
620.819731	2492.850577
621.167326	2518.056346
621.514868	2495.371154
621.862357	2548.303269
622.209793	2603.755962
622.557176	2475.206538
622.904506	2497.891731
623.251783	2497.891731
623.599007	2513.015192
623.946179	2485.288846
624.293297	2487.809423
624.640363	2518.056346
624.987376	2457.562500
625.334336	2485.288846
625.681243	2548.303269
626.028097	2513.015192
626.374899	2492.850577
626.721647	2427.315577
627.068343	2417.233269
627.414987	2437.397885
627.761577	2465.124231
628.108115	2525.618077
628.454600	2467.644808
628.801032	2518.056346
629.147412	2447.480192
629.493739	2543.262115
629.840014	2553.344423
630.186236	2457.562500
630.532405	2497.891731
630.878521	2452.521346
631.224585	2490.330000
631.570597	2515.535769
631.916556	2447.480192
632.262462	2523.097500
632.608316	2495.371154
632.954117	2485.288846
633.299866	2548.303269
633.645562	2492.850577
633.991206	2550.823846
634.336797	2558.385577
634.682336	2402.109808
635.027823	2452.521346
635.373257	2555.865000
635.718639	2434.877308
636.063968	2568.467885
636.409245	2515.535769
636.754470	2515.535769
637.099642	2492.850577
637.444762	2523.097500
637.789829	2497.891731
638.134845	2583.591346
638.479808	2487.809423
638.824719	2560.906154
639.169577	2455.041923
639.514383	2502.932885
639.859137	2545.782692
640.203839	2497.891731
640.548489	2555.865000
640.893086	2432.356731
641.237632	2530.659231
641.582125	2523.097500
641.926566	2386.986346
642.270955	2507.974038
642.615292	2596.194231
642.959576	2455.041923
643.303809	2500.412308
643.647990	2472.685962
643.992118	2497.891731
644.336195	2467.644808
644.680219	2523.097500
645.024192	2550.823846
645.368112	2434.877308
645.711981	2548.303269
646.055797	2553.344423
646.399562	2450.000769
646.743274	2470.165385
647.086935	2482.768269
647.430544	2502.932885
647.774101	2555.865000
648.117606	2480.247692
648.461059	2429.836154
648.804460	2439.918462
649.147810	2550.823846
649.491108	2492.850577
649.834354	2450.000769
650.177548	2460.083077
650.520690	2515.535769
650.863781	2490.330000
651.206820	2550.823846
651.549807	2475.206538
651.892742	2439.918462
652.235626	2497.891731
652.578458	2470.165385
652.921238	2495.371154
653.263967	2502.932885
653.606644	2465.124231
653.949269	2472.685962
654.291843	2490.330000
654.634365	2548.303269
654.976836	2485.288846
655.319255	2523.097500
655.661622	2434.877308
656.003938	2586.111923
656.346203	2603.755962
656.688416	2518.056346
657.030577	2505.453462
657.372687	2568.467885
657.714746	2447.480192
658.056753	2460.083077
658.398708	2538.220962
658.740612	2437.397885
659.082465	2507.974038
659.424266	2487.809423
659.766016	2560.906154
660.107715	2573.509038
660.449362	2543.262115
660.790958	2462.603654
661.132503	2422.274423
661.473996	2530.659231
661.815438	2545.782692
662.156829	2434.877308
662.498168	2500.412308
662.839456	2465.124231
663.180693	2444.959615
663.521879	2568.467885
663.863013	2518.056346
664.204097	2525.618077
664.545129	2578.550192
664.886110	2482.768269
665.227040	2497.891731
665.567918	2543.262115
665.908746	2497.891731
666.249522	2518.056346
666.590248	2560.906154
666.930922	2558.385577
667.271545	2560.906154
667.612118	2513.015192
667.952639	2523.097500
668.293109	2475.206538
668.633528	2447.480192
668.973896	2555.865000
669.314213	2460.083077
669.654480	2490.330000
669.994695	2487.809423
670.334859	2397.068654
670.674973	2427.315577
671.015035	2510.494615
671.355047	2545.782692
671.695008	2407.150962
672.034918	2558.385577
672.374777	2482.768269
672.714585	2505.453462
673.054342	2402.109808
673.394049	2523.097500
673.733705	2477.727115
674.073310	2606.276538
674.412864	2427.315577
674.752368	2500.412308
675.091820	2495.371154
675.431223	2492.850577
675.770574	2422.274423
676.109875	2442.439038
676.449125	2500.412308
676.788324	2452.521346
677.127473	2429.836154
677.466571	2495.371154
677.805619	2540.741538
678.144616	2550.823846
678.483562	2450.000769
678.822458	2555.865000
679.161303	2507.974038
679.500098	2560.906154
679.838842	2439.918462
680.177535	2313.889615
680.516179	2412.192115
680.854771	2487.809423
681.193314	2576.029615
681.531805	2540.741538
681.870247	2502.932885
682.208638	2621.400000
682.546978	2578.550192
682.885268	2502.932885
683.223508	2465.124231
683.561697	2490.330000
683.899836	2485.288846
684.237925	2407.150962
684.575963	2495.371154
684.913951	2553.344423
685.251889	2596.194231
685.589776	2487.809423
685.927614	2533.179808
686.265401	2482.768269
686.603137	2500.412308
686.940824	2497.891731
687.278460	2472.685962
687.616046	2475.206538
687.953582	2505.453462
688.291068	2460.083077
688.628504	2518.056346
688.965889	2485.288846
689.303224	2482.768269
689.640510	2462.603654
689.977745	2510.494615
690.314930	2568.467885
690.652065	2422.274423
690.989150	2530.659231
691.326185	2570.988462
691.663170	2475.206538
692.000105	2462.603654
692.336990	2379.424615
692.673825	2525.618077
693.010610	2515.535769
693.347345	2497.891731
693.684030	2601.235385
694.020665	2450.000769
694.357251	2482.768269
694.693786	2538.220962
695.030272	2513.015192
695.366707	2545.782692
695.703093	2505.453462
696.039429	2555.865000
696.375716	2467.644808
696.711952	2495.371154
697.048139	2492.850577
697.384276	2492.850577
697.720363	2513.015192
698.056400	2437.397885
698.392388	2437.397885
698.728326	2510.494615
699.064214	2460.083077
699.400053	2505.453462
699.735842	2497.891731
700.071581	2477.727115
700.407270	2530.659231
700.742910	2510.494615
701.078501	2553.344423
701.414042	2472.685962
701.749533	2482.768269
702.084974	2450.000769
702.420366	2535.700385
702.755709	2530.659231
703.091002	2475.206538
703.426246	2540.741538
703.761440	2525.618077
704.096584	2447.480192
704.431679	2540.741538
704.766725	2472.685962
705.101721	2510.494615
705.436668	2533.179808
705.771565	2533.179808
706.106413	2515.535769
706.441212	2510.494615
706.775961	2515.535769
707.110661	2480.247692
707.445311	2530.659231
707.779913	2513.015192
708.114465	2450.000769
708.448967	2513.015192
708.783421	2424.795000
709.117825	2485.288846
709.452180	2485.288846
709.786485	2550.823846
710.120742	2475.206538
710.454949	2533.179808
710.789107	2513.015192
711.123216	2563.426731
711.457275	2475.206538
711.791286	2457.562500
712.125247	2500.412308
712.459159	2581.070769
712.793023	2455.041923
713.126837	2528.138654
713.460602	2492.850577
713.794318	2515.535769
714.127985	2460.083077
714.461602	2533.179808
714.795171	2528.138654
715.128691	2470.165385
715.462162	2538.220962
715.795584	2545.782692
716.128957	2530.659231
716.462281	2583.591346
716.795556	2540.741538
717.128782	2513.015192
717.461960	2487.809423
717.795088	2570.988462
718.128167	2555.865000
718.461198	2530.659231
718.794180	2611.317692
719.127113	2533.179808
719.459997	2475.206538
719.792833	2533.179808
720.125619	2505.453462
720.458357	2530.659231
720.791046	2424.795000
721.123686	2538.220962
721.456278	2470.165385
721.788821	2487.809423
722.121315	2444.959615
722.453761	2417.233269
722.786158	2442.439038
723.118506	2465.124231
723.450805	2548.303269
723.783056	2513.015192
724.115259	2422.274423
724.447412	2515.535769
724.779518	2412.192115
725.111574	2548.303269
725.443582	2480.247692
725.775542	2500.412308
726.107453	2507.974038
726.439315	2550.823846
726.771129	2533.179808
727.102895	2495.371154
727.434612	2419.753846
727.766281	2472.685962
728.097901	2399.589231
728.429473	2525.618077
728.760996	2507.974038
729.092471	2515.535769
729.423897	2444.959615
729.755276	2480.247692
730.086606	2452.521346
730.417887	2497.891731
730.749120	2507.974038
731.080305	2538.220962
731.411442	2500.412308
731.742530	2495.371154
732.073570	2518.056346
732.404562	2563.426731
732.735506	2523.097500
733.066401	2465.124231
733.397249	2497.891731
733.728048	2518.056346
734.058798	2495.371154
734.389501	2485.288846
734.720156	2407.150962
735.050762	2538.220962
735.381320	2462.603654
735.711831	2543.262115
736.042293	2482.768269
736.372707	2492.850577
736.703073	2467.644808
737.033391	2581.070769
737.363661	2540.741538
737.693883	2565.947308
738.024056	2470.165385
738.354182	2502.932885
738.684260	2570.988462
739.014290	2485.288846
739.344272	2477.727115
739.674207	2455.041923
740.004093	2490.330000
740.333931	2495.371154
740.663722	2502.932885
740.993464	2492.850577
741.323159	2407.150962
741.652806	2414.712692
741.982405	2497.891731
742.311956	2455.041923
742.641460	2510.494615
742.970915	2513.015192
743.300323	2502.932885
743.629683	2507.974038
743.958996	2523.097500
744.288260	2535.700385
744.617477	2495.371154
744.946647	2455.041923
745.275768	2568.467885
745.604842	2424.795000
745.933869	2563.426731
746.262847	2482.768269
746.591778	2392.027500
746.920662	2533.179808
747.249498	2472.685962
747.578286	2535.700385
747.907027	2611.317692
748.235720	2525.618077
748.564365	2515.535769
748.892963	2520.576923
749.221514	2502.932885
749.550017	2515.535769
749.878473	2523.097500
750.206881	2492.850577
750.535242	2570.988462
750.863555	2510.494615
751.191821	2467.644808
751.520039	2470.165385
751.848210	2525.618077
752.176334	2429.836154
752.504411	2485.288846
752.832440	2548.303269
753.160421	2530.659231
753.488356	2523.097500
753.816243	2570.988462
754.144082	2487.809423
754.471875	2518.056346
754.799620	2520.576923
755.127318	2495.371154
755.454969	2530.659231
755.782572	2497.891731
756.110129	2457.562500
756.437638	2480.247692
756.765100	2467.644808
757.092515	2505.453462
757.419882	2487.809423
757.747203	2513.015192
758.074477	2455.041923
758.401703	2553.344423
758.728882	2497.891731
759.056014	2523.097500
759.383099	2389.506923
759.710138	2472.685962
760.037129	2455.041923
760.364073	2518.056346
760.690970	2500.412308
761.017820	2560.906154
761.344623	2480.247692
761.671379	2452.521346
761.998088	2477.727115
762.324751	2576.029615
762.651366	2520.576923
762.977935	2540.741538
763.304456	2404.630385
763.630931	2528.138654
763.957359	2437.397885
764.283740	2485.288846
764.610074	2460.083077
764.936362	2502.932885
765.262602	2528.138654
765.588796	2482.768269
765.914943	2513.015192
766.241044	2570.988462
766.567097	2485.288846
766.893104	2523.097500
767.219064	2510.494615
767.544978	2520.576923
767.870845	2555.865000
768.196665	2523.097500
768.522438	2460.083077
768.848165	2465.124231
769.173846	2480.247692
769.499479	2452.521346
769.825066	2586.111923
770.150607	2570.988462
770.476101	2507.974038
770.801548	2520.576923
771.126949	2591.153077
771.452303	2447.480192
771.777611	2510.494615
772.102872	2502.932885
772.428087	2515.535769
772.753256	2606.276538
773.078378	2538.220962
773.403453	2490.330000
773.728482	2470.165385
774.053465	2457.562500
774.378401	2497.891731
774.703291	2492.850577
775.028135	2570.988462
775.352932	2485.288846
775.677683	2507.974038
776.002388	2507.974038
776.327046	2434.877308
776.651658	2465.124231
776.976224	2497.891731
777.300743	2538.220962
777.625216	2543.262115
777.949643	2482.768269
778.274024	2578.550192
778.598359	2518.056346
778.922647	2366.821731
779.246889	2444.959615
779.571086	2444.959615
779.895236	2533.179808
780.219339	2452.521346
780.543397	2502.932885
780.867409	2402.109808
781.191374	2497.891731
781.515294	2480.247692
781.839167	2475.206538
782.162995	2500.412308
782.486776	2515.535769
782.810511	2563.426731
783.134201	2490.330000
783.457844	2487.809423
783.781441	2444.959615
784.104993	2518.056346
784.428498	2545.782692
784.751958	2520.576923
785.075372	2543.262115
785.398739	2618.879423
785.722061	2482.768269
786.045337	2492.850577
786.368568	2475.206538
786.691752	2434.877308
787.014891	2482.768269
787.337983	2399.589231
787.661030	2510.494615
787.984031	2427.315577
788.306987	2543.262115
788.629897	2424.795000
788.952760	2510.494615
789.275579	2581.070769
789.598351	2543.262115
789.921078	2540.741538
790.243759	2538.220962
790.566395	2535.700385
790.888984	2550.823846
791.211529	2510.494615
791.534027	2525.618077
791.856480	2482.768269
792.178888	2543.262115
792.501249	2485.288846
792.823566	2525.618077
793.145836	2538.220962
793.468062	2515.535769
793.790241	2470.165385
794.112375	2497.891731
794.434464	2472.685962
794.756507	2563.426731
795.078505	2513.015192
795.400457	2434.877308
795.722364	2472.685962
796.044226	2490.330000
796.366042	2505.453462
796.687812	2460.083077
797.009538	2528.138654
797.331218	2439.918462
797.652852	2560.906154
797.974442	2558.385577
798.295986	2480.247692
798.617484	2558.385577
798.938938	2404.630385
799.260346	2455.041923
799.581709	2528.138654
799.903026	2480.247692
800.224299	2462.603654
800.545526	2487.809423
800.866708	2533.179808
801.187845	2507.974038
801.508936	2520.576923
801.829983	2475.206538
802.150984	2422.274423
802.471940	2550.823846
802.792851	2487.809423
803.113717	2495.371154
803.434538	2457.562500
803.755314	2434.877308
804.076045	2510.494615
804.396731	2533.179808
804.717372	2497.891731
805.037967	2477.727115
805.358518	2568.467885
805.679024	2500.412308
805.999485	2545.782692
806.319901	2442.439038
806.640272	2407.150962
806.960598	2392.027500
807.280879	2490.330000
807.601115	2578.550192
807.921306	2404.630385
808.241453	2452.521346
808.561554	2439.918462
808.881611	2490.330000
809.201623	2452.521346
809.521590	2497.891731
809.841513	2515.535769
810.161390	2480.247692
810.481223	2550.823846
810.801011	2525.618077
811.120755	2502.932885
811.440453	2502.932885
811.760107	2535.700385
812.079716	2480.247692
812.399281	2462.603654
812.718801	2429.836154
813.038276	2525.618077
813.357707	2492.850577
813.677093	2520.576923
813.996434	2470.165385
814.315731	2505.453462
814.634983	2457.562500
814.954191	2419.753846
815.273354	2465.124231
815.592473	2470.165385
815.911547	2543.262115
816.230577	2447.480192
816.549562	2480.247692
816.868502	2513.015192
817.187399	2404.630385
817.506250	2530.659231
817.825058	2467.644808
818.143821	2525.618077
818.462539	2545.782692
818.781213	2477.727115
819.099843	2576.029615
819.418429	2588.632500
819.736970	2442.439038
820.055466	2482.768269
820.373919	2477.727115
820.692327	2518.056346
821.010691	2563.426731
821.329011	2490.330000
821.647286	2510.494615
821.965517	2628.961731
822.283704	2497.891731
822.601847	2429.836154
822.919945	2596.194231
823.237999	2485.288846
823.556010	2507.974038
823.873976	2528.138654
824.191897	2606.276538
824.509775	2507.974038
824.827609	2462.603654
825.145398	2427.315577
825.463144	2482.768269
825.780845	2497.891731
826.098502	2538.220962
826.416116	2394.548077
826.733685	2543.262115
827.051210	2439.918462
827.368692	2417.233269
827.686129	2573.509038
828.003522	2467.644808
828.320872	2450.000769
828.638177	2500.412308
828.955439	2573.509038
829.272656	2480.247692
829.589830	2507.974038
829.906960	2565.947308
830.224046	2475.206538
830.541088	2540.741538
830.858086	2485.288846
831.175041	2437.397885
831.491952	2497.891731
831.808819	2593.673654
832.125642	2424.795000
832.442421	2513.015192
832.759157	2452.521346
833.075849	2568.467885
833.392497	2460.083077
833.709101	2492.850577
834.025662	2500.412308
834.342179	2535.700385
834.658653	2477.727115
834.975083	2510.494615
835.291469	2439.918462
835.607811	2586.111923
835.924110	2482.768269
836.240366	2497.891731
836.556578	2510.494615
836.872746	2480.247692
837.188871	2482.768269
837.504952	2409.671538
837.820990	2578.550192
838.136984	2444.959615
838.452935	2470.165385
838.768842	2510.494615
839.084706	2515.535769
839.400526	2412.192115
839.716303	2477.727115
840.032037	2444.959615
840.347727	2586.111923
840.663373	2397.068654
840.978977	2490.330000
841.294537	2543.262115
841.610054	2402.109808
841.925527	2497.891731
842.240957	2502.932885
842.556344	2555.865000
842.871687	2525.618077
843.186987	2460.083077
843.502244	2543.262115
843.817458	2414.712692
844.132629	2563.426731
844.447756	2558.385577
844.762840	2570.988462
845.077881	2460.083077
845.392879	2487.809423
845.707833	2439.918462
846.022745	2518.056346
846.337613	2505.453462
846.652438	2540.741538
846.967221	2558.385577
847.281960	2520.576923
847.596656	2487.809423
847.911309	2422.274423
848.225919	2490.330000
848.540485	2583.591346
848.855009	2490.330000
849.169490	2528.138654
849.483928	2530.659231
849.798323	2555.865000
850.112675	2535.700385
850.426984	2409.671538
850.741251	2507.974038
851.055474	2455.041923
851.369654	2563.426731
851.683792	2513.015192
851.997887	2545.782692
852.311938	2518.056346
852.625947	2598.714808
852.939914	2530.659231
853.253837	2525.618077
853.567718	2518.056346
853.881555	2487.809423
854.195350	2513.015192
854.509103	2470.165385
854.822812	2482.768269
855.136479	2477.727115
855.450103	2533.179808
855.763685	2485.288846
856.077224	2439.918462
856.390720	2505.453462
856.704173	2502.932885
857.017584	2485.288846
857.330953	2467.644808
857.644278	2434.877308
857.957561	2407.150962
858.270802	2505.453462
858.584000	2422.274423
858.897155	2548.303269
859.210268	2432.356731
859.523339	2442.439038
859.836367	2482.768269
860.149352	2535.700385
860.462295	2538.220962
860.775195	2480.247692
861.088054	2540.741538
861.400869	2419.753846
861.713642	2543.262115
862.026373	2432.356731
862.339062	2565.947308
862.651708	2470.165385
862.964312	2550.823846
863.276873	2439.918462
863.589392	2480.247692
863.901869	2543.262115
864.214303	2505.453462
864.526696	2540.741538
864.839045	2545.782692
865.151353	2434.877308
865.463619	2399.589231
865.775842	2548.303269
866.088023	2450.000769
866.400162	2548.303269
866.712258	2462.603654
867.024313	2439.918462
867.336325	2523.097500
867.648296	2495.371154
867.960224	2452.521346
868.272110	2490.330000
868.583954	2525.618077
868.895755	2475.206538
869.207515	2513.015192
869.519233	2434.877308
869.830909	2576.029615
870.142542	2492.850577
870.454134	2457.562500
870.765684	2475.206538
871.077191	2502.932885
871.388657	2437.397885
871.700081	2399.589231
872.011463	2528.138654
872.322803	2467.644808
872.634101	2444.959615
872.945357	2523.097500
873.256571	2439.918462
873.567744	2452.521346
873.878874	2386.986346
874.189963	2472.685962
874.501010	2470.165385
874.812015	2525.618077
875.122979	2485.288846
875.433900	2588.632500
875.744780	2550.823846
876.055618	2475.206538
876.366415	2447.480192
876.677169	2538.220962
876.987882	2437.397885
877.298554	2404.630385
877.609183	2487.809423
877.919771	2457.562500
878.230317	2507.974038
878.540822	2452.521346
878.851285	2553.344423
879.161707	2477.727115
879.472087	2513.015192
879.782425	2533.179808
880.092722	2500.412308
880.402977	2450.000769
880.713191	2442.439038
881.023363	2414.712692
881.333494	2495.371154
881.643583	2424.795000
881.953631	2500.412308
882.263637	2530.659231
882.573602	2492.850577
882.883526	2538.220962
883.193408	2487.809423
883.503248	2520.576923
883.813048	2455.041923
884.122806	2555.865000
884.432522	2457.562500
884.742197	2507.974038
885.051831	2545.782692
885.361424	2492.850577
885.670975	2442.439038
885.980485	2518.056346
886.289954	2558.385577
886.599382	2417.233269
886.908768	2540.741538
887.218113	2455.041923
887.527417	2528.138654
887.836680	2492.850577
888.145901	2502.932885
888.455082	2480.247692
888.764221	2513.015192
889.073319	2412.192115
889.382376	2480.247692
889.691392	2470.165385
890.000366	2480.247692
890.309300	2444.959615
890.618193	2485.288846
890.927044	2525.618077
891.235855	2560.906154
891.544625	2555.865000
891.853353	2507.974038
892.162041	2502.932885
892.470687	2492.850577
892.779293	2475.206538
893.087858	2502.932885
893.396381	2492.850577
893.704864	2500.412308
894.013306	2465.124231
894.321707	2558.385577
894.630068	2565.947308
894.938387	2460.083077
895.246665	2540.741538
895.554903	2417.233269
895.863100	2497.891731
896.171256	2497.891731
896.479371	2485.288846
896.787446	2434.877308
897.095480	2482.768269
897.403473	2523.097500
897.711425	2432.356731
898.019336	2502.932885
898.327207	2467.644808
898.635038	2586.111923
898.942827	2545.782692
899.250576	2439.918462
899.558284	2545.782692
899.865952	2507.974038
900.173579	2427.315577
900.481165	2533.179808
900.788711	2429.836154
901.096216	2563.426731
901.403681	2482.768269
901.711105	2442.439038
902.018489	2480.247692
902.325832	2495.371154
902.633135	2419.753846
902.940397	2520.576923
903.247619	2565.947308
903.554800	2434.877308
903.861941	2502.932885
904.169041	2419.753846
904.476101	2540.741538
904.783121	2437.397885
905.090100	2523.097500
905.397039	2480.247692
905.703938	2500.412308
906.010796	2359.260000
906.317614	2497.891731
906.624391	2545.782692
906.931129	2460.083077
907.237826	2409.671538
907.544483	2480.247692
907.851099	2533.179808
908.157675	2528.138654
908.464211	2485.288846
908.770707	2495.371154
909.077163	2560.906154
909.383578	2394.548077
909.689954	2467.644808
909.996289	2518.056346
910.302584	2482.768269
910.608839	2485.288846
910.915054	2533.179808
911.221229	2502.932885
911.527363	2492.850577
911.833458	2455.041923
912.139513	2497.891731
912.445527	2520.576923
912.751502	2444.959615
913.057436	2480.247692
913.363331	2523.097500
913.669186	2487.809423
913.975000	2480.247692
914.280775	2502.932885
914.586510	2535.700385
914.892205	2540.741538
915.197859	2523.097500
915.503475	2450.000769
915.809050	2510.494615
916.114585	2427.315577
916.420081	2434.877308
916.725536	2409.671538
917.030952	2490.330000
917.336328	2465.124231
917.641665	2502.932885
917.946961	2497.891731
918.252218	2510.494615
918.557435	2560.906154
918.862612	2482.768269
919.167750	2515.535769
919.472848	2507.974038
919.777906	2500.412308
920.082925	2555.865000
920.387904	2384.465769
920.692843	2407.150962
920.997743	2528.138654
921.302603	2505.453462
921.607423	2558.385577
921.912204	2528.138654
922.216946	2492.850577
922.521647	2528.138654
922.826310	2513.015192
923.130932	2563.426731
923.435516	2548.303269
923.740059	2450.000769
924.044564	2467.644808
924.349028	2404.630385
924.653454	2500.412308
924.957840	2523.097500
925.262186	2444.959615
925.566493	2543.262115
925.870761	2502.932885
926.174989	2520.576923
926.479178	2565.947308
926.783328	2477.727115
927.087438	2555.865000
927.391509	2480.247692
927.695541	2455.041923
927.999533	2538.220962
928.303486	2467.644808
928.607400	2487.809423
928.911275	2439.918462
929.215110	2487.809423
929.518906	2543.262115
929.822663	2477.727115
930.126381	2447.480192
930.430060	2495.371154
930.733699	2432.356731
931.037299	2495.371154
931.340861	2467.644808
931.644383	2513.015192
931.947866	2437.397885
932.251309	2394.548077
932.554714	2518.056346
932.858080	2412.192115
933.161407	2560.906154
933.464694	2583.591346
933.767943	2482.768269
934.071153	2513.015192
934.374323	2525.618077
934.677455	2555.865000
934.980548	2500.412308
935.283602	2515.535769
935.586617	2409.671538
935.889593	2528.138654
936.192530	2432.356731
936.495428	2460.083077
936.798287	2447.480192
937.101108	2439.918462
937.403890	2462.603654
937.706632	2485.288846
938.009336	2444.959615
938.312002	2528.138654
938.614628	2485.288846
938.917216	2485.288846
939.219765	2492.850577
939.522275	2482.768269
939.824747	2523.097500
940.127179	2422.274423
940.429573	2467.644808
940.731929	2455.041923
941.034246	2520.576923
941.336524	2500.412308
941.638763	2465.124231
941.940964	2487.809423
942.243126	2553.344423
942.545250	2470.165385
942.847335	2550.823846
943.149381	2507.974038
943.451389	2518.056346
943.753359	2505.453462
944.055290	2495.371154
944.357182	2525.618077
944.659036	2432.356731
944.960851	2533.179808
945.262628	2407.150962
945.564367	2608.797115
945.866067	2543.262115
946.167729	2540.741538
946.469352	2460.083077
946.770937	2487.809423
947.072484	2523.097500
947.373992	2389.506923
947.675462	2444.959615
947.976893	2540.741538
948.278286	2497.891731
948.579641	2520.576923
948.880958	2465.124231
949.182236	2523.097500
949.483476	2450.000769
949.784678	2472.685962
950.085841	2520.576923
950.386967	2452.521346
950.688054	2475.206538
950.989103	2485.288846
951.290114	2550.823846
951.591087	2560.906154
951.892021	2555.865000
952.192917	2573.509038
952.493776	2457.562500
952.794596	2550.823846
953.095378	2409.671538
953.396122	2523.097500
953.696828	2455.041923
953.997496	2437.397885
954.298126	2535.700385
954.598718	2455.041923
954.899272	2500.412308
955.199788	2482.768269
955.500266	2573.509038
955.800706	2452.521346
956.101108	2477.727115
956.401472	2439.918462
956.701798	2424.795000
957.002087	2505.453462
957.302337	2419.753846
957.602550	2462.603654
957.902724	2495.371154
958.202861	2492.850577
958.502960	2447.480192
958.803022	2525.618077
959.103045	2490.330000
959.403031	2462.603654
959.702979	2505.453462
960.002889	2452.521346
960.302762	2553.344423
960.602596	2490.330000
960.902393	2510.494615
961.202153	2457.562500
961.501875	2460.083077
961.801559	2470.165385
962.101205	2429.836154
962.400814	2455.041923
962.700385	2523.097500
962.999918	2424.795000
963.299414	2399.589231
963.598873	2535.700385
963.898293	2528.138654
964.197677	2540.741538
964.497022	2507.974038
964.796331	2475.206538
965.095601	2492.850577
965.394835	2528.138654
965.694030	2545.782692
965.993189	2492.850577
966.292309	2528.138654
966.591393	2475.206538
966.890439	2507.974038
967.189447	2482.768269
967.488419	2515.535769
967.787353	2472.685962
968.086249	2457.562500
968.385108	2467.644808
968.683930	2490.330000
968.982714	2492.850577
969.281462	2434.877308
969.580172	2533.179808
969.878844	2513.015192
970.177480	2510.494615
970.476078	2475.206538
970.774639	2497.891731
971.073162	2384.465769
971.371649	2565.947308
971.670098	2465.124231
971.968510	2477.727115
972.266885	2568.467885
972.565223	2497.891731
972.863524	2507.974038
973.161788	2477.727115
973.460014	2523.097500
973.758204	2513.015192
974.056356	2507.974038
974.354471	2452.521346
974.652550	2472.685962
974.950591	2465.124231
975.248595	2414.712692
975.546563	2462.603654
975.844493	2475.206538
976.142386	2475.206538
976.440243	2568.467885
976.738062	2482.768269
977.035845	2510.494615
977.333590	2452.521346
977.631299	2462.603654
977.928971	2447.480192
978.226606	2485.288846
978.524204	2434.877308
978.821765	2535.700385
979.119290	2515.535769
979.416777	2457.562500
979.714228	2497.891731
980.011642	2513.015192
980.309020	2482.768269
980.606360	2447.480192
980.903664	2518.056346
981.200931	2467.644808
981.498162	2444.959615
981.795356	2520.576923
982.092513	2437.397885
982.389633	2518.056346
982.686717	2437.397885
982.983764	2543.262115
983.280775	2520.576923
983.577749	2482.768269
983.874686	2442.439038
984.171587	2528.138654
984.468451	2510.494615
984.765279	2510.494615
985.062070	2419.753846
985.358824	2485.288846
985.655543	2487.809423
985.952224	2495.371154
986.248869	2465.124231
986.545478	2460.083077
986.842050	2502.932885
987.138586	2457.562500
987.435086	2452.521346
987.731549	2462.603654
988.027975	2525.618077
988.324366	2460.083077
988.620719	2447.480192
988.917037	2485.288846
989.213318	2460.083077
989.509563	2523.097500
989.805772	2581.070769
990.101944	2422.274423
990.398080	2487.809423
990.694180	2510.494615
990.990244	2525.618077
991.286271	2485.288846
991.582262	2520.576923
991.878217	2523.097500
992.174136	2439.918462
992.470019	2533.179808
992.765865	2477.727115
993.061676	2480.247692
993.357450	2409.671538
993.653188	2515.535769
993.948890	2434.877308
994.244556	2558.385577
994.540186	2485.288846
994.835780	2515.535769
995.131337	2422.274423
995.426859	2518.056346
995.722345	2568.467885
996.017795	2523.097500
996.313208	2422.274423
996.608586	2495.371154
996.903928	2523.097500
997.199234	2487.809423
997.494504	2510.494615
997.789738	2465.124231
998.084936	2477.727115
998.380099	2570.988462
998.675225	2502.932885
998.970316	2495.371154
999.265371	2543.262115
999.560390	2457.562500
999.855373	2465.124231
1000.150320	2586.111923
1000.445232	2462.603654
1000.740108	2510.494615
1001.034948	2538.220962
1001.329752	2528.138654
1001.624521	2482.768269
1001.919254	2434.877308
1002.213951	2424.795000
1002.508613	2507.974038
1002.803239	2563.426731
1003.097829	2475.206538
1003.392384	2467.644808
1003.686903	2472.685962
1003.981386	2482.768269
1004.275834	2550.823846
1004.570246	2518.056346
1004.864623	2487.809423
1005.158964	2460.083077
1005.453270	2505.453462
1005.747540	2535.700385
1006.041775	2492.850577
1006.335974	2417.233269
1006.630138	2470.165385
1006.924266	2492.850577
1007.218359	2573.509038
1007.512416	2495.371154
1007.806438	2492.850577
1008.100425	2475.206538
1008.394376	2565.947308
1008.688292	2414.712692
1008.982172	2472.685962
1009.276017	2460.083077
1009.569827	2487.809423
1009.863602	2447.480192
1010.157341	2528.138654
1010.451045	2460.083077
1010.744714	2500.412308
1011.038347	2553.344423
1011.331945	2472.685962
1011.625508	2386.986346
1011.919036	2555.865000
1012.212528	2565.947308
1012.505986	2424.795000
1012.799408	2455.041923
1013.092795	2543.262115
1013.386147	2467.644808
1013.679464	2452.521346
1013.972745	2502.932885
1014.265992	2518.056346
1014.559204	2429.836154
1014.852380	2477.727115
1015.145521	2510.494615
1015.438628	2480.247692
1015.731699	2502.932885
1016.024736	2444.959615
1016.317737	2462.603654
1016.610703	2419.753846
1016.903635	2500.412308
1017.196531	2500.412308
1017.489393	2482.768269
1017.782219	2485.288846
1018.075011	2530.659231
1018.367768	2480.247692
1018.660490	2500.412308
1018.953177	2500.412308
1019.245829	2500.412308
