Dividing Wavelength (nm)	Counts (n)	Blue Motor Position (mm): 21.100000	Red Motor Position (mm): 0.000000	
326.493990	2185.451098
326.888308	2185.451098
327.282561	2185.451098
327.676750	2146.450211
328.070874	2140.733543
328.464933	2143.082720
328.858929	2143.054994
329.252859	2150.233597
329.646726	2159.267345
330.040528	2173.586742
330.434265	2184.989832
330.827938	2202.671679
331.221547	2221.991901
331.615091	2240.949160
332.008571	2258.373909
332.401986	2274.372010
332.795338	2293.919084
333.188625	2313.453556
333.581847	2333.038438
333.975006	2347.708196
334.368100	2369.226361
334.761129	2386.356202
335.154095	2404.847154
335.546996	2427.527305
335.939833	2457.411265
336.332606	2476.897846
336.725315	2487.806903
337.117960	2499.217554
337.510540	2512.720285
337.903056	2521.602798
338.295508	2529.935825
338.687896	2539.211548
339.080220	2548.915769
339.472480	2554.806358
339.864676	2558.935063
340.256807	2564.487894
340.648875	2568.949315
341.040879	2568.747669
341.432818	2576.132959
341.824694	2575.076837
342.216506	2580.382652
342.608253	2579.815522
342.999937	2578.310737
343.391557	2581.940368
343.783113	2579.132446
344.174605	2581.337950
344.566033	2577.516756
344.957397	2575.482650
345.348697	2573.864440
345.739934	2575.006261
346.131106	2572.601631
346.522215	2568.694737
346.913260	2567.840261
347.304241	2567.469736
347.695159	2563.845147
348.086012	2563.681309
348.476802	2563.131823
348.867528	2557.553787
349.258191	2551.466593
349.648789	2551.491799
350.039324	2547.567261
350.429796	2552.268137
350.820203	2549.074566
351.210548	2547.957950
351.600828	2550.680173
351.991045	2545.651622
352.381198	2549.243444
352.771288	2546.143135
353.161314	2547.020296
353.551276	2544.900490
353.941175	2545.659184
354.331010	2544.729091
354.720782	2544.111550
355.110490	2544.353525
355.500135	2545.074410
355.889717	2545.142466
356.279235	2544.532486
356.668689	2544.658515
357.058080	2543.224307
357.447408	2543.287321
357.836672	2546.170861
358.225873	2540.852444
358.615010	2546.629606
359.004084	2547.063145
359.393095	2547.867209
359.782043	2547.010213
360.170927	2548.207487
360.559748	2546.720347
360.948505	2548.288146
361.337199	2553.057077
361.725830	2549.238403
362.114398	2552.605894
362.502903	2550.501212
362.891344	2551.703528
363.279722	2550.070194
363.668037	2551.695966
364.056289	2551.859803
364.444478	2557.142932
364.832603	2554.087993
365.220665	2552.610935
365.608665	2554.642520
365.996601	2555.502037
366.384474	2552.532797
366.772284	2556.411965
367.160031	2557.110165
367.547715	2556.873231
367.935336	2559.597974
368.322893	2554.324928
368.710388	2556.192675
369.097820	2555.922973
369.485189	2555.086142
369.872495	2558.743499
370.259738	2558.735937
370.646918	2558.372974
371.034035	2557.926832
371.421090	2559.071174
371.808081	2560.891030
372.195010	2559.913047
372.581875	2558.244425
372.968678	2557.931873
373.355418	2557.848694
373.742096	2559.051009
374.128710	2562.403377
374.515262	2560.994374
374.901751	2560.006308
375.288177	2561.778273
375.674540	2561.485887
376.060841	2563.557801
376.447079	2564.187945
376.833254	2562.582337
377.219367	2563.356155
377.605417	2561.682492
377.991404	2562.499158
378.377329	2562.665517
378.763191	2563.265414
379.148991	2565.044941
379.534727	2562.559652
379.920402	2563.635939
380.306013	2563.545198
380.691563	2566.249777
381.077049	2566.698440
381.462474	2563.537636
381.847835	2565.728017
382.233134	2565.186093
382.618371	2566.602658
383.003545	2568.412432
383.388657	2565.259190
383.773706	2566.612740
384.158693	2565.511248
384.543618	2568.682134
384.928480	2565.488563
385.313280	2565.702812
385.698017	2568.054510
386.082692	2569.052658
386.467305	2570.990982
386.851856	2569.889490
387.236344	2567.973852
387.620770	2565.836402
388.005133	2563.436813
388.389435	2566.670713
388.773674	2566.136351
389.157851	2569.234140
389.541965	2572.266394
389.926018	2573.662794
390.310008	2569.171126
390.693936	2566.980744
391.077802	2570.302865
391.461606	2575.396951
391.845348	2570.567525
392.229027	2572.147927
392.612645	2574.918041
392.996200	2574.597928
393.379694	2571.502659
393.763125	2573.100705
394.146494	2572.750345
394.529801	2570.751527
394.913047	2573.226734
395.296230	2574.290417
395.679351	2577.244533
396.062410	2572.462999
396.445408	2571.855540
396.828343	2574.121539
397.211217	2572.624316
397.594028	2574.658422
397.976778	2575.535582
398.359466	2576.402661
398.742092	2577.796540
399.124656	2576.929461
399.507158	2578.976170
399.889598	2578.141859
400.271977	2575.820408
400.654294	2578.318299
401.036549	2576.130438
401.418742	2579.681931
401.800874	2579.099678
402.182944	2579.717219
402.564952	2578.467013
402.946898	2577.773855
403.328783	2579.986921
403.710606	2579.535738
404.092367	2578.494740
404.474067	2578.784606
404.855705	2578.313258
405.237282	2579.560944
405.618797	2579.286201
406.000250	2580.264185
406.381642	2580.932137
406.762972	2577.347877
407.144240	2578.240161
407.525447	2580.493557
407.906593	2577.090778
408.287677	2580.957343
408.668700	2581.005234
409.049661	2584.839032
409.430560	2584.997828
409.811399	2584.110585
410.192176	2582.452045
410.572891	2580.957343
410.953545	2583.445153
411.334138	2583.329206
411.714669	2583.755184
412.095139	2583.540935
412.475547	2585.169227
412.855894	2583.568661
413.236180	2583.351891
413.616405	2585.373394
413.996568	2584.133270
414.376670	2586.278281
414.756711	2583.777869
415.136691	2582.368866
415.516609	2584.627303
415.896466	2583.752663
416.276262	2586.767273
416.655997	2586.202664
417.035670	2587.384814
417.415283	2587.936821
417.794834	2584.465986
418.174324	2584.917170
418.553753	2585.630493
418.933121	2587.984712
419.312428	2587.074783
419.691674	2588.007397
420.070859	2586.358940
420.449983	2586.011100
420.829045	2585.743919
421.208047	2586.696697
421.586988	2587.788107
421.965867	2587.057139
422.344686	2588.753488
422.723444	2586.628641
423.102141	2588.146029
423.480777	2588.884558
423.859352	2589.108889
424.237866	2590.245669
424.616319	2590.086873
424.994712	2590.369178
425.373044	2588.609815
425.751314	2589.887747
426.129524	2585.620411
426.507673	2587.253744
426.885762	2584.894484
427.263789	2590.321287
427.641756	2593.224991
428.019662	2592.476380
428.397508	2586.956316
428.775292	2590.906060
429.153016	2592.831781
429.530679	2592.972933
429.908282	2593.051071
430.285824	2594.351689
430.663305	2590.739702
431.040726	2593.950917
431.418086	2592.226843
431.795385	2593.340938
432.172624	2592.892275
432.549802	2593.388829
432.926920	2593.958479
433.303977	2597.010898
433.680974	2595.546442
434.057910	2595.042327
434.434786	2594.636514
434.811601	2595.634663
435.188355	2595.556525
435.565050	2595.138109
435.941683	2594.034096
436.318257	2595.518716
436.694770	2595.697677
437.071222	2595.972420
437.447614	2596.065681
437.823946	2599.387802
438.200218	2597.930908
438.576429	2594.835640
438.952580	2595.392687
439.328670	2597.572986
439.704700	2596.186669
440.080670	2595.135588
440.456580	2599.415528
440.832429	2597.905702
441.208218	2596.378233
441.583947	2598.876125
441.959616	2598.825713
442.335224	2595.957297
442.710773	2599.158429
443.086261	2601.424428
443.461689	2598.019128
443.837057	2600.607761
444.212365	2600.995930
444.587612	2597.033583
444.962800	2597.177256
445.337927	2597.814962
445.712995	2594.361771
446.088002	2601.759665
446.462949	2600.915271
446.837837	2602.107504
447.212664	2601.157247
447.587431	2601.709253
447.962139	2602.818307
448.336786	2606.271497
448.711374	2606.621857
449.085901	2604.043307
449.460369	2602.866198
449.834776	2604.345777
450.209124	2604.287803
450.583412	2604.741507
450.957640	2607.713267
451.331808	2605.119594
451.705917	2605.006168
452.079965	2606.994903
452.453954	2606.155551
452.827883	2606.848709
453.201752	2607.246961
453.575562	2604.249995
453.949311	2607.284769
454.323001	2606.362238
454.696632	2603.781167
455.070202	2608.562702
455.443713	2606.127824
455.817164	2610.700151
456.190556	2608.973556
456.563888	2610.816097
456.937160	2609.989348
457.310373	2611.413474
457.683526	2608.260232
458.056619	2608.547578
458.429653	2608.482043
458.802628	2610.506067
459.175542	2610.773248
459.548398	2613.505553
459.921194	2612.081427
460.293930	2612.898094
460.666607	2614.682662
461.039224	2615.579988
461.411782	2618.148456
461.784280	2615.622838
462.156719	2619.859927
462.529099	2618.130812
462.901419	2618.153497
463.273680	2617.369597
463.645882	2616.840276
464.018024	2614.722992
464.390106	2613.447580
464.762130	2621.445370
465.134094	2623.295474
465.505999	2625.201030
465.877845	2629.334776
466.249631	2636.931795
466.621358	2635.270735
466.993026	2636.374747
467.364634	2638.088740
467.736184	2634.675879
468.107674	2635.447175
468.479105	2633.904582
468.850477	2632.372071
469.221790	2635.031280
469.593043	2633.012298
469.964238	2634.277627
470.335373	2634.043214
470.706449	2636.208389
471.077467	2634.532206
471.448425	2643.243320
471.819324	2651.077273
472.190164	2657.754281
472.560945	2651.616676
472.931667	2648.846562
473.302330	2649.869916
473.672934	2650.011069
474.043479	2653.002993
474.413965	2654.469969
474.784393	2658.470125
475.154761	2663.561690
475.525070	2667.831547
475.895321	2669.316167
476.265513	2674.720284
476.635645	2681.263702
477.005719	2685.130267
477.375734	2693.047399
477.745691	2697.390353
478.115588	2711.858465
478.485427	2717.272664
478.855207	2731.987792
479.224928	2754.725916
479.594591	2782.091820
479.964194	2797.742082
480.333739	2804.935809
480.703226	2813.180616
481.072653	2827.409272
481.442022	2849.290401
481.811333	2883.169475
482.180584	2895.777401
482.549777	2910.689134
482.918912	2919.957295
483.287988	2950.972994
483.657005	2977.489464
484.025964	2995.970334
484.394864	3022.214581
484.763706	3041.280224
485.132489	3064.280489
485.501213	3098.668720
485.869879	3134.715490
486.238487	3167.140192
486.607036	3211.368755
486.975527	3242.071903
487.343959	3297.143988
487.712333	3340.066892
488.080648	3378.765310
488.448905	3448.275260
488.817104	3493.469204
489.185244	3584.855241
489.553326	3648.774551
489.921350	3758.752363
490.289315	3976.472236
490.657222	4180.409594
491.025070	4285.820121
491.392861	4354.589022
491.760593	4395.306421
492.128267	4425.853293
492.495883	4427.287501
492.863440	4458.683807
493.230939	4477.343638
493.598380	4573.939708
493.965763	4626.481134
494.333088	4683.720915
494.700354	4773.629894
495.067563	4874.785687
495.434713	4957.422801
495.801805	5045.637953
496.168839	5161.987783
496.535815	5253.741824
496.902733	5385.968769
497.269593	5435.631696
497.636395	5593.964256
498.003139	5704.526842
498.369825	5819.744934
498.736453	5943.580878
499.103023	6045.916302
499.469535	6179.340520
499.835989	6340.685170
500.202385	6501.228276
500.568723	6543.236211
500.935003	6690.150557
501.301226	6785.377953
501.667390	7043.066615
502.033497	7288.492669
502.399546	7337.850606
502.765537	7437.546985
503.131470	7644.398131
503.497345	7837.267636
503.863163	7797.588714
504.228923	8107.962474
504.594625	8318.589443
504.960269	8328.840629
505.325856	8633.414542
505.691385	8658.826998
506.056856	8951.811298
506.422270	9148.083582
506.787625	9164.452209
507.152924	9500.137602
507.518164	9627.096541
507.883347	9732.121420
508.248472	9788.448752
508.613540	10225.703313
508.978550	10368.536846
509.343503	10524.154745
509.708398	10807.976747
510.073236	11023.574294
510.438016	11274.104517
510.802738	11356.761796
511.167403	11629.624330
511.532010	11686.917044
511.896561	12186.084536
512.261053	12410.221798
512.625488	12498.056342
512.989866	12645.895740
513.354186	12745.733271
513.718449	13034.669525
514.082655	13362.102549
514.446803	13472.617244
514.810894	13860.554198
515.174927	13797.194455
515.538904	14002.351773
515.902822	14418.763683
516.266684	14528.870045
516.630488	14635.997085
516.994235	14837.446634
517.357925	15153.602597
517.721558	15471.598582
518.085133	15713.750407
518.448651	15848.936509
518.812112	15900.348717
519.175516	16146.677137
519.538863	16472.154194
519.902152	16514.419228
520.265385	16913.827327
520.628560	16946.274714
520.991678	17157.161302
521.354739	17385.520531
521.717743	17631.049929
522.080690	17637.903377
522.443580	18088.920288
522.806413	18237.919152
523.169189	18516.621863
523.531908	18686.760805
523.894569	18626.324932
524.257174	18845.569754
524.619722	19162.295368
524.982213	19077.616587
525.344647	19326.652107
525.707025	19544.780313
526.069345	19740.004037
526.431608	19865.324601
526.793815	20178.891932
527.155964	19877.176354
527.518057	20173.437404
527.880093	20292.017945
528.242072	20565.520706
528.603995	20486.447687
528.965860	20485.822584
529.327669	20712.626616
529.689421	20806.989455
530.051117	20790.109151
530.412755	21101.707911
530.774337	21051.349305
531.135862	21081.772668
531.497331	21366.587778
531.858743	21097.299422
532.220098	21640.531640
532.581396	21449.361004
532.942638	21563.528015
533.303824	21729.807954
533.664953	21864.434488
534.026025	21690.441584
534.387040	21979.677786
534.747999	22173.631139
535.108902	22391.189695
535.469748	22050.135472
535.830537	22321.641936
536.191270	22495.402948
536.551947	22515.945650
536.912567	22285.305299
537.273131	22632.381180
537.633638	22469.859421
537.994089	22754.687134
538.354483	22414.411770
538.714821	22935.969547
539.075103	23053.390623
539.435328	22935.462911
539.795497	22573.828178
540.155609	23038.983005
540.515665	23366.511812
540.875665	22722.101116
541.235609	23039.855125
541.595496	23091.826900
541.955328	23460.423467
542.315102	23455.747797
542.674821	23098.443415
543.034483	23025.931458
543.394090	23220.661149
543.753640	23066.482499
544.113134	23718.762437
544.472571	23396.632706
544.831953	23716.435944
545.191278	23367.608263
545.550548	23369.201267
545.909761	23593.346091
546.268918	23850.777653
546.628019	23830.053470
546.987064	23596.718623
547.346053	23396.037850
547.704986	23547.345562
548.063863	23739.796651
548.422684	23739.650458
548.781449	23361.329506
549.140158	23763.273305
549.498811	23378.086301
549.857408	23127.689669
550.215949	23597.235341
550.574434	23296.278456
550.932864	23538.115209
551.291237	23691.454506
551.649555	23595.423046
552.007817	23644.740654
552.366022	23543.877248
552.724173	23605.034006
553.082267	23539.090673
553.440305	24036.350088
553.798288	23323.891377
554.156215	23868.593091
554.514086	23938.468524
554.871902	23337.850332
555.229661	23636.697493
555.587365	23502.378470
555.945014	23345.391898
556.302606	23633.516525
556.660143	23563.555392
557.017625	23851.473332
557.375050	23390.114494
557.732421	23783.687457
558.089735	23596.887501
558.446994	23673.717207
558.804197	23687.615668
559.161345	23666.951978
559.518437	23396.536924
559.875474	23621.732828
560.232455	23797.565754
560.589381	23635.689263
560.946251	23598.803140
561.303065	23934.160858
561.659825	24024.982286
562.016528	23628.051914
562.373177	23384.680130
562.729770	23725.389033
563.086307	23608.119192
563.442789	23779.868783
563.799216	23603.791362
564.155587	23630.549806
564.511904	23617.793166
564.868164	23543.388256
565.224370	23545.278689
565.580520	23426.136059
565.936615	23572.372370
566.292654	23249.133586
566.648638	23573.466301
567.004567	23394.737232
567.360441	23347.516744
567.716260	23061.524525
568.072023	23402.414909
568.427732	23148.479387
568.783385	22952.960756
569.138982	23171.502337
569.494525	23230.614907
569.850013	22960.802271
570.205445	23071.596750
570.560823	22866.731819
570.916145	22639.968117
571.271412	22810.578407
571.626625	22561.588257
571.981782	22684.030322
572.336884	22481.718736
572.691931	22614.888376
573.046923	22363.274305
573.401860	22241.739648
573.756743	22226.152400
574.111570	22151.089619
574.466342	22091.271288
574.821059	22192.580836
575.175722	21875.603165
575.530330	21874.657948
575.884882	21903.339593
576.239380	21792.159466
576.593823	21690.212211
576.948211	21676.560767
577.302544	21515.301817
577.656823	21387.667363
578.011047	21481.798308
578.365216	21364.321780
578.719330	21256.367991
579.073389	21151.494347
579.427394	21288.800254
579.781344	21076.295455
580.135239	20956.585695
580.489080	20934.439906
580.842866	20707.030936
581.196597	20879.274560
581.550273	20867.616891
581.903895	20766.909761
582.257463	21078.742935
582.610975	20603.939339
582.964434	20894.486241
583.317837	20622.281578
583.671186	20715.547965
584.024481	20675.982469
584.377721	20461.131013
584.730906	20493.795169
585.084037	20541.555061
585.437113	20439.020512
585.790135	20640.951491
586.143103	20117.709969
586.496016	20118.456059
586.848874	20361.303564
587.201679	20304.870367
587.554428	19973.482557
587.907124	20294.493152
588.259765	20082.134546
588.612352	20157.628345
588.964884	19715.625017
589.317362	19915.166489
589.669786	19955.669640
590.022155	20006.025726
590.374470	20178.382776
590.726731	19999.300827
591.078937	19730.340145
591.431090	19844.620583
591.783188	19591.859649
592.135232	19564.092974
592.487222	19661.127624
592.839157	19687.263486
593.191038	19565.635567
593.542866	19465.392223
593.894639	19184.378143
594.246358	19403.232275
594.598022	19306.797523
594.949633	19069.583508
595.301190	19015.040744
595.652692	19179.367236
596.004141	19430.293189
596.355535	18763.338453
596.706876	18775.401934
597.058162	18651.356782
597.409395	18880.527636
597.760573	18976.203695
598.111698	18747.388242
598.462768	18682.390125
598.813785	18643.422006
599.164748	18480.232294
599.515657	18504.513012
599.866511	18288.832285
600.217312	18646.260175
600.568060	18192.566412
600.918753	18490.428028
601.269392	18396.176095
601.619978	18159.632553
601.970510	18384.299136
602.320988	18328.107915
602.671412	18544.325524
603.021783	18433.490716
603.372100	18178.652827
603.722363	18308.699473
604.072572	18242.204133
604.422728	18384.571359
604.772830	18144.622518
605.122878	18093.278366
605.472872	18087.929702
605.822813	18080.660358
606.172701	18035.070683
606.522534	18247.923322
606.872314	18264.715405
607.222041	18102.813708
607.571714	18310.816757
607.921333	18141.910377
608.270899	18208.612404
608.620411	18407.889216
608.969870	18160.542482
609.319276	18168.162186
609.668627	18198.184777
610.017926	18331.150251
610.367171	18448.341955
610.716362	18487.604982
611.065500	18314.269948
611.414585	18443.663764
611.763616	18426.556608
612.112594	18368.888329
612.461518	18346.576182
612.810389	18537.956026
613.159207	18386.923057
613.507971	18286.014280
613.856682	18576.669567
614.205340	18513.448457
614.553945	18659.399943
614.902496	18383.938694
615.250994	18641.723137
615.599439	18565.997444
615.947830	18555.448830
616.296169	18599.689996
616.644454	18567.537517
616.992686	18536.771355
617.340864	18755.958204
617.688990	18522.111680
618.037063	18698.252116
618.385082	18528.960087
618.733048	18822.723245
619.080961	18680.182100
619.428821	18720.854129
619.776628	18621.036762
620.124382	18539.528866
620.472083	18566.620027
620.819731	18605.545296
621.167326	18296.502401
621.514868	18338.061673
621.862357	18087.833920
622.209793	18103.854707
622.557176	17942.018545
622.904506	17765.215197
623.251783	17669.627358
623.599007	17449.570911
623.946179	17384.121610
624.293297	17324.199935
624.640363	17088.261332
624.987376	17099.858507
625.334336	16898.557672
625.681243	16741.986995
626.028097	16747.534785
626.374899	16689.528748
626.721647	16548.104218
627.068343	16381.766306
627.414987	16310.335677
627.761577	16282.906758
628.108115	16332.531877
628.454600	16050.060903
628.801032	16146.914072
629.147412	16071.901703
629.493739	16102.342710
629.840014	15915.809935
630.186236	16011.793505
630.532405	15774.602175
630.878521	15969.072246
631.224585	15860.248858
631.570597	15688.189236
631.916556	15721.682663
632.262462	15700.603078
632.608316	15616.191477
632.954117	15558.999587
633.299866	15555.909359
633.645562	15480.241640
633.991206	15231.939608
634.336797	15103.382623
634.682336	15059.249841
635.027823	14962.268124
635.373257	14847.203787
635.718639	14738.002313
636.063968	14688.455332
636.409245	14446.487509
636.754470	14473.442559
637.099642	14319.775587
637.444762	14086.947376
637.789829	14134.339263
638.134845	13966.834323
638.479808	13998.888500
638.824719	13954.067601
639.169577	13801.381134
639.514383	13854.582951
639.859137	13669.928006
640.203839	13750.407507
640.548489	13586.166714
640.893086	13572.774889
641.237632	13446.420888
641.582125	13594.802211
641.926566	13428.829782
642.270955	13442.745887
642.615292	13400.742993
642.959576	13413.716403
643.303809	13449.279223
643.647990	13382.002504
643.992118	13441.727574
644.336195	13207.329044
644.680219	13407.170465
645.024192	13342.411802
645.368112	13573.841093
645.711981	13627.862098
646.055797	13808.526969
646.399562	13770.597328
646.743274	14044.505901
647.086935	14315.518332
647.430544	14276.280511
647.774101	14304.236230
648.117606	14469.891066
648.461059	14438.383854
648.804460	14427.943625
649.147810	14157.934383
649.491108	14055.987129
649.834354	14079.579729
650.177548	13779.242907
650.520690	13591.616202
650.863781	13510.493954
651.206820	13552.277558
651.549807	13383.439233
651.892742	13185.092514
652.235626	13126.194193
652.578458	13132.014205
652.921238	12815.081904
653.263967	13006.413857
653.606644	12839.289525
653.949269	12808.336840
654.291843	12624.362451
654.634365	12766.467537
654.976836	12617.050258
655.319255	12639.201088
655.661622	12582.399887
656.003938	12511.049916
656.346203	12432.627206
656.688416	12500.589522
657.030577	12459.922533
657.372687	12389.996688
657.714746	12353.660052
658.056753	12542.904967
658.398708	12371.692259
658.740612	12375.672250
659.082465	12469.185654
659.424266	12421.176225
659.766016	12457.109570
660.107715	12358.965866
660.449362	12435.866147
660.790958	12399.224521
661.132503	12341.117661
661.473996	12401.873647
661.815438	12425.095722
662.156829	12431.316506
662.498168	12419.552973
662.839456	12417.075246
663.180693	12430.724170
663.521879	12524.645908
663.863013	12503.657064
664.204097	12475.149339
664.545129	12597.611568
664.886110	12564.614696
665.227040	12649.369095
665.567918	12657.666834
665.908746	12685.312522
666.249522	12674.799196
666.590248	12723.940363
666.930922	12833.976149
667.271545	12811.963951
667.612118	12904.753949
667.952639	12803.613279
668.293109	12812.614259
668.633528	12769.618258
668.973896	12739.847724
669.314213	12827.704953
669.654480	12574.328999
669.994695	12632.042649
670.334859	12659.406032
670.674973	12605.972322
671.015035	12642.815595
671.355047	12579.831419
671.695008	12554.809652
672.034918	12562.484808
672.374777	12600.565685
672.714585	12513.845236
673.054342	12553.178838
673.394049	12508.451201
673.733705	12596.338677
674.073310	12502.169923
674.412864	12524.943336
674.752368	12397.976835
675.091820	12405.142835
675.431223	12394.417780
675.770574	12271.630396
676.109875	12187.354907
676.449125	12153.677478
676.788324	12080.527816
677.127473	11934.649426
677.466571	11917.887590
677.805619	11819.116262
678.144616	11734.082079
678.483562	11705.947400
678.822458	11576.092318
679.161303	11556.169678
679.500098	11546.793132
679.838842	11496.719350
680.177535	11516.430262
680.516179	11581.173801
680.854771	11527.175481
681.193314	11738.291443
681.531805	11884.905841
681.870247	12293.647636
682.208638	12700.766179
682.546978	13024.425900
682.885268	13082.626021
683.223508	12766.515428
683.561697	12607.099020
683.899836	12513.338600
684.237925	12315.717807
684.575963	12229.357801
684.913951	12164.243737
685.251889	12107.850869
685.589776	12197.863192
685.927614	12124.423663
686.265401	12087.013260
686.603137	12134.949592
686.940824	12282.484000
687.278460	12400.189902
687.616046	12449.784773
687.953582	12628.171043
688.291068	12541.601829
688.628504	12770.714709
688.965889	12788.320939
689.303224	12753.947832
689.640510	12649.064105
689.977745	12353.193745
690.314930	12127.995320
690.652065	12043.152701
690.989150	11752.028587
691.326185	11525.378310
691.663170	11315.038686
692.000105	11077.963303
692.336990	10971.375667
692.673825	10716.661287
693.010610	10597.808523
693.347345	10400.223018
693.684030	10190.931955
694.020665	10134.554211
694.357251	9936.875445
694.693786	9892.004135
695.030272	9721.416530
695.366707	9599.279454
695.703093	9529.814875
696.039429	9536.038179
696.375716	9460.272158
696.711952	9325.128905
697.048139	9357.382208
697.384276	9317.322678
697.720363	9331.168208
698.056400	9271.054968
698.392388	9229.316735
698.728326	9187.339047
699.064214	9122.008214
699.400053	9168.107045
699.735842	8984.722471
700.071581	8941.643291
700.407270	8868.085295
700.742910	8788.671998
701.078501	8699.173873
701.414042	8575.680728
701.749533	8507.456272
702.084974	8376.882826
702.420366	8484.125812
702.755709	8371.748410
703.091002	8231.339673
703.426246	8261.311853
703.761440	8214.229997
704.096584	8169.961104
704.431679	8106.566074
704.766725	8091.755164
705.101721	8037.328347
705.436668	8081.924914
705.771565	7980.275088
706.106413	8062.705515
706.441212	8107.596990
706.775961	8050.027013
707.110661	8086.577899
707.445311	8240.701096
707.779913	8131.292934
708.114465	8259.844877
708.448967	8304.418760
708.783421	8434.478008
709.117825	8619.707645
709.452180	8657.813727
709.786485	8740.279442
710.120742	9025.490282
710.454949	9024.068677
710.789107	9117.894632
711.123216	9332.277261
711.457275	9493.926901
711.791286	9664.035596
712.125247	9651.833483
712.459159	9641.499118
712.793023	9895.215350
713.126837	9472.519641
713.460602	9616.545406
713.794318	9447.276063
714.127985	9483.058173
714.461602	9165.374740
714.795171	9109.740566
715.128691	8866.555304
715.462162	8613.403682
715.795584	8561.580620
716.128957	8421.751615
716.462281	8247.297445
716.795556	8301.978841
717.128782	8091.823220
717.461960	7827.011408
717.795088	7898.918427
718.128167	7800.154661
718.461198	7636.453272
718.794180	7582.659119
719.127113	7574.563026
719.459997	7427.804956
719.792833	7192.907351
720.125619	7258.447392
720.458357	7116.506144
720.791046	7104.140193
721.123686	7104.651871
721.456278	6944.968281
721.788821	6964.901004
722.121315	6854.784560
722.453761	6918.640855
722.786158	6870.286108
723.118506	6877.968826
723.450805	6844.755184
723.783056	6910.426295
724.115259	6817.366595
724.447412	6821.175187
724.779518	6854.824889
725.111574	6861.196907
725.443582	6944.333096
725.775542	6923.049344
726.107453	7106.441480
726.439315	7027.111363
726.771129	7079.776297
727.102895	7246.502378
727.434612	7359.368772
727.766281	7393.802373
728.097901	7473.371945
728.429473	7467.556974
728.760996	7443.361956
729.092471	7414.748367
729.423897	7364.977055
729.755276	7379.404838
730.086606	7304.765514
730.417887	7399.340080
730.749120	7579.246258
731.080305	7776.269674
731.411442	7903.039570
731.742530	7897.116214
732.073570	8008.964294
732.404562	8090.565452
732.735506	7934.894621
733.066401	8078.764111
733.397249	8018.325717
733.728048	7782.646734
734.058798	7451.664737
734.389501	7240.384938
734.720156	7055.281330
735.050762	6818.515978
735.381320	6716.825823
735.711831	6674.235635
736.042293	6562.024591
736.372707	6584.331697
736.703073	6446.282219
737.033391	6483.402756
737.363661	6492.708726
737.693883	6520.346852
738.024056	6603.200736
738.354182	6651.681512
738.684260	6687.279620
739.014290	6792.188552
739.344272	6905.322127
739.674207	6935.251457
740.004093	6995.730180
740.333931	7016.449322
740.663722	7026.430807
740.993464	7106.474248
741.323159	7098.484019
741.652806	6850.338262
741.982405	6853.259611
742.311956	6911.164824
742.641460	6761.422390
742.970915	6560.184570
743.300323	6552.685854
743.629683	6498.130487
743.958996	6372.126846
744.288260	6281.842302
744.617477	6226.066975
744.946647	6237.091979
745.275768	6066.549744
745.604842	6019.379668
745.933869	6007.558162
746.262847	5963.518642
746.591778	5948.743020
746.920662	5914.954686
747.249498	5902.853397
747.578286	5947.255880
747.907027	6020.125758
748.235720	6081.834523
748.564365	6054.587086
748.892963	6076.122895
749.221514	6237.457462
749.550017	6082.136992
749.878473	5946.867711
750.206881	5996.313868
750.535242	5944.919305
750.863555	5876.278954
751.191821	5894.472478
751.520039	5896.811574
751.848210	5805.168438
752.176334	5819.087064
752.504411	5875.394232
752.832440	5802.010155
753.160421	5728.227827
753.488356	5773.981340
753.816243	5809.324869
754.144082	5659.559750
754.471875	5626.593125
754.799620	5671.771945
755.127318	5683.974058
755.454969	5638.979240
755.782572	5604.185196
756.110129	5647.917205
756.437638	5634.999249
756.765100	5573.731585
757.092515	5568.665226
757.419882	5621.637670
757.747203	5601.450370
758.074477	5664.767262
758.401703	5657.661756
758.728882	5602.425833
759.056014	5649.298482
759.383099	5787.673113
759.710138	5799.628210
760.037129	5782.407628
760.364073	5786.964831
760.690970	5870.000197
761.017820	5852.567887
761.344623	5807.431916
761.671379	5899.737963
761.998088	6020.191293
762.324751	6250.778712
762.651366	6827.824469
762.977935	8109.310982
763.304456	9721.812260
763.630931	10645.931377
763.957359	10287.210432
764.283740	9360.051498
764.610074	8545.680821
764.936362	7551.671147
765.262602	6956.593182
765.588796	6410.971457
765.914943	6072.263892
766.241044	5914.127937
766.567097	5721.775150
766.893104	5462.939627
767.219064	5280.636380
767.544978	5217.939550
767.870845	5146.304754
768.196665	5036.306777
768.522438	4971.520388
768.848165	4938.294143
769.173846	4867.541549
769.499479	4828.616279
769.825066	4770.574955
770.150607	4711.311150
770.476101	4685.019012
770.801548	4689.278787
771.126949	4610.150316
771.452303	4556.716606
771.777611	4517.932488
772.102872	4530.210219
772.428087	4495.401051
772.753256	4456.105257
773.078378	4420.401285
773.403453	4346.447558
773.728482	4329.131195
774.053465	4283.559164
774.378401	4266.908233
774.703291	4274.366620
775.028135	4208.214078
775.352932	4155.236593
775.677683	4140.508862
776.002388	4158.737674
776.327046	4173.362061
776.651658	4098.238787
776.976224	4038.407852
777.300743	4039.557235
777.625216	4059.923497
777.949643	4061.892067
778.274024	4014.240561
778.598359	3966.047130
778.922647	3992.132581
779.246889	3982.493894
779.571086	3978.322340
779.895236	3966.226091
780.219339	3952.418371
780.543397	3940.153243
780.867409	3995.051409
781.191374	4009.970703
781.515294	3949.426446
781.839167	3941.166515
782.162995	3958.530770
782.486776	3946.880663
782.810511	3955.173361
783.134201	3952.756128
783.457844	3911.494284
783.781441	3853.478165
784.104993	3860.805482
784.428498	3879.039335
784.751958	3875.959190
785.075372	3855.108978
785.398739	3820.493895
785.722061	3828.413548
786.045337	3868.505844
786.368568	3905.570928
786.691752	3819.520952
787.014891	3861.685163
787.337983	3988.676870
787.661030	4144.370386
787.984031	4306.572031
788.306987	4475.004543
788.629897	4557.059404
788.952760	4514.418804
789.275579	4444.624029
789.598351	4386.015575
789.921078	4251.545316
790.243759	4052.228176
790.566395	4028.509547
790.888984	4025.326058
791.211529	3917.062238
791.534027	3858.443701
791.856480	3849.861137
792.178888	3789.596663
792.501249	3739.217892
792.823566	3749.259871
793.145836	3779.552164
793.468062	3729.105338
793.790241	3680.526258
794.112375	3710.657235
794.434464	3773.412039
794.756507	3796.288795
795.078505	3782.539048
795.400457	3808.155671
795.722364	3944.556691
796.044226	4049.629461
796.366042	4122.275008
796.687812	4107.650621
797.009538	4115.343422
797.331218	4073.784149
797.652852	4042.982699
797.974442	4022.177857
798.295986	4023.337323
798.617484	3945.254891
798.938938	3854.065459
799.260346	3896.574989
799.581709	3894.112385
799.903026	3826.664267
800.224299	3785.737660
800.545526	3776.383799
800.866708	3740.362234
801.187845	3675.487625
801.508936	3712.870302
801.829983	3717.440108
802.150984	3635.997747
802.471940	3625.194554
802.792851	3637.502531
803.113717	3637.570587
803.434538	3641.754744
803.755314	3586.077721
804.076045	3553.239644
804.396731	3572.443920
804.717372	3598.783949
805.037967	3588.595777
805.358518	3576.638160
805.679024	3602.600102
805.999485	3614.225003
806.319901	3616.853965
806.640272	3633.764515
806.960598	3650.780930
807.280879	3621.476703
807.601115	3633.414155
807.921306	3648.467041
808.241453	3686.545396
808.561554	3668.533353
808.881611	3601.425513
809.201623	3634.059423
809.521590	3647.058038
809.841513	3621.902680
810.161390	3649.674397
810.481223	3632.766367
810.801011	3577.268304
811.120755	3566.941501
811.440453	3601.778394
811.760107	3607.789970
812.079716	3564.960327
812.399281	3529.422713
812.718801	3554.265519
813.038276	3526.766025
813.357707	3524.908360
813.677093	3543.295968
813.996434	3489.479131
814.315731	3497.678567
814.634983	3503.932119
814.954191	3516.613141
815.273354	3544.876370
815.592473	3542.925444
815.911547	3545.572049
816.230577	3586.304572
816.549562	3634.500524
816.868502	3678.519879
817.187399	3703.869321
817.506250	3700.504351
817.825058	3669.879342
818.143821	3758.752363
818.462539	3865.138353
818.781213	3907.552101
819.099843	3964.101245
819.418429	4198.499775
819.736970	4439.136733
820.055466	4677.815203
820.373919	5037.884658
820.692327	5441.497079
821.010691	5860.822776
821.329011	7177.920001
821.647286	9833.473818
821.965517	14291.547646
822.283704	18305.299214
822.601847	20553.212729
822.919945	18798.944122
823.237999	16269.950993
823.556010	13807.143173
823.873976	11761.185843
824.191897	9684.147279
824.509775	8325.798293
824.827609	7206.102571
825.145398	6651.978940
825.463144	6535.266147
825.780845	6652.379712
826.098502	6825.931516
826.416116	7659.463619
826.733685	8957.701887
827.051210	10078.640253
827.368692	10167.414972
827.686129	8951.448335
828.003522	7443.858510
828.320872	6433.641526
828.638177	5735.323251
828.955439	5188.773954
829.272656	4691.605280
829.589830	4405.355961
829.906960	4230.914394
830.224046	4051.144327
830.541088	3925.518774
830.858086	3876.899365
831.175041	3803.041420
831.491952	3780.605765
831.808819	3795.361223
832.125642	3862.027962
832.442421	4007.954242
832.759157	4269.728758
833.075849	4804.146519
833.392497	5651.234285
833.709101	6414.734679
834.025662	6775.235152
834.342179	6437.722340
834.658653	5781.711949
834.975083	5140.588085
835.291469	4570.988112
835.607811	4157.500071
835.924110	4022.568547
836.240366	3828.116120
836.556578	3618.555354
836.872746	3509.358921
837.188871	3474.597644
837.504952	3408.722367
837.820990	3327.005263
838.136984	3280.644291
838.452935	3304.511634
838.768842	3300.203968
839.084706	3320.910508
839.400526	3471.794763
839.716303	3796.215698
840.032037	4307.386178
840.347727	4580.861212
840.663373	4326.454342
840.978977	3946.258081
841.294537	3642.604179
841.610054	3418.345929
841.925527	3306.334011
842.240957	3237.156778
842.556344	3183.818849
842.871687	3126.934469
843.186987	3078.665421
843.502244	3043.667211
843.817458	3008.575739
844.132629	2973.270018
844.447756	2986.863489
844.762840	2969.073257
845.077881	2938.670058
845.392879	2924.237235
845.707833	2918.386976
846.022745	2918.150042
846.337613	2917.277922
846.652438	2909.257446
846.967221	2905.169071
847.281960	2889.707852
847.596656	2887.703993
847.911309	2887.714075
848.225919	2880.845503
848.540485	2872.872918
848.855009	2877.656973
849.169490	2867.758668
849.483928	2856.844570
849.798323	2854.966740
850.112675	2852.489013
850.426984	2862.147864
850.741251	2861.618543
851.055474	2850.354084
851.369654	2843.850996
851.683792	2849.466841
851.997887	2858.170393
852.311938	2860.446474
852.625947	2847.911645
852.939914	2851.637058
853.253837	2857.595702
853.567718	2841.093485
853.881555	2840.044925
854.195350	2853.298118
854.509103	2852.927593
854.822812	2845.128928
855.136479	2844.118177
855.450103	2844.304700
855.763685	2837.680623
856.077224	2833.703153
856.390720	2845.814525
856.704173	2857.205012
857.017584	2846.613548
857.330953	2845.166737
857.644278	2856.834487
857.957561	2860.993439
858.270802	2866.064840
858.584000	2867.551981
858.897155	2852.297449
859.210268	2851.448015
859.523339	2851.218642
859.836367	2849.209742
860.149352	2845.259998
860.462295	2837.733556
860.775195	2851.707634
861.088054	2848.007427
861.400869	2831.926146
861.713642	2828.508244
862.026373	2842.358814
862.339062	2846.132118
862.651708	2851.536235
862.964312	2853.887933
863.276873	2848.289732
863.589392	2857.608305
863.901869	2869.157588
864.214303	2890.635424
864.526696	2905.325346
864.839045	2903.384502
865.151353	2902.426683
865.463619	2897.478790
865.775842	2898.003070
866.088023	2915.911769
866.400162	2926.167997
866.712258	2897.481311
867.024313	2885.826163
867.336325	2892.583830
867.648296	2914.676687
867.960224	2905.645460
868.272110	2895.663975
868.583954	2901.022722
868.895755	2915.145514
869.207515	2898.461815
869.519233	2903.235788
869.830909	2914.321285
870.142542	2925.532812
870.454134	2924.985846
870.765684	2926.742688
871.077191	2924.590116
871.388657	2933.994388
871.700081	2945.664659
872.011463	2957.513892
872.322803	2959.663944
872.634101	2960.354582
872.945357	2973.569967
873.256571	3000.842609
873.567744	2994.851198
873.878874	2984.408447
874.189963	3010.955163
874.501010	3012.311234
874.812015	3000.164574
875.122979	3001.029132
875.433900	2994.463029
875.744780	3002.881756
876.055618	3010.541789
876.366415	3005.440141
876.677169	3018.227028
876.987882	3012.492715
877.298554	3004.963752
877.609183	3028.261445
877.919771	3054.969478
878.230317	3075.875143
878.540822	3124.489510
878.851285	3165.083401
879.161707	3206.662838
879.472087	3303.730255
879.782425	3522.128163
880.092722	3944.271866
880.402977	4455.921255
880.713191	5067.135953
881.023363	6187.643301
881.333494	7457.275541
881.643583	8030.863067
881.953631	7738.801298
882.263637	7135.317209
882.573602	6563.688172
882.883526	5994.718343
883.193408	5425.685500
883.503248	4962.537052
883.813048	4662.109488
884.122806	4372.805231
884.432522	4057.289494
884.742197	3831.050071
885.051831	3635.995226
885.361424	3499.979854
885.670975	3429.552414
885.980485	3349.055270
886.289954	3271.227416
886.599382	3230.815006
886.908768	3190.321938
887.218113	3149.027326
887.527417	3092.808378
887.836680	3042.142262
888.145901	3036.833927
888.455082	3026.817154
888.764221	2980.294866
889.073319	2947.023250
889.382376	2945.180709
889.691392	2948.858230
890.000366	2950.859568
890.309300	2937.661828
890.618193	2950.189095
890.927044	2966.552680
891.235855	2966.136785
891.544625	2951.041050
891.853353	2961.299798
892.162041	2978.273363
892.470687	3017.463293
892.779293	3066.909451
893.087858	3114.939044
893.396381	3182.228365
893.704864	3298.333700
894.013306	3529.384904
894.321707	3827.546469
894.630068	4031.057850
894.938387	4033.404507
895.246665	3987.650995
895.554903	3870.665979
895.863100	3676.218593
896.171256	3509.706760
896.479371	3374.785319
896.787446	3258.662340
897.095480	3155.381701
897.403473	3091.149839
897.711425	3053.240362
898.019336	3045.237530
898.327207	3018.779034
898.635038	2983.914414
898.942827	2967.260962
899.250576	2958.733851
899.558284	2924.164138
899.865952	2906.210069
900.173579	2888.495454
900.481165	2880.051522
900.788711	2870.047352
901.096216	2844.783609
901.403681	2830.630570
901.711105	2840.105418
902.018489	2838.822445
902.325832	2839.084585
902.633135	2847.026923
902.940397	2878.536655
903.247619	2957.082873
903.554800	3137.772950
903.861941	3466.955255
904.169041	3884.072927
904.476101	4186.406047
904.783121	4157.500071
905.090100	3920.540634
905.397039	3649.165240
905.703938	3402.627612
906.010796	3218.615414
906.317614	3113.177161
906.624391	3019.573016
906.931129	2951.096503
907.237826	2888.876061
907.544483	2840.591890
907.851099	2813.397385
908.157675	2792.695887
908.464211	2772.435490
908.770707	2757.014600
909.077163	2747.827097
909.383578	2732.552401
909.689954	2724.300032
909.996289	2719.949517
910.302584	2722.512943
910.608839	2721.724003
910.915054	2715.460369
911.221229	2707.490305
911.527363	2711.256047
911.833458	2717.423898
912.139513	2720.957747
912.445527	2724.264744
912.751502	2734.831003
913.057436	2745.460276
913.363331	2753.576533
913.669186	2774.298196
913.975000	2805.548309
914.280775	2866.495859
914.586510	2933.215530
914.892205	3009.846110
915.197859	3132.331025
915.503475	3318.624344
915.809050	3526.607229
916.114585	3674.030732
916.420081	3697.033517
916.725536	3643.579642
917.030952	3529.057229
917.336328	3400.757343
917.641665	3272.069289
917.946961	3172.992972
918.252218	3105.595265
918.557435	3032.024666
918.862612	2971.823207
919.167750	2924.451484
919.472848	2884.815412
919.777906	2860.121320
920.082925	2835.021415
920.387904	2802.337094
920.692843	2786.964095
920.997743	2776.891870
921.302603	2765.324942
921.607423	2753.236255
921.912204	2742.503639
922.216946	2729.278172
922.521647	2723.289281
922.826310	2715.268805
923.130932	2706.212372
923.435516	2700.503266
923.740059	2692.147553
924.044564	2684.270750
924.349028	2676.633402
924.653454	2672.398833
924.957840	2665.628563
925.262186	2663.281906
925.566493	2660.053047
925.870761	2653.381080
926.174989	2651.155411
926.479178	2645.849596
926.783328	2638.555047
927.087438	2638.484470
927.391509	2639.890952
927.695541	2634.310395
927.999533	2630.393418
928.303486	2630.441309
928.607400	2631.152112
928.911275	2628.636576
929.215110	2626.115999
929.518906	2627.270424
929.822663	2626.332769
930.126381	2627.419138
930.430060	2625.702625
930.733699	2629.654889
931.037299	2626.849487
931.340861	2632.014149
931.644383	2632.621608
931.947866	2630.295116
932.251309	2625.997532
932.554714	2626.519292
932.858080	2625.001904
933.161407	2622.682974
933.464694	2620.306070
933.767943	2614.541510
934.071153	2620.951337
934.374323	2619.978395
934.677455	2619.081069
934.980548	2617.626696
935.283602	2618.387911
935.586617	2618.816409
935.889593	2617.780452
936.192530	2614.211315
936.495428	2619.454115
936.798287	2619.804475
937.101108	2622.831688
937.403890	2629.985085
937.706632	2631.073974
938.009336	2638.111425
938.312002	2647.747591
938.614628	2655.566420
938.917216	2659.841319
939.219765	2660.738644
939.522275	2661.109169
939.824747	2657.230001
940.127179	2657.310659
940.429573	2654.510298
940.731929	2652.803868
941.034246	2648.985194
941.336524	2646.729277
941.638763	2644.067548
941.940964	2641.486477
942.243126	2638.794501
942.545250	2638.239974
942.847335	2635.568163
943.149381	2632.805611
943.451389	2627.018366
943.753359	2627.156998
944.055290	2622.952675
944.357182	2624.351596
944.659036	2621.793210
944.960851	2622.622480
945.262628	2619.441512
945.564367	2619.819598
945.866067	2619.363374
946.167729	2617.969495
946.469352	2621.021913
946.770937	2618.808847
947.072484	2616.142077
947.373992	2619.141563
947.675462	2615.373301
947.976893	2613.140069
948.278286	2610.939606
948.579641	2615.338012
948.880958	2611.463886
949.182236	2610.944647
949.483476	2611.680655
949.784678	2612.593104
950.085841	2609.170161
950.386967	2613.210646
950.688054	2611.819287
950.989103	2617.341871
951.290114	2612.325923
951.591087	2617.556120
951.892021	2619.186933
952.192917	2622.148611
952.493776	2624.018879
952.794596	2624.248252
953.095378	2624.517954
953.396122	2622.897223
953.696828	2621.962089
953.997496	2620.608539
954.298126	2616.648712
954.598718	2616.189968
954.899272	2611.947837
955.199788	2611.045470
955.500266	2608.366097
955.800706	2605.716970
956.101108	2604.111363
956.401472	2603.463575
956.701798	2599.455857
957.002087	2597.199941
957.302337	2597.356217
957.602550	2594.490321
957.902724	2594.250866
958.202861	2592.947728
958.502960	2593.033427
958.803022	2593.197265
959.103045	2592.403283
959.403031	2590.906060
959.702979	2590.200299
960.002889	2586.759711
960.302762	2588.216605
960.602596	2585.696028
960.902393	2587.964547
961.202153	2587.367170
961.501875	2586.898343
961.801559	2585.262489
962.101205	2586.490010
962.400814	2585.622931
962.700385	2585.716192
962.999918	2582.142014
963.299414	2581.882395
963.598873	2585.244845
963.898293	2579.313927
964.197677	2581.438773
964.497022	2582.436922
964.796331	2584.471027
965.095601	2583.122519
965.394835	2586.318610
965.694030	2584.599577
965.993189	2584.861717
966.292309	2581.703434
966.591393	2585.670822
966.890439	2583.987077
967.189447	2584.597056
967.488419	2585.048240
967.787353	2587.430185
968.086249	2584.460945
968.385108	2581.201839
968.683930	2583.626634
968.982714	2584.982705
969.281462	2583.571182
969.580172	2583.301480
969.878844	2583.924062
970.177480	2584.324834
970.476078	2586.610997
970.774639	2585.723754
971.073162	2583.883733
971.371649	2583.475400
971.670098	2584.024885
971.968510	2589.222315
972.266885	2584.713003
972.565223	2582.240317
972.863524	2586.134608
973.161788	2584.097982
973.460014	2583.336768
973.758204	2583.016655
974.056356	2583.361974
974.354471	2586.217787
974.652550	2582.699062
974.950591	2584.065215
975.248595	2582.464648
975.546563	2585.196954
975.844493	2584.302149
976.142386	2583.251068
976.440243	2583.021696
976.738062	2586.421954
977.035845	2582.560430
977.333590	2583.440112
977.631299	2582.464648
977.928971	2578.625810
978.226606	2579.129925
978.524204	2578.827456
978.821765	2578.824935
979.119290	2581.564802
979.416777	2581.602611
979.714228	2582.134453
980.011642	2579.591191
980.309020	2582.061356
980.606360	2582.416757
980.903664	2583.523291
981.200931	2581.524473
981.498162	2582.817529
981.795356	2583.135122
982.092513	2586.875658
982.389633	2587.725092
982.686717	2588.198961
982.983764	2594.815475
983.280775	2595.233891
983.577749	2599.390322
983.874686	2597.005857
984.171587	2598.372009
984.468451	2593.792121
984.765279	2591.747933
985.062070	2591.432861
985.358824	2586.502613
985.655543	2586.822726
985.952224	2583.966912
986.248869	2582.373907
986.545478	2583.629155
986.842050	2582.663774
987.138586	2581.378280
987.435086	2581.151428
987.731549	2580.468351
988.027975	2581.133784
988.324366	2579.674370
988.620719	2579.248392
988.917037	2579.374421
989.213318	2578.502301
989.509563	2581.257292
989.805772	2580.770821
990.101944	2576.362332
990.398080	2578.582960
990.694180	2580.669997
990.990244	2579.565985
991.286271	2579.941551
991.582262	2577.176478
991.878217	2578.540110
992.174136	2578.514904
992.470019	2578.645974
992.765865	2577.688155
993.061676	2575.018864
993.357450	2576.586663
993.653188	2571.716908
993.948890	2579.666808
994.244556	2577.020202
994.540186	2579.344174
994.835780	2580.158320
995.131337	2581.075810
995.426859	2582.114288
995.722345	2580.554051
996.017795	2581.073290
996.313208	2583.223342
996.608586	2580.811150
996.903928	2585.020513
997.199234	2582.739391
997.494504	2583.901377
997.789738	2580.911973
998.084936	2583.288877
998.380099	2581.678228
998.675225	2582.205029
998.970316	2580.473392
999.265371	2580.768300
999.560390	2578.562795
999.855373	2579.177816
1000.150320	2578.779565
1000.445232	2579.190419
1000.740108	2577.415933
1001.034948	2577.299986
1001.329752	2575.991807
1001.624521	2578.840059
1001.919254	2576.626992
1002.213951	2578.779565
1002.508613	2575.472568
1002.803239	2581.368197
1003.097829	2577.541962
1003.392384	2577.788978
1003.686903	2573.277145
1003.981386	2577.783937
1004.275834	2576.563978
1004.570246	2574.557598
1004.864623	2576.931982
1005.158964	2578.144379
1005.453270	2575.664132
1005.747540	2576.395099
1006.041775	2576.173288
1006.335974	2577.708320
1006.630138	2575.966601
1006.924266	2576.763103
1007.218359	2577.766293
1007.512416	2572.841086
1007.806438	2574.176991
1008.100425	2572.699933
1008.394376	2568.893862
1008.688292	2576.372414
1008.982172	2574.164388
1009.276017	2576.400140
1009.569827	2575.119687
1009.863602	2574.867629
1010.157341	2575.969122
1010.451045	2575.520459
1010.744714	2577.552044
1011.038347	2575.863257
1011.331945	2575.510377
1011.625508	2577.000037
1011.919036	2574.015674
1012.212528	2576.067424
1012.505986	2573.075499
1012.799408	2578.693865
1013.092795	2577.415933
1013.386147	2574.497105
1013.679464	2571.369069
1013.972745	2575.883422
1014.265992	2574.350911
1014.559204	2576.972311
1014.852380	2576.412743
1015.145521	2575.689338
1015.438628	2575.240675
1015.731699	2576.311920
1016.024736	2573.335119
1016.317737	2576.974832
1016.610703	2576.374934
1016.903635	2574.207238
1017.196531	2575.880901
1017.489393	2574.537434
1017.782219	2575.182702
1018.075011	2574.323185
1018.367768	2573.264543
1018.660490	2573.889646
1018.953177	2573.889646
1019.245829	2573.889646
