Dividing Wavelength (nm)	Counts (n)	Blue Motor Position (mm): 0.000000	Red Motor Position (mm): 38.300000	
326.493990	2124.894237
326.888308	2124.894237
327.282561	2124.894237
327.676750	2096.051275
328.070874	2096.184866
328.464933	2095.804259
328.858929	2103.542430
329.252859	2111.424274
329.646726	2125.806686
330.040528	2135.924282
330.434265	2154.105203
330.827938	2171.991217
331.221547	2188.669874
331.615091	2207.591845
332.008571	2228.104300
332.401986	2246.043246
332.795338	2264.733324
333.188625	2286.042282
333.581847	2303.658594
333.975006	2323.971923
334.368100	2341.817608
334.761129	2359.312932
335.154095	2374.970756
335.546996	2395.740310
335.939833	2416.633372
336.332606	2429.541246
336.725315	2445.002465
337.117960	2451.034206
337.510540	2461.187090
337.903056	2470.533389
338.295508	2481.661736
338.687896	2486.909577
339.080220	2495.545074
339.472480	2501.770899
339.864676	2510.015706
340.256807	2515.122395
340.648875	2513.670542
341.040879	2519.432581
341.432818	2518.938548
341.824694	2519.503157
342.216506	2520.521470
342.608253	2522.910977
342.999937	2523.636903
343.391557	2519.639268
343.783113	2520.322345
344.174605	2518.517612
344.566033	2516.395286
344.957397	2516.206243
345.348697	2513.766324
345.739934	2514.774555
346.131106	2509.519152
346.522215	2510.981087
346.913260	2504.654439
347.304241	2506.691065
347.695159	2502.436331
348.086012	2504.097391
348.476802	2501.453306
348.867528	2496.074395
349.258191	2495.570279
349.648789	2496.777636
350.039324	2495.093890
350.429796	2495.718993
350.820203	2493.178252
351.210548	2493.067347
351.600828	2492.532984
351.991045	2490.763539
352.381198	2488.961327
352.771288	2489.389825
353.161314	2488.784886
353.551276	2490.836636
353.941175	2489.238590
354.331010	2492.167501
354.720782	2491.703714
355.110490	2489.702376
355.500135	2488.144660
355.889717	2488.984012
356.279235	2489.538539
356.668689	2493.755464
357.058080	2492.301091
357.447408	2489.074753
357.836672	2486.647437
358.225873	2490.972747
358.615010	2483.738691
359.004084	2490.761019
359.393095	2491.040803
359.782043	2493.687408
360.170927	2495.915598
360.559748	2496.495331
360.948505	2496.220588
361.337199	2496.417193
361.725830	2500.399705
362.114398	2498.990702
362.502903	2499.761999
362.891344	2500.578666
363.279722	2498.789056
363.668037	2498.975579
364.056289	2500.135044
364.444478	2503.162257
364.832603	2502.743841
365.220665	2503.981445
365.608665	2505.493791
365.996601	2504.989675
366.384474	2504.440190
366.772284	2508.188288
367.160031	2511.359173
367.547715	2511.901097
367.935336	2513.325223
368.322893	2515.916376
368.710388	2517.771521
369.097820	2525.325690
369.485189	2529.472039
369.872495	2534.266176
370.259738	2541.439738
370.646918	2548.951057
371.034035	2555.998591
371.421090	2565.314643
371.808081	2576.054821
372.195010	2587.054619
372.581875	2599.425610
372.968678	2612.318361
373.355418	2622.824126
373.742096	2639.815335
374.128710	2655.369815
374.515262	2666.742658
374.901751	2683.572550
375.288177	2696.999664
375.674540	2721.212326
376.060841	2740.537589
376.447079	2760.636669
376.833254	2779.717437
377.219367	2789.383849
377.605417	2828.634273
377.991404	2835.976713
378.377329	2858.384642
378.763191	2876.817621
379.148991	2912.950092
379.534727	2939.895059
379.920402	2968.221302
380.306013	2978.275884
380.691563	3030.633308
381.077049	3050.298849
381.462474	3070.266859
381.847835	3108.851851
382.233134	3131.312712
382.618371	3130.551497
383.003545	3198.818803
383.388657	3207.126624
383.773706	3239.929412
384.158693	3254.861310
384.543618	3281.216462
384.928480	3315.650064
385.313280	3362.079091
385.698017	3360.884337
386.082692	3411.578180
386.467305	3416.546237
386.851856	3451.277267
387.236344	3475.129486
387.620770	3506.661903
388.005133	3531.892878
388.389435	3559.631827
388.773674	3569.406625
389.157851	3612.518572
389.541965	3628.161273
389.926018	3591.302877
390.310008	3662.700738
390.693936	3682.051207
391.077802	3726.332703
391.461606	3710.538768
391.845348	3775.340280
392.229027	3777.024025
392.612645	3785.992238
392.996200	3864.472921
393.379694	3907.794077
393.763125	3969.210454
394.146494	3934.804579
394.529801	4000.321935
394.913047	4046.632495
395.296230	4013.675952
395.679351	4069.242070
396.062410	4091.944906
396.445408	4069.075712
396.828343	4101.359261
397.211217	4130.245073
397.594028	4049.531158
397.976778	4116.691930
398.359466	4142.918533
398.742092	4170.554139
399.124656	4091.561778
399.507158	4176.306095
399.889598	4200.599416
400.271977	4259.979167
400.654294	4232.288109
401.036549	4241.881424
401.418742	4208.456054
401.800874	4312.553360
402.182944	4335.409952
402.564952	4396.145773
402.946898	4386.436511
403.328783	4379.966190
403.710606	4294.843787
404.092367	4484.718846
404.474067	4452.480667
404.855705	4457.234476
405.237282	4387.250657
405.618797	4497.800641
406.000250	4533.383625
406.381642	4613.041418
406.762972	4576.056992
407.144240	4584.526131
407.525447	4585.559567
407.906593	4645.861850
408.287677	4685.409702
408.668700	4612.698619
409.049661	4668.365560
409.430560	4707.515161
409.811399	4633.503461
410.192176	4795.200991
410.572891	4736.456425
410.953545	4840.347044
411.334138	4714.683682
411.714669	4785.005257
412.095139	4679.803938
412.475547	4825.362215
412.855894	4804.212054
413.236180	4815.602541
413.616405	4764.144963
413.996568	4854.253067
414.376670	4796.872134
414.756711	4750.740535
415.136691	4778.668527
415.516609	4860.297411
415.896466	4898.441301
416.276262	4929.890540
416.655997	4911.792797
417.035670	5094.688379
417.415283	5182.084343
417.794834	5131.637517
418.174324	5083.348304
418.553753	4993.530066
418.933121	5174.537736
419.312428	5242.200103
419.691674	5182.598541
420.070859	5307.132685
420.449983	5217.470723
420.829045	5333.339123
421.208047	5242.447119
421.586988	5310.754754
421.965867	5324.590201
422.344686	5456.582732
422.723444	5307.878776
423.102141	5130.326817
423.480777	5428.886632
423.859352	5193.182443
424.237866	5456.580211
424.616319	5447.120486
424.994712	5559.510490
425.373044	5436.995328
425.751314	5578.419858
426.129524	5385.414242
426.507673	5578.412297
426.885762	5659.567312
427.263789	5591.879739
427.641756	5471.587726
428.019662	5593.553402
428.397508	5599.811995
428.775292	5549.158481
429.153016	5642.437471
429.530679	5570.790072
429.908282	5655.158823
430.285824	5528.046129
430.663305	5805.264220
431.040726	5533.626686
431.418086	5532.855389
431.795385	5642.447553
432.172624	5656.799718
432.549802	5646.399818
432.926920	5660.459596
433.303977	5669.127860
433.680974	5710.437595
434.057910	5729.803188
434.434786	5736.606225
434.811601	5699.904104
435.188355	5935.585608
435.565050	5808.931659
435.941683	5791.748886
436.318257	5999.880485
436.694770	5988.868084
437.071222	6027.478281
437.447614	5954.081602
437.823946	5867.545155
438.200218	6020.231623
438.576429	5885.035438
438.952580	5986.718032
439.328670	6026.543147
439.704700	5935.136946
440.080670	5922.491211
440.456580	6193.811153
440.832429	6077.738585
441.208218	5927.701244
441.583947	6077.788997
441.959616	6083.553556
442.335224	6014.603174
442.710773	6149.181817
443.086261	6176.887999
443.461689	5970.488037
443.837057	6116.230315
444.212365	6267.263285
444.587612	6164.564898
444.962800	6320.828065
445.337927	6299.667822
445.712995	5911.302370
446.088002	6487.095401
446.462949	6316.149874
446.837837	6248.910964
447.212664	6422.374547
447.587431	6562.453089
447.962139	7098.536951
448.336786	8030.752161
448.711374	7770.114425
449.085901	6845.839032
449.460369	6762.256701
449.834776	6698.559202
450.209124	7093.178204
450.583412	7241.488951
450.957640	7389.918164
451.331808	7151.695918
451.705917	6707.497168
452.079965	6632.855323
452.453954	6837.868968
452.827883	6718.111317
453.201752	6812.108672
453.575562	6614.089628
453.949311	6819.819117
454.323001	6703.504574
454.696632	6778.232118
455.070202	6923.266114
455.443713	7073.179947
455.817164	7173.957654
456.190556	7254.674088
456.563888	7328.675706
456.937160	7369.009978
457.310373	7025.281424
457.683526	7054.333593
458.056619	6939.629699
458.429653	6932.317506
458.802628	6866.469954
459.175542	6973.665050
459.548398	7333.300965
459.921194	7492.997157
460.293930	7494.363310
460.666607	8027.104887
461.039224	8333.594438
461.411782	8457.311915
461.784280	8475.523083
462.156719	8364.310188
462.529099	8245.409533
462.901419	7834.217737
463.273680	7725.328814
463.645882	7741.183243
464.018024	7609.168027
464.390106	7774.873274
464.762130	8159.682192
465.134094	8635.042835
465.505999	9652.020006
465.877845	10874.220029
466.249631	11521.138700
466.621358	11140.849177
466.993026	10513.921202
467.364634	10252.398744
467.736184	9888.803002
468.107674	9561.075070
468.479105	9591.906767
468.850477	9359.386066
469.221790	9130.265624
469.593043	8800.445613
469.964238	8658.431268
470.335373	8666.600458
470.706449	8733.489007
471.077467	8713.800781
471.448425	10022.030616
471.819324	11096.930645
472.190164	11119.643563
472.560945	9874.097956
472.931667	9081.187471
473.302330	8948.683262
473.672934	8595.220240
474.043479	8953.716854
474.413965	8888.159169
474.784393	8772.444524
475.154761	8928.047299
475.525070	9013.525104
475.895321	8842.193928
476.265513	9014.563581
476.635645	9186.197226
477.005719	9189.398358
477.375734	9305.044948
477.745691	9538.130258
478.115588	9672.076236
478.485427	9914.301158
478.855207	10453.175298
479.224928	11260.826118
479.594591	11890.675441
479.964194	11701.725433
480.333739	11643.162349
480.703226	11562.582025
481.072653	11652.251549
481.442022	11889.251315
481.811333	12081.289030
482.180584	11887.771737
482.549777	11593.292735
482.918912	11423.741087
483.287988	11441.186000
483.657005	11458.257867
484.025964	11140.234156
484.394864	11268.279464
484.763706	11242.597306
485.132489	10992.558595
485.501213	10954.155085
485.869879	11028.698627
486.238487	10870.479493
486.607036	10982.756072
486.975527	10759.198543
487.343959	10948.458582
487.712333	11006.683908
488.080648	10928.674573
488.448905	10971.592437
488.817104	10919.497153
489.185244	11179.247646
489.553326	11335.049547
489.921350	11869.545445
490.289315	12930.138679
490.657222	13269.020164
491.025070	13185.732741
491.392861	13054.824058
491.760593	12681.549301
492.128267	12328.996206
492.495883	12004.368584
492.863440	11665.058601
493.230939	11334.943682
493.598380	11266.116809
493.965763	11128.964657
494.333088	11030.631910
494.700354	10951.203490
495.067563	11012.939980
495.434713	10844.935967
495.801805	10968.797117
496.168839	10892.403471
496.535815	10835.531694
496.902733	10831.150932
497.269593	10764.408575
497.636395	10858.458862
498.003139	10849.805721
498.369825	10716.648684
498.736453	10868.614266
499.103023	10795.784717
499.469535	10826.197998
499.835989	10822.555764
500.202385	10785.682244
500.568723	10631.858997
500.935003	10860.200581
501.301226	10659.502164
501.667390	10918.211658
502.033497	11012.332521
502.399546	10876.150791
502.765537	10788.051587
503.131470	10848.192552
503.497345	11033.104596
503.863163	10640.439040
504.228923	10952.292379
504.594625	11013.033242
504.960269	10768.960737
505.325856	10984.391926
505.691385	10775.451223
506.056856	10928.170458
506.422270	10955.233892
506.787625	10845.394712
507.152924	10966.939452
507.518164	10947.142840
507.883347	10861.430622
508.248472	10785.331884
508.613540	11018.084478
508.978550	10895.221476
509.343503	10873.390760
509.708398	10989.538944
510.073236	11099.607497
510.438016	11103.978178
510.802738	11059.169882
511.167403	11106.685277
511.532010	11010.069043
511.896561	11235.670760
512.261053	11306.491410
512.625488	11171.204485
512.989866	11159.856847
513.354186	11147.022070
513.718449	11045.770495
514.082655	11245.947152
514.446803	11141.489403
514.810894	11263.281160
515.174927	11126.610438
515.538904	11154.787967
515.902822	11301.616614
516.266684	11189.334995
516.630488	11131.404575
516.994235	11188.568739
517.357925	11247.025959
517.721558	11338.278406
518.085133	11347.256701
518.448651	11361.787827
518.812112	11245.657286
519.175516	11256.064748
519.538863	11382.580066
519.902152	11293.656632
520.265385	11453.924995
520.628560	11369.082376
520.991678	11339.364774
521.354739	11406.495299
521.717743	11341.098931
522.080690	11320.059676
522.443580	11451.956425
522.806413	11402.671584
523.169189	11440.407141
523.531908	11495.292704
523.894569	11311.197327
524.257174	11321.703092
524.619722	11436.001173
524.982213	11377.995136
525.344647	11434.229207
525.707025	11385.037628
526.069345	11477.963737
526.431608	11392.614482
526.793815	11509.533963
527.155964	11297.334154
527.518057	11344.363078
527.880093	11289.555654
528.242072	11361.273629
528.603995	11262.887950
528.965860	11190.983452
529.327669	11232.888043
529.689421	11186.063286
530.051117	11161.137301
530.412755	11261.589853
530.774337	11158.664615
531.135862	11133.862138
531.497331	11153.172277
531.858743	11005.658034
532.220098	11171.161635
532.581396	11046.708149
532.942638	11028.197033
533.303824	10992.092289
533.664953	10999.921201
534.026025	10911.837119
534.387040	11009.960658
534.747999	11012.919816
535.108902	11069.516850
535.469748	10823.062400
535.830537	10928.972001
536.191270	10905.485266
536.551947	10928.863617
536.912567	10922.836917
537.273131	10851.418891
537.633638	10835.856849
537.994089	10813.983282
538.354483	10765.885633
538.714821	10907.342931
539.075103	10911.005329
539.435328	10872.218691
539.795497	10702.024296
540.155609	10852.091885
540.515665	10944.067737
540.875665	10680.859012
541.235609	10743.618857
541.595496	10736.916643
541.955328	10894.276260
542.315102	10780.323498
542.674821	10722.531710
543.034483	10714.843951
543.394090	10720.202697
543.753640	10648.336008
544.113134	10864.208298
544.472571	10720.303520
544.831953	10859.779644
545.191278	10659.539972
545.550548	10688.292193
545.909761	10819.616772
546.268918	10791.164499
546.628019	10867.444719
546.987064	10729.254089
547.346053	10655.365897
547.704986	10742.782025
548.063863	10722.869467
548.422684	10713.341687
548.781449	10631.856476
549.140158	10723.711340
549.498811	10601.163411
549.857408	10453.689496
550.215949	10667.237814
550.574434	10516.766934
550.932864	10608.319329
551.291237	10661.818574
551.649555	10599.061250
552.007817	10609.592220
552.366022	10570.019162
552.724173	10557.685979
553.082267	10539.910871
553.440305	10662.463842
553.798288	10458.453387
554.156215	10604.964441
554.514086	10568.975643
554.871902	10413.950080
555.229661	10439.730541
555.587365	10408.868597
555.945014	10303.011928
556.302606	10412.067209
556.660143	10309.381426
557.017625	10439.584348
557.375050	10336.792700
557.732421	10457.538417
558.089735	10359.987049
558.446994	10351.810298
558.804197	10375.473474
559.161345	10372.098421
559.518437	10216.188136
559.875474	10287.333940
560.232455	10297.131422
560.589381	10246.036807
560.946251	10220.427746
561.303065	10317.946347
561.659825	10240.541950
562.016528	10162.948510
562.373177	10036.922184
562.729770	10127.940217
563.086307	10044.675479
563.442789	10119.047622
563.799216	9976.980344
564.155587	10007.660807
564.511904	9952.003948
564.868164	9925.242983
565.224370	9928.285319
565.580520	9836.140588
565.936615	9829.889558
566.292654	9689.218680
566.648638	9794.558631
567.004567	9735.619981
567.360441	9709.479077
567.716260	9597.751985
568.072023	9682.821456
568.427732	9605.590979
568.783385	9513.705868
569.138982	9547.118635
569.494525	9545.737359
569.850013	9418.937217
570.205445	9463.062436
570.560823	9357.730047
570.916145	9256.281867
571.271412	9299.184607
571.626625	9231.156756
571.981782	9184.571454
572.336884	9140.070668
572.691931	9134.742168
573.046923	9053.965240
573.401860	8994.938369
573.756743	8914.731091
574.111570	8929.985623
574.466342	8900.497393
574.821059	8898.236436
575.175722	8778.826625
575.530330	8761.898430
575.884882	8737.481601
576.239380	8644.661356
576.593823	8616.773693
576.948211	8593.221422
577.302544	8480.970050
577.656823	8462.000188
578.011047	8437.580838
578.365216	8383.108651
578.719330	8303.902041
579.073389	8281.335316
579.427394	8221.769042
579.781344	8168.791557
580.135239	8100.418387
580.489080	8085.110923
580.842866	7972.836865
581.196597	7948.475489
581.550273	7960.269269
581.903895	7900.650063
582.257463	7931.474198
582.610975	7799.496790
582.964434	7794.501007
583.317837	7702.880556
583.671186	7668.802356
584.024481	7631.767520
584.377721	7542.413068
584.730906	7497.791294
585.084037	7492.208217
585.437113	7422.761281
585.790135	7408.792244
586.143103	7305.098230
586.496016	7259.425376
586.848874	7273.296111
587.201679	7237.350163
587.554428	7127.266487
587.907124	7131.196066
588.259765	7089.160405
588.612352	7051.661782
588.964884	6949.943900
589.317362	6923.412308
589.669786	6895.640591
590.022155	6910.970740
590.374470	6887.925105
590.726731	6825.276166
591.078937	6688.625608
591.431090	6731.949284
591.783188	6633.861033
592.135232	6598.424243
592.487222	6575.575213
592.839157	6580.772642
593.191038	6506.576940
593.542866	6447.981088
593.894639	6355.652356
594.246358	6360.854826
594.598022	6347.311767
594.949633	6255.088898
595.301190	6203.245672
595.652692	6201.577050
596.004141	6230.089816
596.355535	6080.480973
596.706876	6033.910794
597.058162	5962.248271
597.409395	5983.751313
597.760573	5995.615668
598.111698	5916.966107
598.462768	5882.285489
598.813785	5844.209654
599.164748	5789.394668
599.515657	5766.366677
599.866511	5677.997770
600.217312	5734.229321
600.568060	5626.910717
600.918753	5659.302651
601.269392	5615.505107
601.619978	5540.911153
601.970510	5546.416093
602.320988	5522.924316
602.671412	5523.141086
603.021783	5469.553621
603.372100	5430.643475
603.722363	5399.201798
604.072572	5368.130646
604.422728	5345.263973
604.772830	5286.068223
605.122878	5258.563688
605.472872	5242.323611
605.822813	5224.109922
606.172701	5178.719373
606.522534	5190.205642
606.872314	5165.917363
607.222041	5125.136949
607.571714	5121.903048
607.921333	5083.756637
608.270899	5052.211617
608.620411	5075.133744
608.969870	5006.390049
609.319276	4979.150174
609.668627	4961.196105
610.017926	4954.703099
610.367171	4949.117500
610.716362	4917.569960
611.065500	4885.591400
611.414585	4867.428123
611.763616	4844.553887
612.112594	4809.454854
612.461518	4791.571360
612.810389	4797.391372
613.159207	4751.988220
613.507971	4709.463567
613.856682	4732.179006
614.205340	4697.768090
614.553945	4703.963668
614.902496	4640.946725
615.250994	4642.020490
615.599439	4614.299185
615.947830	4597.799489
616.296169	4563.612904
616.644454	4547.927354
616.992686	4523.210577
617.340864	4519.724619
617.688990	4466.089262
618.037063	4485.359073
618.385082	4442.320222
618.733048	4446.804328
619.080961	4409.797218
619.428821	4394.973705
619.776628	4370.967730
620.124382	4338.706866
620.472083	4304.941218
620.819731	4299.365702
621.167326	4239.965786
621.514868	4221.406778
621.862357	4167.700846
622.209793	4157.086696
622.557176	4114.632619
622.904506	4079.087443
623.251783	4041.006567
623.599007	4012.551774
623.946179	3991.446984
624.293297	3960.703507
624.640363	3923.283022
624.987376	3902.352151
625.334336	3872.710167
625.681243	3837.515351
626.028097	3817.930468
626.374899	3799.636121
626.721647	3773.691823
627.068343	3750.724326
627.414987	3729.306984
627.761577	3695.201057
628.108115	3692.113351
628.454600	3653.367042
628.801032	3648.787154
629.147412	3634.513127
629.493739	3611.790126
629.840014	3581.056731
630.186236	3583.657967
630.532405	3542.444013
630.878521	3543.318654
631.224585	3522.705376
631.570597	3494.447188
631.916556	3484.206084
632.262462	3474.227120
632.608316	3455.143832
632.954117	3436.196655
633.299866	3426.676436
633.645562	3408.230854
633.991206	3380.786813
634.336797	3357.350488
634.682336	3340.558405
635.027823	3318.863799
635.373257	3309.068837
635.718639	3277.392747
636.063968	3271.708846
636.409245	3239.657190
636.754470	3228.748133
637.099642	3213.254147
637.444762	3192.272864
637.789829	3182.364477
638.134845	3166.021056
638.479808	3153.418171
638.824719	3145.952222
639.169577	3124.093779
639.514383	3117.651185
639.859137	3098.920778
640.203839	3093.748554
640.548489	3080.142479
640.893086	3069.303999
641.237632	3054.208263
641.582125	3051.579302
641.926566	3036.221427
642.270955	3033.594985
642.615292	3025.884541
642.959576	3019.341123
643.303809	3010.854340
643.647990	3005.263701
643.992118	2996.804645
644.336195	2984.657984
644.680219	2977.938126
645.024192	2975.427632
645.368112	2978.107005
645.711981	2971.591314
646.055797	2980.695638
646.399562	2970.404122
646.743274	2977.169350
647.086935	2980.728405
647.430544	2977.983497
647.774101	2970.739359
648.117606	2967.881024
648.461059	2958.975826
648.804460	2945.236161
649.147810	2933.886003
649.491108	2917.988725
649.834354	2911.553692
650.177548	2895.850498
650.520690	2882.987994
650.863781	2873.593803
651.206820	2872.709081
651.549807	2859.929756
651.892742	2847.336954
652.235626	2843.072137
652.578458	2834.789522
652.921238	2827.540342
653.263967	2824.704693
653.606644	2815.408806
653.949269	2811.708599
654.291843	2804.819862
654.634365	2801.412042
654.976836	2792.519447
655.319255	2793.104221
655.661622	2782.583332
656.003938	2781.030657
656.346203	2775.689555
656.688416	2772.687547
657.030577	2768.730242
657.372687	2760.855959
657.714746	2756.124837
658.056753	2755.570310
658.398708	2744.419277
658.740612	2746.644947
659.082465	2744.056314
659.424266	2739.118504
659.766016	2737.084398
660.107715	2733.994171
660.449362	2734.528533
660.790958	2732.469222
661.132503	2726.182903
661.473996	2725.396483
661.815438	2720.884651
662.156829	2718.495144
662.498168	2716.629917
662.839456	2712.377703
663.180693	2710.598176
663.521879	2709.806715
663.863013	2706.456868
664.204097	2703.646425
664.545129	2703.444779
664.886110	2699.555529
665.227040	2698.375899
665.567918	2699.328677
665.908746	2695.870445
666.249522	2694.126206
666.590248	2689.531194
666.930922	2691.010773
667.271545	2690.264682
667.612118	2688.270906
667.952639	2685.546162
668.293109	2682.425688
668.633528	2678.543999
668.973896	2678.614576
669.314213	2675.547033
669.654480	2671.251970
669.994695	2670.924295
670.334859	2667.589572
670.674973	2665.497493
671.015035	2663.571772
671.355047	2664.529592
671.695008	2661.542708
672.034918	2661.774601
672.374777	2656.733447
672.714585	2655.969712
673.054342	2655.379897
673.394049	2652.861841
673.733705	2653.688590
674.073310	2650.454690
674.412864	2648.743218
674.752368	2646.106695
675.091820	2646.540234
675.431223	2640.132928
675.770574	2641.045377
676.109875	2632.664458
676.449125	2634.360807
676.788324	2630.663120
677.127473	2630.743779
677.466571	2626.312604
677.805619	2627.351082
678.144616	2628.475259
678.483562	2626.277316
678.822458	2623.592902
679.161303	2623.086266
679.500098	2623.474435
679.838842	2620.308590
680.177535	2617.586367
680.516179	2619.633076
680.854771	2618.486213
681.193314	2619.355812
681.531805	2622.700618
681.870247	2625.498458
682.208638	2625.387553
682.546978	2625.546349
682.885268	2622.821605
683.223508	2619.282715
683.561697	2620.762294
683.899836	2620.048971
684.237925	2617.495626
684.575963	2615.007817
684.913951	2615.111161
685.251889	2616.802468
685.589776	2614.135697
685.927614	2614.579319
686.265401	2615.136366
686.603137	2614.125615
686.940824	2613.041767
687.278460	2617.409927
687.616046	2613.873557
687.953582	2615.864813
688.291068	2616.472272
688.628504	2619.509567
688.965889	2616.900770
689.303224	2613.510594
689.640510	2612.318361
689.977745	2610.322064
690.314930	2605.948863
690.652065	2606.392485
690.989150	2603.322422
691.326185	2599.133223
691.663170	2600.310333
692.000105	2597.361258
692.336990	2595.032245
692.673825	2592.869590
693.010610	2594.278592
693.347345	2592.022676
693.684030	2584.224011
694.020665	2586.081676
694.357251	2581.973136
694.693786	2584.478589
695.030272	2586.469845
695.366707	2583.530852
695.703093	2583.903898
696.039429	2583.596387
696.375716	2583.538414
696.711952	2583.634196
697.048139	2581.385841
697.384276	2582.290728
697.720363	2582.356263
698.056400	2581.058166
698.392388	2580.155800
698.728326	2579.064390
699.064214	2580.543969
699.400053	2580.044894
699.735842	2578.875347
700.071581	2578.857703
700.407270	2576.919379
700.742910	2575.591035
701.078501	2574.839903
701.414042	2573.020047
701.749533	2574.005592
702.084974	2572.427711
702.420366	2576.301838
702.755709	2573.574573
703.091002	2571.512742
703.426246	2575.177660
703.761440	2573.057855
704.096584	2572.110118
704.431679	2570.527196
704.766725	2571.974007
705.101721	2568.051989
705.436668	2571.885787
705.771565	2567.870508
706.106413	2574.431570
706.441212	2570.741445
706.775961	2572.657083
707.110661	2571.641291
707.445311	2572.528534
707.779913	2572.823442
708.114465	2572.246229
708.448967	2574.048442
708.783421	2572.886456
709.117825	2575.911148
709.452180	2571.590879
709.786485	2571.346383
710.120742	2577.816704
710.454949	2575.795202
710.789107	2576.115315
711.123216	2570.930488
711.457275	2574.222362
711.791286	2576.531210
712.125247	2576.730336
712.459159	2578.444328
712.793023	2579.434915
713.126837	2577.743608
713.460602	2579.989442
713.794318	2577.975501
714.127985	2575.679255
714.461602	2576.138000
714.795171	2574.262691
715.128691	2574.890315
715.462162	2571.522824
715.795584	2569.609706
716.128957	2571.742114
716.462281	2569.430745
716.795556	2569.408060
717.128782	2568.717422
717.461960	2567.273131
717.795088	2568.634243
718.128167	2564.218192
718.461198	2565.352452
718.794180	2565.392781
719.127113	2566.343038
719.459997	2565.692729
719.792833	2566.685837
720.125619	2565.780950
720.458357	2564.011505
720.791046	2565.884293
721.123686	2564.084601
721.456278	2563.600651
721.788821	2560.790207
722.121315	2563.938408
722.453761	2560.807851
722.786158	2562.607543
723.118506	2561.853891
723.450805	2562.970506
723.783056	2562.746175
724.115259	2561.763150
724.447412	2561.314487
724.779518	2562.151319
725.111574	2562.975547
725.443582	2562.652914
725.775542	2565.775908
726.107453	2564.641649
726.439315	2563.242729
726.771129	2567.961249
727.102895	2564.634087
727.434612	2563.197358
727.766281	2566.106104
728.097901	2562.539488
728.429473	2560.838098
728.760996	2565.874211
729.092471	2558.378015
729.423897	2565.533933
729.755276	2565.488563
730.086606	2565.596947
730.417887	2565.934705
730.749120	2568.714901
731.080305	2568.404870
731.411442	2568.901424
731.742530	2567.230281
732.073570	2569.818914
732.404562	2570.950653
732.735506	2568.742628
733.066401	2567.752041
733.397249	2569.655076
733.728048	2565.821279
734.058798	2563.610733
734.389501	2562.390774
734.720156	2561.949673
735.050762	2559.529919
735.381320	2562.234498
735.711831	2560.815413
736.042293	2561.143088
736.372707	2558.579661
736.703073	2561.639642
737.033391	2558.776266
737.363661	2560.956565
737.693883	2559.744168
738.024056	2564.828172
738.354182	2560.452450
738.684260	2558.831719
739.014290	2560.212995
739.344272	2560.333983
739.674207	2563.096535
740.004093	2567.056362
740.333931	2563.764488
740.663722	2565.831361
740.993464	2563.525033
741.323159	2564.684499
741.652806	2563.951011
741.982405	2560.765002
742.311956	2561.735424
742.641460	2561.536298
742.970915	2560.391956
743.300323	2561.430434
743.629683	2561.753068
743.958996	2560.621329
744.288260	2560.878427
744.617477	2556.507747
744.946647	2553.777962
745.275768	2556.089331
745.604842	2554.211502
745.933869	2553.843497
746.262847	2550.816284
746.591778	2557.359702
746.920662	2556.631255
747.249498	2557.334496
747.578286	2556.830381
747.907027	2557.672254
748.235720	2559.734086
748.564365	2558.090669
748.892963	2556.969013
749.221514	2558.141081
749.550017	2558.481359
749.878473	2555.658313
750.206881	2557.205947
750.535242	2556.134702
750.863555	2557.387428
751.191821	2556.079249
751.520039	2558.055381
751.848210	2556.422048
752.176334	2556.825340
752.504411	2559.292985
752.832440	2558.393139
753.160421	2556.701832
753.488356	2556.399362
753.816243	2556.694270
754.144082	2555.048333
754.471875	2557.014383
754.799620	2557.024465
755.127318	2554.269475
755.454969	2555.491955
755.782572	2555.234856
756.110129	2553.170503
756.437638	2556.026317
756.765100	2554.289639
757.092515	2556.762325
757.419882	2555.071018
757.747203	2553.301573
758.074477	2555.436502
758.401703	2554.087993
758.728882	2556.666543
759.056014	2555.635627
759.383099	2557.528581
759.710138	2556.734599
760.037129	2558.345248
760.364073	2560.344065
760.690970	2555.920453
761.017820	2555.859959
761.344623	2556.747202
761.671379	2559.126627
761.998088	2553.533466
762.324751	2557.909188
762.651366	2564.540826
762.977935	2576.856365
763.304456	2577.904925
763.630931	2586.147211
763.957359	2578.764441
764.283740	2572.997361
764.610074	2568.016701
764.936362	2562.272307
765.262602	2563.709035
765.588796	2561.869014
765.914943	2556.608570
766.241044	2557.258879
766.567097	2554.057746
766.893104	2557.304249
767.219064	2552.076573
767.544978	2555.479352
767.870845	2552.706717
768.196665	2554.065308
768.522438	2552.222766
768.848165	2552.048847
769.173846	2552.399207
769.499479	2552.429454
769.825066	2550.758311
770.150607	2550.801161
770.476101	2548.441901
770.801548	2552.547921
771.126949	2551.612787
771.452303	2548.134391
771.777611	2552.429454
772.102872	2550.942313
772.428087	2549.596325
772.753256	2547.741181
773.078378	2549.404761
773.403453	2547.060625
773.728482	2548.043650
774.053465	2549.256047
774.378401	2545.328988
774.703291	2548.152035
775.028135	2547.219421
775.352932	2546.001983
775.677683	2544.300593
776.002388	2547.176571
776.327046	2547.504246
776.651658	2547.113557
776.976224	2546.927034
777.300743	2548.353681
777.625216	2544.991231
777.949643	2545.066848
778.274024	2548.298228
778.598359	2543.478885
778.922647	2540.522248
779.246889	2543.161292
779.571086	2544.109029
779.895236	2546.246478
780.219339	2548.000800
780.543397	2545.631458
780.867409	2545.933927
781.191374	2548.648588
781.515294	2543.970398
781.839167	2544.131714
782.162995	2548.262940
782.486776	2547.726057
782.810511	2548.560368
783.134201	2546.254040
783.457844	2543.947712
783.781441	2546.911911
784.104993	2543.935109
784.428498	2544.469472
784.751958	2547.037940
785.075372	2545.208001
785.398739	2545.591128
785.722061	2546.997610
786.045337	2544.010727
786.368568	2545.817980
786.691752	2541.931251
787.014891	2548.215049
787.337983	2544.900490
787.661030	2548.751932
787.984031	2548.474668
788.306987	2550.695297
788.629897	2548.835111
788.952760	2550.715461
789.275579	2548.588094
789.598351	2549.124977
789.921078	2546.617003
790.243759	2546.309493
790.566395	2545.573484
790.888984	2545.666746
791.211529	2544.179605
791.534027	2543.788916
791.856480	2541.472506
792.178888	2545.734801
792.501249	2545.190357
792.823566	2545.051725
793.145836	2544.963505
793.468062	2543.604914
793.790241	2542.546272
794.112375	2545.046684
794.434464	2544.749256
794.756507	2546.433001
795.078505	2544.414019
795.400457	2543.526776
795.722364	2541.207845
796.044226	2545.321427
796.366042	2547.471479
796.687812	2544.655994
797.009538	2546.508618
797.331218	2550.879299
797.652852	2547.700851
797.974442	2546.475851
798.295986	2545.094575
798.617484	2547.128680
798.938938	2545.777651
799.260346	2546.541386
799.581709	2544.708927
799.903026	2548.535162
800.224299	2546.816129
800.545526	2545.976777
800.866708	2546.906870
801.187845	2545.639019
801.508936	2545.938968
801.829983	2544.981149
802.150984	2544.620706
802.471940	2545.603731
802.792851	2545.402085
803.113717	2541.543082
803.434538	2541.182639
803.755314	2542.667259
804.076045	2544.343443
804.396731	2546.322096
804.717372	2542.894111
805.037967	2542.483257
805.358518	2543.425953
805.679024	2546.128011
805.999485	2544.167002
806.319901	2543.942671
806.640272	2544.194729
806.960598	2543.236910
807.280879	2546.460727
807.601115	2546.536345
807.921306	2544.411498
808.241453	2542.584080
808.561554	2545.044163
808.881611	2545.192877
809.201623	2544.033412
809.521590	2544.519883
809.841513	2543.436035
810.161390	2545.099616
810.481223	2541.976621
810.801011	2542.846220
811.120755	2543.516694
811.440453	2547.060625
811.760107	2542.510983
812.079716	2540.867567
812.399281	2539.624923
812.718801	2539.917310
813.038276	2539.713143
813.357707	2543.491488
813.677093	2542.135417
813.996434	2545.190357
814.315731	2545.870913
814.634983	2541.969059
814.954191	2546.443083
815.273354	2546.523742
815.592473	2544.421581
815.911547	2545.455017
816.230577	2545.240768
816.549562	2545.500388
816.868502	2543.975439
817.187399	2544.096426
817.506250	2546.485933
817.825058	2545.313865
818.143821	2544.814791
818.462539	2547.927703
818.781213	2551.446429
819.099843	2548.406613
819.418429	2549.195553
819.736970	2552.247972
820.055466	2557.135371
820.373919	2559.555125
820.692327	2563.325908
821.010691	2572.901579
821.329011	2593.683736
821.647286	2627.998870
821.965517	2666.843481
822.283704	2693.450691
822.601847	2701.607278
822.919945	2682.332427
823.237999	2660.279899
823.556010	2635.535395
823.873976	2617.793054
824.191897	2604.416353
824.509775	2588.826584
824.827609	2583.992118
825.145398	2579.056828
825.463144	2575.772517
825.780845	2578.124215
826.098502	2580.251582
826.416116	2591.064857
826.733685	2606.316868
827.051210	2608.638319
827.368692	2606.503390
827.686129	2592.289857
828.003522	2578.361149
828.320872	2567.787329
828.638177	2564.621484
828.955439	2557.331976
829.272656	2553.624207
829.589830	2548.320913
829.906960	2551.970709
830.224046	2550.027344
830.541088	2548.416695
830.858086	2545.467620
831.175041	2548.774617
831.491952	2547.519370
831.808819	2549.835780
832.125642	2548.633465
832.442421	2550.715461
832.759157	2554.080432
833.075849	2562.433623
833.392497	2571.716908
833.709101	2576.511046
834.025662	2575.767475
834.342179	2576.304358
834.658653	2566.040569
834.975083	2560.286092
835.291469	2560.215516
835.607811	2552.323589
835.924110	2551.814433
836.240366	2548.139432
836.556578	2549.016592
836.872746	2547.559699
837.188871	2541.313709
837.504952	2545.127342
837.820990	2542.228679
838.136984	2539.952598
838.452935	2541.452341
838.768842	2542.967208
839.084706	2541.800181
839.400526	2546.357384
839.716303	2549.916438
840.032037	2554.400545
840.347727	2558.400700
840.663373	2552.404248
840.978977	2549.251006
841.294537	2546.332178
841.610054	2542.460572
841.925527	2546.019627
842.240957	2541.565767
842.556344	2540.706250
842.871687	2539.922351
843.186987	2541.913607
843.502244	2540.444110
843.817458	2538.654501
844.132629	2538.946888
844.447756	2540.597866
844.762840	2533.933460
845.077881	2534.062010
845.392879	2536.285158
845.707833	2535.738193
846.022745	2536.670807
846.337613	2537.137113
846.652438	2537.668955
846.967221	2536.665766
847.281960	2538.987217
847.596656	2537.648791
847.911309	2536.474202
848.225919	2539.985365
848.540485	2537.709284
848.855009	2538.725077
849.169490	2539.715664
849.483928	2537.263142
849.798323	2536.998482
850.112675	2539.511497
850.426984	2538.326826
850.741251	2537.154758
851.055474	2540.038298
851.369654	2536.998482
851.683792	2536.212062
851.997887	2538.926723
852.311938	2533.207534
852.625947	2537.172402
852.939914	2538.621733
853.253837	2537.268183
853.567718	2537.797505
853.881555	2537.096784
854.195350	2538.246167
854.509103	2536.068389
854.822812	2536.179294
855.136479	2538.478060
855.450103	2535.876825
855.763685	2535.869263
856.077224	2537.285827
856.390720	2537.583256
856.704173	2538.596528
857.017584	2537.437062
857.330953	2534.540919
857.644278	2537.096784
857.957561	2538.087371
858.270802	2536.338091
858.584000	2539.647608
858.897155	2537.815149
859.210268	2536.597710
859.523339	2538.823379
859.836367	2537.628626
860.149352	2537.951260
860.462295	2537.575694
860.775195	2535.481094
861.088054	2535.266845
861.400869	2534.566125
861.713642	2530.916330
862.026373	2538.321785
862.339062	2538.286497
862.651708	2540.199614
862.964312	2536.811959
863.276873	2535.072761
863.589392	2539.415715
863.901869	2537.792463
864.214303	2538.742721
864.526696	2537.361445
864.839045	2538.578883
865.151353	2538.314223
865.463619	2538.573842
865.775842	2540.207176
866.088023	2540.744059
866.400162	2539.836651
866.712258	2542.117773
867.024313	2540.365973
867.336325	2537.714326
867.648296	2538.704912
867.960224	2537.215251
868.272110	2538.795653
868.583954	2536.575025
868.895755	2539.536703
869.207515	2539.627443
869.519233	2540.305479
869.830909	2538.999820
870.142542	2535.087884
870.454134	2537.154758
870.765684	2539.216589
871.077191	2538.538554
871.388657	2542.679862
871.700081	2537.540406
872.011463	2539.839172
872.322803	2540.527289
872.634101	2541.396888
872.945357	2539.471168
873.256571	2541.389327
873.567744	2540.509645
873.878874	2540.408822
874.189963	2542.631971
874.501010	2538.835982
874.812015	2539.995448
875.122979	2541.832948
875.433900	2541.147351
875.744780	2540.522248
876.055618	2542.163144
876.366415	2543.292362
876.677169	2540.643236
876.987882	2540.123997
877.298554	2537.898328
877.609183	2537.661393
877.919771	2538.863709
878.230317	2539.970242
878.540822	2548.275543
878.851285	2547.088351
879.161707	2547.960471
879.472087	2552.361398
879.782425	2553.349464
880.092722	2560.911195
880.402977	2574.597928
880.713191	2593.472008
881.023363	2614.581839
881.333494	2629.606998
881.643583	2633.498769
881.953631	2630.123717
882.263637	2624.734723
882.573602	2617.188116
882.883526	2607.746035
883.193408	2597.814962
883.503248	2585.950606
883.813048	2580.700244
884.122806	2574.940726
884.432522	2566.852195
884.742197	2563.749365
885.051831	2560.134857
885.361424	2554.148487
885.670975	2554.264434
885.980485	2551.121274
886.289954	2546.717826
886.599382	2547.426108
886.908768	2549.790410
887.218113	2547.310162
887.527417	2546.755635
887.836680	2542.190870
888.145901	2545.455017
888.455082	2543.937630
888.764221	2542.485778
889.073319	2542.009389
889.382376	2541.061652
889.691392	2542.576518
890.000366	2541.492670
890.309300	2541.464944
890.618193	2543.660367
890.927044	2541.626261
891.235855	2543.859492
891.544625	2544.363607
891.853353	2541.422094
892.162041	2541.598535
892.470687	2542.846220
892.779293	2546.523742
893.087858	2544.713968
893.396381	2544.897970
893.704864	2550.400389
894.013306	2553.886347
894.321707	2567.600806
894.630068	2570.083574
894.938387	2573.524162
895.246665	2572.263873
895.554903	2570.169274
895.863100	2562.315156
896.171256	2560.409600
896.479371	2556.490103
896.787446	2552.187478
897.095480	2551.897612
897.403473	2548.938455
897.711425	2546.717826
898.019336	2548.217570
898.327207	2547.574822
898.635038	2546.062476
898.942827	2543.683052
899.250576	2539.612320
899.558284	2544.048535
899.865952	2543.655325
900.173579	2541.301107
900.481165	2543.811601
900.788711	2541.051569
901.096216	2541.051569
901.403681	2540.376055
901.711105	2538.475540
902.018489	2542.667259
902.325832	2542.062321
902.633135	2538.586445
902.940397	2542.553833
903.247619	2546.460727
903.554800	2550.692776
903.861941	2560.959086
904.169041	2577.385686
904.476101	2584.786100
904.783121	2584.443301
905.090100	2578.088927
905.397039	2571.356466
905.703938	2566.549726
906.010796	2556.734599
906.317614	2554.839125
906.624391	2550.160934
906.931129	2545.354194
907.237826	2544.935778
907.544483	2540.728936
907.851099	2540.189532
908.157675	2540.960829
908.464211	2537.772299
908.770707	2536.771630
909.077163	2536.897659
909.383578	2535.584438
909.689954	2535.183666
909.996289	2532.905065
910.302584	2533.878008
910.608839	2535.886907
910.915054	2539.166178
911.221229	2536.935467
911.527363	2538.047042
911.833458	2540.149203
912.139513	2537.192566
912.445527	2538.520910
912.751502	2538.210879
913.057436	2540.779347
913.363331	2540.076106
913.669186	2539.876981
913.975000	2540.658359
914.280775	2545.233207
914.586510	2546.712785
914.892205	2551.769062
915.197859	2557.571431
915.503475	2565.095353
915.809050	2573.070458
916.114585	2578.651015
916.420081	2581.050605
916.725536	2583.772828
917.030952	2573.128431
917.336328	2568.838409
917.641665	2568.200703
917.946961	2560.626370
918.252218	2557.778118
918.557435	2553.430123
918.862612	2551.741336
919.167750	2547.148845
919.472848	2549.203115
919.777906	2543.773793
920.082925	2543.430994
920.387904	2542.332022
920.692843	2543.514173
920.997743	2541.845551
921.302603	2539.728267
921.607423	2541.235572
921.912204	2539.650129
922.216946	2538.475540
922.521647	2541.258257
922.826310	2539.387989
923.130932	2538.140303
923.435516	2537.731970
923.740059	2537.900848
924.044564	2534.896321
924.349028	2536.249870
924.653454	2533.462112
924.957840	2535.191228
925.262186	2533.441948
925.566493	2534.281300
925.870761	2529.633356
926.174989	2533.625950
926.479178	2534.553522
926.783328	2535.193749
927.087438	2533.391536
927.391509	2535.113090
927.695541	2533.515044
927.999533	2534.427493
928.303486	2532.201824
928.607400	2533.852802
928.911275	2536.731301
929.215110	2531.801052
929.518906	2531.138140
929.822663	2532.229550
930.126381	2534.992103
930.430060	2533.315919
930.733699	2532.879859
931.037299	2532.902544
931.340861	2533.147040
931.644383	2533.141999
931.947866	2530.482790
932.251309	2534.266176
932.554714	2534.619057
932.858080	2535.566794
933.161407	2532.484128
933.464694	2532.242153
933.767943	2530.550846
934.071153	2532.408511
934.374323	2533.457071
934.677455	2532.259797
934.980548	2532.844571
935.283602	2532.272400
935.586617	2532.968079
935.889593	2531.024714
936.192530	2532.199303
936.495428	2532.589993
936.798287	2532.852133
937.101108	2532.721063
937.403890	2534.435055
937.706632	2535.128214
938.009336	2534.185518
938.312002	2533.361289
938.614628	2535.191228
938.917216	2536.764068
939.219765	2537.132072
939.522275	2534.855991
939.824747	2536.272556
940.127179	2533.212575
940.429573	2529.126720
940.731929	2533.492359
941.034246	2532.196783
941.336524	2532.383305
941.638763	2537.699202
941.940964	2535.942360
942.243126	2533.918337
942.545250	2534.419932
942.847335	2534.039324
943.149381	2534.314067
943.451389	2536.338091
943.753359	2533.938501
944.055290	2534.036804
944.357182	2532.416073
944.659036	2533.394057
944.960851	2533.638553
945.262628	2533.474715
945.564367	2532.683254
945.866067	2535.700385
946.167729	2531.629653
946.469352	2535.516382
946.770937	2534.966897
947.072484	2532.466484
947.373992	2534.155271
947.675462	2532.496731
947.976893	2532.191742
948.278286	2531.700229
948.579641	2533.129396
948.880958	2531.765764
949.182236	2533.323481
949.483476	2530.913809
949.784678	2531.977493
950.085841	2534.881197
950.386967	2533.361289
950.688054	2532.610157
950.989103	2533.814993
951.290114	2531.612009
951.591087	2533.870446
951.892021	2535.186187
952.192917	2535.367668
952.493776	2533.300795
952.794596	2532.070754
953.095378	2535.614685
953.396122	2534.780374
953.696828	2535.039993
953.997496	2534.293903
954.298126	2533.290713
954.598718	2533.021011
954.899272	2533.724252
955.199788	2531.206196
955.500266	2534.553522
955.800706	2530.639066
956.101108	2527.208561
956.401472	2528.920033
956.701798	2527.624456
957.002087	2528.715866
957.302337	2530.873480
957.602550	2529.920702
957.902724	2529.580424
958.202861	2529.459436
958.502960	2530.744930
958.803022	2530.608819
959.103045	2532.146371
959.403031	2528.753675
959.702979	2529.343490
960.002889	2530.162677
960.302762	2527.997502
960.602596	2530.351720
960.902393	2528.509179
961.202153	2531.881711
961.501875	2529.988757
961.801559	2529.794673
962.101205	2530.124868
962.400814	2530.467667
962.700385	2530.034128
962.999918	2530.626463
963.299414	2529.882893
963.598873	2527.760567
963.898293	2527.899199
964.197677	2529.593027
964.497022	2529.633356
964.796331	2528.569672
965.095601	2529.441792
965.394835	2529.787111
965.694030	2530.321473
965.993189	2529.066226
966.292309	2525.023221
966.591393	2529.789632
966.890439	2529.993798
967.189447	2529.388860
967.488419	2528.123530
967.787353	2528.766278
968.086249	2531.813655
968.385108	2527.372398
968.683930	2527.914323
968.982714	2529.993798
969.281462	2532.300126
969.580172	2527.773170
969.878844	2528.557070
970.177480	2530.709642
970.476078	2527.785773
970.774639	2530.303829
971.073162	2527.667306
971.371649	2526.737213
971.670098	2524.569517
971.968510	2527.430372
972.266885	2524.935001
972.565223	2529.472039
972.863524	2526.565814
973.161788	2531.710311
973.460014	2530.855836
973.758204	2529.388860
974.056356	2529.431710
974.354471	2529.562780
974.652550	2531.208717
974.950591	2529.575383
975.248595	2530.306350
975.546563	2532.907585
975.844493	2526.976668
976.142386	2529.711494
976.440243	2528.204189
976.738062	2529.683767
977.035845	2528.398273
977.333590	2529.028417
977.631299	2527.939528
977.928971	2528.204189
978.226606	2529.426669
978.524204	2528.794004
978.821765	2527.626977
979.119290	2531.160826
979.416777	2528.937677
979.714228	2529.187214
980.011642	2528.443644
980.309020	2530.029087
980.606360	2530.951618
980.903664	2529.905578
981.200931	2528.431041
981.498162	2528.378109
981.795356	2529.401463
982.092513	2528.667975
982.389633	2530.591175
982.686717	2532.237112
982.983764	2528.521782
983.280775	2531.612009
983.577749	2529.799714
983.874686	2530.142513
984.171587	2530.502955
984.468451	2531.231402
984.765279	2531.102852
985.062070	2530.041689
985.358824	2529.996319
985.655543	2527.800897
985.952224	2528.972965
986.248869	2526.951462
986.545478	2525.310567
986.842050	2526.049096
987.138586	2524.791328
987.435086	2525.038344
987.731549	2522.336286
988.027975	2527.979858
988.324366	2528.259642
988.620719	2527.982378
988.917037	2528.436082
989.213318	2528.115969
989.509563	2529.288037
989.805772	2527.087573
990.101944	2529.557739
990.398080	2526.734692
990.694180	2526.681760
990.990244	2527.019518
991.286271	2531.216278
991.582262	2526.679240
991.878217	2528.521782
992.174136	2526.671678
992.470019	2528.305012
992.765865	2527.972296
993.061676	2528.441123
993.357450	2530.765095
993.653188	2524.607326
993.948890	2529.267872
994.244556	2528.867101
994.540186	2529.769467
994.835780	2528.279806
995.131337	2526.868283
995.426859	2528.458767
995.722345	2529.396422
996.017795	2528.889786
996.313208	2526.240659
996.608586	2527.377440
996.903928	2527.732841
997.199234	2527.546318
997.494504	2529.507327
997.789738	2528.365506
998.084936	2527.072450
998.380099	2530.013963
998.675225	2527.359796
998.970316	2528.277286
999.265371	2525.169414
999.560390	2526.318797
999.855373	2527.442975
1000.150320	2526.270906
1000.445232	2526.364168
1000.740108	2528.176463
1001.034948	2525.194620
1001.329752	2526.117151
1001.624521	2528.241998
1001.919254	2523.561286
1002.213951	2528.221833
1002.508613	2524.544311
1002.803239	2526.202851
1003.097829	2524.193951
1003.392384	2526.023890
1003.686903	2526.888448
1003.981386	2528.998171
1004.275834	2526.230577
1004.570246	2525.849970
1004.864623	2524.521626
1005.158964	2526.084384
1005.453270	2526.661596
1005.747540	2528.960362
1006.041775	2525.671009
1006.335974	2528.912471
1006.630138	2527.868952
1006.924266	2524.352747
1007.218359	2525.570186
1007.512416	2527.596730
1007.806438	2528.123530
1008.100425	2525.910464
1008.394376	2527.044723
1008.688292	2526.739734
1008.982172	2527.067409
1009.276017	2527.553880
1009.569827	2524.761081
1009.863602	2527.052285
1010.157341	2525.749147
1010.451045	2528.940197
1010.744714	2526.994312
1011.038347	2528.365506
1011.331945	2525.860052
1011.625508	2526.994312
1011.919036	2524.297295
1012.212528	2528.720907
1012.505986	2524.393077
1012.799408	2527.289219
1013.092795	2525.474404
1013.386147	2527.798376
1013.679464	2523.631862
1013.972745	2525.562624
1014.265992	2524.498941
1014.559204	2529.003212
1014.852380	2527.334590
1015.145521	2528.781401
1015.438628	2526.225536
1015.731699	2526.293592
1016.024736	2524.607326
1016.317737	2525.668488
1016.610703	2526.480114
1016.903635	2524.630011
1017.196531	2521.063394
1017.489393	2523.616739
1017.782219	2522.089269
1018.075011	2524.902233
1018.367768	2527.024559
1018.660490	2526.659075
1018.953177	2526.659075
1019.245829	2526.659075
