Dividing Wavelength (nm)	Counts (n)	Blue Motor Position (mm): 0.000000	Red Motor Position (mm): 21.000000	
326.493990	2080.862279
326.888308	2080.862279
327.282561	2080.862279
327.676750	2058.078784
328.070874	2060.185986
328.464933	2066.157233
328.858929	2074.570919
329.252859	2087.554411
329.646726	2104.464961
330.040528	2116.571292
330.434265	2137.570218
330.827938	2158.372540
331.221547	2176.929027
331.615091	2199.730166
332.008571	2219.257075
332.401986	2238.579818
332.795338	2260.060175
333.188625	2279.453493
333.581847	2298.761113
333.975006	2312.717547
334.368100	2334.223109
334.761129	2352.096520
335.154095	2365.634539
335.546996	2386.245297
335.939833	2404.789181
336.332606	2416.787127
336.725315	2430.466298
337.117960	2435.081474
337.510540	2445.607404
337.903056	2453.232149
338.295508	2462.079374
338.687896	2468.721094
339.080220	2476.509677
339.472480	2481.434884
339.864676	2480.953454
340.256807	2489.137767
340.648875	2483.955461
341.040879	2489.808241
341.432818	2489.702376
341.824694	2491.292860
342.216506	2491.257572
342.608253	2488.926039
342.999937	2490.755978
343.391557	2489.357057
343.783113	2487.154073
344.174605	2488.048878
344.566033	2485.911429
344.957397	2484.532673
345.348697	2480.575367
345.739934	2480.091417
346.131106	2476.537403
346.522215	2477.389358
346.913260	2476.171919
347.304241	2473.447176
347.695159	2471.418111
348.086012	2472.774182
348.476802	2470.157823
348.867528	2469.147072
349.258191	2469.777216
349.648789	2467.309571
350.039324	2466.445013
350.429796	2465.429221
350.820203	2465.741772
351.210548	2462.170115
351.600828	2464.577266
351.991045	2462.936370
352.381198	2463.357306
352.771288	2463.072481
353.161314	2461.416462
353.551276	2463.148098
353.941175	2463.397636
354.331010	2465.600620
354.720782	2463.289251
355.110490	2464.413428
355.500135	2466.034159
355.889717	2465.840075
356.279235	2465.938377
356.668689	2464.942749
357.058080	2466.220682
357.447408	2464.017697
357.836672	2462.691874
358.225873	2464.045424
358.615010	2464.090794
359.004084	2468.675724
359.393095	2468.516927
359.782043	2471.148410
360.170927	2473.719398
360.559748	2472.723770
360.948505	2473.651343
361.337199	2471.463482
361.725830	2473.308544
362.114398	2474.513380
362.502903	2475.234265
362.891344	2477.384317
363.279722	2475.070427
363.668037	2478.057311
364.056289	2478.241313
364.444478	2479.945223
364.832603	2482.216263
365.220665	2481.092086
365.608665	2480.890439
365.996601	2481.724750
366.384474	2483.884885
366.772284	2484.086531
367.160031	2485.785400
367.547715	2485.223311
367.935336	2487.012921
368.322893	2489.034423
368.710388	2486.284474
369.097820	2491.890237
369.485189	2487.050729
369.872495	2490.846718
370.259738	2491.358395
370.646918	2493.984837
371.034035	2493.843684
371.421090	2498.927688
371.808081	2503.636126
372.195010	2502.847185
372.581875	2508.659635
372.968678	2514.356139
373.355418	2521.065915
373.742096	2530.666792
374.128710	2539.735828
374.515262	2553.064639
374.901751	2562.136195
375.288177	2577.375603
375.674540	2597.557863
376.060841	2614.143259
376.447079	2635.084212
376.833254	2661.293171
377.219367	2679.945440
377.605417	2711.906356
377.991404	2733.759757
378.377329	2771.636467
378.763191	2804.759368
379.148991	2847.745287
379.534727	2892.828326
379.920402	2940.537806
380.306013	2986.946668
380.691563	3044.060421
381.077049	3096.470777
381.462474	3148.586225
381.847835	3214.521997
382.233134	3280.382151
382.618371	3338.602437
383.003545	3419.689397
383.388657	3492.922239
383.773706	3583.330292
384.158693	3647.103408
384.543618	3741.743510
384.928480	3814.426866
385.313280	3908.956063
385.698017	4007.813090
386.082692	4120.866006
386.467305	4184.535779
386.851856	4297.329076
387.236344	4446.166622
387.620770	4506.665510
388.005133	4618.077530
388.389435	4760.341412
388.773674	4837.309749
389.157851	4961.294408
389.541965	5090.884829
389.926018	5117.239981
390.310008	5279.282830
390.693936	5398.556530
391.077802	5508.534343
391.461606	5640.292460
391.845348	5744.515795
392.229027	5859.464185
392.612645	6076.049799
392.996200	6192.926430
393.379694	6363.685434
393.763125	6573.851138
394.146494	6658.696278
394.529801	6791.444982
394.913047	7022.720518
395.296230	7020.409149
395.679351	7076.953251
396.062410	7328.627815
396.445408	7227.048565
396.828343	7373.983077
397.211217	7510.588263
397.594028	7397.484936
397.976778	7596.862570
398.359466	7763.618898
398.742092	7746.506702
399.124656	7888.387456
399.507158	8070.136176
399.889598	8093.388498
400.271977	8303.118142
400.654294	8332.462698
401.036549	8528.886217
401.418742	8559.198675
401.800874	8849.306997
402.182944	8939.354607
402.564952	9287.032906
402.946898	9122.086352
403.328783	9172.399588
403.710606	9367.391418
404.092367	9629.826326
404.474067	9974.386671
404.855705	9782.154872
405.237282	9730.218384
405.618797	10148.891252
406.000250	10404.785263
406.381642	10748.692778
406.762972	10698.795437
407.144240	10520.199959
407.525447	10765.747002
407.906593	10711.660462
408.287677	10968.038423
408.668700	11120.664397
409.049661	11104.411717
409.430560	11257.912331
409.811399	11235.582540
410.192176	11394.918290
410.572891	11476.325363
410.953545	11940.721496
411.334138	11430.612179
411.714669	12010.924604
412.095139	11357.994358
412.475547	11834.103613
412.855894	11705.755836
413.236180	12022.720904
413.616405	11726.185112
413.996568	11994.140083
414.376670	11974.320786
414.756711	11858.230575
415.136691	12128.597738
415.516609	12295.432204
415.896466	12375.689894
416.276262	12657.147595
416.655997	13115.557359
417.035670	13159.327177
417.415283	13776.041774
417.794834	13858.865411
418.174324	13599.586266
418.553753	13509.757945
418.933121	13998.588552
419.312428	13823.733610
419.691674	13729.277510
420.070859	14184.965050
420.449983	13840.220703
420.829045	14384.289753
421.208047	14141.492660
421.586988	14581.376183
421.965867	14821.589684
422.344686	14809.422860
422.723444	15362.351737
423.102141	14071.697885
423.480777	15243.143572
423.859352	14735.680861
424.237866	15802.998995
424.616319	15511.877401
424.994712	16136.214223
425.373044	15910.788946
425.751314	16556.656536
426.129524	15690.873651
426.507673	16716.118314
426.885762	16420.061431
427.263789	16564.755149
427.641756	16704.198506
428.019662	16721.792133
428.397508	16727.012248
428.775292	16957.390458
429.153016	16883.232564
429.530679	16899.265954
429.908282	16875.388529
430.285824	16567.495017
430.663305	17164.203794
431.040726	16738.314515
431.418086	16519.765372
431.795385	17008.424579
432.172624	17337.480855
432.549802	16847.231164
432.926920	16925.235458
433.303977	16730.384780
433.680974	16864.161879
434.057910	17027.596087
434.434786	16952.477853
434.811601	16762.764111
435.188355	17557.285245
435.565050	17143.177142
435.941683	16978.432234
436.318257	17603.358871
436.694770	17291.613917
437.071222	17643.287330
437.447614	16731.052733
437.823946	16596.005262
438.200218	16584.970176
438.576429	16251.102119
438.952580	16332.456260
439.328670	16137.590458
439.704700	16296.628779
440.080670	15801.075794
440.456580	16087.052890
440.832429	16028.678849
441.208218	15133.291788
441.583947	15273.839158
441.959616	15180.857596
442.335224	15164.481407
442.710773	15068.422221
443.086261	15249.182874
443.461689	14617.748108
443.837057	14523.455846
444.212365	14735.834616
444.587612	14538.851530
444.962800	14091.018107
445.337927	14142.274039
445.712995	13187.098893
446.088002	14070.631681
446.462949	13979.691786
446.837837	13866.457389
447.212664	13648.976971
447.587431	14980.532224
447.962139	16314.025801
448.336786	17291.664328
448.711374	16161.409910
449.085901	14019.728630
449.460369	13732.962594
449.834776	13473.164210
450.209124	14389.635897
450.583412	13925.451492
450.957640	13872.035425
451.331808	13031.460830
451.705917	12159.787357
452.079965	11928.627768
452.453954	11847.480314
452.827883	11577.607184
453.201752	11261.667991
453.575562	11100.827457
453.949311	11273.429002
454.323001	11058.970756
454.696632	10762.999573
455.070202	11048.921216
455.443713	10876.433096
455.817164	10816.526544
456.190556	10757.063614
456.563888	10359.092244
456.937160	10234.991639
457.310373	9537.769816
457.683526	9421.977032
458.056619	9204.536943
458.429653	8986.600301
458.802628	8920.223428
459.175542	8747.768076
459.548398	8859.074232
459.921194	9020.842338
460.293930	8988.173141
460.666607	9229.989729
461.039224	9381.700734
461.411782	9210.430052
461.784280	8728.140343
462.156719	8387.275164
462.529099	8057.167807
462.901419	7605.291380
463.273680	7230.637867
463.645882	7060.597227
464.018024	6878.639300
464.390106	6832.376631
464.762130	7077.117088
465.134094	7537.349229
465.505999	8129.384857
465.877845	8536.458030
466.249631	8408.148062
466.621358	7893.584886
466.993026	7366.837241
467.364634	6912.742705
467.736184	6512.268403
468.107674	6214.595830
468.479105	5978.518595
468.850477	5756.319657
469.221790	5498.293239
469.593043	5217.717739
469.964238	5024.727246
470.335373	4901.556734
470.706449	4907.802724
471.077467	4978.928364
471.448425	5163.779913
471.819324	5234.885388
472.190164	5011.905072
472.560945	4699.630797
472.931667	4431.930404
473.302330	4280.652939
473.672934	4161.618693
474.043479	4105.387143
474.413965	4006.003315
474.784393	3920.374276
475.154761	3896.219587
475.525070	3834.399918
475.895321	3764.597581
476.265513	3732.314032
476.635645	3718.372721
477.005719	3664.810461
477.375734	3633.935915
477.745691	3611.512862
478.115588	3606.834672
478.485427	3628.410810
478.855207	3682.124304
479.224928	3714.422977
479.594591	3715.801732
479.964194	3650.866630
480.333739	3617.559726
480.703226	3588.288267
481.072653	3576.567584
481.442022	3560.367836
481.811333	3539.308416
482.180584	3489.519460
482.549777	3455.784058
482.918912	3424.929676
483.287988	3400.525450
483.657005	3367.710059
484.025964	3340.560925
484.394864	3323.952844
484.763706	3304.461223
485.132489	3279.878036
485.501213	3267.721293
485.869879	3258.125457
486.238487	3241.676172
486.607036	3236.224164
486.975527	3219.109447
487.343959	3213.049980
487.712333	3211.973694
488.080648	3200.626056
488.448905	3199.224616
488.817104	3193.225642
489.185244	3200.621015
489.553326	3221.882082
489.921350	3254.906680
490.289315	3295.883699
490.657222	3299.591468
491.025070	3295.301446
491.392861	3276.565998
491.760593	3250.092378
492.128267	3221.503995
492.495883	3189.550641
492.863440	3167.112466
493.230939	3138.080461
493.598380	3118.319137
493.965763	3106.674072
494.333088	3087.938624
494.700354	3074.922365
495.067563	3067.751323
495.434713	3061.510375
495.801805	3058.117678
496.168839	3047.006975
496.535815	3037.433824
496.902733	3035.626570
497.269593	3021.410517
497.636395	3015.661081
498.003139	3015.918179
498.369825	3005.233454
498.736453	3003.897548
499.103023	2991.486227
499.469535	2987.977584
499.835989	2982.780155
500.202385	2974.563074
500.568723	2970.636015
500.935003	2966.686271
501.301226	2961.302319
501.667390	2963.159984
502.033497	2962.116465
502.399546	2950.403344
502.765537	2940.689041
503.131470	2938.428083
503.497345	2937.936571
503.863163	2925.086669
504.228923	2925.321083
504.594625	2925.774787
504.960269	2914.096954
505.325856	2917.454363
505.691385	2907.984555
506.056856	2909.212076
506.422270	2909.164185
506.787625	2899.729666
507.152924	2903.293761
507.518164	2902.086405
507.883347	2888.651730
508.248472	2888.263561
508.613540	2892.780435
508.978550	2893.362688
509.343503	2885.125443
509.708398	2890.552245
510.073236	2892.979561
510.438016	2889.049981
510.802738	2882.917418
511.167403	2887.436812
511.532010	2887.698952
511.896561	2887.235166
512.261053	2896.944428
512.625488	2888.215670
512.989866	2883.388765
513.354186	2882.907335
513.718449	2878.710575
514.082655	2885.979918
514.446803	2883.108981
514.810894	2885.165772
515.174927	2885.657285
515.538904	2883.358518
515.902822	2888.155176
516.266684	2881.672253
516.630488	2884.880947
516.994235	2879.353322
517.357925	2885.629558
517.721558	2885.390103
518.085133	2887.250289
518.448651	2886.234497
518.812112	2884.994373
519.175516	2884.943961
519.538863	2881.609238
519.902152	2887.162069
520.265385	2887.749363
520.628560	2885.569064
520.991678	2884.064280
521.354739	2884.243241
521.717743	2885.916904
522.080690	2882.945144
522.443580	2886.499157
522.806413	2884.701986
523.169189	2884.961605
523.531908	2883.542521
523.894569	2880.570760
524.257174	2882.367932
524.619722	2882.370452
524.982213	2883.010679
525.344647	2879.275184
525.707025	2878.912221
526.069345	2883.355998
526.431608	2879.643188
526.793815	2881.006820
527.155964	2880.417005
527.518057	2876.978938
527.880093	2873.992055
528.242072	2876.595811
528.603995	2876.439535
528.965860	2872.119266
529.327669	2870.198586
529.689421	2872.842672
530.051117	2870.669934
530.412755	2870.667414
530.774337	2868.673637
531.135862	2865.341435
531.497331	2866.332021
531.858743	2859.072760
532.220098	2862.445292
532.581396	2857.787266
532.942638	2853.429188
533.303824	2857.479755
533.664953	2859.140815
534.026025	2855.065042
534.387040	2859.095445
534.747999	2852.549507
535.108902	2856.292563
535.469748	2850.094465
535.830537	2847.800740
536.191270	2850.071780
536.551947	2848.357787
536.912567	2845.522138
537.273131	2851.327027
537.633638	2839.503001
537.994089	2840.848989
538.354483	2836.919409
538.714821	2841.985769
539.075103	2843.881243
539.435328	2841.915193
539.795497	2839.684482
540.155609	2838.509893
540.515665	2836.107783
540.875665	2835.182732
541.235609	2833.526713
541.595496	2834.219871
541.955328	2837.693226
542.315102	2833.685509
542.674821	2829.738286
543.034483	2829.476146
543.394090	2827.938594
543.753640	2829.650065
544.113134	2834.166939
544.472571	2823.986329
544.831953	2829.816423
545.191278	2826.610250
545.550548	2821.405258
545.909761	2824.603870
546.268918	2824.901298
546.628019	2824.087152
546.987064	2822.912563
547.346053	2816.306131
547.704986	2819.640854
548.063863	2817.342088
548.422684	2815.010555
548.781449	2815.247489
549.140158	2817.281594
549.498811	2813.868733
549.857408	2810.770944
550.215949	2813.344453
550.574434	2812.096768
550.932864	2806.117959
551.291237	2808.593166
551.649555	2812.961326
552.007817	2813.727581
552.366022	2813.084834
552.724173	2808.497384
553.082267	2811.552323
553.440305	2813.321768
553.798288	2805.664255
554.156215	2806.501087
554.514086	2807.993268
554.871902	2806.715336
555.229661	2805.674338
555.587365	2802.301806
555.945014	2804.681230
556.302606	2804.817342
556.660143	2804.925726
557.017625	2803.113432
557.375050	2801.336425
557.732421	2805.855819
558.089735	2802.493370
558.446994	2800.928091
558.804197	2802.468164
559.161345	2801.578400
559.518437	2797.570683
559.875474	2797.681588
560.232455	2798.964562
560.589381	2795.135806
560.946251	2796.567493
561.303065	2796.943059
561.659825	2796.282668
562.016528	2794.210754
562.373177	2791.760753
562.729770	2795.231587
563.086307	2791.221350
563.442789	2792.562297
563.799216	2793.809982
564.155587	2791.191103
564.511904	2790.069446
564.868164	2792.128757
565.224370	2789.540125
565.580520	2789.671195
565.936615	2790.873510
566.292654	2785.590381
566.648638	2786.160031
567.004567	2786.359157
567.360441	2786.275978
567.716260	2782.946296
568.072023	2786.500309
568.427732	2779.601490
568.783385	2778.154679
569.138982	2777.978238
569.494525	2776.942281
569.850013	2776.508742
570.205445	2780.125770
570.560823	2779.840945
570.916145	2774.419184
571.271412	2774.358690
571.626625	2773.209307
571.981782	2774.610748
572.336884	2771.961621
572.691931	2769.955242
573.046923	2770.424069
573.401860	2767.472474
573.756743	2766.091198
574.111570	2766.229829
574.466342	2766.280241
574.821059	2765.871907
575.175722	2761.624735
575.530330	2760.220774
575.884882	2758.584920
576.239380	2756.805392
576.593823	2760.372009
576.948211	2754.529311
577.302544	2751.529825
577.656823	2753.843714
578.011047	2753.185844
578.365216	2752.298601
578.719330	2747.522107
579.073389	2744.716705
579.427394	2746.105543
579.781344	2748.749628
580.135239	2746.856675
580.489080	2743.963053
580.842866	2740.782085
581.196597	2744.315934
581.550273	2740.903072
581.903895	2740.482136
582.257463	2741.407188
582.610975	2740.086406
582.964434	2739.113463
583.317837	2735.975345
583.671186	2735.670355
584.024481	2735.209089
584.377721	2732.214644
584.730906	2733.815210
585.084037	2732.575086
585.437113	2729.835219
585.790135	2730.911506
586.143103	2728.839591
586.496016	2728.252297
586.848874	2724.849518
587.201679	2723.127964
587.554428	2720.330124
587.907124	2722.276009
588.259765	2721.028323
588.612352	2720.990515
588.964884	2718.517829
589.317362	2721.466904
589.669786	2716.287118
590.022155	2718.245607
590.374470	2716.420709
590.726731	2715.364587
591.078937	2713.176726
591.431090	2714.736963
591.783188	2714.058928
592.135232	2708.818649
592.487222	2709.216900
592.839157	2709.995758
593.191038	2706.655994
593.542866	2708.707743
593.894639	2704.710108
594.246358	2702.764223
594.598022	2703.255736
594.949633	2700.218440
595.301190	2698.436392
595.652692	2701.486291
596.004141	2699.111907
596.355535	2696.301464
596.706876	2692.155115
597.058162	2694.582430
597.409395	2693.856504
597.760573	2694.249714
598.111698	2691.814837
598.462768	2694.532019
598.813785	2691.575382
599.164748	2688.104548
599.515657	2687.822243
599.866511	2687.764270
600.217312	2686.289732
600.568060	2682.937365
600.918753	2689.632017
601.269392	2686.879547
601.619978	2683.882581
601.970510	2683.890143
602.320988	2684.956347
602.671412	2685.473065
603.021783	2682.743281
603.372100	2681.172961
603.722363	2682.380317
604.072572	2682.113136
604.422728	2681.198167
604.772830	2678.145748
605.122878	2677.054338
605.472872	2673.649039
605.822813	2674.211128
606.172701	2676.787157
606.522534	2676.134328
606.872314	2679.166582
607.222041	2678.470903
607.571714	2679.257323
607.921333	2673.560819
608.270899	2674.004440
608.620411	2674.657270
608.969870	2673.283555
609.319276	2675.675583
609.668627	2676.827487
610.017926	2676.703978
610.367171	2675.055521
610.716362	2673.734739
611.065500	2673.538134
611.414585	2673.225582
611.763616	2675.743638
612.112594	2673.510407
612.461518	2673.717095
612.810389	2674.748011
613.159207	2672.615602
613.507971	2672.459327
613.856682	2675.925120
614.205340	2673.454955
614.553945	2677.311437
614.902496	2672.441683
615.250994	2674.490912
615.599439	2673.828000
615.947830	2672.280366
616.296169	2671.859429
616.644454	2672.855057
616.992686	2671.824141
617.340864	2675.247085
617.688990	2672.277845
618.037063	2673.218020
618.385082	2673.649039
618.733048	2675.148782
619.080961	2673.535613
619.428821	2671.113339
619.776628	2673.094512
620.124382	2673.800274
620.472083	2671.441014
620.819731	2672.545026
621.167326	2668.930519
621.514868	2670.710046
621.862357	2666.601506
622.209793	2667.040086
622.557176	2664.572442
622.904506	2662.976916
623.251783	2659.339724
623.599007	2657.620690
623.946179	2658.129847
624.293297	2654.621204
624.640363	2653.746564
624.987376	2654.142294
625.334336	2651.709938
625.681243	2653.781852
626.028097	2650.774803
626.374899	2652.420740
626.721647	2651.984680
627.068343	2650.265647
627.414987	2647.692138
627.761577	2648.130718
628.108115	2648.546613
628.454600	2645.481592
628.801032	2646.676345
629.147412	2643.923875
629.493739	2648.218938
629.840014	2643.157620
630.186236	2643.306334
630.532405	2643.041673
630.878521	2640.810963
631.224585	2642.809780
631.570597	2639.041518
631.916556	2640.722743
632.262462	2641.148720
632.608316	2637.284676
632.954117	2639.187711
633.299866	2639.442290
633.645562	2638.302989
633.991206	2638.363483
634.336797	2635.114459
634.682336	2634.461630
635.027823	2633.055148
635.373257	2633.289561
635.718639	2629.743110
636.063968	2630.970631
636.409245	2626.615074
636.754470	2626.456277
637.099642	2624.313787
637.444762	2624.036523
637.789829	2625.667337
638.134845	2625.579117
638.479808	2623.217336
638.824719	2621.846142
639.169577	2621.755401
639.514383	2619.814557
639.859137	2619.340689
640.203839	2618.771038
640.548489	2619.643158
640.893086	2615.766511
641.237632	2611.751232
641.582125	2617.057046
641.926566	2612.010851
642.270955	2615.758949
642.615292	2614.695265
642.959576	2618.077880
643.303809	2615.209463
643.647990	2615.428753
643.992118	2614.851541
644.336195	2617.054525
644.680219	2615.131325
645.024192	2617.122581
645.368112	2618.408075
645.711981	2612.744339
646.055797	2618.372787
646.399562	2617.165431
646.743274	2622.188941
647.086935	2619.680967
647.430544	2621.793210
647.774101	2619.449073
648.117606	2620.185082
648.461059	2622.413272
648.804460	2621.331944
649.147810	2618.057715
649.491108	2617.765328
649.834354	2617.604011
650.177548	2612.212497
650.520690	2612.494802
650.863781	2613.671911
651.206820	2613.543362
651.549807	2610.783330
651.892742	2607.662856
652.235626	2606.205962
652.578458	2606.238730
652.921238	2604.484408
653.263967	2607.050356
653.606644	2603.932402
653.949269	2604.181939
654.291843	2602.619181
654.634365	2604.832248
654.976836	2602.868718
655.319255	2602.810745
655.661622	2602.314192
656.003938	2603.831579
656.346203	2601.026177
656.688416	2600.771598
657.030577	2600.509458
657.372687	2601.338728
657.714746	2599.125662
658.056753	2600.093563
658.398708	2594.540732
658.740612	2597.837647
659.082465	2595.894282
659.424266	2595.906885
659.766016	2596.327821
660.107715	2598.727411
660.449362	2598.727411
660.790958	2596.463932
661.132503	2599.428131
661.473996	2596.663058
661.815438	2596.642893
662.156829	2598.787904
662.498168	2598.505600
662.839456	2600.131372
663.180693	2599.458378
663.521879	2598.876125
663.863013	2597.167173
664.204097	2600.816969
664.545129	2597.767071
664.886110	2596.355548
665.227040	2597.951073
665.567918	2596.166504
665.908746	2598.051896
666.249522	2601.439551
666.590248	2597.787235
666.930922	2601.406784
667.271545	2597.809921
667.612118	2602.319233
667.952639	2597.885538
668.293109	2595.906885
668.633528	2595.241453
668.973896	2596.781525
669.314213	2599.745724
669.654480	2594.691967
669.994695	2597.799838
670.334859	2597.736824
670.674973	2595.347317
671.015035	2596.302616
671.355047	2595.397728
671.695008	2598.384612
672.034918	2594.107193
672.374777	2596.889910
672.714585	2593.681216
673.054342	2594.487800
673.394049	2594.855804
673.733705	2594.535691
674.073310	2596.413521
674.412864	2596.216916
674.752368	2594.253387
675.091820	2596.042996
675.431223	2593.897985
675.770574	2590.953951
676.109875	2586.479927
676.449125	2588.123343
676.788324	2587.430185
677.127473	2587.422623
677.466571	2582.961202
677.805619	2587.616707
678.144616	2585.214598
678.483562	2587.427664
678.822458	2587.941862
679.161303	2586.956316
679.500098	2585.529670
679.838842	2586.379104
680.177535	2585.068404
680.516179	2586.583271
680.854771	2586.784917
681.193314	2590.404466
681.531805	2591.531163
681.870247	2593.769436
682.208638	2594.959148
682.546978	2593.419076
682.885268	2596.758840
683.223508	2595.627101
683.561697	2590.901019
683.899836	2593.540063
684.237925	2589.529825
684.575963	2590.225505
684.913951	2588.561924
685.251889	2593.159456
685.589776	2589.469332
685.927614	2590.840525
686.265401	2590.464959
686.603137	2591.921853
686.940824	2594.649117
687.278460	2594.475197
687.616046	2592.234404
687.953582	2594.823037
688.291068	2594.669282
688.628504	2595.314549
688.965889	2595.243973
689.303224	2595.869076
689.640510	2593.903026
689.977745	2593.005701
690.314930	2588.294743
690.652065	2588.453539
690.989150	2583.135122
691.326185	2582.217632
691.663170	2581.174113
692.000105	2578.671180
692.336990	2580.054977
692.673825	2576.972311
693.010610	2577.980542
693.347345	2572.339491
693.684030	2570.063410
694.020665	2570.849830
694.357251	2566.595096
694.693786	2568.490570
695.030272	2571.099367
695.366707	2568.495611
695.703093	2568.304047
696.039429	2567.358831
696.375716	2568.611557
696.711952	2566.703481
697.048139	2567.968810
697.384276	2565.407904
697.720363	2566.085939
698.056400	2567.389078
698.392388	2565.296999
698.728326	2565.758264
699.064214	2565.080229
699.400053	2564.629046
699.735842	2565.811197
700.071581	2562.405897
700.407270	2564.591237
700.742910	2565.415466
701.078501	2560.167625
701.414042	2558.272151
701.749533	2560.102090
702.084974	2562.075702
702.420366	2558.196534
702.755709	2558.627552
703.091002	2559.973540
703.426246	2560.961607
703.761440	2556.283416
704.096584	2556.734599
704.431679	2555.376008
704.766725	2555.232335
705.101721	2559.663509
705.436668	2558.652758
705.771565	2554.881975
706.106413	2555.940617
706.441212	2556.923642
706.775961	2556.185113
707.110661	2556.810216
707.445311	2557.616801
707.779913	2555.529763
708.114465	2560.081925
708.448967	2557.896585
708.783421	2563.217523
709.117825	2561.949673
709.452180	2558.640155
709.786485	2560.356668
710.120742	2566.191804
710.454949	2563.835064
710.789107	2564.548388
711.123216	2563.709035
711.457275	2568.505693
711.791286	2567.000909
712.125247	2566.625343
712.459159	2569.662638
712.793023	2571.855540
713.126837	2570.935529
713.460602	2570.743966
713.794318	2568.266238
714.127985	2566.927812
714.461602	2565.450754
714.795171	2567.013512
715.128691	2563.099056
715.462162	2562.262224
715.795584	2559.108983
716.128957	2557.881462
716.462281	2557.687377
716.795556	2556.749723
717.128782	2558.241904
717.461960	2552.258054
717.795088	2554.098076
718.128167	2553.447767
718.461198	2551.406099
718.794180	2553.982129
719.127113	2555.917932
719.459997	2551.350647
719.792833	2551.602704
720.125619	2547.632796
720.458357	2548.343598
720.791046	2548.966181
721.123686	2547.032898
721.456278	2549.377035
721.788821	2547.330327
722.121315	2551.239741
722.453761	2549.803012
722.786158	2545.200439
723.118506	2549.477858
723.450805	2546.281767
723.783056	2548.341078
724.115259	2548.106664
724.447412	2545.361756
724.779518	2551.398538
725.111574	2549.044319
725.443582	2549.361912
725.775542	2548.706562
726.107453	2549.346788
726.439315	2550.032385
726.771129	2554.181255
727.102895	2550.894422
727.434612	2553.205791
727.766281	2553.856100
728.097901	2552.321069
728.429473	2553.556152
728.760996	2552.189999
729.092471	2548.754452
729.423897	2553.916594
729.755276	2554.496327
730.086606	2552.585729
730.417887	2555.035730
730.749120	2556.865669
731.080305	2556.424568
731.411442	2557.740309
731.742530	2557.531101
732.073570	2561.296843
732.404562	2559.303067
732.735506	2558.625032
733.066401	2559.262738
733.397249	2555.849877
733.728048	2553.223435
734.058798	2553.162942
734.389501	2551.413661
734.720156	2549.278733
735.050762	2547.126160
735.381320	2546.937117
735.711831	2545.865871
736.042293	2544.797147
736.372707	2546.178423
736.703073	2544.167003
737.033391	2546.748073
737.363661	2545.903680
737.693883	2547.133722
738.024056	2548.883002
738.354182	2546.561551
738.684260	2547.937786
739.014290	2551.075904
739.344272	2549.429967
739.674207	2551.398538
740.004093	2550.228990
740.333931	2549.006510
740.663722	2551.847200
740.993464	2551.138918
741.323159	2548.943496
741.652806	2552.280740
741.982405	2549.697148
742.311956	2545.991900
742.641460	2546.070038
742.970915	2546.468289
743.300323	2544.295552
743.629683	2543.068031
743.958996	2542.863864
744.288260	2543.246992
744.617477	2542.725232
744.946647	2537.185004
745.275768	2540.391178
745.604842	2539.534182
745.933869	2537.905889
746.262847	2534.999664
746.591778	2541.301107
746.920662	2539.060314
747.249498	2540.378575
747.578286	2543.100798
747.907027	2544.411498
748.235720	2539.423277
748.564365	2544.625747
748.892963	2542.546272
749.221514	2540.449152
749.550017	2543.083154
749.878473	2545.147507
750.206881	2539.882022
750.535242	2540.174409
750.863555	2541.238092
751.191821	2540.716333
751.520039	2538.301620
751.848210	2539.163657
752.176334	2537.689120
752.504411	2543.743546
752.832440	2541.533000
753.160421	2538.614172
753.488356	2540.587783
753.816243	2543.390665
754.144082	2536.300282
754.471875	2540.867567
754.799620	2539.829090
755.127318	2539.498894
755.454969	2539.705581
755.782572	2538.858668
756.110129	2537.041332
756.437638	2540.123997
756.765100	2535.917154
757.092515	2539.864378
757.419882	2538.485622
757.747203	2538.780530
758.074477	2540.476878
758.401703	2537.240457
758.728882	2539.251877
759.056014	2538.823379
759.383099	2541.243133
759.710138	2543.189019
760.037129	2538.851106
760.364073	2542.760521
760.690970	2539.728267
761.017820	2538.243647
761.344623	2540.156765
761.671379	2544.116591
761.998088	2540.199614
762.324751	2549.450132
762.651366	2555.413817
762.977935	2569.443348
763.304456	2576.395099
763.630931	2580.244020
763.957359	2579.732343
764.283740	2571.452248
764.610074	2565.357493
764.936362	2559.570248
765.262602	2552.651264
765.588796	2549.543393
765.914943	2546.047353
766.241044	2540.151723
766.567097	2537.963863
766.893104	2540.807073
767.219064	2537.976466
767.544978	2535.564273
767.870845	2534.785415
768.196665	2534.225847
768.522438	2530.616381
768.848165	2532.738707
769.173846	2529.081350
769.499479	2531.538912
769.825066	2529.156967
770.150607	2531.511186
770.476101	2528.289888
770.801548	2529.255269
771.126949	2529.313243
771.452303	2529.547656
771.777611	2525.910464
772.102872	2525.459281
772.428087	2527.803417
772.753256	2525.209743
773.078378	2526.386853
773.403453	2525.958355
773.728482	2526.717048
774.053465	2523.397449
774.378401	2524.985412
774.703291	2525.194620
775.028135	2527.102697
775.352932	2522.437109
775.677683	2525.045906
776.002388	2526.238139
776.327046	2522.732016
776.651658	2525.592871
776.976224	2524.541791
777.300743	2522.306039
777.625216	2521.380987
777.949643	2525.620597
778.274024	2523.415093
778.598359	2518.719258
778.922647	2517.847138
779.246889	2521.703621
779.571086	2518.721778
779.895236	2522.064063
780.219339	2521.696059
780.543397	2523.727644
780.867409	2524.675381
781.191374	2522.885772
781.515294	2519.805627
781.839167	2523.309228
782.162995	2524.796369
782.486776	2521.446522
782.810511	2524.415762
783.134201	2523.115144
783.457844	2521.476769
783.781441	2524.476256
784.104993	2521.431399
784.428498	2522.479959
784.751958	2522.243024
785.075372	2521.358302
785.398739	2523.047088
785.722061	2521.055833
786.045337	2522.517767
786.368568	2523.528519
786.691752	2524.632531
787.014891	2524.289733
787.337983	2528.594878
787.661030	2529.570342
787.984031	2527.200999
788.306987	2529.383819
788.629897	2531.894313
788.952760	2531.859025
789.275579	2528.471370
789.598351	2528.342821
789.921078	2523.543642
790.243759	2528.136133
790.566395	2525.280320
790.888984	2524.141019
791.211529	2523.732685
791.534027	2524.776204
791.856480	2523.914167
792.178888	2522.157325
792.501249	2523.825947
792.823566	2523.120185
793.145836	2524.599764
793.468062	2521.088600
793.790241	2522.323683
794.112375	2520.483662
794.434464	2523.233611
794.756507	2520.065246
795.078505	2521.018024
795.400457	2523.715041
795.722364	2519.246058
796.044226	2522.159845
796.366042	2520.163548
796.687812	2523.851152
797.009538	2527.102697
797.331218	2524.738396
797.652852	2524.844260
797.974442	2523.931811
798.295986	2523.074815
798.617484	2524.196472
798.938938	2523.838550
799.260346	2524.899712
799.581709	2521.486851
799.903026	2525.963396
800.224299	2524.819054
800.545526	2520.637417
800.866708	2520.783610
801.187845	2523.004239
801.508936	2520.977695
801.829983	2522.679084
802.150984	2517.390914
802.471940	2521.133971
802.792851	2520.705473
803.113717	2522.343847
803.434538	2521.950637
803.755314	2521.396111
804.076045	2520.231604
804.396731	2520.019876
804.717372	2520.309742
805.037967	2520.692870
805.358518	2520.884433
805.679024	2521.617921
805.999485	2519.626666
806.319901	2520.733199
806.640272	2520.075328
806.960598	2521.149094
807.280879	2522.537932
807.601115	2521.527181
807.921306	2519.903929
808.241453	2520.808816
808.561554	2522.490041
808.881611	2523.152953
809.201623	2519.939217
809.521590	2522.613549
809.841513	2519.258661
810.161390	2521.416275
810.481223	2521.842253
810.801011	2520.748322
811.120755	2521.247397
811.440453	2518.499968
811.760107	2519.208250
812.079716	2515.951664
812.399281	2515.644154
812.718801	2516.722961
813.038276	2516.244051
813.357707	2517.673218
813.677093	2517.310255
813.996434	2520.965092
814.315731	2518.570544
814.634983	2518.303363
814.954191	2519.301511
815.273354	2520.818898
815.592473	2520.859228
815.911547	2518.517612
816.230577	2519.908970
816.549562	2521.234794
816.868502	2522.732016
817.187399	2522.941224
817.506250	2523.737727
817.825058	2524.022552
818.143821	2525.000536
818.462539	2526.631349
818.781213	2526.840557
819.099843	2529.386339
819.418429	2532.849612
819.736970	2536.396064
820.055466	2541.800181
820.373919	2544.892929
820.692327	2555.842315
821.010691	2575.401992
821.329011	2609.800305
821.647286	2665.671413
821.965517	2719.374825
822.283704	2752.485123
822.601847	2762.214550
822.919945	2735.428379
823.237999	2706.214893
823.556010	2679.970646
823.873976	2652.745895
824.191897	2629.659931
824.509775	2612.953547
824.827609	2597.288161
825.145398	2587.646954
825.463144	2583.818198
825.780845	2583.026737
826.098502	2589.413879
826.416116	2603.652618
826.733685	2614.919597
827.051210	2620.127109
827.368692	2614.412961
827.686129	2598.046855
828.003522	2583.472879
828.320872	2567.189952
828.638177	2558.756102
828.955439	2549.918959
829.272656	2544.945861
829.589830	2536.753986
829.906960	2536.474202
830.224046	2531.750641
830.541088	2529.860208
830.858086	2529.905578
831.175041	2527.856349
831.491952	2528.446164
831.808819	2525.068591
832.125642	2526.328880
832.442421	2532.179139
832.759157	2539.445962
833.075849	2553.785524
833.392497	2563.661144
833.709101	2567.482339
834.025662	2566.892524
834.342179	2562.027811
834.658653	2553.959444
834.975083	2548.378887
835.291469	2544.182126
835.607811	2536.995961
835.924110	2531.445651
836.240366	2527.687471
836.556578	2526.089425
836.872746	2524.125895
837.188871	2521.310411
837.504952	2521.063394
837.820990	2519.820750
838.136984	2515.558454
838.452935	2514.797240
838.768842	2519.747653
839.084706	2519.770338
839.400526	2525.166894
839.716303	2530.538243
840.032037	2537.739531
840.347727	2532.796680
840.663373	2532.048069
840.978977	2524.750998
841.294537	2523.394928
841.610054	2521.496934
841.925527	2519.828312
842.240957	2518.625997
842.556344	2519.387211
842.871687	2514.073835
843.186987	2516.589370
843.502244	2511.752383
843.817458	2511.986797
844.132629	2512.551406
844.447756	2508.952022
844.762840	2510.061076
845.077881	2508.120232
845.392879	2510.902949
845.707833	2511.666684
846.022745	2507.094357
846.337613	2513.166427
846.652438	2506.827176
846.967221	2509.272136
847.281960	2509.826663
847.596656	2509.307424
847.911309	2509.035201
848.225919	2511.170130
848.540485	2509.496467
848.855009	2510.885305
849.169490	2510.328257
849.483928	2511.278515
849.798323	2508.420181
850.112675	2509.178874
850.426984	2507.094357
850.741251	2511.190295
851.055474	2508.558812
851.369654	2508.082423
851.683792	2509.309944
851.997887	2505.710560
852.311938	2508.553771
852.625947	2507.331291
852.939914	2509.272136
853.253837	2507.606034
853.567718	2507.918586
853.881555	2509.274656
854.195350	2510.008144
854.509103	2509.899759
854.822812	2508.190808
855.136479	2509.236848
855.450103	2508.394975
855.763685	2510.045953
856.077224	2505.619820
856.390720	2510.340860
856.704173	2508.463030
857.017584	2507.394306
857.330953	2510.484533
857.644278	2509.257012
857.957561	2511.835562
858.270802	2506.749038
858.584000	2510.539986
858.897155	2511.084430
859.210268	2507.825324
859.523339	2511.707013
859.836367	2508.465551
860.149352	2508.271467
860.462295	2508.652074
860.775195	2502.542195
861.088054	2503.373986
861.400869	2507.590911
861.713642	2502.418687
862.026373	2507.061590
862.339062	2509.589728
862.651708	2508.886487
862.964312	2508.319358
863.276873	2509.118380
863.589392	2509.556961
863.901869	2507.243071
864.214303	2510.396313
864.526696	2510.436642
864.839045	2509.788854
865.151353	2510.287928
865.463619	2506.917917
865.775842	2510.716426
866.088023	2510.340860
866.400162	2511.202897
866.712258	2509.614934
867.024313	2511.555778
867.336325	2510.469410
867.648296	2510.978566
867.960224	2512.362363
868.272110	2510.976046
868.583954	2512.201046
868.895755	2512.090141
869.207515	2510.991169
869.519233	2510.474451
869.830909	2511.379338
870.142542	2512.130470
870.454134	2512.223731
870.765684	2511.737260
871.077191	2512.614421
871.388657	2515.180368
871.700081	2510.857578
872.011463	2510.774399
872.322803	2510.000582
872.634101	2512.969822
872.945357	2509.957732
873.256571	2511.981756
873.567744	2511.339009
873.878874	2512.485871
874.189963	2513.834380
874.501010	2515.583660
874.812015	2513.302538
875.122979	2513.158865
875.433900	2511.681807
875.744780	2515.999555
876.055618	2516.730523
876.366415	2516.077693
876.677169	2516.372601
876.987882	2513.569719
877.298554	2509.350273
877.609183	2512.732888
877.919771	2512.420336
878.230317	2515.775224
878.540822	2519.944258
878.851285	2520.466018
879.161707	2521.224711
879.472087	2529.419107
879.782425	2534.228368
880.092722	2546.594318
880.402977	2567.804973
880.713191	2589.613004
881.023363	2612.620831
881.333494	2625.639610
881.643583	2631.794859
881.953631	2626.723458
882.263637	2619.524691
882.573602	2609.573453
882.883526	2600.890066
883.193408	2594.500403
883.503248	2583.949268
883.813048	2573.377968
884.122806	2566.751372
884.432522	2558.496482
884.742197	2552.976419
885.051831	2546.294369
885.361424	2537.205169
885.670975	2535.992772
885.980485	2531.390198
886.289954	2531.463295
886.599382	2526.036493
886.908768	2525.534898
887.218113	2522.429547
887.527417	2520.609691
887.836680	2517.746315
888.145901	2518.310924
888.455082	2516.879237
888.764221	2518.527694
889.073319	2515.928979
889.382376	2514.779596
889.691392	2511.399502
890.000366	2514.482168
890.309300	2515.223218
890.618193	2515.084586
890.927044	2516.622138
891.235855	2514.396468
891.544625	2514.593073
891.853353	2516.533918
892.162041	2517.645492
892.470687	2519.427540
892.779293	2520.771007
893.087858	2520.970133
893.396381	2519.225894
893.704864	2524.773684
894.013306	2530.971782
894.321707	2543.985521
894.630068	2547.355532
894.938387	2550.067673
895.246665	2544.900490
895.554903	2542.349667
895.863100	2537.921013
896.171256	2534.911444
896.479371	2530.941535
896.787446	2530.245856
897.095480	2527.059847
897.403473	2527.029600
897.711425	2523.347037
898.019336	2522.789990
898.327207	2519.949299
898.635038	2517.191788
898.942827	2518.129443
899.250576	2517.597601
899.558284	2516.239010
899.865952	2516.365039
900.173579	2513.181550
900.481165	2512.400172
900.788711	2513.489061
901.096216	2511.938906
901.403681	2514.958557
901.711105	2514.431757
902.018489	2512.876561
902.325832	2518.363857
902.633135	2512.735408
902.940397	2516.118023
903.247619	2523.011800
903.554800	2529.880372
903.861941	2543.279759
904.169041	2551.327962
904.476101	2556.764846
904.783121	2550.949875
905.090100	2547.050542
905.397039	2543.060469
905.703938	2537.492515
906.010796	2535.909593
906.317614	2529.661082
906.624391	2525.088756
906.931129	2523.853673
907.237826	2521.239835
907.544483	2520.155987
907.851099	2515.780265
908.157675	2514.817405
908.464211	2516.735564
908.770707	2507.167454
909.077163	2509.811539
909.383578	2506.696106
909.689954	2506.849861
909.996289	2503.805004
910.302584	2509.819101
910.608839	2503.729387
910.915054	2511.286077
911.221229	2509.088133
911.527363	2511.923782
911.833458	2507.038904
912.139513	2509.831704
912.445527	2509.514111
912.751502	2509.037722
913.057436	2507.848010
913.363331	2508.823473
913.669186	2513.541993
913.975000	2514.066273
914.280775	2514.242713
914.586510	2519.782941
914.892205	2525.129085
915.197859	2533.399098
915.503475	2542.165664
915.809050	2550.546583
916.114585	2550.665050
916.420081	2555.507078
916.725536	2549.435008
917.030952	2552.767211
917.336328	2546.629606
917.641665	2543.569626
917.946961	2541.074255
918.252218	2537.401774
918.557435	2533.600744
918.862612	2532.794159
919.167750	2528.264683
919.472848	2527.183355
919.777906	2524.617408
920.082925	2522.028775
920.387904	2517.816891
920.692843	2517.413599
920.997743	2516.417971
921.302603	2515.984432
921.607423	2514.464524
921.912204	2512.485871
922.216946	2511.689369
922.521647	2514.714061
922.826310	2513.413443
923.130932	2510.189626
923.435516	2511.192815
923.740059	2506.315499
924.044564	2508.775582
924.349028	2511.091992
924.653454	2503.116887
924.957840	2508.168123
925.262186	2500.213182
925.566493	2504.276352
925.870761	2502.385919
926.174989	2505.569408
926.479178	2506.058400
926.783328	2506.723832
927.087438	2503.437000
927.391509	2505.791219
927.695541	2504.268790
927.999533	2503.500014
928.303486	2503.376506
928.607400	2503.053872
928.911275	2502.917761
929.215110	2505.531599
929.518906	2502.620333
929.822663	2503.817607
930.126381	2504.634274
930.430060	2506.774244
930.733699	2503.414315
931.037299	2505.831548
931.340861	2505.259377
931.644383	2503.358862
931.947866	2505.009840
932.251309	2505.398009
932.554714	2502.242247
932.858080	2506.439007
933.161407	2502.607730
933.464694	2504.422546
933.767943	2499.908192
934.071153	2504.188132
934.374323	2503.089160
934.677455	2503.479850
934.980548	2503.487412
935.283602	2504.031856
935.586617	2504.225941
935.889593	2502.542195
936.192530	2504.813235
936.495428	2503.726866
936.798287	2505.115704
937.101108	2504.777947
937.403890	2503.991527
937.706632	2506.373472
938.009336	2502.516989
938.312002	2508.140397
938.614628	2505.024963
938.917216	2508.057218
939.219765	2506.257526
939.522275	2508.233658
939.824747	2508.158041
940.127179	2504.719974
940.429573	2503.535303
940.731929	2504.044459
941.034246	2503.414315
941.336524	2505.823986
941.638763	2505.261898
941.940964	2507.308606
942.243126	2506.255005
942.545250	2505.304747
942.847335	2506.305417
943.149381	2506.103770
943.451389	2504.553616
943.753359	2504.011692
944.055290	2505.022443
944.357182	2506.691065
944.659036	2504.074706
944.960851	2503.769716
945.262628	2502.068327
945.564367	2505.403050
945.866067	2503.968842
946.167729	2503.999089
946.469352	2502.998420
946.770937	2503.406753
947.072484	2503.805004
947.373992	2504.480519
947.675462	2502.116218
947.976893	2503.749552
948.278286	2502.017915
948.579641	2505.405571
948.880958	2504.533451
949.182236	2502.280055
949.483476	2502.423728
949.784678	2501.420538
950.085841	2501.299551
950.386967	2505.186280
950.688054	2503.404232
950.989103	2503.704181
951.290114	2507.684172
951.591087	2505.697958
951.892021	2507.530417
952.192917	2505.743328
952.493776	2504.987155
952.794596	2505.448420
953.095378	2504.228461
953.396122	2506.252484
953.696828	2504.135200
953.997496	2505.302227
954.298126	2504.762823
954.598718	2507.953874
954.899272	2501.881804
955.199788	2507.694254
955.500266	2504.493122
955.800706	2502.393481
956.101108	2502.159068
956.401472	2499.698984
956.701798	2499.204951
957.002087	2499.318377
957.302337	2501.730569
957.602550	2504.909017
957.902724	2501.135713
958.202861	2501.808707
958.502960	2500.215703
958.803022	2502.126300
959.103045	2502.685868
959.403031	2502.660662
959.702979	2501.937257
960.002889	2498.552122
960.302762	2503.943636
960.602596	2499.056237
960.902393	2500.611433
961.202153	2500.944149
961.501875	2500.218223
961.801559	2497.697646
962.101205	2498.887359
962.400814	2500.883656
962.700385	2501.304592
962.999918	2500.543378
963.299414	2499.709067
963.598873	2500.636639
963.898293	2499.162102
964.197677	2499.951042
964.497022	2499.618326
964.796331	2503.202586
965.095601	2498.990702
965.394835	2501.775940
965.694030	2498.380723
965.993189	2501.234016
966.292309	2499.346104
966.591393	2499.938439
966.890439	2499.961124
967.189447	2502.012874
967.488419	2499.870384
967.787353	2497.942142
968.086249	2498.932729
968.385108	2498.511793
968.683930	2501.244098
968.982714	2497.347286
969.281462	2500.581186
969.580172	2500.833244
969.878844	2499.388953
970.177480	2502.113697
970.476078	2500.805518
970.774639	2503.452123
971.073162	2498.113542
971.371649	2497.637152
971.670098	2497.294354
971.968510	2497.266628
972.266885	2495.857625
972.565223	2499.761999
972.863524	2500.311485
973.161788	2498.199241
973.460014	2500.621516
973.758204	2496.545743
974.056356	2500.445075
974.354471	2498.942811
974.652550	2500.059427
974.950591	2500.505569
975.248595	2502.186794
975.546563	2500.147647
975.844493	2499.194869
976.142386	2501.029849
976.440243	2499.464571
976.738062	2498.481546
977.035845	2502.290137
977.333590	2500.397184
977.631299	2501.115549
977.928971	2498.831906
978.226606	2498.605054
978.524204	2499.560353
978.821765	2499.625888
979.119290	2499.003305
979.416777	2501.450785
979.714228	2500.571104
980.011642	2498.136227
980.309020	2503.774757
980.606360	2500.863491
980.903664	2502.040600
981.200931	2500.674448
981.498162	2497.619508
981.795356	2501.569253
982.092513	2501.932216
982.389633	2504.283914
982.686717	2505.587052
982.983764	2506.045797
983.280775	2504.190653
983.577749	2505.599655
983.874686	2504.878770
984.171587	2506.121414
984.468451	2503.028667
984.765279	2503.424397
985.062070	2504.190652
985.358824	2504.351969
985.655543	2502.564880
985.952224	2501.672596
986.248869	2502.723677
986.545478	2499.414159
986.842050	2497.059940
987.138586	2494.826709
987.435086	2496.860815
987.731549	2495.295537
988.027975	2499.341062
988.324366	2500.157729
988.620719	2499.673779
988.917037	2498.647904
989.213318	2499.252842
989.509563	2498.264776
989.805772	2498.892400
990.101944	2498.620177
990.398080	2500.424911
990.694180	2498.693274
990.990244	2498.289982
991.286271	2498.403408
991.582262	2498.935250
991.878217	2498.257214
992.174136	2501.665034
992.470019	2497.380054
992.765865	2500.745024
993.061676	2500.235867
993.357450	2500.790394
993.653188	2499.073881
993.948890	2499.492297
994.244556	2500.553460
994.540186	2501.226454
994.835780	2502.630415
995.131337	2499.441886
995.426859	2500.813079
995.722345	2502.567401
996.017795	2499.598161
996.313208	2500.505569
996.608586	2502.945487
996.903928	2505.329953
997.199234	2501.110507
997.494504	2501.765858
997.789738	2504.747700
998.084936	2504.566218
998.380099	2499.336021
998.675225	2500.553460
998.970316	2501.972545
999.265371	2498.413490
999.560390	2499.623367
999.855373	2500.939108
1000.150320	2498.968017
1000.445232	2501.861639
1000.740108	2499.787205
1001.034948	2498.194200
1001.329752	2499.940960
1001.624521	2501.029849
1001.919254	2495.320742
1002.213951	2494.395691
1002.508613	2492.069198
1002.803239	2496.611278
1003.097829	2494.735968
1003.392384	2499.177225
1003.686903	2499.121772
1003.981386	2500.457678
1004.275834	2498.267297
1004.570246	2499.532626
1004.864623	2499.696464
1005.158964	2497.528768
1005.453270	2495.287975
1005.747540	2497.851402
1006.041775	2497.793428
1006.335974	2498.889879
1006.630138	2498.773933
1006.924266	2497.528768
1007.218359	2498.862153
1007.512416	2497.410301
1007.806438	2501.849037
1008.100425	2497.183449
1008.394376	2497.911895
1008.688292	2497.957266
1008.982172	2496.366782
1009.276017	2499.157060
1009.569827	2498.847029
1009.863602	2499.585558
1010.157341	2498.163953
1010.451045	2498.239570
1010.744714	2496.906185
1011.038347	2498.831906
1011.331945	2498.728562
1011.625508	2499.870384
1011.919036	2496.752430
1012.212528	2497.886690
1012.505986	2496.865856
1012.799408	2496.003819
1013.092795	2498.567245
1013.386147	2496.180259
1013.679464	2499.184787
1013.972745	2496.109683
1014.265992	2500.089674
1014.559204	2498.834427
1014.852380	2496.044148
1015.145521	2499.535147
1015.438628	2496.444920
1015.731699	2496.969200
1016.024736	2499.532626
1016.317737	2497.939622
1016.610703	2499.368789
1016.903635	2494.577172
1017.196531	2492.268324
1017.489393	2496.623881
1017.782219	2494.907368
1018.075011	2496.858294
1018.367768	2497.243942
1018.660490	2498.138747
1018.953177	2498.138747
1019.245829	2498.138747
