Dividing Wavelength (nm)	Counts (n)	Blue Motor Position (mm): 0.000000	Red Motor Position (mm): 28.700000	
326.493990	2129.799280
326.888308	2129.799280
327.282561	2129.799280
327.676750	2093.056830
328.070874	2092.635894
328.464933	2096.885586
328.858929	2102.456061
329.252859	2112.755139
329.646726	2125.859618
330.040528	2135.193314
330.434265	2155.917498
330.827938	2173.296876
331.221547	2192.052489
331.615091	2208.098481
332.008571	2228.263097
332.401986	2248.916704
332.795338	2264.652666
333.188625	2287.400873
333.581847	2304.019036
333.975006	2321.247179
334.368100	2341.696620
334.761129	2359.726307
335.154095	2374.690972
335.546996	2394.537995
335.939833	2411.130953
336.332606	2426.077974
336.725315	2438.748914
337.117960	2448.264092
337.510540	2454.368929
337.903056	2467.271762
338.295508	2477.895994
338.687896	2483.448825
339.080220	2492.427120
339.472480	2500.437513
339.864676	2500.387102
340.256807	2508.402537
340.648875	2509.977897
341.040879	2513.741118
341.432818	2513.728516
341.824694	2515.324041
342.216506	2516.884278
342.608253	2516.198681
342.999937	2516.027282
343.391557	2516.758249
343.783113	2516.057529
344.174605	2512.526200
344.566033	2513.967970
344.957397	2513.214318
345.348697	2508.473113
345.739934	2506.406240
346.131106	2504.460354
346.522215	2502.040600
346.913260	2500.336690
347.304241	2500.777791
347.695159	2500.785353
348.086012	2497.470794
348.476802	2495.043479
348.867528	2496.036586
349.258191	2492.883344
349.648789	2494.393170
350.039324	2490.680360
350.429796	2490.876965
350.820203	2489.339413
351.210548	2487.995946
351.600828	2487.912767
351.991045	2484.673825
352.381198	2483.136273
352.771288	2484.938486
353.161314	2483.965543
353.551276	2486.619711
353.941175	2483.227014
354.331010	2486.523929
354.720782	2485.684577
355.110490	2485.324134
355.500135	2485.026706
355.889717	2485.341778
356.279235	2487.759012
356.668689	2485.619042
357.058080	2483.305152
357.447408	2487.678353
357.836672	2482.218783
358.225873	2487.446460
358.615010	2483.184164
359.004084	2487.985863
359.393095	2488.517705
359.782043	2489.319249
360.170927	2486.534011
360.559748	2491.270175
360.948505	2490.450988
361.337199	2493.183293
361.725830	2491.335710
362.114398	2494.493993
362.502903	2494.436020
362.891344	2495.862666
363.279722	2492.283447
363.668037	2496.540702
364.056289	2495.028355
364.444478	2494.796462
364.832603	2499.323418
365.220665	2497.753099
365.608665	2498.451299
365.996601	2499.671258
366.384474	2500.036742
366.772284	2500.893738
367.160031	2502.557319
367.547715	2504.707371
367.935336	2507.013699
368.322893	2513.080727
368.710388	2513.297497
369.097820	2520.259330
369.485189	2522.026255
369.872495	2530.255938
370.259738	2535.725590
370.646918	2545.097095
371.034035	2548.830070
371.421090	2560.729713
371.808081	2571.611044
372.195010	2580.130594
372.581875	2594.427306
372.968678	2607.337701
373.355418	2618.415637
373.742096	2635.119500
374.128710	2649.544762
374.515262	2666.341887
374.901751	2680.205060
375.288177	2693.032276
375.674540	2716.639999
376.060841	2734.717577
376.447079	2757.329672
376.833254	2774.048659
377.219367	2789.245217
377.605417	2824.233346
377.991404	2832.359686
378.377329	2857.991432
378.763191	2872.898124
379.148991	2910.936151
379.534727	2937.271138
379.920402	2964.702577
380.306013	2975.528455
380.691563	3028.861342
381.077049	3048.967984
381.462474	3066.301992
381.847835	3103.684668
382.233134	3126.790797
382.618371	3126.561424
383.003545	3191.630117
383.388657	3201.982127
383.773706	3232.007239
384.158693	3249.096751
384.543618	3276.651697
384.928480	3312.726194
385.313280	3358.451980
385.698017	3357.204295
386.082692	3409.087850
386.467305	3419.374325
386.851856	3447.882050
387.236344	3472.450113
387.620770	3501.192252
388.005133	3530.216695
388.389435	3554.794840
388.773674	3565.592992
389.157851	3608.440279
389.541965	3626.210346
389.926018	3589.334306
390.310008	3659.764266
390.693936	3680.332174
391.077802	3719.275088
391.461606	3704.539795
391.845348	3775.100825
392.229027	3772.290382
392.612645	3785.097433
392.996200	3862.194320
393.379694	3902.997419
393.763125	3964.849856
394.146494	3933.259465
394.529801	3995.361440
394.913047	4042.254253
395.296230	4010.053882
395.679351	4061.390473
396.062410	4088.249740
396.445408	4070.280547
396.828343	4104.187348
397.211217	4129.471255
397.594028	4048.182650
397.976778	4114.259574
398.359466	4143.281496
398.742092	4170.279396
399.124656	4091.198815
399.507158	4170.980116
399.889598	4199.230742
400.271977	4257.350205
400.654294	4228.915577
401.036549	4239.055858
401.418742	4205.353224
401.800874	4306.294768
402.182944	4331.545907
402.564952	4393.562182
402.946898	4381.271849
403.328783	4379.005850
403.710606	4289.878250
404.092367	4484.257581
404.474067	4449.503866
404.855705	4461.395948
405.237282	4385.206469
405.618797	4495.368284
406.000250	4529.272564
406.381642	4607.579327
406.762972	4573.130602
407.144240	4581.330039
407.525447	4582.194597
407.906593	4642.799349
408.287677	4686.594373
408.668700	4613.502683
409.049661	4662.827853
409.430560	4705.297053
409.811399	4632.061691
410.192176	4793.010610
410.572891	4733.784614
410.953545	4831.590560
411.334138	4711.860636
411.714669	4782.787150
412.095139	4679.690512
412.475547	4819.610258
412.855894	4799.554027
413.236180	4807.609791
413.616405	4761.377369
413.996568	4850.850288
414.376670	4790.888284
414.756711	4748.804732
415.136691	4775.008649
415.516609	4856.347667
415.896466	4890.834200
416.276262	4925.822328
416.655997	4910.623250
417.035670	5090.988173
417.415283	5181.847409
417.794834	5128.713647
418.174324	5083.214713
418.553753	4988.161237
418.933121	5171.084545
419.312428	5238.716665
419.691674	5178.643756
420.070859	5305.680832
420.449983	5218.395774
420.829045	5335.027910
421.208047	5240.244135
421.586988	5305.542201
421.965867	5323.365200
422.344686	5454.984686
422.723444	5307.417510
423.102141	5124.302638
423.480777	5425.085602
423.859352	5194.430129
424.237866	5451.896979
424.616319	5443.329538
424.994712	5556.221137
425.373044	5427.996869
425.751314	5572.556997
426.129524	5375.558787
426.507673	5572.541873
426.885762	5655.115973
427.263789	5583.007308
427.641756	5466.629751
428.019662	5586.820941
428.397508	5593.238330
428.775292	5543.499786
429.153016	5640.458818
429.530679	5566.520215
429.908282	5652.953318
430.285824	5524.517321
430.663305	5797.571419
431.040726	5530.659967
431.418086	5534.166089
431.795385	5639.669878
432.172624	5652.066075
432.549802	5643.833871
432.926920	5658.528834
433.303977	5663.123846
433.680974	5700.919897
434.057910	5721.041663
434.434786	5727.645574
434.811601	5699.457962
435.188355	5930.811636
435.565050	5808.558614
435.941683	5782.528616
436.318257	6001.909549
436.694770	5984.870449
437.071222	6017.315315
437.447614	5946.620694
437.823946	5862.241861
438.200218	6017.700963
438.576429	5881.403287
438.952580	5979.388194
439.328670	6024.889649
439.704700	5933.301966
440.080670	5918.090284
440.456580	6192.901224
440.832429	6069.934879
441.208218	5918.415438
441.583947	6073.826650
441.959616	6073.844294
442.335224	6003.195043
442.710773	6141.526825
443.086261	6165.678993
443.461689	5964.216842
443.837057	6113.989522
444.212365	6263.883191
444.587612	6156.622561
444.962800	6309.238452
445.337927	6290.271111
445.712995	5901.010855
446.088002	6479.145501
446.462949	6305.467669
446.837837	6242.516260
447.212664	6413.552528
447.587431	6554.064609
447.962139	7096.976714
448.336786	8021.209257
448.711374	7761.859536
449.085901	6831.940571
449.460369	6758.047338
449.834776	6688.418921
450.209124	7078.715134
450.583412	7226.269707
450.957640	7373.002572
451.331808	7140.073538
451.705917	6691.930085
452.079965	6612.846984
452.453954	6823.138716
452.827883	6698.604572
453.201752	6790.237626
453.575562	6586.864877
453.949311	6783.900895
454.323001	6676.443660
454.696632	6746.296408
455.070202	6881.258179
455.443713	7035.693927
455.817164	7131.178422
456.190556	7203.334978
456.563888	7269.991634
456.937160	7311.301370
457.310373	6967.971066
457.683526	6988.667523
458.056619	6874.936572
458.429653	6857.335383
458.802628	6783.154805
459.175542	6887.118520
459.548398	7224.802731
459.921194	7375.210597
460.293930	7366.411263
460.666607	7865.261163
461.039224	8147.422105
461.411782	8264.288654
461.784280	8269.634798
462.156719	8155.276223
462.529099	8024.271758
462.901419	7614.617514
463.273680	7503.034094
463.645882	7498.713826
464.018024	7355.729058
464.390106	7501.178950
464.762130	7849.862958
465.134094	8259.076101
465.505999	9168.868259
465.877845	10277.821283
466.249631	10853.122801
466.621358	10486.973714
466.993026	9878.861847
467.364634	9619.562537
467.736184	9256.337320
468.107674	8917.924662
468.479105	8905.324298
468.850477	8670.320829
469.221790	8435.753420
469.593043	8109.293338
469.964238	7944.664377
470.335373	7924.134278
470.706449	7937.379910
471.077467	7879.948565
471.448425	8949.870454
471.819324	9801.986771
472.190164	9796.101224
472.560945	8708.210142
472.931667	7984.756674
473.302330	7830.164650
473.672934	7482.972823
474.043479	7727.536840
474.413965	7634.409084
474.784393	7477.745146
475.154761	7556.798000
475.525070	7570.441883
475.895321	7383.571351
476.265513	7462.780481
476.635645	7543.761576
477.005719	7470.916903
477.375734	7498.060996
477.745691	7608.162317
478.115588	7636.750700
478.485427	7742.851865
478.855207	8045.172382
479.224928	8513.109926
479.594591	8863.213019
479.964194	8654.854569
480.333739	8554.212974
480.703226	8388.800113
481.072653	8364.035445
481.442022	8401.075323
481.811333	8443.085778
482.180584	8236.645487
482.549777	7952.538659
482.918912	7759.979185
483.287988	7681.836260
483.657005	7598.284176
484.025964	7324.292423
484.394864	7306.179557
484.763706	7198.064451
485.132489	6989.547205
485.501213	6878.636779
485.869879	6835.723957
486.238487	6654.554970
486.607036	6636.051415
486.975527	6429.994251
487.343959	6441.757784
487.712333	6373.767742
488.080648	6264.520897
488.448905	6188.991809
488.817104	6080.659934
489.185244	6106.823522
489.553326	6079.558442
489.921350	6216.007353
490.289315	6524.205855
490.657222	6572.883237
491.025070	6434.034736
491.392861	6299.526669
491.760593	6069.834056
492.128267	5845.676630
492.495883	5647.488707
492.863440	5449.923367
493.230939	5262.437815
493.598380	5161.065252
493.965763	5034.406262
494.333088	4948.570535
494.700354	4845.526830
495.067563	4803.985202
495.434713	4680.988610
495.801805	4652.276718
496.168839	4570.413421
496.535815	4487.405781
496.902733	4429.666926
497.269593	4345.983772
497.636395	4312.848268
498.003139	4245.909306
498.369825	4167.516843
498.736453	4137.040548
499.103023	4073.743820
499.469535	4018.883463
499.835989	3962.883806
500.202385	3904.872728
500.568723	3830.087211
500.935003	3825.328362
501.301226	3737.377871
501.667390	3733.768405
502.033497	3700.700956
502.399546	3639.072850
502.765537	3580.446752
503.131470	3546.073644
503.497345	3525.775438
503.863163	3445.706792
504.228923	3431.694905
504.594625	3406.647932
504.960269	3345.755834
505.325856	3329.482990
505.691385	3279.222686
506.056856	3262.949841
506.422270	3227.084552
506.787625	3194.919470
507.152924	3170.472395
507.518164	3142.015081
507.883347	3109.403857
508.248472	3079.431677
508.613540	3069.256108
508.978550	3035.114893
509.343503	3014.254599
509.708398	2995.844305
510.073236	2978.848055
510.438016	2957.511371
510.802738	2936.028494
511.167403	2920.481575
511.532010	2898.338307
511.896561	2893.314797
512.261053	2877.495657
512.625488	2856.685773
512.989866	2839.611385
513.354186	2829.324911
513.718449	2808.583083
514.082655	2801.964048
514.446803	2791.803603
514.810894	2785.025772
515.174927	2771.381889
515.538904	2761.402925
515.902822	2756.863366
516.266684	2744.351222
516.630488	2732.461660
516.994235	2728.567369
517.357925	2723.387583
517.721558	2717.416337
518.085133	2710.948536
518.448651	2707.245809
518.812112	2697.120651
519.175516	2693.327183
519.538863	2692.616380
519.902152	2685.064732
520.265385	2681.808147
520.628560	2678.302024
520.991678	2674.120387
521.354739	2671.758606
521.717743	2669.195180
522.080690	2666.493121
522.443580	2663.856598
522.806413	2658.926349
523.169189	2658.581030
523.531908	2655.909219
523.894569	2650.237921
524.257174	2650.023672
524.619722	2646.172230
524.982213	2648.183650
525.344647	2643.487816
525.707025	2640.735346
526.069345	2643.268525
526.431608	2640.072434
526.793815	2639.270890
527.155964	2636.888945
527.518057	2634.295272
527.880093	2634.161681
528.242072	2632.314098
528.603995	2632.387195
528.965860	2628.276134
529.327669	2627.220012
529.689421	2625.879065
530.051117	2626.108438
530.412755	2625.889147
530.774337	2624.550721
531.135862	2621.810854
531.497331	2621.084928
531.858743	2618.019906
532.220098	2621.256327
532.581396	2616.063939
532.942638	2615.620317
533.303824	2617.167951
533.664953	2616.295832
534.026025	2616.368928
534.387040	2617.868672
534.747999	2612.152003
535.108902	2615.524535
535.469748	2612.477158
535.830537	2614.642333
536.191270	2611.869699
536.551947	2611.995727
536.912567	2611.415995
537.273131	2611.678135
537.633638	2611.277363
537.994089	2612.094030
538.354483	2607.501539
538.714821	2612.540172
539.075103	2610.604369
539.435328	2609.961622
539.795497	2607.993051
540.155609	2610.647219
540.515665	2610.596807
540.875665	2609.139914
541.235609	2608.509770
541.595496	2606.876436
541.955328	2610.876591
542.315102	2607.667897
542.674821	2609.119749
543.034483	2609.696961
543.394090	2610.059924
543.753640	2607.446086
544.113134	2610.526231
544.472571	2607.680500
544.831953	2610.259050
545.191278	2610.259050
545.550548	2607.146137
545.909761	2609.979266
546.268918	2609.767537
546.628019	2609.863319
546.987064	2607.211672
547.346053	2608.711416
547.704986	2608.005654
548.063863	2609.021447
548.422684	2607.471292
548.781449	2607.569594
549.140158	2606.543720
549.498811	2607.824173
549.857408	2602.851074
550.215949	2602.016763
550.574434	2601.603389
550.932864	2605.369131
551.291237	2599.367637
551.649555	2607.057917
552.007817	2606.158071
552.366022	2606.503390
552.724173	2606.705037
553.082267	2606.321909
553.440305	2605.051538
553.798288	2603.113214
554.156215	2603.834099
554.514086	2606.246292
554.871902	2607.521703
555.229661	2605.946343
555.587365	2605.658997
555.945014	2606.705037
556.302606	2606.205962
556.660143	2603.234202
557.017625	2605.185129
557.375050	2603.166147
557.732421	2606.387444
558.089735	2605.545571
558.446994	2605.969028
558.804197	2602.709922
559.161345	2607.337701
559.518437	2606.321909
559.875474	2604.469285
560.232455	2607.594800
560.589381	2604.391147
560.946251	2606.858792
561.303065	2604.648246
561.659825	2605.477516
562.016528	2602.452823
562.373177	2605.626230
562.729770	2603.990375
563.086307	2606.715119
563.442789	2603.259408
563.799216	2606.952053
564.155587	2603.965169
564.511904	2604.537340
564.868164	2604.383585
565.224370	2602.888883
565.580520	2602.049531
565.936615	2606.722681
566.292654	2603.332505
566.648638	2605.669079
567.004567	2602.074737
567.360441	2603.473657
567.716260	2601.406784
568.072023	2601.215220
568.427732	2598.906372
568.783385	2598.402256
569.138982	2600.285127
569.494525	2598.742534
569.850013	2599.617174
570.205445	2601.714294
570.560823	2602.077257
570.916145	2600.083481
571.271412	2599.503748
571.626625	2601.842844
571.981782	2600.517020
572.336884	2602.412494
572.691931	2598.450147
573.046923	2598.308995
573.401860	2601.368975
573.756743	2601.023656
574.111570	2598.271186
574.466342	2600.106166
574.821059	2601.487442
575.175722	2600.448965
575.530330	2600.179263
575.884882	2598.863522
576.239380	2598.487956
576.593823	2598.286310
576.948211	2595.254056
577.302544	2597.341093
577.656823	2596.355548
578.011047	2599.070209
578.365216	2598.157760
578.719330	2595.289344
579.073389	2599.281937
579.427394	2595.959817
579.781344	2595.785897
580.135239	2597.081474
580.489080	2595.155753
580.842866	2596.295054
581.196597	2597.479725
581.550273	2598.359406
581.903895	2596.731114
582.257463	2599.841506
582.610975	2597.605754
582.964434	2594.197934
583.317837	2595.818665
583.671186	2597.043665
584.024481	2598.966865
584.377721	2595.571648
584.730906	2595.619539
585.084037	2597.920826
585.437113	2593.194744
585.790135	2595.639704
586.143103	2592.735999
586.496016	2593.620722
586.848874	2590.280957
587.201679	2593.860177
587.554428	2590.167531
587.907124	2593.429158
588.259765	2587.858683
588.612352	2593.411514
588.964884	2593.416555
589.317362	2591.972264
589.669786	2590.575865
590.022155	2594.664241
590.374470	2593.610639
590.726731	2593.066195
591.078937	2593.623242
591.431090	2591.367326
591.783188	2591.208530
592.135232	2591.697522
592.487222	2591.674836
592.839157	2592.037799
593.191038	2590.888416
593.542866	2590.013776
593.894639	2591.543766
594.246358	2589.441605
594.598022	2589.121492
594.949633	2589.343303
595.301190	2589.691142
595.652692	2592.078129
596.004141	2589.870103
596.355535	2588.579568
596.706876	2589.108889
597.058162	2589.751636
597.409395	2586.628641
597.760573	2590.500247
598.111698	2589.423961
598.462768	2589.761718
598.813785	2591.568972
599.164748	2589.867583
599.515657	2588.912284
599.866511	2586.177458
600.217312	2587.054619
600.568060	2587.510843
600.918753	2587.515884
601.269392	2586.426995
601.619978	2585.738878
601.970510	2587.392376
602.320988	2588.607294
602.671412	2588.841708
603.021783	2588.317428
603.372100	2588.730803
603.722363	2586.260637
604.072572	2589.245000
604.422728	2589.015628
604.772830	2584.375246
605.122878	2581.474062
605.472872	2584.145873
605.822813	2582.240317
606.172701	2583.568661
606.522534	2585.925400
606.872314	2589.640731
607.222041	2589.371029
607.571714	2587.772983
607.921333	2588.556883
608.270899	2586.580750
608.620411	2591.140474
608.969870	2587.142839
609.319276	2591.170721
609.668627	2591.881524
610.017926	2595.995105
610.367171	2592.814137
610.716362	2595.521237
611.065500	2591.422779
611.414585	2594.046699
611.763616	2593.330855
612.112594	2588.322469
612.461518	2591.087542
612.810389	2590.580906
613.159207	2590.084352
613.507971	2589.618046
613.856682	2590.243149
614.205340	2588.385483
614.553945	2590.240628
614.902496	2588.224167
615.250994	2588.130905
615.599439	2590.981678
615.947830	2590.787593
616.296169	2589.504620
616.644454	2586.870617
616.992686	2588.549321
617.340864	2588.163673
617.688990	2587.200812
618.037063	2588.622418
618.385082	2587.105030
618.733048	2588.778693
619.080961	2590.338931
619.428821	2588.322469
619.776628	2587.326841
620.124382	2590.023858
620.472083	2586.663929
620.819731	2588.871955
621.167326	2586.134608
621.514868	2589.086204
621.862357	2587.730133
622.209793	2585.549834
622.557176	2588.196440
622.904506	2583.724937
623.251783	2582.144535
623.599007	2580.130594
623.946179	2582.661253
624.293297	2579.571026
624.640363	2584.196285
624.987376	2583.838363
625.334336	2582.610842
625.681243	2582.525142
626.028097	2581.771490
626.374899	2584.019844
626.721647	2584.803744
627.068343	2582.686459
627.414987	2581.136304
627.761577	2582.898187
628.108115	2581.257292
628.454600	2579.051787
628.801032	2580.669998
629.147412	2581.501788
629.493739	2580.826273
629.840014	2581.791654
630.186236	2581.940368
630.532405	2580.997673
630.878521	2582.555389
631.224585	2580.758218
631.570597	2582.386510
631.916556	2579.843248
632.262462	2581.209401
632.608316	2578.935841
632.954117	2579.140007
633.299866	2582.101685
633.645562	2577.960377
633.991206	2577.141190
634.336797	2577.415933
634.682336	2577.292424
635.027823	2576.105233
635.373257	2575.706982
635.718639	2575.815366
636.063968	2573.824111
636.409245	2574.381158
636.754470	2573.400654
637.099642	2573.740932
637.444762	2573.899728
637.789829	2573.307392
638.134845	2573.312433
638.479808	2573.899728
638.824719	2574.030798
639.169577	2573.667835
639.514383	2573.312433
639.859137	2571.812690
640.203839	2577.277301
640.548489	2573.335119
640.893086	2570.131465
641.237632	2568.389747
641.582125	2570.542319
641.926566	2569.045097
642.270955	2570.784295
642.615292	2572.014336
642.959576	2572.924265
643.303809	2572.793195
643.647990	2573.713205
643.992118	2576.871488
644.336195	2570.489387
644.680219	2570.033163
645.024192	2572.094995
645.368112	2575.417115
645.711981	2573.297310
646.055797	2575.858216
646.399562	2572.735221
646.743274	2571.570715
647.086935	2575.013823
647.430544	2573.584656
647.774101	2573.498956
648.117606	2574.418967
648.461059	2573.451065
648.804460	2578.398958
649.147810	2576.231262
649.491108	2576.652198
649.834354	2576.357290
650.177548	2570.393605
650.520690	2575.558267
650.863781	2574.620613
651.206820	2574.229923
651.549807	2572.783112
651.892742	2572.062227
652.235626	2572.188256
652.578458	2570.708678
652.921238	2571.812690
653.263967	2570.501990
653.606644	2570.441496
653.949269	2570.292782
654.291843	2570.990982
654.634365	2571.021229
654.976836	2569.428224
655.319255	2570.970818
655.661622	2569.914696
656.003938	2567.794891
656.346203	2572.168092
656.688416	2570.678431
657.030577	2568.679613
657.372687	2567.378995
657.714746	2567.444530
658.056753	2568.906465
658.398708	2564.003943
658.740612	2567.056362
659.082465	2565.168449
659.424266	2566.887483
659.766016	2564.732390
660.107715	2567.220199
660.449362	2568.374623
660.790958	2569.322360
661.132503	2568.145251
661.473996	2569.518965
661.815438	2569.012329
662.156829	2569.234140
662.498168	2568.581311
662.839456	2566.819427
663.180693	2568.233471
663.521879	2571.220355
663.863013	2565.793552
664.204097	2570.305385
664.545129	2569.377813
664.886110	2569.012329
665.227040	2570.189439
665.567918	2570.353276
665.908746	2571.540468
666.249522	2570.388564
666.590248	2569.735735
666.930922	2570.731363
667.271545	2568.311609
667.612118	2569.748338
667.952639	2568.286403
668.293109	2571.555591
668.633528	2569.639953
668.973896	2566.441341
669.314213	2567.517627
669.654480	2568.120045
669.994695	2569.455951
670.334859	2568.740107
670.674973	2568.062072
671.015035	2571.777402
671.355047	2568.475446
671.695008	2569.092988
672.034918	2571.217834
672.374777	2569.534089
672.714585	2569.098029
673.054342	2568.934191
673.394049	2567.386557
673.733705	2568.651887
674.073310	2568.374623
674.412864	2569.846640
674.752368	2568.513255
675.091820	2568.480487
675.431223	2569.017370
675.770574	2564.775239
676.109875	2563.368757
676.449125	2564.283727
676.788324	2563.018397
677.127473	2566.912689
677.466571	2561.627039
677.805619	2565.354972
678.144616	2566.786660
678.483562	2565.707853
678.822458	2564.467729
679.161303	2568.798080
679.500098	2564.898748
679.838842	2566.658110
680.177535	2565.735579
680.516179	2566.395970
680.854771	2566.562328
681.193314	2565.869170
681.531805	2568.382185
681.870247	2569.471074
682.208638	2570.421332
682.546978	2569.007288
682.885268	2570.375961
683.223508	2569.972669
683.561697	2568.593913
683.899836	2567.217678
684.237925	2568.661969
684.575963	2568.210786
684.913951	2567.227761
685.251889	2566.267421
685.589776	2566.985785
685.927614	2567.013512
686.265401	2565.145764
686.603137	2565.448233
686.940824	2568.233471
687.278460	2570.108780
687.616046	2571.726991
687.953582	2571.346383
688.291068	2569.859243
688.628504	2569.483677
688.965889	2568.750189
689.303224	2569.395457
689.640510	2567.318502
689.977745	2566.612740
690.314930	2568.097360
690.652065	2567.283213
690.989150	2566.511917
691.326185	2567.189952
691.663170	2566.385888
692.000105	2564.268603
692.336990	2563.502348
692.673825	2566.264900
693.010610	2564.354303
693.347345	2559.245094
693.684030	2557.193344
694.020665	2559.676112
694.357251	2556.555638
694.693786	2558.917419
695.030272	2560.031514
695.366707	2561.629559
695.703093	2560.233160
696.039429	2560.986812
696.375716	2559.756771
696.711952	2561.087635
697.048139	2559.325752
697.384276	2558.990515
697.720363	2561.997564
698.056400	2562.599982
698.392388	2556.253169
698.728326	2558.390618
699.064214	2555.854918
699.400053	2559.524878
699.735842	2559.623180
700.071581	2559.469425
700.407270	2557.437840
700.742910	2558.403221
701.078501	2554.314845
701.414042	2557.896585
701.749533	2555.428940
702.084974	2557.609239
702.420366	2555.696121
702.755709	2558.166287
703.091002	2554.453477
703.426246	2553.362067
703.761440	2556.850546
704.096584	2558.080587
704.431679	2557.541184
704.766725	2554.821481
705.101721	2555.726368
705.436668	2558.090669
705.771565	2557.841132
706.106413	2555.554969
706.441212	2554.801317
706.775961	2555.002963
707.110661	2557.752912
707.445311	2555.703683
707.779913	2556.343910
708.114465	2559.096380
708.448967	2553.467931
708.783421	2557.785680
709.117825	2560.296174
709.452180	2555.958261
709.786485	2556.820299
710.120742	2559.650907
710.454949	2562.110990
710.789107	2557.170659
711.123216	2555.391132
711.457275	2556.986657
711.791286	2557.337017
712.125247	2557.596636
712.459159	2559.585372
712.793023	2560.734755
713.126837	2562.413459
713.460602	2562.211813
713.794318	2559.088818
714.127985	2557.452963
714.461602	2558.249466
714.795171	2558.350289
715.128691	2556.656461
715.462162	2557.319373
715.795584	2555.887685
716.128957	2558.284754
716.462281	2556.999260
716.795556	2554.861810
717.128782	2556.875751
717.461960	2556.233004
717.795088	2554.072870
718.128167	2557.435319
718.461198	2552.668908
718.794180	2556.487583
719.127113	2554.014897
719.459997	2550.786037
719.792833	2554.052705
720.125619	2554.574465
720.458357	2551.315359
720.791046	2553.067160
721.123686	2553.145297
721.456278	2555.249979
721.788821	2551.151521
722.121315	2554.350133
722.453761	2552.598332
722.786158	2552.747046
723.118506	2550.861655
723.450805	2551.993394
723.783056	2554.143446
724.115259	2552.787376
724.447412	2551.149001
724.779518	2553.566234
725.111574	2550.382745
725.443582	2553.823333
725.775542	2550.501212
726.107453	2551.262427
726.439315	2553.185627
726.771129	2554.239228
727.102895	2553.112530
727.434612	2554.130843
727.766281	2555.103786
728.097901	2551.637992
728.429473	2550.246634
728.760996	2551.108671
729.092471	2551.610266
729.423897	2554.307283
729.755276	2552.280740
730.086606	2554.521533
730.417887	2554.277037
730.749120	2555.844835
731.080305	2552.386604
731.411442	2557.004301
731.742530	2556.104455
732.073570	2559.613098
732.404562	2555.900288
732.735506	2556.144784
733.066401	2556.545556
733.397249	2559.376164
733.728048	2552.540359
734.058798	2553.089845
734.389501	2552.305945
734.720156	2553.770401
735.050762	2550.302087
735.381320	2552.721841
735.711831	2552.263096
736.042293	2549.692107
736.372707	2551.390976
736.703073	2549.566078
737.033391	2551.189330
737.363661	2553.059598
737.693883	2550.717982
738.024056	2552.845349
738.354182	2552.500030
738.684260	2551.857283
739.014290	2551.204453
739.344272	2550.034906
739.674207	2554.796275
740.004093	2554.221584
740.333931	2551.431305
740.663722	2553.629248
740.993464	2552.119423
741.323159	2550.539021
741.652806	2551.688404
741.982405	2552.835267
742.311956	2553.969526
742.641460	2554.582026
742.970915	2552.517674
743.300323	2551.206974
743.629683	2553.288970
743.958996	2550.813764
744.288260	2550.072714
744.617477	2551.065822
744.946647	2546.864020
745.275768	2546.889226
745.604842	2544.895449
745.933869	2545.177754
746.262847	2542.110212
746.591778	2548.152035
746.920662	2547.441232
747.249498	2545.775131
747.578286	2547.133722
747.907027	2550.125646
748.235720	2548.041129
748.564365	2549.311500
748.892963	2547.436191
749.221514	2551.509443
749.550017	2548.598177
749.878473	2550.173537
750.206881	2549.654298
750.535242	2549.850903
750.863555	2542.810932
751.191821	2548.308310
751.520039	2546.841335
751.848210	2550.591953
752.176334	2547.484082
752.504411	2549.263609
752.832440	2548.172199
753.160421	2546.702703
753.488356	2549.412323
753.816243	2548.555327
754.144082	2545.893598
754.471875	2546.644730
754.799620	2548.610780
755.127318	2544.086344
755.454969	2546.727909
755.782572	2549.130018
756.110129	2548.623382
756.437638	2548.630944
756.765100	2547.443752
757.092515	2546.201108
757.419882	2547.572302
757.747203	2549.828218
758.074477	2546.198588
758.401703	2547.829401
758.728882	2547.587425
759.056014	2548.875440
759.383099	2548.588094
759.710138	2548.477189
760.037129	2550.768393
760.364073	2550.289484
760.690970	2547.121119
761.017820	2548.514998
761.344623	2549.344267
761.671379	2548.595656
761.998088	2543.735984
762.324751	2547.579864
762.651366	2551.511964
762.977935	2561.259035
763.304456	2566.224571
763.630931	2569.070302
763.957359	2566.297668
764.283740	2563.202399
764.610074	2557.886503
764.936362	2553.863662
765.262602	2551.995914
765.588796	2550.087838
765.914943	2549.848383
766.241044	2548.872920
766.567097	2546.440563
766.893104	2545.830583
767.219064	2545.397044
767.544978	2544.580377
767.870845	2546.080120
768.196665	2545.369318
768.522438	2546.778320
768.848165	2545.286139
769.173846	2543.841848
769.499479	2546.180943
769.825066	2547.368135
770.150607	2547.209339
770.476101	2543.088196
770.801548	2545.470141
771.126949	2541.263298
771.452303	2546.017106
771.777611	2543.788916
772.102872	2544.635830
772.428087	2543.821683
772.753256	2543.357897
773.078378	2543.123484
773.403453	2539.725746
773.728482	2540.461754
774.053465	2541.144831
774.378401	2541.202804
774.703291	2540.313040
775.028135	2543.536858
775.352932	2543.340253
775.677683	2542.016950
776.002388	2543.617517
776.327046	2542.052238
776.651658	2542.705068
776.976224	2543.055428
777.300743	2541.220448
777.625216	2540.945705
777.949643	2542.200952
778.274024	2544.464431
778.598359	2538.982176
778.922647	2538.722556
779.246889	2537.737011
779.571086	2537.825231
779.895236	2537.245498
780.219339	2541.094419
780.543397	2539.851775
780.867409	2537.880684
781.191374	2540.572660
781.515294	2541.956457
781.839167	2540.497042
782.162995	2539.337577
782.486776	2539.637526
782.810511	2541.946374
783.134201	2539.587114
783.457844	2541.510314
783.781441	2539.977804
784.104993	2539.776157
784.428498	2539.687937
784.751958	2538.084850
785.075372	2539.236754
785.398739	2539.272042
785.722061	2539.725746
786.045337	2539.214069
786.368568	2539.201466
786.691752	2541.782537
787.014891	2539.698020
787.337983	2541.175078
787.661030	2541.840510
787.984031	2543.040305
788.306987	2543.627599
788.629897	2543.809081
788.952760	2545.142466
789.275579	2541.023843
789.598351	2544.119112
789.921078	2544.121632
790.243759	2544.242620
790.566395	2540.552495
790.888984	2543.854451
791.211529	2540.386137
791.534027	2537.527803
791.856480	2539.292207
792.178888	2541.588452
792.501249	2539.599717
792.823566	2542.205994
793.145836	2540.239944
793.468062	2540.731456
793.790241	2539.057793
794.112375	2542.203473
794.434464	2541.076775
794.756507	2542.735315
795.078505	2539.420756
795.400457	2538.576363
795.722364	2537.028729
796.044226	2541.613658
796.366042	2537.532844
796.687812	2541.066693
797.009538	2541.238092
797.331218	2541.328833
797.652852	2541.737166
797.974442	2544.330840
798.295986	2537.263142
798.617484	2542.148020
798.938938	2540.076106
799.260346	2544.237579
799.581709	2539.007382
799.903026	2540.867567
800.224299	2538.107536
800.545526	2539.695499
800.866708	2536.771630
801.187845	2541.293545
801.508936	2537.875642
801.829983	2539.614841
802.150984	2538.079809
802.471940	2540.670962
802.792851	2541.144831
803.113717	2540.454193
803.434538	2541.366642
803.755314	2539.874460
804.076045	2539.876981
804.396731	2539.178781
804.717372	2539.773637
805.037967	2538.455375
805.358518	2540.058462
805.679024	2539.055272
805.999485	2537.570653
806.319901	2539.665252
806.640272	2538.357073
806.960598	2538.896476
807.280879	2538.735159
807.601115	2538.031918
807.921306	2537.462268
808.241453	2536.965714
808.561554	2537.071578
808.881611	2537.363965
809.201623	2538.621733
809.521590	2541.076775
809.841513	2540.542413
810.161390	2539.400592
810.481223	2537.258101
810.801011	2537.127031
811.120755	2538.989737
811.440453	2540.166847
811.760107	2539.340098
812.079716	2536.043183
812.399281	2532.718542
812.718801	2534.366999
813.038276	2534.114942
813.357707	2536.935467
813.677093	2539.151054
813.996434	2536.829603
814.315731	2539.317413
814.634983	2539.322454
814.954191	2539.604758
815.273354	2540.197094
815.592473	2540.426466
815.911547	2537.507638
816.230577	2538.833462
816.549562	2539.952598
816.868502	2538.636857
817.187399	2539.191384
817.506250	2539.670293
817.825058	2540.537372
818.143821	2543.249513
818.462539	2541.563247
818.781213	2540.676003
819.099843	2542.947043
819.418429	2542.397557
819.736970	2545.205480
820.055466	2548.925852
820.373919	2548.643547
820.692327	2556.031358
821.010691	2558.433468
821.329011	2573.229254
821.647286	2600.559870
821.965517	2631.716721
822.283704	2648.473517
822.601847	2653.386121
822.919945	2643.238278
823.237999	2622.128447
823.556010	2607.698144
823.873976	2592.499065
824.191897	2582.235276
824.509775	2574.310582
824.827609	2565.362534
825.145398	2565.034859
825.463144	2561.553942
825.780845	2563.646021
826.098502	2566.819427
826.416116	2574.061045
826.733685	2581.305183
827.051210	2588.158632
827.368692	2584.604618
827.686129	2574.504666
828.003522	2566.884962
828.320872	2554.962633
828.638177	2550.662529
828.955439	2547.269833
829.272656	2543.983000
829.589830	2541.326312
829.906960	2546.183464
830.224046	2543.534338
830.541088	2544.401416
830.858086	2541.553164
831.175041	2542.694986
831.491952	2542.647095
831.808819	2543.236910
832.125642	2540.610468
832.442421	2543.975439
832.759157	2547.569781
833.075849	2552.457180
833.392497	2556.787531
833.709101	2564.238357
834.025662	2562.337842
834.342179	2561.251473
834.658653	2555.456667
834.975083	2551.519525
835.291469	2551.857283
835.607811	2541.016281
835.924110	2542.148020
836.240366	2542.405119
836.556578	2541.296065
836.872746	2542.684903
837.188871	2539.077958
837.504952	2538.730118
837.820990	2536.973276
838.136984	2537.321116
838.452935	2536.567463
838.768842	2538.336908
839.084706	2539.140972
839.400526	2540.860006
839.716303	2546.803526
840.032037	2547.446273
840.347727	2547.473999
840.663373	2542.604245
840.978977	2539.173740
841.294537	2540.577701
841.610054	2539.501415
841.925527	2538.407484
842.240957	2535.460930
842.556344	2536.776671
842.871687	2535.413039
843.186987	2538.452855
843.502244	2533.333563
843.817458	2534.987061
844.132629	2536.325488
844.447756	2535.962525
844.762840	2529.812317
845.077881	2533.464633
845.392879	2531.097811
845.707833	2533.419263
846.022745	2528.057995
846.337613	2533.948584
846.652438	2535.597041
846.967221	2533.419262
847.281960	2536.411187
847.596656	2536.859850
847.911309	2531.264169
848.225919	2534.924047
848.540485	2532.784077
848.855009	2534.394726
849.169490	2532.917668
849.483928	2532.229550
849.798323	2530.528161
850.112675	2534.240971
850.426984	2534.359438
850.741251	2530.031607
851.055474	2532.796680
851.369654	2530.545805
851.683792	2534.528316
851.997887	2534.608975
852.311938	2533.825075
852.625947	2532.012781
852.939914	2531.755682
853.253837	2534.246012
853.567718	2530.639066
853.881555	2534.523275
854.195350	2534.447658
854.509103	2533.368851
854.822812	2536.207021
855.136479	2533.139478
855.450103	2533.953625
855.763685	2533.537730
856.077224	2531.551515
856.390720	2534.818183
856.704173	2533.119314
857.017584	2533.711649
857.330953	2532.642925
857.644278	2530.369364
857.957561	2539.861857
858.270802	2531.695188
858.584000	2531.974972
858.897155	2533.580579
859.210268	2533.066382
859.523339	2532.862215
859.836367	2532.196783
860.149352	2535.934798
860.462295	2535.329860
860.775195	2529.046062
861.088054	2532.020342
861.400869	2531.725435
861.713642	2529.711494
862.026373	2531.428007
862.339062	2534.561084
862.651708	2533.106711
862.964312	2535.352545
863.276873	2531.745599
863.589392	2531.329704
863.901869	2533.474715
864.214303	2535.052596
864.526696	2534.311547
864.839045	2533.008408
865.151353	2534.545960
865.463619	2533.777184
865.775842	2534.757689
866.088023	2536.905220
866.400162	2534.984541
866.712258	2535.471012
867.024313	2533.814993
867.336325	2535.516383
867.648296	2534.873635
867.960224	2533.857843
868.272110	2535.740714
868.583954	2532.474046
868.895755	2537.789943
869.207515	2533.494880
869.519233	2535.894469
869.830909	2533.000847
870.142542	2536.101156
870.454134	2537.467309
870.765684	2536.953111
871.077191	2533.961187
871.388657	2536.912782
871.700081	2535.738193
872.011463	2536.106198
872.322803	2533.366330
872.634101	2535.685261
872.945357	2537.742052
873.256571	2536.363296
873.567744	2535.254242
873.878874	2538.089892
874.189963	2537.371527
874.501010	2537.260622
874.812015	2536.141486
875.122979	2534.755168
875.433900	2538.447813
875.744780	2537.358924
876.055618	2535.561753
876.366415	2537.996630
876.677169	2535.569315
876.987882	2533.482277
877.298554	2533.038655
877.609183	2535.236598
877.919771	2534.830786
878.230317	2530.860877
878.540822	2539.778678
878.851285	2539.211548
879.161707	2542.982331
879.472087	2543.047866
879.782425	2545.709596
880.092722	2553.578837
880.402977	2558.977913
880.713191	2572.647001
881.023363	2590.719538
881.333494	2598.240939
881.643583	2601.520210
881.953631	2600.544747
882.263637	2594.558376
882.573602	2593.207347
882.883526	2583.394741
883.193408	2576.904256
883.503248	2568.120045
883.813048	2560.863304
884.122806	2560.016390
884.432522	2555.698642
884.742197	2552.555483
885.051831	2550.314690
885.361424	2547.794113
885.670975	2545.076931
885.980485	2539.670293
886.289954	2540.063503
886.599382	2541.855633
886.908768	2541.704399
887.218113	2539.052752
887.527417	2538.687268
887.836680	2537.018646
888.145901	2539.120808
888.455082	2536.590148
888.764221	2539.667773
889.073319	2535.899510
889.382376	2536.794315
889.691392	2534.218285
890.000366	2537.747093
890.309300	2532.370703
890.618193	2538.344470
890.927044	2537.747093
891.235855	2537.646270
891.544625	2534.515713
891.853353	2535.914634
892.162041	2537.984027
892.470687	2539.856816
892.779293	2540.895294
893.087858	2537.734490
893.396381	2538.099974
893.704864	2541.207845
894.013306	2541.928730
894.321707	2551.169165
894.630068	2555.232335
894.938387	2560.792728
895.246665	2557.029507
895.554903	2552.918446
895.863100	2549.860986
896.171256	2548.976263
896.479371	2547.224462
896.787446	2545.165151
897.095480	2540.658359
897.403473	2540.824717
897.711425	2538.044521
898.019336	2542.221117
898.327207	2538.142824
898.635038	2538.228523
898.942827	2538.029398
899.250576	2539.478729
899.558284	2535.554191
899.865952	2537.774819
900.173579	2538.591486
900.481165	2538.125180
900.788711	2536.209541
901.096216	2534.735004
901.403681	2536.431352
901.711105	2538.452855
902.018489	2535.934798
902.325832	2537.681558
902.633135	2537.245498
902.940397	2536.378420
903.247619	2536.524613
903.554800	2542.447969
903.861941	2552.159752
904.169041	2561.528736
904.476101	2567.482339
904.783121	2565.649880
905.090100	2562.110990
905.397039	2556.018755
905.703938	2549.873589
906.010796	2547.002652
906.317614	2542.710109
906.624391	2543.274718
906.931129	2539.410674
907.237826	2537.923533
907.544483	2536.751465
907.851099	2535.196269
908.157675	2537.011085
908.464211	2533.366330
908.770707	2528.637728
909.077163	2533.956145
909.383578	2529.088911
909.689954	2533.270548
909.996289	2526.306194
910.302584	2535.014788
910.608839	2531.281813
910.915054	2530.946577
911.221229	2534.213244
911.527363	2531.546474
911.833458	2532.098480
912.139513	2534.319108
912.445527	2533.625950
912.751502	2533.210055
913.057436	2532.363141
913.363331	2535.791125
913.669186	2535.992772
913.975000	2537.225334
914.280775	2540.499563
914.586510	2539.052752
914.892205	2545.233207
915.197859	2546.284287
915.503475	2551.433826
915.809050	2558.506565
916.114585	2560.757440
916.420081	2567.837740
916.725536	2564.054354
917.030952	2557.737789
917.336328	2553.417520
917.641665	2554.829043
917.946961	2551.227138
918.252218	2547.489123
918.557435	2547.463917
918.862612	2544.386293
919.167750	2540.486960
919.472848	2539.529141
919.777906	2539.269522
920.082925	2537.457227
920.387904	2538.694830
920.692843	2538.510828
920.997743	2534.697195
921.302603	2533.734335
921.607423	2533.716691
921.912204	2534.104859
922.216946	2534.293903
922.521647	2535.962525
922.826310	2534.051927
923.130932	2532.978162
923.435516	2533.136958
923.740059	2531.944725
924.044564	2531.745599
924.349028	2534.384643
924.653454	2528.095804
924.957840	2528.496576
925.262186	2525.461801
925.566493	2531.541433
925.870761	2529.081350
926.174989	2529.015815
926.479178	2533.240302
926.783328	2530.634025
927.087438	2531.327184
927.391509	2532.385826
927.695541	2530.999509
927.999533	2532.186700
928.303486	2531.450692
928.607400	2531.090249
928.911275	2529.681247
929.215110	2529.794673
929.518906	2531.740558
929.822663	2531.203675
930.126381	2531.448171
930.430060	2532.156453
930.733699	2529.835002
931.037299	2532.219468
931.340861	2529.547656
931.644383	2531.448171
931.947866	2529.666123
932.251309	2530.243336
932.554714	2527.765608
932.858080	2530.886083
933.161407	2528.128572
933.464694	2530.417255
933.767943	2529.653521
934.071153	2528.433561
934.374323	2530.465146
934.677455	2531.669982
934.980548	2527.591689
935.283602	2530.639066
935.586617	2526.197810
935.889593	2529.829961
936.192530	2530.467667
936.495428	2532.055630
936.798287	2530.402132
937.101108	2532.350538
937.403890	2529.043541
937.706632	2529.605630
938.009336	2529.920702
938.312002	2532.716022
938.614628	2530.671834
938.917216	2531.576721
939.219765	2533.908254
939.522275	2531.087729
939.824747	2533.666279
940.127179	2529.595547
940.429573	2527.137985
940.731929	2529.482121
941.034246	2528.090763
941.336524	2531.375075
941.638763	2532.136289
941.940964	2530.641587
942.243126	2532.068233
942.545250	2530.654190
942.847335	2531.123017
943.149381	2529.570342
943.451389	2528.857018
943.753359	2531.433048
944.055290	2531.881711
944.357182	2529.756864
944.659036	2530.931453
944.960851	2532.582431
945.262628	2530.898686
945.564367	2530.787780
945.866067	2529.199817
946.167729	2528.599919
946.469352	2528.917512
946.770937	2532.491690
947.072484	2528.579755
947.373992	2532.131248
947.675462	2532.597554
947.976893	2528.383150
948.278286	2527.415248
948.579641	2529.383819
948.880958	2529.850126
949.182236	2529.953469
949.483476	2528.604961
949.784678	2529.199817
950.085841	2530.061854
950.386967	2532.567307
950.688054	2528.010104
950.989103	2528.947759
951.290114	2532.990764
951.591087	2530.644107
951.892021	2529.391381
952.192917	2529.729138
952.493776	2532.080836
952.794596	2529.172090
953.095378	2532.237112
953.396122	2528.209230
953.696828	2529.651000
953.997496	2530.797863
954.298126	2530.306350
954.598718	2530.835671
954.899272	2529.920702
955.199788	2529.653521
955.500266	2527.967255
955.800706	2528.141174
956.101108	2525.630680
956.401472	2523.636903
956.701798	2526.059178
957.002087	2524.302336
957.302337	2527.518592
957.602550	2527.911802
957.902724	2527.952131
958.202861	2528.453726
958.502960	2527.558921
958.803022	2528.456247
959.103045	2527.826102
959.403031	2531.493542
959.702979	2529.819879
960.002889	2527.735362
960.302762	2527.493386
960.602596	2525.892820
960.902393	2529.403983
961.202153	2527.669827
961.501875	2530.714683
961.801559	2529.265352
962.101205	2528.673016
962.400814	2525.885258
962.700385	2525.275278
962.999918	2527.881555
963.299414	2526.525485
963.598873	2526.689322
963.898293	2525.260155
964.197677	2526.664116
964.497022	2528.763757
964.796331	2526.180166
965.095601	2526.313756
965.394835	2527.810979
965.694030	2526.749816
965.993189	2530.520599
966.292309	2528.786442
966.591393	2528.456247
966.890439	2526.981709
967.189447	2527.296781
967.488419	2529.429189
967.787353	2527.896678
968.086249	2527.657224
968.385108	2527.228726
968.683930	2527.080012
968.982714	2527.563962
969.281462	2528.801566
969.580172	2526.439785
969.878844	2525.648324
970.177480	2528.947759
970.476078	2529.000691
970.774639	2529.114117
971.073162	2526.815351
971.371649	2525.192099
971.670098	2522.061543
971.968510	2526.243180
972.266885	2523.793179
972.565223	2529.048582
972.863524	2524.995494
973.161788	2528.494055
973.460014	2528.426000
973.758204	2528.645290
974.056356	2528.693181
974.354471	2528.075639
974.652550	2528.186545
974.950591	2526.205371
975.248595	2526.490197
975.546563	2527.813499
975.844493	2528.431041
976.142386	2526.369209
976.440243	2529.066226
976.738062	2525.935670
977.035845	2524.524147
977.333590	2527.758047
977.631299	2527.090094
977.928971	2528.458767
978.226606	2528.315094
978.524204	2526.699404
978.821765	2527.848787
979.119290	2527.881555
979.416777	2526.573376
979.714228	2526.427182
980.011642	2526.195289
980.309020	2530.376926
980.606360	2525.555063
980.903664	2526.724610
981.200931	2525.552542
981.498162	2525.867614
981.795356	2525.343334
982.092513	2525.678571
982.389633	2527.672347
982.686717	2524.957686
982.983764	2529.663603
983.280775	2529.419107
983.577749	2530.255938
983.874686	2528.872142
984.171587	2527.785773
984.468451	2526.704446
984.765279	2526.059178
985.062070	2526.971627
985.358824	2527.332069
985.655543	2528.723428
985.952224	2525.345855
986.248869	2527.997502
986.545478	2522.444671
986.842050	2524.592202
987.138586	2523.581451
987.435086	2527.332069
987.731549	2520.844104
988.027975	2527.498427
988.324366	2524.524147
988.620719	2525.492048
988.917037	2527.412728
989.213318	2528.070598
989.509563	2525.791997
989.805772	2526.074301
990.101944	2525.013138
990.398080	2523.944414
990.694180	2526.802748
990.990244	2524.803931
991.286271	2527.392563
991.582262	2525.111441
991.878217	2526.800227
992.174136	2524.350227
992.470019	2528.247039
992.765865	2525.723941
993.061676	2526.764939
993.357450	2525.544980
993.653188	2526.515402
993.948890	2525.686132
994.244556	2526.699404
994.540186	2526.712007
994.835780	2527.085053
995.131337	2524.922398
995.426859	2527.987419
995.722345	2524.602284
996.017795	2526.568334
996.313208	2527.092614
996.608586	2525.837367
996.903928	2528.967924
997.199234	2526.578417
997.494504	2525.000536
997.789738	2528.708304
998.084936	2526.366688
998.380099	2525.355937
998.675225	2525.681091
998.970316	2526.006246
999.265371	2527.541277
999.560390	2525.638242
999.855373	2525.093797
1000.150320	2526.470032
1000.445232	2529.590506
1000.740108	2524.534229
1001.034948	2526.843077
1001.329752	2525.318128
1001.624521	2527.027079
1001.919254	2520.269413
1002.213951	2524.264527
1002.508613	2523.336955
1002.803239	2523.059691
1003.097829	2521.691018
1003.392384	2524.166225
1003.686903	2526.107069
1003.981386	2525.880217
1004.275834	2524.390556
1004.570246	2523.798220
1004.864623	2527.455578
1005.158964	2527.753006
1005.453270	2525.116482
1005.747540	2527.505989
1006.041775	2524.118334
1006.335974	2526.389373
1006.630138	2524.572037
1006.924266	2526.076822
1007.218359	2522.926101
1007.512416	2527.629497
1007.806438	2524.425844
1008.100425	2524.375432
1008.394376	2525.083715
1008.688292	2526.364168
1008.982172	2525.950793
1009.276017	2528.020187
1009.569827	2524.183869
1009.863602	2525.812161
1010.157341	2524.819054
1010.451045	2522.759743
1010.744714	2526.724610
1011.038347	2527.397604
1011.331945	2527.848788
1011.625508	2524.564476
1011.919036	2523.427696
1012.212528	2524.897192
1012.505986	2524.866945
1012.799408	2524.798889
1013.092795	2522.724455
1013.386147	2526.976668
1013.679464	2525.658406
1013.972745	2527.994981
1014.265992	2525.897861
1014.559204	2524.355268
1014.852380	2525.371060
1015.145521	2527.909281
1015.438628	2523.528519
1015.731699	2523.589013
1016.024736	2524.662778
1016.317737	2525.358458
1016.610703	2527.987419
1016.903635	2521.406193
1017.196531	2523.430216
1017.489393	2522.278312
1017.782219	2523.926770
1018.075011	2525.010618
1018.367768	2524.486338
1018.660490	2525.323169
1018.953177	2525.323169
1019.245829	2525.323169
