Dividing Wavelength (nm)	Counts (n)	Blue Motor Position (mm): 0.000000	Red Motor Position (mm): 4.600000	
326.493990	2134.928654
326.888308	2134.928654
327.282561	2134.928654
327.676750	2094.599423
328.070874	2122.325769
328.464933	1978.652885
328.858929	2064.352500
329.252859	2127.366923
329.646726	2129.887500
330.040528	2109.722885
330.434265	2122.325769
330.827938	2195.422500
331.221547	2202.984231
331.615091	2117.284615
332.008571	2142.490385
332.401986	2291.204423
332.795338	2281.122115
333.188625	2316.410192
333.581847	2253.395769
333.975006	2260.957500
334.368100	2303.807308
334.761129	2424.795000
335.154095	2351.698269
335.546996	2326.492500
335.939833	2313.889615
336.332606	2487.809423
336.725315	2326.492500
337.117960	2394.548077
337.510540	2437.397885
337.903056	2502.932885
338.295508	2417.233269
338.687896	2442.439038
339.080220	2442.439038
339.472480	2422.274423
339.864676	2419.753846
340.256807	2553.344423
340.648875	2535.700385
341.040879	2450.000769
341.432818	2525.618077
341.824694	2414.712692
342.216506	2470.165385
342.608253	2437.397885
342.999937	2495.371154
343.391557	2497.891731
343.783113	2427.315577
344.174605	2495.371154
344.566033	2386.986346
344.957397	2513.015192
345.348697	2457.562500
345.739934	2467.644808
346.131106	2518.056346
346.522215	2502.932885
346.913260	2424.795000
347.304241	2442.439038
347.695159	2447.480192
348.086012	2482.768269
348.476802	2434.877308
348.867528	2427.315577
349.258191	2510.494615
349.648789	2427.315577
350.039324	2429.836154
350.429796	2417.233269
350.820203	2447.480192
351.210548	2434.877308
351.600828	2437.397885
351.991045	2439.918462
352.381198	2477.727115
352.771288	2447.480192
353.161314	2507.974038
353.551276	2462.603654
353.941175	2404.630385
354.331010	2518.056346
354.720782	2452.521346
355.110490	2492.850577
355.500135	2434.877308
355.889717	2402.109808
356.279235	2513.015192
356.668689	2389.506923
357.058080	2480.247692
357.447408	2427.315577
357.836672	2525.618077
358.225873	2485.288846
358.615010	2379.424615
359.004084	2490.330000
359.393095	2457.562500
359.782043	2371.862885
360.170927	2427.315577
360.559748	2500.412308
360.948505	2465.124231
361.337199	2467.644808
361.725830	2460.083077
362.114398	2422.274423
362.502903	2485.288846
362.891344	2497.891731
363.279722	2457.562500
363.668037	2389.506923
364.056289	2444.959615
364.444478	2558.385577
364.832603	2397.068654
365.220665	2502.932885
365.608665	2475.206538
365.996601	2371.862885
366.384474	2462.603654
366.772284	2482.768269
367.160031	2480.247692
367.547715	2502.932885
367.935336	2364.301154
368.322893	2444.959615
368.710388	2450.000769
369.097820	2450.000769
369.485189	2359.260000
369.872495	2467.644808
370.259738	2487.809423
370.646918	2530.659231
371.034035	2465.124231
371.421090	2460.083077
371.808081	2482.768269
372.195010	2422.274423
372.581875	2465.124231
372.968678	2467.644808
373.355418	2550.823846
373.742096	2450.000769
374.128710	2455.041923
374.515262	2533.179808
374.901751	2427.315577
375.288177	2480.247692
375.674540	2485.288846
376.060841	2447.480192
376.447079	2500.412308
376.833254	2392.027500
377.219367	2555.865000
377.605417	2432.356731
377.991404	2472.685962
378.377329	2409.671538
378.763191	2510.494615
379.148991	2427.315577
379.534727	2444.959615
379.920402	2480.247692
380.306013	2434.877308
380.691563	2500.412308
381.077049	2472.685962
381.462474	2472.685962
381.847835	2475.206538
382.233134	2462.603654
382.618371	2495.371154
383.003545	2394.548077
383.388657	2490.330000
383.773706	2523.097500
384.158693	2389.506923
384.543618	2447.480192
384.928480	2397.068654
385.313280	2389.506923
385.698017	2505.453462
386.082692	2434.877308
386.467305	2427.315577
386.851856	2502.932885
387.236344	2475.206538
387.620770	2452.521346
388.005133	2523.097500
388.389435	2417.233269
388.773674	2434.877308
389.157851	2502.932885
389.541965	2485.288846
389.926018	2389.506923
390.310008	2502.932885
390.693936	2437.397885
391.077802	2490.330000
391.461606	2386.986346
391.845348	2475.206538
392.229027	2429.836154
392.612645	2513.015192
392.996200	2500.412308
393.379694	2412.192115
393.763125	2548.303269
394.146494	2424.795000
394.529801	2475.206538
394.913047	2520.576923
395.296230	2470.165385
395.679351	2507.974038
396.062410	2472.685962
396.445408	2467.644808
396.828343	2394.548077
397.211217	2520.576923
397.594028	2437.397885
397.976778	2475.206538
398.359466	2502.932885
398.742092	2447.480192
399.124656	2495.371154
399.507158	2497.891731
399.889598	2502.932885
400.271977	2515.535769
400.654294	2487.809423
401.036549	2502.932885
401.418742	2422.274423
401.800874	2485.288846
402.182944	2523.097500
402.564952	2492.850577
402.946898	2470.165385
403.328783	2419.753846
403.710606	2472.685962
404.092367	2394.548077
404.474067	2465.124231
404.855705	2520.576923
405.237282	2485.288846
405.618797	2434.877308
406.000250	2447.480192
406.381642	2548.303269
406.762972	2525.618077
407.144240	2417.233269
407.525447	2507.974038
407.906593	2402.109808
408.287677	2492.850577
408.668700	2427.315577
409.049661	2477.727115
409.430560	2427.315577
409.811399	2540.741538
410.192176	2475.206538
410.572891	2497.891731
410.953545	2467.644808
411.334138	2513.015192
411.714669	2434.877308
412.095139	2548.303269
412.475547	2402.109808
412.855894	2422.274423
413.236180	2424.795000
413.616405	2447.480192
413.996568	2437.397885
414.376670	2490.330000
414.756711	2384.465769
415.136691	2538.220962
415.516609	2477.727115
415.896466	2518.056346
416.276262	2470.165385
416.655997	2432.356731
417.035670	2407.150962
417.415283	2523.097500
417.794834	2523.097500
418.174324	2429.836154
418.553753	2525.618077
418.933121	2427.315577
419.312428	2570.988462
419.691674	2450.000769
420.070859	2555.865000
420.449983	2548.303269
420.829045	2437.397885
421.208047	2480.247692
421.586988	2434.877308
421.965867	2523.097500
422.344686	2523.097500
422.723444	2543.262115
423.102141	2434.877308
423.480777	2467.644808
423.859352	2490.330000
424.237866	2444.959615
424.616319	2460.083077
424.994712	2432.356731
425.373044	2467.644808
425.751314	2384.465769
426.129524	2528.138654
426.507673	2510.494615
426.885762	2399.589231
427.263789	2513.015192
427.641756	2467.644808
428.019662	2442.439038
428.397508	2434.877308
428.775292	2450.000769
429.153016	2480.247692
429.530679	2513.015192
429.908282	2465.124231
430.285824	2462.603654
430.663305	2495.371154
431.040726	2429.836154
431.418086	2520.576923
431.795385	2513.015192
432.172624	2475.206538
432.549802	2528.138654
432.926920	2429.836154
433.303977	2434.877308
433.680974	2455.041923
434.057910	2482.768269
434.434786	2472.685962
434.811601	2470.165385
435.188355	2563.426731
435.565050	2502.932885
435.941683	2500.412308
436.318257	2465.124231
436.694770	2429.836154
437.071222	2530.659231
437.447614	2485.288846
437.823946	2460.083077
438.200218	2412.192115
438.576429	2485.288846
438.952580	2510.494615
439.328670	2452.521346
439.704700	2535.700385
440.080670	2429.836154
440.456580	2513.015192
440.832429	2470.165385
441.208218	2424.795000
441.583947	2467.644808
441.959616	2455.041923
442.335224	2535.700385
442.710773	2470.165385
443.086261	2452.521346
443.461689	2578.550192
443.837057	2457.562500
444.212365	2487.809423
444.587612	2470.165385
444.962800	2495.371154
445.337927	2407.150962
445.712995	2528.138654
446.088002	2487.809423
446.462949	2576.029615
446.837837	2477.727115
447.212664	2507.974038
447.587431	2467.644808
447.962139	2487.809423
448.336786	2477.727115
448.711374	2487.809423
449.085901	2422.274423
449.460369	2492.850577
449.834776	2432.356731
450.209124	2371.862885
450.583412	2447.480192
450.957640	2570.988462
451.331808	2450.000769
451.705917	2404.630385
452.079965	2540.741538
452.453954	2442.439038
452.827883	2480.247692
453.201752	2465.124231
453.575562	2528.138654
453.949311	2490.330000
454.323001	2525.618077
454.696632	2455.041923
455.070202	2497.891731
455.443713	2497.891731
455.817164	2545.782692
456.190556	2437.397885
456.563888	2548.303269
456.937160	2477.727115
457.310373	2523.097500
457.683526	2452.521346
458.056619	2422.274423
458.429653	2528.138654
458.802628	2462.603654
459.175542	2485.288846
459.548398	2475.206538
459.921194	2495.371154
460.293930	2507.974038
460.666607	2525.618077
461.039224	2513.015192
461.411782	2492.850577
461.784280	2472.685962
462.156719	2477.727115
462.529099	2528.138654
462.901419	2555.865000
463.273680	2450.000769
463.645882	2384.465769
464.018024	2507.974038
464.390106	2548.303269
464.762130	2487.809423
465.134094	2485.288846
465.505999	2543.262115
465.877845	2492.850577
466.249631	2492.850577
466.621358	2492.850577
466.993026	2497.891731
467.364634	2450.000769
467.736184	2515.535769
468.107674	2439.918462
468.479105	2525.618077
468.850477	2487.809423
469.221790	2439.918462
469.593043	2523.097500
469.964238	2429.836154
470.335373	2563.426731
470.706449	2462.603654
471.077467	2570.988462
471.448425	2530.659231
471.819324	2465.124231
472.190164	2576.029615
472.560945	2470.165385
472.931667	2434.877308
473.302330	2455.041923
473.672934	2533.179808
474.043479	2422.274423
474.413965	2500.412308
474.784393	2558.385577
475.154761	2422.274423
475.525070	2414.712692
475.895321	2450.000769
476.265513	2429.836154
476.635645	2482.768269
477.005719	2495.371154
477.375734	2507.974038
477.745691	2500.412308
478.115588	2530.659231
478.485427	2455.041923
478.855207	2548.303269
479.224928	2558.385577
479.594591	2505.453462
479.964194	2429.836154
480.333739	2442.439038
480.703226	2407.150962
481.072653	2477.727115
481.442022	2518.056346
481.811333	2485.288846
482.180584	2460.083077
482.549777	2452.521346
482.918912	2492.850577
483.287988	2558.385577
483.657005	2482.768269
484.025964	2510.494615
484.394864	2565.947308
484.763706	2520.576923
485.132489	2402.109808
485.501213	2480.247692
485.869879	2465.124231
486.238487	2523.097500
486.607036	2424.795000
486.975527	2409.671538
487.343959	2490.330000
487.712333	2447.480192
488.080648	2490.330000
488.448905	2513.015192
488.817104	2475.206538
489.185244	2409.671538
489.553326	2452.521346
489.921350	2505.453462
490.289315	2570.988462
490.657222	2502.932885
491.025070	2530.659231
491.392861	2500.412308
491.760593	2487.809423
492.128267	2465.124231
492.495883	2505.453462
492.863440	2525.618077
493.230939	2505.453462
493.598380	2422.274423
493.965763	2543.262115
494.333088	2376.904038
494.700354	2573.509038
495.067563	2553.344423
495.434713	2465.124231
495.801805	2455.041923
496.168839	2497.891731
496.535815	2545.782692
496.902733	2485.288846
497.269593	2548.303269
497.636395	2528.138654
498.003139	2447.480192
498.369825	2457.562500
498.736453	2528.138654
499.103023	2392.027500
499.469535	2457.562500
499.835989	2442.439038
500.202385	2523.097500
500.568723	2513.015192
500.935003	2505.453462
501.301226	2518.056346
501.667390	2550.823846
502.033497	2490.330000
502.399546	2424.795000
502.765537	2538.220962
503.131470	2548.303269
503.497345	2394.548077
503.863163	2490.330000
504.228923	2452.521346
504.594625	2437.397885
504.960269	2487.809423
505.325856	2467.644808
505.691385	2525.618077
506.056856	2455.041923
506.422270	2447.480192
506.787625	2497.891731
507.152924	2502.932885
507.518164	2437.397885
507.883347	2462.603654
508.248472	2507.974038
508.613540	2573.509038
508.978550	2480.247692
509.343503	2492.850577
509.708398	2545.782692
510.073236	2513.015192
510.438016	2565.947308
510.802738	2490.330000
511.167403	2500.412308
511.532010	2507.974038
511.896561	2470.165385
512.261053	2482.768269
512.625488	2515.535769
512.989866	2570.988462
513.354186	2412.192115
513.718449	2515.535769
514.082655	2495.371154
514.446803	2548.303269
514.810894	2444.959615
515.174927	2500.412308
515.538904	2447.480192
515.902822	2513.015192
516.266684	2543.262115
516.630488	2543.262115
516.994235	2535.700385
517.357925	2482.768269
517.721558	2480.247692
518.085133	2465.124231
518.448651	2550.823846
518.812112	2452.521346
519.175516	2555.865000
519.538863	2505.453462
519.902152	2467.644808
520.265385	2475.206538
520.628560	2465.124231
520.991678	2548.303269
521.354739	2528.138654
521.717743	2538.220962
522.080690	2523.097500
522.443580	2442.439038
522.806413	2548.303269
523.169189	2553.344423
523.531908	2487.809423
523.894569	2480.247692
524.257174	2455.041923
524.619722	2482.768269
524.982213	2510.494615
525.344647	2437.397885
525.707025	2444.959615
526.069345	2487.809423
526.431608	2424.795000
526.793815	2424.795000
527.155964	2497.891731
527.518057	2513.015192
527.880093	2462.603654
528.242072	2467.644808
528.603995	2558.385577
528.965860	2518.056346
529.327669	2465.124231
529.689421	2495.371154
530.051117	2492.850577
530.412755	2482.768269
530.774337	2467.644808
531.135862	2507.974038
531.497331	2482.768269
531.858743	2520.576923
532.220098	2540.741538
532.581396	2492.850577
532.942638	2497.891731
533.303824	2525.618077
533.664953	2550.823846
534.026025	2540.741538
534.387040	2555.865000
534.747999	2477.727115
535.108902	2578.550192
535.469748	2530.659231
535.830537	2480.247692
536.191270	2497.891731
536.551947	2563.426731
536.912567	2432.356731
537.273131	2485.288846
537.633638	2525.618077
537.994089	2392.027500
538.354483	2480.247692
538.714821	2535.700385
539.075103	2452.521346
539.435328	2568.467885
539.795497	2560.906154
540.155609	2439.918462
540.515665	2548.303269
540.875665	2510.494615
541.235609	2462.603654
541.595496	2515.535769
541.955328	2530.659231
542.315102	2467.644808
542.674821	2530.659231
543.034483	2530.659231
543.394090	2513.015192
543.753640	2560.906154
544.113134	2427.315577
544.472571	2515.535769
544.831953	2505.453462
545.191278	2505.453462
545.550548	2450.000769
545.909761	2467.644808
546.268918	2513.015192
546.628019	2507.974038
546.987064	2487.809423
547.346053	2520.576923
547.704986	2513.015192
548.063863	2455.041923
548.422684	2507.974038
548.781449	2447.480192
549.140158	2515.535769
549.498811	2394.548077
549.857408	2437.397885
550.215949	2523.097500
550.574434	2472.685962
550.932864	2558.385577
551.291237	2482.768269
551.649555	2497.891731
552.007817	2450.000769
552.366022	2510.494615
552.724173	2523.097500
553.082267	2444.959615
553.440305	2553.344423
553.798288	2455.041923
554.156215	2500.412308
554.514086	2490.330000
554.871902	2457.562500
555.229661	2444.959615
555.587365	2583.591346
555.945014	2444.959615
556.302606	2460.083077
556.660143	2472.685962
557.017625	2538.220962
557.375050	2545.782692
557.732421	2487.809423
558.089735	2480.247692
558.446994	2389.506923
558.804197	2487.809423
559.161345	2528.138654
559.518437	2513.015192
559.875474	2540.741538
560.232455	2515.535769
560.589381	2593.673654
560.946251	2533.179808
561.303065	2515.535769
561.659825	2510.494615
562.016528	2523.097500
562.373177	2535.700385
562.729770	2545.782692
563.086307	2472.685962
563.442789	2505.453462
563.799216	2485.288846
564.155587	2402.109808
564.511904	2518.056346
564.868164	2555.865000
565.224370	2513.015192
565.580520	2563.426731
565.936615	2480.247692
566.292654	2563.426731
566.648638	2487.809423
567.004567	2470.165385
567.360441	2495.371154
567.716260	2540.741538
568.072023	2475.206538
568.427732	2497.891731
568.783385	2455.041923
569.138982	2497.891731
569.494525	2434.877308
569.850013	2538.220962
570.205445	2467.644808
570.560823	2472.685962
570.916145	2467.644808
571.271412	2548.303269
571.626625	2618.879423
571.981782	2568.467885
572.336884	2444.959615
572.691931	2487.809423
573.046923	2497.891731
573.401860	2482.768269
573.756743	2452.521346
574.111570	2507.974038
574.466342	2472.685962
574.821059	2467.644808
575.175722	2560.906154
575.530330	2450.000769
575.884882	2533.179808
576.239380	2505.453462
576.593823	2573.509038
576.948211	2515.535769
577.302544	2525.618077
577.656823	2475.206538
578.011047	2407.150962
578.365216	2450.000769
578.719330	2477.727115
579.073389	2548.303269
579.427394	2502.932885
579.781344	2548.303269
580.135239	2475.206538
580.489080	2578.550192
580.842866	2407.150962
581.196597	2581.070769
581.550273	2502.932885
581.903895	2568.467885
582.257463	2447.480192
582.610975	2523.097500
582.964434	2480.247692
583.317837	2414.712692
583.671186	2492.850577
584.024481	2462.603654
584.377721	2515.535769
584.730906	2520.576923
585.084037	2538.220962
585.437113	2591.153077
585.790135	2495.371154
586.143103	2563.426731
586.496016	2525.618077
586.848874	2477.727115
587.201679	2545.782692
587.554428	2548.303269
587.907124	2576.029615
588.259765	2533.179808
588.612352	2457.562500
588.964884	2563.426731
589.317362	2422.274423
589.669786	2518.056346
590.022155	2480.247692
590.374470	2447.480192
590.726731	2470.165385
591.078937	2495.371154
591.431090	2467.644808
591.783188	2535.700385
592.135232	2528.138654
592.487222	2455.041923
592.839157	2513.015192
593.191038	2533.179808
593.542866	2472.685962
593.894639	2492.850577
594.246358	2492.850577
594.598022	2545.782692
594.949633	2560.906154
595.301190	2505.453462
595.652692	2505.453462
596.004141	2470.165385
596.355535	2487.809423
596.706876	2470.165385
597.058162	2528.138654
597.409395	2618.879423
597.760573	2475.206538
598.111698	2502.932885
598.462768	2480.247692
598.813785	2523.097500
599.164748	2497.891731
599.515657	2472.685962
599.866511	2525.618077
600.217312	2434.877308
600.568060	2510.494615
600.918753	2492.850577
601.269392	2591.153077
601.619978	2407.150962
601.970510	2538.220962
602.320988	2490.330000
602.671412	2455.041923
603.021783	2439.918462
603.372100	2477.727115
603.722363	2467.644808
604.072572	2596.194231
604.422728	2583.591346
604.772830	2419.753846
605.122878	2457.562500
605.472872	2492.850577
605.822813	2432.356731
606.172701	2530.659231
606.522534	2510.494615
606.872314	2462.603654
607.222041	2465.124231
607.571714	2520.576923
607.921333	2465.124231
608.270899	2535.700385
608.620411	2591.153077
608.969870	2462.603654
609.319276	2439.918462
609.668627	2502.932885
610.017926	2487.809423
610.367171	2515.535769
610.716362	2550.823846
611.065500	2470.165385
611.414585	2434.877308
611.763616	2442.439038
612.112594	2492.850577
612.461518	2570.988462
612.810389	2525.618077
613.159207	2568.467885
613.507971	2465.124231
613.856682	2450.000769
614.205340	2485.288846
614.553945	2467.644808
614.902496	2502.932885
615.250994	2507.974038
615.599439	2480.247692
615.947830	2376.904038
616.296169	2477.727115
616.644454	2460.083077
616.992686	2452.521346
617.340864	2505.453462
617.688990	2543.262115
618.037063	2422.274423
618.385082	2505.453462
618.733048	2560.906154
619.080961	2437.397885
619.428821	2505.453462
619.776628	2535.700385
620.124382	2603.755962
620.472083	2570.988462
620.819731	2492.850577
621.167326	2523.097500
621.514868	2462.603654
621.862357	2515.535769
622.209793	2495.371154
622.557176	2495.371154
622.904506	2465.124231
623.251783	2520.576923
623.599007	2472.685962
623.946179	2518.056346
624.293297	2578.550192
624.640363	2563.426731
624.987376	2525.618077
625.334336	2535.700385
625.681243	2487.809423
626.028097	2467.644808
626.374899	2535.700385
626.721647	2482.768269
627.068343	2497.891731
627.414987	2513.015192
627.761577	2513.015192
628.108115	2523.097500
628.454600	2530.659231
628.801032	2417.233269
629.147412	2515.535769
629.493739	2560.906154
629.840014	2460.083077
630.186236	2520.576923
630.532405	2558.385577
630.878521	2492.850577
631.224585	2480.247692
631.570597	2455.041923
631.916556	2530.659231
632.262462	2427.315577
632.608316	2525.618077
632.954117	2586.111923
633.299866	2482.768269
633.645562	2505.453462
633.991206	2518.056346
634.336797	2502.932885
634.682336	2528.138654
635.027823	2460.083077
635.373257	2477.727115
635.718639	2442.439038
636.063968	2586.111923
636.409245	2442.439038
636.754470	2560.906154
637.099642	2487.809423
637.444762	2550.823846
637.789829	2462.603654
638.134845	2560.906154
638.479808	2576.029615
638.824719	2598.714808
639.169577	2505.453462
639.514383	2475.206538
639.859137	2560.906154
640.203839	2487.809423
640.548489	2492.850577
640.893086	2462.603654
641.237632	2558.385577
641.582125	2475.206538
641.926566	2417.233269
642.270955	2475.206538
642.615292	2460.083077
642.959576	2472.685962
643.303809	2513.015192
643.647990	2573.509038
643.992118	2492.850577
644.336195	2495.371154
644.680219	2475.206538
645.024192	2414.712692
645.368112	2505.453462
645.711981	2460.083077
646.055797	2533.179808
646.399562	2523.097500
646.743274	2513.015192
647.086935	2497.891731
647.430544	2540.741538
647.774101	2465.124231
648.117606	2500.412308
648.461059	2535.700385
648.804460	2558.385577
649.147810	2510.494615
649.491108	2553.344423
649.834354	2525.618077
650.177548	2422.274423
650.520690	2482.768269
650.863781	2480.247692
651.206820	2525.618077
651.549807	2497.891731
651.892742	2591.153077
652.235626	2470.165385
652.578458	2490.330000
652.921238	2467.644808
653.263967	2432.356731
653.606644	2540.741538
653.949269	2530.659231
654.291843	2475.206538
654.634365	2472.685962
654.976836	2434.877308
655.319255	2510.494615
655.661622	2540.741538
656.003938	2472.685962
656.346203	2485.288846
656.688416	2528.138654
657.030577	2500.412308
657.372687	2586.111923
657.714746	2545.782692
658.056753	2507.974038
658.398708	2523.097500
658.740612	2570.988462
659.082465	2502.932885
659.424266	2538.220962
659.766016	2533.179808
660.107715	2500.412308
660.449362	2510.494615
660.790958	2465.124231
661.132503	2568.467885
661.473996	2500.412308
661.815438	2520.576923
662.156829	2555.865000
662.498168	2523.097500
662.839456	2492.850577
663.180693	2465.124231
663.521879	2510.494615
663.863013	2452.521346
664.204097	2429.836154
664.545129	2495.371154
664.886110	2507.974038
665.227040	2565.947308
665.567918	2500.412308
665.908746	2470.165385
666.249522	2543.262115
666.590248	2573.509038
666.930922	2442.439038
667.271545	2505.453462
667.612118	2424.795000
667.952639	2470.165385
668.293109	2540.741538
668.633528	2429.836154
668.973896	2497.891731
669.314213	2482.768269
669.654480	2485.288846
669.994695	2475.206538
670.334859	2505.453462
670.674973	2538.220962
671.015035	2555.865000
671.355047	2578.550192
671.695008	2462.603654
672.034918	2523.097500
672.374777	2422.274423
672.714585	2452.521346
673.054342	2502.932885
673.394049	2399.589231
673.733705	2530.659231
674.073310	2515.535769
674.412864	2374.383462
674.752368	2510.494615
675.091820	2439.918462
675.431223	2545.782692
675.770574	2553.344423
676.109875	2462.603654
676.449125	2540.741538
676.788324	2404.630385
677.127473	2513.015192
677.466571	2565.947308
677.805619	2500.412308
678.144616	2505.453462
678.483562	2548.303269
678.822458	2545.782692
679.161303	2513.015192
679.500098	2480.247692
679.838842	2533.179808
680.177535	2487.809423
680.516179	2639.044038
680.854771	2525.618077
681.193314	2465.124231
681.531805	2570.988462
681.870247	2492.850577
682.208638	2447.480192
682.546978	2613.838269
682.885268	2598.714808
683.223508	2505.453462
683.561697	2535.700385
683.899836	2502.932885
684.237925	2460.083077
684.575963	2528.138654
684.913951	2462.603654
685.251889	2533.179808
685.589776	2450.000769
685.927614	2434.877308
686.265401	2432.356731
686.603137	2530.659231
686.940824	2641.564615
687.278460	2540.741538
687.616046	2472.685962
687.953582	2490.330000
688.291068	2520.576923
688.628504	2404.630385
688.965889	2530.659231
689.303224	2429.836154
689.640510	2475.206538
689.977745	2485.288846
690.314930	2593.673654
690.652065	2515.535769
690.989150	2470.165385
691.326185	2543.262115
691.663170	2482.768269
692.000105	2515.535769
692.336990	2467.644808
692.673825	2565.947308
693.010610	2439.918462
693.347345	2510.494615
693.684030	2447.480192
694.020665	2497.891731
694.357251	2492.850577
694.693786	2485.288846
695.030272	2394.548077
695.366707	2457.562500
695.703093	2497.891731
696.039429	2520.576923
696.375716	2487.809423
696.711952	2528.138654
697.048139	2467.644808
697.384276	2472.685962
697.720363	2465.124231
698.056400	2538.220962
698.392388	2563.426731
698.728326	2467.644808
699.064214	2560.906154
699.400053	2482.768269
699.735842	2523.097500
700.071581	2530.659231
700.407270	2553.344423
700.742910	2530.659231
701.078501	2495.371154
701.414042	2470.165385
701.749533	2495.371154
702.084974	2475.206538
702.420366	2515.535769
702.755709	2563.426731
703.091002	2465.124231
703.426246	2442.439038
703.761440	2538.220962
704.096584	2497.891731
704.431679	2570.988462
704.766725	2513.015192
705.101721	2535.700385
705.436668	2447.480192
705.771565	2518.056346
706.106413	2576.029615
706.441212	2480.247692
706.775961	2467.644808
707.110661	2452.521346
707.445311	2578.550192
707.779913	2497.891731
708.114465	2535.700385
708.448967	2603.755962
708.783421	2444.959615
709.117825	2502.932885
709.452180	2467.644808
709.786485	2593.673654
710.120742	2480.247692
710.454949	2507.974038
710.789107	2409.671538
711.123216	2452.521346
711.457275	2444.959615
711.791286	2475.206538
712.125247	2492.850577
712.459159	2505.453462
712.793023	2601.235385
713.126837	2513.015192
713.460602	2548.303269
713.794318	2500.412308
714.127985	2457.562500
714.461602	2540.741538
714.795171	2460.083077
715.128691	2487.809423
715.462162	2470.165385
715.795584	2523.097500
716.128957	2515.535769
716.462281	2500.412308
716.795556	2452.521346
717.128782	2560.906154
717.461960	2485.288846
717.795088	2477.727115
718.128167	2434.877308
718.461198	2515.535769
718.794180	2535.700385
719.127113	2502.932885
719.459997	2528.138654
719.792833	2487.809423
720.125619	2432.356731
720.458357	2518.056346
720.791046	2586.111923
721.123686	2477.727115
721.456278	2422.274423
721.788821	2460.083077
722.121315	2487.809423
722.453761	2497.891731
722.786158	2477.727115
723.118506	2434.877308
723.450805	2505.453462
723.783056	2497.891731
724.115259	2467.644808
724.447412	2472.685962
724.779518	2513.015192
725.111574	2462.603654
725.443582	2523.097500
725.775542	2538.220962
726.107453	2535.700385
726.439315	2540.741538
726.771129	2586.111923
727.102895	2465.124231
727.434612	2457.562500
727.766281	2477.727115
728.097901	2485.288846
728.429473	2513.015192
728.760996	2492.850577
729.092471	2442.439038
729.423897	2538.220962
729.755276	2543.262115
730.086606	2570.988462
730.417887	2535.700385
730.749120	2535.700385
731.080305	2477.727115
731.411442	2535.700385
731.742530	2540.741538
732.073570	2533.179808
732.404562	2502.932885
732.735506	2538.220962
733.066401	2482.768269
733.397249	2470.165385
733.728048	2555.865000
734.058798	2455.041923
734.389501	2497.891731
734.720156	2490.330000
735.050762	2495.371154
735.381320	2477.727115
735.711831	2462.603654
736.042293	2462.603654
736.372707	2450.000769
736.703073	2482.768269
737.033391	2538.220962
737.363661	2475.206538
737.693883	2495.371154
738.024056	2429.836154
738.354182	2490.330000
738.684260	2457.562500
739.014290	2533.179808
739.344272	2502.932885
739.674207	2439.918462
740.004093	2520.576923
740.333931	2447.480192
740.663722	2525.618077
740.993464	2434.877308
741.323159	2500.412308
741.652806	2460.083077
741.982405	2472.685962
742.311956	2477.727115
742.641460	2437.397885
742.970915	2586.111923
743.300323	2490.330000
743.629683	2520.576923
743.958996	2507.974038
744.288260	2563.426731
744.617477	2502.932885
744.946647	2550.823846
745.275768	2520.576923
745.604842	2502.932885
745.933869	2505.453462
746.262847	2545.782692
746.591778	2424.795000
746.920662	2490.330000
747.249498	2394.548077
747.578286	2513.015192
747.907027	2492.850577
748.235720	2452.521346
748.564365	2480.247692
748.892963	2492.850577
749.221514	2399.589231
749.550017	2470.165385
749.878473	2490.330000
750.206881	2429.836154
750.535242	2500.412308
750.863555	2550.823846
751.191821	2565.947308
751.520039	2555.865000
751.848210	2505.453462
752.176334	2540.741538
752.504411	2565.947308
752.832440	2437.397885
753.160421	2513.015192
753.488356	2563.426731
753.816243	2540.741538
754.144082	2513.015192
754.471875	2487.809423
754.799620	2470.165385
755.127318	2555.865000
755.454969	2520.576923
755.782572	2576.029615
756.110129	2518.056346
756.437638	2434.877308
756.765100	2518.056346
757.092515	2555.865000
757.419882	2568.467885
757.747203	2427.315577
758.074477	2447.480192
758.401703	2412.192115
758.728882	2482.768269
759.056014	2553.344423
759.383099	2472.685962
759.710138	2518.056346
760.037129	2475.206538
760.364073	2515.535769
760.690970	2409.671538
761.017820	2429.836154
761.344623	2477.727115
761.671379	2492.850577
761.998088	2477.727115
762.324751	2520.576923
762.651366	2520.576923
762.977935	2523.097500
763.304456	2424.795000
763.630931	2482.768269
763.957359	2424.795000
764.283740	2525.618077
764.610074	2505.453462
764.936362	2437.397885
765.262602	2545.782692
765.588796	2392.027500
765.914943	2482.768269
766.241044	2523.097500
766.567097	2538.220962
766.893104	2543.262115
767.219064	2550.823846
767.544978	2540.741538
767.870845	2450.000769
768.196665	2492.850577
768.522438	2404.630385
768.848165	2555.865000
769.173846	2510.494615
769.499479	2490.330000
769.825066	2535.700385
770.150607	2533.179808
770.476101	2502.932885
770.801548	2424.795000
771.126949	2520.576923
771.452303	2518.056346
771.777611	2540.741538
772.102872	2475.206538
772.428087	2497.891731
772.753256	2450.000769
773.078378	2502.932885
773.403453	2560.906154
773.728482	2482.768269
774.053465	2507.974038
774.378401	2586.111923
774.703291	2480.247692
775.028135	2515.535769
775.352932	2444.959615
775.677683	2502.932885
776.002388	2543.262115
776.327046	2444.959615
776.651658	2533.179808
776.976224	2457.562500
777.300743	2505.453462
777.625216	2505.453462
777.949643	2417.233269
778.274024	2515.535769
778.598359	2422.274423
778.922647	2523.097500
779.246889	2513.015192
779.571086	2417.233269
779.895236	2477.727115
780.219339	2550.823846
780.543397	2460.083077
780.867409	2475.206538
781.191374	2523.097500
781.515294	2533.179808
781.839167	2535.700385
782.162995	2444.959615
782.486776	2528.138654
782.810511	2485.288846
783.134201	2520.576923
783.457844	2528.138654
783.781441	2447.480192
784.104993	2523.097500
784.428498	2497.891731
784.751958	2439.918462
785.075372	2457.562500
785.398739	2558.385577
785.722061	2470.165385
786.045337	2472.685962
786.368568	2450.000769
786.691752	2563.426731
787.014891	2452.521346
787.337983	2535.700385
787.661030	2601.235385
787.984031	2555.865000
788.306987	2455.041923
788.629897	2485.288846
788.952760	2467.644808
789.275579	2470.165385
789.598351	2502.932885
789.921078	2477.727115
790.243759	2513.015192
790.566395	2457.562500
790.888984	2444.959615
791.211529	2465.124231
791.534027	2528.138654
791.856480	2520.576923
792.178888	2502.932885
792.501249	2437.397885
792.823566	2578.550192
793.145836	2563.426731
793.468062	2480.247692
793.790241	2424.795000
794.112375	2477.727115
794.434464	2563.426731
794.756507	2576.029615
795.078505	2490.330000
795.400457	2528.138654
795.722364	2573.509038
796.044226	2434.877308
796.366042	2462.603654
796.687812	2439.918462
797.009538	2497.891731
797.331218	2485.288846
797.652852	2492.850577
797.974442	2384.465769
798.295986	2490.330000
798.617484	2427.315577
798.938938	2523.097500
799.260346	2570.988462
799.581709	2507.974038
799.903026	2490.330000
800.224299	2477.727115
800.545526	2480.247692
800.866708	2444.959615
801.187845	2533.179808
801.508936	2465.124231
801.829983	2518.056346
802.150984	2500.412308
802.471940	2492.850577
802.792851	2581.070769
803.113717	2492.850577
803.434538	2502.932885
803.755314	2495.371154
804.076045	2545.782692
804.396731	2470.165385
804.717372	2565.947308
805.037967	2444.959615
805.358518	2462.603654
805.679024	2543.262115
805.999485	2550.823846
806.319901	2397.068654
806.640272	2528.138654
806.960598	2495.371154
807.280879	2520.576923
807.601115	2439.918462
807.921306	2462.603654
808.241453	2482.768269
808.561554	2452.521346
808.881611	2535.700385
809.201623	2485.288846
809.521590	2520.576923
809.841513	2429.836154
810.161390	2576.029615
810.481223	2538.220962
810.801011	2502.932885
811.120755	2500.412308
811.440453	2424.795000
811.760107	2507.974038
812.079716	2437.397885
812.399281	2495.371154
812.718801	2581.070769
813.038276	2593.673654
813.357707	2442.439038
813.677093	2553.344423
813.996434	2513.015192
814.315731	2540.741538
814.634983	2510.494615
814.954191	2530.659231
815.273354	2455.041923
815.592473	2444.959615
815.911547	2500.412308
816.230577	2460.083077
816.549562	2535.700385
816.868502	2513.015192
817.187399	2487.809423
817.506250	2510.494615
817.825058	2465.124231
818.143821	2472.685962
818.462539	2555.865000
818.781213	2523.097500
819.099843	2560.906154
819.418429	2457.562500
819.736970	2530.659231
820.055466	2432.356731
820.373919	2480.247692
820.692327	2485.288846
821.010691	2548.303269
821.329011	2485.288846
821.647286	2495.371154
821.965517	2485.288846
822.283704	2553.344423
822.601847	2442.439038
822.919945	2487.809423
823.237999	2523.097500
823.556010	2518.056346
823.873976	2424.795000
824.191897	2560.906154
824.509775	2472.685962
824.827609	2450.000769
825.145398	2482.768269
825.463144	2462.603654
825.780845	2510.494615
826.098502	2475.206538
826.416116	2525.618077
826.733685	2545.782692
827.051210	2505.453462
827.368692	2500.412308
827.686129	2513.015192
828.003522	2462.603654
828.320872	2452.521346
828.638177	2447.480192
828.955439	2535.700385
829.272656	2510.494615
829.589830	2429.836154
829.906960	2475.206538
830.224046	2477.727115
830.541088	2462.603654
830.858086	2515.535769
831.175041	2475.206538
831.491952	2432.356731
831.808819	2513.015192
832.125642	2525.618077
832.442421	2518.056346
832.759157	2497.891731
833.075849	2520.576923
833.392497	2500.412308
833.709101	2502.932885
834.025662	2558.385577
834.342179	2442.439038
834.658653	2601.235385
834.975083	2570.988462
835.291469	2565.947308
835.607811	2482.768269
835.924110	2591.153077
836.240366	2485.288846
836.556578	2510.494615
836.872746	2457.562500
837.188871	2490.330000
837.504952	2424.795000
837.820990	2507.974038
838.136984	2334.054231
838.452935	2447.480192
838.768842	2470.165385
839.084706	2417.233269
839.400526	2513.015192
839.716303	2462.603654
840.032037	2442.439038
840.347727	2530.659231
840.663373	2492.850577
840.978977	2550.823846
841.294537	2374.383462
841.610054	2535.700385
841.925527	2429.836154
842.240957	2460.083077
842.556344	2505.453462
842.871687	2477.727115
843.186987	2447.480192
843.502244	2475.206538
843.817458	2439.918462
844.132629	2543.262115
844.447756	2452.521346
844.762840	2447.480192
845.077881	2593.673654
845.392879	2505.453462
845.707833	2540.741538
846.022745	2475.206538
846.337613	2502.932885
846.652438	2455.041923
846.967221	2623.920577
847.281960	2455.041923
847.596656	2548.303269
847.911309	2555.865000
848.225919	2492.850577
848.540485	2480.247692
848.855009	2528.138654
849.169490	2472.685962
849.483928	2558.385577
849.798323	2460.083077
850.112675	2510.494615
850.426984	2477.727115
850.741251	2460.083077
851.055474	2472.685962
851.369654	2490.330000
851.683792	2540.741538
851.997887	2447.480192
852.311938	2480.247692
852.625947	2490.330000
852.939914	2510.494615
853.253837	2581.070769
853.567718	2523.097500
853.881555	2510.494615
854.195350	2480.247692
854.509103	2515.535769
854.822812	2540.741538
855.136479	2510.494615
855.450103	2530.659231
855.763685	2555.865000
856.077224	2507.974038
856.390720	2520.576923
856.704173	2480.247692
857.017584	2515.535769
857.330953	2487.809423
857.644278	2518.056346
857.957561	2515.535769
858.270802	2530.659231
858.584000	2447.480192
858.897155	2543.262115
859.210268	2457.562500
859.523339	2487.809423
859.836367	2581.070769
860.149352	2487.809423
860.462295	2475.206538
860.775195	2558.385577
861.088054	2467.644808
861.400869	2570.988462
861.713642	2477.727115
862.026373	2548.303269
862.339062	2533.179808
862.651708	2513.015192
862.964312	2520.576923
863.276873	2588.632500
863.589392	2523.097500
863.901869	2525.618077
864.214303	2450.000769
864.526696	2540.741538
864.839045	2507.974038
865.151353	2530.659231
865.463619	2477.727115
865.775842	2510.494615
866.088023	2570.988462
866.400162	2447.480192
866.712258	2495.371154
867.024313	2588.632500
867.336325	2515.535769
867.648296	2500.412308
867.960224	2407.150962
868.272110	2523.097500
868.583954	2467.644808
868.895755	2487.809423
869.207515	2455.041923
869.519233	2472.685962
869.830909	2490.330000
870.142542	2563.426731
870.454134	2477.727115
870.765684	2422.274423
871.077191	2470.165385
871.388657	2444.959615
871.700081	2495.371154
872.011463	2497.891731
872.322803	2540.741538
872.634101	2470.165385
872.945357	2407.150962
873.256571	2497.891731
873.567744	2502.932885
873.878874	2510.494615
874.189963	2455.041923
874.501010	2492.850577
874.812015	2548.303269
875.122979	2510.494615
875.433900	2480.247692
875.744780	2437.397885
876.055618	2601.235385
876.366415	2462.603654
876.677169	2510.494615
876.987882	2500.412308
877.298554	2533.179808
877.609183	2495.371154
877.919771	2525.618077
878.230317	2475.206538
878.540822	2510.494615
878.851285	2480.247692
879.161707	2432.356731
879.472087	2452.521346
879.782425	2518.056346
880.092722	2581.070769
880.402977	2545.782692
880.713191	2460.083077
881.023363	2475.206538
881.333494	2548.303269
881.643583	2450.000769
881.953631	2502.932885
882.263637	2505.453462
882.573602	2507.974038
882.883526	2467.644808
883.193408	2424.795000
883.503248	2581.070769
883.813048	2437.397885
884.122806	2528.138654
884.432522	2533.179808
884.742197	2462.603654
885.051831	2540.741538
885.361424	2472.685962
885.670975	2533.179808
885.980485	2490.330000
886.289954	2465.124231
886.599382	2500.412308
886.908768	2465.124231
887.218113	2470.165385
887.527417	2470.165385
887.836680	2452.521346
888.145901	2475.206538
888.455082	2507.974038
888.764221	2470.165385
889.073319	2455.041923
889.382376	2520.576923
889.691392	2482.768269
890.000366	2427.315577
890.309300	2530.659231
890.618193	2497.891731
890.927044	2495.371154
891.235855	2485.288846
891.544625	2502.932885
891.853353	2570.988462
892.162041	2477.727115
892.470687	2417.233269
892.779293	2447.480192
893.087858	2460.083077
893.396381	2545.782692
893.704864	2533.179808
894.013306	2462.603654
894.321707	2528.138654
894.630068	2490.330000
894.938387	2513.015192
895.246665	2550.823846
895.554903	2465.124231
895.863100	2518.056346
896.171256	2480.247692
896.479371	2485.288846
896.787446	2424.795000
897.095480	2487.809423
897.403473	2462.603654
897.711425	2475.206538
898.019336	2472.685962
898.327207	2523.097500
898.635038	2422.274423
898.942827	2485.288846
899.250576	2492.850577
899.558284	2510.494615
899.865952	2480.247692
900.173579	2444.959615
900.481165	2543.262115
900.788711	2505.453462
901.096216	2495.371154
901.403681	2444.959615
901.711105	2558.385577
902.018489	2490.330000
902.325832	2452.521346
902.633135	2462.603654
902.940397	2437.397885
903.247619	2507.974038
903.554800	2525.618077
903.861941	2470.165385
904.169041	2490.330000
904.476101	2538.220962
904.783121	2553.344423
905.090100	2518.056346
905.397039	2470.165385
905.703938	2470.165385
906.010796	2407.150962
906.317614	2525.618077
906.624391	2442.439038
906.931129	2520.576923
907.237826	2475.206538
907.544483	2563.426731
907.851099	2467.644808
908.157675	2560.906154
908.464211	2555.865000
908.770707	2492.850577
909.077163	2520.576923
909.383578	2402.109808
909.689954	2550.823846
909.996289	2432.356731
910.302584	2530.659231
910.608839	2480.247692
910.915054	2500.412308
911.221229	2495.371154
911.527363	2495.371154
911.833458	2591.153077
912.139513	2500.412308
912.445527	2545.782692
912.751502	2487.809423
913.057436	2472.685962
913.363331	2455.041923
913.669186	2510.494615
913.975000	2437.397885
914.280775	2427.315577
914.586510	2560.906154
914.892205	2452.521346
915.197859	2520.576923
915.503475	2482.768269
915.809050	2507.974038
916.114585	2450.000769
916.420081	2576.029615
916.725536	2515.535769
917.030952	2485.288846
917.336328	2467.644808
917.641665	2576.029615
917.946961	2452.521346
918.252218	2573.509038
918.557435	2497.891731
918.862612	2573.509038
919.167750	2437.397885
919.472848	2550.823846
919.777906	2505.453462
920.082925	2507.974038
920.387904	2510.494615
920.692843	2482.768269
920.997743	2576.029615
921.302603	2487.809423
921.607423	2533.179808
921.912204	2520.576923
922.216946	2394.548077
922.521647	2543.262115
922.826310	2457.562500
923.130932	2520.576923
923.435516	2525.618077
923.740059	2452.521346
924.044564	2475.206538
924.349028	2497.891731
924.653454	2460.083077
924.957840	2472.685962
925.262186	2455.041923
925.566493	2417.233269
925.870761	2533.179808
926.174989	2419.753846
926.479178	2520.576923
926.783328	2376.904038
927.087438	2447.480192
927.391509	2490.330000
927.695541	2455.041923
927.999533	2460.083077
928.303486	2528.138654
928.607400	2482.768269
928.911275	2475.206538
929.215110	2518.056346
929.518906	2520.576923
929.822663	2502.932885
930.126381	2510.494615
930.430060	2482.768269
930.733699	2472.685962
931.037299	2525.618077
931.340861	2455.041923
931.644383	2550.823846
931.947866	2545.782692
932.251309	2460.083077
932.554714	2528.138654
932.858080	2523.097500
933.161407	2560.906154
933.464694	2492.850577
933.767943	2470.165385
934.071153	2548.303269
934.374323	2515.535769
934.677455	2490.330000
934.980548	2530.659231
935.283602	2460.083077
935.586617	2543.262115
935.889593	2487.809423
936.192530	2515.535769
936.495428	2480.247692
936.798287	2500.412308
937.101108	2565.947308
937.403890	2447.480192
937.706632	2573.509038
938.009336	2570.988462
938.312002	2495.371154
938.614628	2397.068654
938.917216	2502.932885
939.219765	2480.247692
939.522275	2439.918462
939.824747	2548.303269
940.127179	2432.356731
940.429573	2495.371154
940.731929	2500.412308
941.034246	2450.000769
941.336524	2497.891731
941.638763	2460.083077
941.940964	2563.426731
942.243126	2434.877308
942.545250	2490.330000
942.847335	2533.179808
943.149381	2545.782692
943.451389	2450.000769
943.753359	2538.220962
944.055290	2500.412308
944.357182	2576.029615
944.659036	2502.932885
944.960851	2485.288846
945.262628	2462.603654
945.564367	2424.795000
945.866067	2432.356731
946.167729	2460.083077
946.469352	2432.356731
946.770937	2465.124231
947.072484	2492.850577
947.373992	2480.247692
947.675462	2515.535769
947.976893	2495.371154
948.278286	2507.974038
948.579641	2455.041923
948.880958	2495.371154
949.182236	2538.220962
949.483476	2447.480192
949.784678	2447.480192
950.085841	2528.138654
950.386967	2573.509038
950.688054	2513.015192
950.989103	2523.097500
951.290114	2502.932885
951.591087	2462.603654
951.892021	2439.918462
952.192917	2439.918462
952.493776	2530.659231
952.794596	2515.535769
953.095378	2560.906154
953.396122	2611.317692
953.696828	2444.959615
953.997496	2586.111923
954.298126	2528.138654
954.598718	2409.671538
954.899272	2429.836154
955.199788	2477.727115
955.500266	2467.644808
955.800706	2467.644808
956.101108	2515.535769
956.401472	2495.371154
956.701798	2497.891731
957.002087	2482.768269
957.302337	2412.192115
957.602550	2573.509038
957.902724	2447.480192
958.202861	2507.974038
958.502960	2475.206538
958.803022	2465.124231
959.103045	2555.865000
959.403031	2553.344423
959.702979	2437.397885
960.002889	2528.138654
960.302762	2568.467885
960.602596	2462.603654
960.902393	2540.741538
961.202153	2462.603654
961.501875	2502.932885
961.801559	2568.467885
962.101205	2460.083077
962.400814	2470.165385
962.700385	2485.288846
962.999918	2455.041923
963.299414	2538.220962
963.598873	2550.823846
963.898293	2540.741538
964.197677	2412.192115
964.497022	2492.850577
964.796331	2482.768269
965.095601	2450.000769
965.394835	2485.288846
965.694030	2495.371154
965.993189	2470.165385
966.292309	2495.371154
966.591393	2505.453462
966.890439	2472.685962
967.189447	2523.097500
967.488419	2450.000769
967.787353	2462.603654
968.086249	2487.809423
968.385108	2581.070769
968.683930	2465.124231
968.982714	2525.618077
969.281462	2434.877308
969.580172	2513.015192
969.878844	2460.083077
970.177480	2442.439038
970.476078	2482.768269
970.774639	2462.603654
971.073162	2455.041923
971.371649	2505.453462
971.670098	2485.288846
971.968510	2439.918462
972.266885	2470.165385
972.565223	2528.138654
972.863524	2487.809423
973.161788	2507.974038
973.460014	2495.371154
973.758204	2500.412308
974.056356	2452.521346
974.354471	2507.974038
974.652550	2402.109808
974.950591	2477.727115
975.248595	2530.659231
975.546563	2525.618077
975.844493	2513.015192
976.142386	2480.247692
976.440243	2543.262115
976.738062	2550.823846
977.035845	2407.150962
977.333590	2424.795000
977.631299	2510.494615
977.928971	2460.083077
978.226606	2510.494615
978.524204	2513.015192
978.821765	2553.344423
979.119290	2565.947308
979.416777	2581.070769
979.714228	2389.506923
980.011642	2586.111923
980.309020	2450.000769
980.606360	2472.685962
980.903664	2434.877308
981.200931	2515.535769
981.498162	2452.521346
981.795356	2570.988462
982.092513	2550.823846
982.389633	2513.015192
982.686717	2558.385577
982.983764	2510.494615
983.280775	2565.947308
983.577749	2460.083077
983.874686	2470.165385
984.171587	2417.233269
984.468451	2560.906154
984.765279	2462.603654
985.062070	2475.206538
985.358824	2455.041923
985.655543	2442.439038
985.952224	2485.288846
986.248869	2515.535769
986.545478	2518.056346
986.842050	2487.809423
987.138586	2495.371154
987.435086	2538.220962
987.731549	2593.673654
988.027975	2487.809423
988.324366	2553.344423
988.620719	2513.015192
988.917037	2477.727115
989.213318	2470.165385
989.509563	2467.644808
989.805772	2500.412308
990.101944	2429.836154
990.398080	2447.480192
990.694180	2495.371154
990.990244	2407.150962
991.286271	2525.618077
991.582262	2434.877308
991.878217	2543.262115
992.174136	2507.974038
992.470019	2598.714808
992.765865	2417.233269
993.061676	2523.097500
993.357450	2444.959615
993.653188	2598.714808
993.948890	2447.480192
994.244556	2482.768269
994.540186	2505.453462
994.835780	2533.179808
995.131337	2608.797115
995.426859	2568.467885
995.722345	2414.712692
996.017795	2553.344423
996.313208	2460.083077
996.608586	2447.480192
996.903928	2437.397885
997.199234	2472.685962
997.494504	2409.671538
997.789738	2475.206538
998.084936	2528.138654
998.380099	2523.097500
998.675225	2455.041923
998.970316	2495.371154
999.265371	2502.932885
999.560390	2472.685962
999.855373	2505.453462
1000.150320	2477.727115
1000.445232	2502.932885
1000.740108	2490.330000
1001.034948	2525.618077
1001.329752	2573.509038
1001.624521	2482.768269
1001.919254	2465.124231
1002.213951	2550.823846
1002.508613	2563.426731
1002.803239	2510.494615
1003.097829	2535.700385
1003.392384	2402.109808
1003.686903	2515.535769
1003.981386	2510.494615
1004.275834	2444.959615
1004.570246	2502.932885
1004.864623	2455.041923
1005.158964	2507.974038
1005.453270	2495.371154
1005.747540	2437.397885
1006.041775	2490.330000
1006.335974	2487.809423
1006.630138	2533.179808
1006.924266	2497.891731
1007.218359	2583.591346
1007.512416	2485.288846
1007.806438	2528.138654
1008.100425	2586.111923
1008.394376	2538.220962
1008.688292	2555.865000
1008.982172	2447.480192
1009.276017	2472.685962
1009.569827	2523.097500
1009.863602	2407.150962
1010.157341	2523.097500
1010.451045	2462.603654
1010.744714	2520.576923
1011.038347	2490.330000
1011.331945	2472.685962
1011.625508	2505.453462
1011.919036	2460.083077
1012.212528	2485.288846
1012.505986	2429.836154
1012.799408	2515.535769
1013.092795	2412.192115
1013.386147	2450.000769
1013.679464	2482.768269
1013.972745	2500.412308
1014.265992	2518.056346
1014.559204	2490.330000
1014.852380	2505.453462
1015.145521	2465.124231
1015.438628	2455.041923
1015.731699	2573.509038
1016.024736	2450.000769
1016.317737	2437.397885
1016.610703	2447.480192
1016.903635	2477.727115
1017.196531	2450.000769
1017.489393	2525.618077
1017.782219	2447.480192
1018.075011	2482.768269
1018.367768	2427.315577
1018.660490	2439.918462
1018.953177	2439.918462
1019.245829	2439.918462
