Dividing Wavelength (nm)	Counts (n)	Blue Motor Position (mm): 0.000000	Red Motor Position (mm): 21.500000	
326.493990	2080.892526
326.888308	2080.892526
327.282561	2080.892526
327.676750	2058.469473
328.070874	2060.211192
328.464933	2067.120093
328.858929	2077.028481
329.252859	2089.018866
329.646726	2103.623088
330.040528	2119.230501
330.434265	2140.776392
330.827938	2157.780204
331.221547	2178.643019
331.615091	2200.713191
332.008571	2220.323279
332.401986	2240.800446
332.795338	2260.271903
333.188625	2278.626744
333.581847	2297.999898
333.975006	2318.711479
334.368100	2333.076247
334.761129	2350.798423
335.154095	2367.565301
335.546996	2384.848897
335.939833	2405.273132
336.332606	2419.617735
336.725315	2431.207348
337.117960	2437.334870
337.510540	2446.842486
337.903056	2456.360185
338.295508	2461.222378
338.687896	2468.005250
339.080220	2474.974645
339.472480	2480.580408
339.864676	2483.567292
340.256807	2488.225318
340.648875	2489.883858
341.040879	2490.531646
341.432818	2491.965854
341.824694	2492.227994
342.216506	2492.142295
342.608253	2491.638179
342.999937	2489.236070
343.391557	2491.507109
343.783113	2486.937303
344.174605	2488.888230
344.566033	2488.404279
344.957397	2486.803713
345.348697	2481.981849
345.739934	2483.872282
346.131106	2479.025212
346.522215	2477.235603
346.913260	2476.791981
347.304241	2474.465489
347.695159	2474.573874
348.086012	2473.492546
348.476802	2472.902731
348.867528	2470.606486
349.258191	2469.885601
349.648789	2466.835702
350.039324	2465.230095
350.429796	2468.285034
350.820203	2463.513582
351.210548	2463.238839
351.600828	2462.490228
351.991045	2463.843778
352.381198	2466.049283
352.771288	2463.964765
353.161314	2465.837554
353.551276	2463.563994
353.941175	2464.312605
354.331010	2461.973510
354.720782	2468.567339
355.110490	2464.491566
355.500135	2466.155147
355.889717	2467.228912
356.279235	2466.051803
356.668689	2465.061216
357.058080	2466.641618
357.447408	2467.811166
357.836672	2465.903089
358.225873	2464.315126
358.615010	2463.115331
359.004084	2469.431897
359.393095	2471.597072
359.782043	2473.159830
360.170927	2470.757720
360.559748	2470.939202
360.948505	2474.694861
361.337199	2476.141673
361.725830	2475.793833
362.114398	2473.553040
362.502903	2475.014975
362.891344	2476.721405
363.279722	2478.274081
363.668037	2479.378093
364.056289	2478.329533
364.444478	2479.070583
364.832603	2482.654843
365.220665	2479.799030
365.608665	2482.317086
365.996601	2482.864051
366.384474	2483.776500
366.772284	2487.171717
367.160031	2486.274392
367.547715	2483.564772
367.935336	2486.702890
368.322893	2487.101141
368.710388	2488.197592
369.097820	2493.684888
369.485189	2490.927377
369.872495	2493.344610
370.259738	2490.577017
370.646918	2495.449292
371.034035	2493.972234
371.421090	2499.787205
371.808081	2503.711743
372.195010	2506.590242
372.581875	2510.676097
372.968678	2518.792355
373.355418	2520.481141
373.742096	2533.585621
374.128710	2541.306148
374.515262	2551.582540
374.901751	2563.335990
375.288177	2581.307703
375.674540	2595.531319
376.060841	2616.762138
376.447079	2634.345683
376.833254	2659.380053
377.219367	2680.467200
377.605417	2712.100440
377.991404	2736.096332
378.377329	2773.158895
378.763191	2803.877166
379.148991	2848.987932
379.534727	2897.047772
379.920402	2936.290634
380.306013	2986.944148
380.691563	3045.482026
381.077049	3095.162597
381.462474	3149.846514
381.847835	3222.570199
382.233134	3283.986576
382.618371	3342.390864
383.003545	3422.119233
383.388657	3494.837877
383.773706	3583.443718
384.158693	3655.375942
384.543618	3739.411977
384.928480	3812.377637
385.313280	3910.869181
385.698017	4008.478522
386.082692	4123.931027
386.467305	4181.057383
386.851856	4300.457112
387.236344	4446.380871
387.620770	4504.422196
388.005133	4622.685145
388.389435	4757.878809
388.773674	4841.695553
389.157851	4964.964368
389.541965	5091.948512
389.926018	5114.691678
390.310008	5283.439262
390.693936	5402.445781
391.077802	5512.605074
391.461606	5641.464528
391.845348	5748.810858
392.229027	5866.360484
392.612645	6081.695891
392.996200	6194.184198
393.379694	6357.172263
393.763125	6575.703762
394.146494	6663.760117
394.529801	6792.491022
394.913047	7028.127155
395.296230	7026.082967
395.679351	7078.528611
396.062410	7327.367527
396.445408	7230.383289
396.828343	7379.377111
397.211217	7509.297728
397.594028	7403.105822
397.976778	7593.265707
398.359466	7759.573373
398.742092	7748.213132
399.124656	7885.672795
399.507158	8071.784633
399.889598	8094.537881
400.271977	8303.438255
400.654294	8341.725819
401.036549	8522.748612
401.418742	8562.730003
401.800874	8851.671298
402.182944	8935.288917
402.564952	9288.756980
402.946898	9128.435685
403.328783	9182.058438
403.710606	9372.039362
404.092367	9627.063774
404.474067	9980.675510
404.855705	9785.557651
405.237282	9743.111135
405.618797	10155.303600
406.000250	10395.053315
406.381642	10758.611248
406.762972	10697.729233
407.144240	10520.172233
407.525447	10766.220870
407.906593	10713.029135
408.287677	10975.048148
408.668700	11111.882707
409.049661	11107.277613
409.430560	11264.564133
409.811399	11237.760318
410.192176	11399.382231
410.572891	11473.824950
410.953545	11950.397991
411.334138	11441.347317
411.714669	12013.220850
412.095139	11376.248376
412.475547	11834.776607
412.855894	11708.667102
413.236180	12024.787778
413.616405	11722.048845
413.996568	11992.499187
414.376670	11968.394910
414.756711	11863.987573
415.136691	12128.721246
415.516609	12306.134574
415.896466	12385.114331
416.276262	12674.726099
416.655997	13125.770736
417.035670	13171.420905
417.415283	13784.415130
417.794834	13870.737328
418.174324	13615.798617
418.553753	13514.204243
418.933121	14007.846631
419.312428	13833.289117
419.691674	13745.217639
420.070859	14192.494014
420.449983	13848.737733
420.829045	14408.618361
421.208047	14158.320032
421.586988	14611.184526
421.965867	14845.600700
422.344686	14844.141286
422.723444	15404.805814
423.102141	14119.223363
423.480777	15287.949347
423.859352	14782.102326
424.237866	15865.864704
424.616319	15588.409678
424.994712	16213.041407
425.373044	15992.100237
425.751314	16663.503792
426.129524	15792.780576
426.507673	16845.872573
426.885762	16560.054273
427.263789	16717.171915
427.641756	16876.522788
428.019662	16908.763488
428.397508	16935.035461
428.775292	17178.747523
429.153016	17130.980070
429.530679	17175.311977
429.908282	17166.149680
430.285824	16873.805607
430.663305	17507.677771
431.040726	17098.446984
431.418086	16898.968526
431.795385	17448.023277
432.172624	17803.349005
432.549802	17324.290676
432.926920	17461.682283
433.303977	17274.670599
433.680974	17442.987164
434.057910	17649.036766
434.434786	17599.394003
434.811601	17445.308615
435.188355	18328.707812
435.565050	17911.300274
435.941683	17768.126463
436.318257	18472.211818
436.694770	18180.356737
437.071222	18595.347042
437.447614	17645.245818
437.823946	17539.968882
438.200218	17566.868478
438.576429	17230.028661
438.952580	17363.238631
439.328670	17187.965273
439.704700	17398.798930
440.080670	16887.273049
440.456580	17238.369250
440.832429	17223.712095
441.208218	16277.550533
441.583947	16457.635671
441.959616	16398.079480
442.335224	16427.809685
442.710773	16363.638317
443.086261	16597.018534
443.461689	15930.189827
443.837057	15860.367325
444.212365	16145.018598
444.587612	15967.479242
444.962800	15494.424927
445.337927	15594.454022
445.712995	14537.926478
446.088002	15596.830926
446.462949	15529.952458
446.837837	15439.287306
447.212664	15230.845677
447.587431	16824.765262
447.962139	18448.977140
448.336786	19613.314800
448.711374	18344.433692
449.085901	15870.159767
449.460369	15587.056128
449.834776	15331.449464
450.209124	16461.209849
450.583412	15942.162567
450.957640	15937.113852
451.331808	14981.164889
451.705917	14015.347868
452.079965	13784.589050
452.453954	13723.487745
452.827883	13443.194550
453.201752	13100.123866
453.575562	12936.946757
453.949311	13187.146784
454.323001	12966.946664
454.696632	12620.810958
455.070202	13028.542002
455.443713	12853.039272
455.817164	12822.933501
456.190556	12775.967592
456.563888	12294.620578
456.937160	12189.714167
457.310373	11350.934222
457.683526	11245.221226
458.056619	11005.612663
458.429653	10763.705334
458.802628	10713.855884
459.175542	10523.257419
459.548398	10700.128822
459.921194	10946.931112
460.293930	10932.233628
460.666607	11276.068047
461.039224	11513.720642
461.411782	11340.315032
461.784280	10740.178269
462.156719	10317.096912
462.529099	9922.165358
462.901419	9362.929997
463.273680	8901.190552
463.645882	8699.889717
464.018024	8486.810226
464.390106	8457.566493
464.762130	8822.598963
465.134094	9461.993712
465.505999	10303.241301
465.877845	10895.947403
466.249631	10769.820254
466.621358	10108.420869
466.993026	9415.673069
467.364634	8798.635839
467.736184	8253.515709
468.107674	7857.275975
468.479105	7537.313941
468.850477	7236.785554
469.221790	6874.417333
469.593043	6491.841647
469.964238	6222.800308
470.335373	6056.669083
470.706449	6083.389719
471.077467	6206.880344
471.448425	6502.954871
471.819324	6624.875177
472.190164	6292.970649
472.560945	5833.086348
472.931667	5432.405358
473.302330	5210.251790
473.672934	5032.324265
474.043479	4953.243685
474.413965	4795.700065
474.784393	4664.882123
475.154761	4628.288387
475.525070	4536.919994
475.895321	4428.015948
476.265513	4375.610633
476.635645	4347.173484
477.005719	4264.559055
477.375734	4210.709450
477.745691	4170.639838
478.115588	4157.976460
478.485427	4180.026467
478.855207	4255.391717
479.224928	4299.509375
479.594591	4293.507881
479.964194	4176.601003
480.333739	4112.671610
480.703226	4058.532138
481.072653	4027.161038
481.442022	3992.094772
481.811333	3949.986014
482.180584	3862.355637
482.549777	3807.243222
482.918912	3752.949995
483.287988	3706.309240
483.657005	3646.586690
484.025964	3600.898713
484.394864	3571.239084
484.763706	3534.189124
485.132489	3490.043740
485.501213	3465.596664
485.869879	3450.072431
486.238487	3416.750404
486.607036	3404.586100
486.975527	3379.085423
487.343959	3369.575286
487.712333	3353.037781
488.080648	3338.562108
488.448905	3338.294927
488.817104	3322.742967
489.185244	3327.317814
489.553326	3347.298428
489.921350	3385.079355
490.289315	3425.332968
490.657222	3429.247424
491.025070	3423.011517
491.392861	3396.812641
491.760593	3366.739637
492.128267	3323.421002
492.495883	3290.156949
492.863440	3259.610077
493.230939	3230.411714
493.598380	3203.920450
493.965763	3189.341433
494.333088	3169.585152
494.700354	3154.358346
495.067563	3141.594145
495.434713	3137.241108
495.801805	3131.053092
496.168839	3119.140846
496.535815	3106.721963
496.902733	3100.801128
497.269593	3089.221597
497.636395	3081.087696
498.003139	3081.685072
498.369825	3066.412897
498.736453	3064.603123
499.103023	3049.215001
499.469535	3046.034033
499.835989	3036.728063
500.202385	3028.137936
500.568723	3024.213398
500.935003	3018.411030
501.301226	3009.725122
501.667390	3012.611182
502.033497	3010.415760
502.399546	2997.606188
502.765537	2982.903663
503.131470	2982.334013
503.497345	2984.221925
503.863163	2964.284161
504.228923	2965.241980
504.594625	2964.334573
504.960269	2952.906277
505.325856	2958.199488
505.691385	2944.633743
506.056856	2943.701130
506.422270	2943.411264
506.787625	2937.797939
507.152924	2934.309460
507.518164	2932.724018
507.883347	2917.182140
508.248472	2921.363777
508.613540	2919.798499
508.978550	2921.502409
509.343503	2914.399423
509.708398	2914.520411
510.073236	2917.749270
510.438016	2915.828590
510.802738	2906.366345
511.167403	2912.493867
511.532010	2909.275090
511.896561	2912.458579
512.261053	2918.402099
512.625488	2909.592683
512.989866	2903.840727
513.354186	2900.619429
513.718449	2896.873852
514.082655	2907.646798
514.446803	2902.638411
514.810894	2905.292579
515.174927	2905.342990
515.538904	2902.706467
515.902822	2904.987589
516.266684	2899.157495
516.630488	2901.582290
516.994235	2900.291754
517.357925	2902.250243
517.721558	2904.163360
518.085133	2904.075140
518.448651	2905.431211
518.812112	2899.512896
519.175516	2898.907958
519.538863	2902.141858
519.902152	2900.445509
520.265385	2902.741755
520.628560	2900.619429
520.991678	2900.112793
521.354739	2898.726476
521.717743	2900.528688
522.080690	2899.686816
522.443580	2901.030283
522.806413	2900.856363
523.169189	2900.251425
523.531908	2900.536250
523.894569	2899.039028
524.257174	2901.027763
524.619722	2899.011301
524.982213	2900.531209
525.344647	2893.786145
525.707025	2896.490724
526.069345	2896.573903
526.431608	2892.251114
526.793815	2898.257649
527.155964	2893.455950
527.518057	2895.333779
527.880093	2892.462842
528.242072	2895.414438
528.603995	2893.566855
528.965860	2889.670043
529.327669	2890.897564
529.689421	2885.576626
530.051117	2883.809702
530.412755	2884.442367
530.774337	2886.257182
531.135862	2880.227962
531.497331	2878.040101
531.858743	2876.686551
532.220098	2880.122098
532.581396	2877.261243
532.942638	2871.960470
533.303824	2874.574308
533.664953	2873.371993
534.026025	2868.179604
534.387040	2869.618854
534.747999	2870.571632
535.108902	2872.189842
535.469748	2863.529140
535.830537	2863.347658
536.191270	2865.933770
536.551947	2864.174408
536.912567	2864.847402
537.273131	2866.173225
537.633638	2857.406658
537.994089	2859.682739
538.354483	2853.023375
538.714821	2860.426310
539.075103	2858.432533
539.435328	2857.482276
539.795497	2852.937676
540.155609	2851.972295
540.515665	2853.204857
540.875665	2850.830473
541.235609	2852.867099
541.595496	2849.771831
541.955328	2852.446163
542.315102	2850.449866
542.674821	2846.006089
543.034483	2845.300327
543.394090	2840.826303
543.753640	2844.158506
544.113134	2846.855523
544.472571	2839.737414
544.831953	2848.708147
545.191278	2842.058866
545.550548	2835.651559
545.909761	2840.818742
546.268918	2843.641788
546.628019	2841.058197
546.987064	2836.596775
547.346053	2830.529747
547.704986	2837.814214
548.063863	2831.260714
548.422684	2831.144767
548.781449	2831.308605
549.140158	2836.054851
549.498811	2832.533605
549.857408	2825.912050
550.215949	2829.617298
550.574434	2825.803665
550.932864	2824.787872
551.291237	2829.045127
551.649555	2829.647545
552.007817	2826.874910
552.366022	2824.361895
552.724173	2826.451453
553.082267	2826.577482
553.440305	2831.225426
553.798288	2824.104796
554.156215	2823.393993
554.514086	2826.471618
554.871902	2822.237049
555.229661	2820.172696
555.587365	2820.190340
555.945014	2821.581699
556.302606	2821.039775
556.660143	2822.025320
557.017625	2819.441729
557.375050	2818.647747
557.732421	2819.741677
558.089735	2819.088848
558.446994	2815.968374
558.804197	2820.641523
559.161345	2817.589105
559.518437	2812.628609
559.875474	2812.212714
560.232455	2817.470638
560.589381	2814.718168
560.946251	2815.323106
561.303065	2818.002479
561.659825	2816.772438
562.016528	2812.558033
562.373177	2809.354380
562.729770	2811.504432
563.086307	2810.125677
563.442789	2810.211376
563.799216	2809.500573
564.155587	2808.023515
564.511904	2810.639874
564.868164	2805.444965
565.224370	2806.327167
565.580520	2806.012095
565.936615	2807.428659
566.292654	2804.986220
566.648638	2802.944553
567.004567	2804.446817
567.360441	2802.596713
567.716260	2803.163843
568.072023	2802.647125
568.427732	2803.030252
568.783385	2797.653862
569.138982	2797.222843
569.494525	2799.037659
569.850013	2796.633028
570.205445	2797.908440
570.560823	2797.961372
570.916145	2795.458439
571.271412	2794.296453
571.626625	2795.196299
571.981782	2791.458284
572.336884	2789.275464
572.691931	2794.848460
573.046923	2790.397121
573.401860	2789.154477
573.756743	2786.333951
574.111570	2787.657254
574.466342	2787.110289
574.821059	2782.336316
575.175722	2779.772889
575.530330	2779.820780
575.884882	2778.351284
576.239380	2775.492950
576.593823	2778.386572
576.948211	2773.037908
577.302544	2771.575973
577.656823	2770.560181
578.011047	2773.284924
578.365216	2771.195366
578.719330	2767.028852
579.073389	2767.938781
579.427394	2763.190014
579.781344	2765.781167
580.135239	2762.885024
580.489080	2763.399222
580.842866	2761.985178
581.196597	2759.149529
581.550273	2758.045516
581.903895	2756.334044
582.257463	2758.542070
582.610975	2756.901174
582.964434	2756.371853
583.317837	2756.704569
583.671186	2754.705752
584.024481	2754.320103
584.377721	2751.479413
584.730906	2750.912283
585.084037	2754.022675
585.437113	2747.229721
585.790135	2748.951275
586.143103	2746.040008
586.496016	2746.624782
586.848874	2741.558422
587.201679	2741.813001
587.554428	2736.713874
587.907124	2739.007599
588.259765	2736.164388
588.612352	2740.361148
588.964884	2737.845613
589.317362	2735.703122
589.669786	2737.548185
590.022155	2734.717577
590.374470	2737.921230
590.726731	2737.086919
591.078937	2731.037534
591.431090	2730.034345
591.783188	2726.921432
592.135232	2727.402862
592.487222	2725.804817
592.839157	2728.811865
593.191038	2725.530074
593.542866	2723.906822
593.894639	2720.496482
594.246358	2720.050340
594.598022	2717.350802
594.949633	2715.712427
595.301190	2715.407437
595.652692	2717.247458
596.004141	2715.742674
596.355535	2714.280739
596.706876	2707.273535
597.058162	2708.075079
597.409395	2708.939637
597.760573	2710.081458
598.111698	2708.823690
598.462768	2707.702033
598.813785	2705.592310
599.164748	2702.852443
599.515657	2704.984851
599.866511	2701.907227
600.217312	2703.379244
600.568060	2700.233564
600.918753	2701.662731
601.269392	2701.793801
601.619978	2700.714994
601.970510	2700.929243
602.320988	2699.263142
602.671412	2701.090560
603.021783	2697.486135
603.372100	2694.302646
603.722363	2695.772143
604.072572	2695.840198
604.422728	2695.068902
604.772830	2693.231401
605.122878	2688.102027
605.472872	2693.095290
605.822813	2689.533715
606.172701	2690.834332
606.522534	2693.193592
606.872314	2693.904395
607.222041	2691.482121
607.571714	2692.757533
607.921333	2687.799558
608.270899	2690.773839
608.620411	2689.523632
608.969870	2692.371884
609.319276	2688.263344
609.668627	2688.596060
610.017926	2690.166380
610.367171	2693.380115
610.716362	2687.595391
611.065500	2687.550021
611.414585	2687.867613
611.763616	2687.905422
612.112594	2687.590350
612.461518	2687.045905
612.810389	2687.887778
613.159207	2686.549352
613.507971	2687.728982
613.856682	2686.758560
614.205340	2687.678570
614.553945	2689.853828
614.902496	2685.309228
615.250994	2686.004907
615.599439	2687.459280
615.947830	2685.067252
616.296169	2684.669001
616.644454	2686.778724
616.992686	2687.474403
617.340864	2687.746626
617.688990	2684.643796
618.037063	2686.652695
618.385082	2685.818384
618.733048	2690.499096
619.080961	2683.454083
619.428821	2688.701924
619.776628	2687.126564
620.124382	2683.925431
620.472083	2685.687314
620.819731	2684.195133
621.167326	2682.657581
621.514868	2683.844773
621.862357	2678.249092
622.209793	2677.233299
622.557176	2676.598114
622.904506	2675.138700
623.251783	2671.236847
623.599007	2671.287258
623.946179	2668.156702
624.293297	2668.227278
624.640363	2668.007988
624.987376	2668.134017
625.334336	2665.749551
625.681243	2661.436844
626.028097	2663.370126
626.374899	2665.295847
626.721647	2659.775784
627.068343	2663.473470
627.414987	2661.925836
627.761577	2661.343582
628.108115	2658.185300
628.454600	2659.543891
628.801032	2655.878972
629.147412	2655.238745
629.493739	2656.030206
629.840014	2653.381080
630.186236	2652.526604
630.532405	2653.129022
630.878521	2652.440905
631.224585	2651.987201
631.570597	2651.289001
631.916556	2652.932417
632.262462	2651.684732
632.608316	2652.324958
632.954117	2649.950575
633.299866	2648.297076
633.645562	2649.499392
633.991206	2647.982004
634.336797	2642.908083
634.682336	2645.393372
635.027823	2640.195942
635.373257	2642.764410
635.718639	2635.852988
636.063968	2639.999337
636.409245	2636.916672
636.754470	2635.729480
637.099642	2635.999182
637.444762	2632.790487
637.789829	2634.925416
638.134845	2628.853346
638.479808	2629.488531
638.824719	2631.487349
639.169577	2627.131792
639.514383	2628.742441
639.859137	2627.827471
640.203839	2629.846453
640.548489	2626.176493
640.893086	2622.161214
641.237632	2621.715072
641.582125	2622.602315
641.926566	2620.633745
642.270955	2624.407048
642.615292	2623.918056
642.959576	2625.037192
643.303809	2621.120216
643.647990	2622.630042
643.992118	2622.080556
644.336195	2621.079887
644.680219	2623.807151
645.024192	2623.968468
645.368112	2625.223715
645.711981	2625.445526
646.055797	2623.285392
646.399562	2624.903602
646.743274	2628.928963
647.086935	2629.662451
647.430544	2629.990126
647.774101	2628.631535
648.117606	2626.052985
648.461059	2630.307719
648.804460	2628.911319
649.147810	2624.964096
649.491108	2626.506689
649.834354	2622.650206
650.177548	2623.522326
650.520690	2619.718775
650.863781	2618.733230
651.206820	2621.523508
651.549807	2615.927827
651.892742	2616.968826
652.235626	2613.916407
652.578458	2616.396655
652.921238	2613.959257
653.263967	2615.733743
653.606644	2611.975563
653.949269	2611.718464
654.291843	2607.587238
654.634365	2612.663680
654.976836	2611.221910
655.319255	2611.675614
655.661622	2608.635798
656.003938	2609.230655
656.346203	2606.470623
656.688416	2610.138062
657.030577	2605.656477
657.372687	2606.967177
657.714746	2607.199070
658.056753	2606.082454
658.398708	2602.707402
658.740612	2604.116404
659.082465	2604.849892
659.424266	2603.695468
659.766016	2600.307812
660.107715	2607.597321
660.449362	2604.789398
660.790958	2605.391816
661.132503	2602.793101
661.473996	2605.689244
661.815438	2605.182608
662.156829	2606.566405
662.498168	2603.652618
662.839456	2603.024994
663.180693	2605.137238
663.521879	2608.106477
663.863013	2605.321240
664.204097	2604.809563
664.545129	2600.942998
664.886110	2605.437186
665.227040	2604.451641
665.567918	2603.834099
665.908746	2604.552464
666.249522	2605.457351
666.590248	2606.168154
666.930922	2609.366766
667.271545	2604.509614
667.612118	2605.212855
667.952639	2606.251333
668.293109	2606.505911
668.633528	2606.321909
668.973896	2603.037597
669.314213	2601.207658
669.654480	2603.289655
669.994695	2601.905858
670.334859	2602.611620
670.674973	2604.197062
671.015035	2604.413832
671.355047	2600.078440
671.695008	2602.294027
672.034918	2603.050200
672.374777	2600.645570
672.714585	2600.454006
673.054342	2601.106835
673.394049	2600.330497
673.733705	2601.626074
674.073310	2599.919643
674.412864	2603.987855
674.752368	2598.079622
675.091820	2601.162288
675.431223	2598.941660
675.770574	2598.613985
676.109875	2592.715835
676.449125	2595.622060
676.788324	2593.920670
677.127473	2591.599219
677.466571	2590.122161
677.805619	2589.008066
678.144616	2594.167687
678.483562	2592.113417
678.822458	2591.120309
679.161303	2593.393870
679.500098	2591.271544
679.838842	2590.202819
680.177535	2592.811617
680.516179	2590.666606
680.854771	2593.182141
681.193314	2594.160125
681.531805	2597.441916
681.870247	2601.076588
682.208638	2599.060127
682.546978	2601.162288
682.885268	2601.729418
683.223508	2602.546085
683.561697	2601.298399
683.899836	2598.556011
684.237925	2597.267997
684.575963	2598.621546
684.913951	2594.560897
685.251889	2596.332862
685.589776	2597.467122
685.927614	2597.706577
686.265401	2596.738675
686.603137	2599.977617
686.940824	2598.291351
687.278460	2600.645570
687.616046	2597.204982
687.953582	2601.260590
688.291068	2601.139603
688.628504	2600.582555
688.965889	2601.089191
689.303224	2601.195055
689.640510	2601.442072
689.977745	2597.509972
690.314930	2594.639035
690.652065	2593.968561
690.989150	2593.406473
691.326185	2590.611153
691.663170	2586.056470
692.000105	2587.977150
692.336990	2584.224011
692.673825	2581.900039
693.010610	2584.589495
693.347345	2575.112125
693.684030	2576.551375
694.020665	2575.490212
694.357251	2570.922927
694.693786	2576.619430
695.030272	2572.692372
695.366707	2572.803277
695.703093	2572.203380
696.039429	2572.747824
696.375716	2570.610375
696.711952	2571.835375
697.048139	2571.958884
697.384276	2572.031980
697.720363	2572.215982
698.056400	2570.023081
698.392388	2570.217165
698.728326	2571.608523
699.064214	2568.747669
699.400053	2571.658935
699.735842	2567.510065
700.071581	2569.029973
700.407270	2567.283213
700.742910	2565.889334
701.078501	2565.987637
701.414042	2562.352965
701.749533	2565.271793
702.084974	2562.864642
702.420366	2562.201730
702.755709	2564.616443
703.091002	2560.437327
703.426246	2563.335990
703.761440	2561.848850
704.096584	2561.148129
704.431679	2562.456309
704.766725	2561.294323
705.101721	2556.729558
705.436668	2560.649055
705.771565	2557.498334
706.106413	2562.017728
706.441212	2559.620660
706.775961	2561.243911
707.110661	2562.121072
707.445311	2563.179714
707.779913	2562.937739
708.114465	2563.656103
708.448967	2561.317008
708.783421	2566.708522
709.117825	2564.876062
709.452180	2565.612071
709.786485	2567.631053
710.120742	2569.395457
710.454949	2570.471743
710.789107	2569.269428
711.123216	2570.020560
711.457275	2570.121383
711.791286	2570.668348
712.125247	2570.938050
712.459159	2575.769996
712.793023	2576.359811
713.126837	2573.035170
713.460602	2574.013154
713.794318	2570.847309
714.127985	2572.853688
714.461602	2568.984603
714.795171	2571.240519
715.128691	2566.189283
715.462162	2565.057544
715.795584	2566.146433
716.128957	2563.366237
716.462281	2562.020249
716.795556	2562.625187
717.128782	2558.430947
717.461960	2560.303736
717.795088	2558.758622
718.128167	2558.244425
718.461198	2554.806358
718.794180	2556.311142
719.127113	2555.121430
719.459997	2555.396173
719.792833	2553.104968
720.125619	2553.233518
720.458357	2551.564896
720.791046	2552.126984
721.123686	2552.610935
721.456278	2551.731254
721.788821	2551.259906
722.121315	2552.205122
722.453761	2550.178578
722.786158	2549.891233
723.118506	2550.861655
723.450805	2552.411810
723.783056	2551.396017
724.115259	2551.017931
724.447412	2551.973229
724.779518	2550.458363
725.111574	2551.786707
725.443582	2555.436502
725.775542	2553.417520
726.107453	2551.290153
726.439315	2553.281409
726.771129	2559.983623
727.102895	2555.996070
727.434612	2556.759805
727.766281	2556.848025
728.097901	2554.559341
728.429473	2555.121430
728.760996	2555.345761
729.092471	2554.992880
729.423897	2559.018242
729.755276	2558.849363
730.086606	2553.311656
730.417887	2559.219888
730.749120	2560.044117
731.080305	2561.337172
731.411442	2566.118707
731.742530	2561.354817
732.073570	2565.337328
732.404562	2562.133675
732.735506	2562.927657
733.066401	2563.109138
733.397249	2561.382543
733.728048	2560.192831
734.058798	2555.963303
734.389501	2554.239228
734.720156	2553.294012
735.050762	2550.818805
735.381320	2551.706048
735.711831	2554.695452
736.042293	2546.997610
736.372707	2548.530121
736.703073	2547.698331
737.033391	2548.368804
737.363661	2548.366284
737.693883	2548.378887
738.024056	2551.267468
738.354182	2551.610266
738.684260	2551.033054
739.014290	2554.151008
739.344272	2550.901984
739.674207	2553.220915
740.004093	2556.106975
740.333931	2552.205122
740.663722	2555.713765
740.993464	2555.554969
741.323159	2553.669578
741.652806	2554.670247
741.982405	2552.081614
742.311956	2551.088507
742.641460	2552.943651
742.970915	2550.163455
743.300323	2549.003990
743.629683	2547.451314
743.958996	2549.543393
744.288260	2548.313352
744.617477	2544.620706
744.946647	2542.566436
745.275768	2544.855120
745.604842	2540.965870
745.933869	2539.740869
746.262847	2539.022505
746.591778	2543.602393
746.920662	2544.043494
747.249498	2543.862013
747.578286	2544.953423
747.907027	2543.310006
748.235720	2543.753628
748.564365	2547.287477
748.892963	2547.390820
749.221514	2546.075079
749.550017	2544.088865
749.878473	2543.047866
750.206881	2545.064328
750.535242	2540.461754
750.863555	2544.403937
751.191821	2543.241951
751.520039	2542.107691
751.848210	2542.856302
752.176334	2543.761190
752.504411	2545.021478
752.832440	2541.764893
753.160421	2542.246323
753.488356	2543.030222
753.816243	2543.574667
754.144082	2541.091899
754.471875	2541.608617
754.799620	2542.611807
755.127318	2538.772968
755.454969	2544.802188
755.782572	2539.098122
756.110129	2541.107022
756.437638	2540.910417
756.765100	2539.337577
757.092515	2540.960829
757.419882	2542.175747
757.747203	2543.425953
758.074477	2540.852444
758.401703	2542.412681
758.728882	2542.579039
759.056014	2542.803370
759.383099	2543.665408
759.710138	2544.235058
760.037129	2547.544576
760.364073	2543.209183
760.690970	2547.108516
761.017820	2547.249668
761.344623	2543.821683
761.671379	2547.763866
761.998088	2542.873947
762.324751	2549.886192
762.651366	2560.933880
762.977935	2574.411405
763.304456	2580.183526
763.630931	2585.890112
763.957359	2580.675039
764.283740	2575.475088
764.610074	2567.237843
764.936362	2563.613253
765.262602	2558.670402
765.588796	2552.300904
765.914943	2549.961809
766.241044	2546.352343
766.567097	2545.795295
766.893104	2543.688093
767.219064	2539.085519
767.544978	2537.058976
767.870845	2536.300282
768.196665	2537.215251
768.522438	2534.351876
768.848165	2533.250384
769.173846	2532.847092
769.499479	2533.300795
769.825066	2535.092926
770.150607	2531.667462
770.476101	2531.354910
770.801548	2532.118645
771.126949	2532.779036
771.452303	2530.981865
771.777611	2531.052441
772.102872	2529.219981
772.428087	2531.070085
772.753256	2527.548839
773.078378	2529.187214
773.403453	2526.941380
773.728482	2525.761750
774.053465	2529.446833
774.378401	2527.490866
774.703291	2526.384332
775.028135	2524.118334
775.352932	2525.890299
775.677683	2525.169414
776.002388	2524.680422
776.327046	2526.003725
776.651658	2526.638911
776.976224	2525.918026
777.300743	2527.024559
777.625216	2526.147398
777.949643	2525.703777
778.274024	2524.793848
778.598359	2522.663961
778.922647	2523.962058
779.246889	2521.948117
779.571086	2520.720596
779.895236	2524.559435
780.219339	2523.725124
780.543397	2526.016328
780.867409	2523.457942
781.191374	2522.414424
781.515294	2525.265196
781.839167	2523.014321
782.162995	2524.493900
782.486776	2523.997346
782.810511	2525.159332
783.134201	2523.457942
783.457844	2521.577592
783.781441	2523.916688
784.104993	2525.010618
784.428498	2522.631193
784.751958	2524.244363
785.075372	2525.303005
785.398739	2521.023065
785.722061	2524.130937
786.045337	2525.166894
786.368568	2523.538601
786.691752	2520.811337
787.014891	2524.753519
787.337983	2523.150432
787.661030	2528.554549
787.984031	2530.581093
788.306987	2531.843902
788.629897	2530.175280
788.952760	2532.272400
789.275579	2531.367513
789.598351	2532.093439
789.921078	2529.613191
790.243759	2527.763088
790.566395	2526.550690
790.888984	2528.846936
791.211529	2523.571368
791.534027	2524.367871
791.856480	2521.665812
792.178888	2523.228570
792.501249	2521.852335
792.823566	2524.193951
793.145836	2521.590195
793.468062	2521.166738
793.790241	2524.647655
794.112375	2523.243693
794.434464	2522.537932
794.756507	2524.564476
795.078505	2521.857376
795.400457	2523.105062
795.722364	2523.251255
796.044226	2524.022552
796.366042	2522.338806
796.687812	2525.862573
797.009538	2527.258972
797.331218	2528.365506
797.652852	2527.853829
797.974442	2527.725279
798.295986	2525.197141
798.617484	2525.229908
798.938938	2526.739734
799.260346	2524.977850
799.581709	2525.053468
799.903026	2527.354754
800.224299	2523.989784
800.545526	2522.563138
800.866708	2521.776718
801.187845	2523.712521
801.508936	2524.014990
801.829983	2524.819054
802.150984	2525.134126
802.471940	2521.527181
802.792851	2522.948786
803.113717	2522.666481
803.434538	2521.176820
803.755314	2520.899557
804.076045	2522.542973
804.396731	2519.914011
804.717372	2520.299660
805.037967	2521.728827
805.358518	2518.915863
805.679024	2521.859897
805.999485	2520.735719
806.319901	2522.979033
806.640272	2519.261182
806.960598	2523.228570
807.280879	2520.803775
807.601115	2523.737727
807.921306	2523.251255
808.241453	2523.551204
808.561554	2522.144722
808.881611	2523.049609
809.201623	2523.672192
809.521590	2523.498272
809.841513	2522.326203
810.161390	2522.086749
810.481223	2520.569361
810.801011	2521.466687
811.120755	2520.851666
811.440453	2520.851666
811.760107	2520.219001
812.079716	2516.919566
812.399281	2519.135153
812.718801	2518.774711
813.038276	2515.898732
813.357707	2520.370236
813.677093	2520.397962
813.996434	2519.248579
814.315731	2517.761439
814.634983	2520.859228
814.954191	2520.559279
815.273354	2519.971985
815.592473	2520.662623
815.911547	2522.134640
816.230577	2521.776718
816.549562	2523.115144
816.868502	2523.614218
817.187399	2523.760412
817.506250	2522.971471
817.825058	2522.172448
818.143821	2526.096987
818.462539	2529.751823
818.781213	2526.447347
819.099843	2531.566638
819.418429	2534.165353
819.736970	2538.495704
820.055466	2542.876467
820.373919	2549.533311
820.692327	2559.222408
821.010691	2574.736559
821.329011	2614.899432
821.647286	2672.106446
821.965517	2730.888820
822.283704	2763.890734
822.601847	2773.955398
822.919945	2748.278281
823.237999	2718.689228
823.556010	2688.787624
823.873976	2663.329797
824.191897	2636.737711
824.509775	2617.984618
824.827609	2601.164808
825.145398	2587.944382
825.463144	2584.922211
825.780845	2586.116964
826.098502	2596.012749
826.416116	2611.053032
826.733685	2623.991153
827.051210	2627.925774
827.368692	2619.330606
827.686129	2602.861157
828.003522	2589.807089
828.320872	2571.485015
828.638177	2561.856411
828.955439	2551.451470
829.272656	2547.799154
829.589830	2536.494366
829.906960	2538.641898
830.224046	2533.963707
830.541088	2532.400949
830.858086	2529.197296
831.175041	2528.534384
831.491952	2526.212933
831.808819	2528.877183
832.125642	2528.194107
832.442421	2535.904551
832.759157	2541.603576
833.075849	2551.940462
833.392497	2566.988306
833.709101	2571.784964
834.025662	2572.271435
834.342179	2565.574262
834.658653	2555.988508
834.975083	2549.697148
835.291469	2543.746066
835.607811	2537.807587
835.924110	2531.685106
836.240366	2531.090249
836.556578	2525.734023
836.872746	2525.532377
837.188871	2524.032634
837.504952	2523.818385
837.820990	2521.209588
838.136984	2518.499968
838.452935	2520.317304
838.768842	2519.959382
839.084706	2520.856707
839.400526	2527.954652
839.716303	2531.821217
840.032037	2535.471012
840.347727	2535.962525
840.663373	2531.203675
840.978977	2525.436595
841.294537	2524.793848
841.610054	2519.777900
841.925527	2523.445340
842.240957	2516.271778
842.556344	2518.764628
842.871687	2515.606345
843.186987	2517.237159
843.502244	2514.845131
843.817458	2515.926459
844.132629	2512.480830
844.447756	2512.541324
844.762840	2509.302383
845.077881	2511.293638
845.392879	2509.715757
845.707833	2507.202742
846.022745	2507.638802
846.337613	2508.039573
846.652438	2511.144924
846.967221	2509.637619
847.281960	2507.800119
847.596656	2509.766169
847.911309	2511.525531
848.225919	2508.490757
848.540485	2511.394461
848.855009	2510.308093
849.169490	2507.931189
849.483928	2507.414470
849.798323	2508.891528
850.112675	2512.216169
850.426984	2511.696931
850.741251	2511.954029
851.055474	2509.866992
851.369654	2508.079903
851.683792	2508.145438
851.997887	2508.344563
852.311938	2509.236847
852.625947	2509.826663
852.939914	2507.212824
853.253837	2508.672238
853.567718	2509.703154
853.881555	2507.563184
854.195350	2510.723988
854.509103	2511.097033
854.822812	2508.324399
855.136479	2510.303052
855.450103	2512.899246
855.763685	2510.633247
856.077224	2508.246261
856.390720	2507.966477
856.704173	2509.637619
857.017584	2511.386900
857.330953	2510.875223
857.644278	2513.668022
857.957561	2511.916221
858.270802	2510.920593
858.584000	2507.739625
858.897155	2510.171982
859.210268	2511.097033
859.523339	2508.833555
859.836367	2507.729542
860.149352	2510.323216
860.462295	2509.161230
860.775195	2506.509583
861.088054	2504.520848
861.400869	2507.205263
861.713642	2505.297186
862.026373	2509.136024
862.339062	2508.218534
862.651708	2508.311796
862.964312	2511.175171
863.276873	2510.411436
863.589392	2512.543844
863.901869	2511.996879
864.214303	2513.791530
864.526696	2509.695593
864.839045	2511.351612
865.151353	2509.572084
865.463619	2513.902435
865.775842	2511.628875
866.088023	2512.082579
866.400162	2512.178361
866.712258	2509.191477
867.024313	2510.471930
867.336325	2511.492764
867.648296	2512.440501
867.960224	2511.618793
868.272110	2512.253978
868.583954	2508.848679
868.895755	2512.458145
869.207515	2509.688031
869.519233	2512.455624
869.830909	2508.011847
870.142542	2512.233813
870.454134	2510.809688
870.765684	2514.209946
871.077191	2512.841273
871.388657	2516.296983
871.700081	2514.935872
872.011463	2514.537621
872.322803	2515.780265
872.634101	2514.517456
872.945357	2512.228772
873.256571	2514.472086
873.567744	2518.492406
873.878874	2515.034174
874.189963	2513.509225
874.501010	2518.683970
874.812015	2515.376973
875.122979	2512.238855
875.433900	2516.702796
875.744780	2514.671211
876.055618	2515.974350
876.366415	2513.799092
876.677169	2514.709020
876.987882	2513.902435
877.298554	2510.729029
877.609183	2514.146931
877.919771	2513.668022
878.230317	2513.773886
878.540822	2522.326203
878.851285	2521.169259
879.161707	2523.790659
879.472087	2528.350382
879.782425	2535.861702
880.092722	2550.377704
880.402977	2571.540468
880.713191	2594.165166
881.023363	2618.844135
881.333494	2631.200003
881.643583	2636.316774
881.953631	2634.789305
882.263637	2626.627677
882.573602	2618.284567
882.883526	2606.624378
883.193408	2598.886207
883.503248	2589.658375
883.813048	2580.097827
884.122806	2570.544840
884.432522	2561.387584
884.742197	2554.587068
885.051831	2549.392158
885.361424	2540.507125
885.670975	2542.178267
885.980485	2533.759540
886.289954	2530.417255
886.599382	2529.351051
886.908768	2525.376102
887.218113	2523.215967
887.527417	2522.197654
887.836680	2523.462984
888.145901	2519.324196
888.455082	2516.566685
888.764221	2514.179699
889.073319	2515.944103
889.382376	2515.903773
889.691392	2517.068280
890.000366	2515.671880
890.309300	2517.862262
890.618193	2515.722292
890.927044	2517.128774
891.235855	2516.175996
891.544625	2515.921417
891.853353	2513.831859
892.162041	2519.609022
892.470687	2521.280164
892.779293	2520.839063
893.087858	2521.577592
893.396381	2522.474918
893.704864	2528.219312
894.013306	2534.634181
894.321707	2543.589790
894.630068	2548.724206
894.938387	2550.052550
895.246665	2545.409647
895.554903	2547.539534
895.863100	2537.648791
896.171256	2538.087371
896.479371	2538.473019
896.787446	2532.837009
897.095480	2528.287368
897.403473	2527.095135
897.711425	2525.229908
898.019336	2524.541791
898.327207	2522.580782
898.635038	2520.471059
898.942827	2520.410565
899.250576	2517.521984
899.558284	2514.991325
899.865952	2517.337982
900.173579	2516.428053
900.481165	2516.690193
900.788711	2514.850172
901.096216	2515.205574
901.403681	2513.718433
901.711105	2513.264729
902.018489	2512.692558
902.325832	2518.358815
902.633135	2514.625841
902.940397	2515.089627
903.247619	2525.287881
903.554800	2535.082843
903.861941	2544.280428
904.169041	2555.416337
904.476101	2558.108313
904.783121	2552.568085
905.090100	2550.211346
905.397039	2544.708927
905.703938	2537.679038
906.010796	2535.037473
906.317614	2535.337422
906.624391	2530.772657
906.931129	2527.634538
907.237826	2524.398118
907.544483	2519.596419
907.851099	2519.127591
908.157675	2516.213804
908.464211	2517.595081
908.770707	2507.890859
909.077163	2509.715757
909.383578	2506.713750
909.689954	2507.936230
909.996289	2504.730056
910.302584	2506.991013
910.608839	2507.784995
910.915054	2508.400016
911.221229	2507.830366
911.527363	2510.086282
911.833458	2508.994872
912.139513	2509.380520
912.445527	2510.134173
912.751502	2506.456651
913.057436	2510.575274
913.363331	2509.783813
913.669186	2515.351767
913.975000	2515.026613
914.280775	2517.763959
914.586510	2520.322345
914.892205	2526.270906
915.197859	2536.002854
915.503475	2544.275387
915.809050	2550.632282
916.114585	2556.306101
916.420081	2556.439692
916.725536	2554.145967
917.030952	2553.898950
917.336328	2547.723537
917.641665	2546.730429
917.946961	2544.126673
918.252218	2538.722556
918.557435	2538.286497
918.862612	2536.544778
919.167750	2529.008253
919.472848	2528.867101
919.777906	2525.018180
920.082925	2525.529857
920.387904	2519.142715
920.692843	2519.603980
920.997743	2519.442663
921.302603	2515.157683
921.607423	2515.523166
921.912204	2515.162724
922.216946	2511.515449
922.521647	2512.871519
922.826310	2514.600635
923.130932	2512.324554
923.435516	2509.173833
923.740059	2511.535614
924.044564	2507.923627
924.349028	2508.599142
924.653454	2505.571929
924.957840	2505.193842
925.262186	2505.856754
925.566493	2507.898421
925.870761	2501.566732
926.174989	2507.739625
926.479178	2504.966990
926.783328	2506.638133
927.087438	2508.851199
927.391509	2507.364059
927.695541	2504.966990
927.999533	2502.789212
928.303486	2501.796104
928.607400	2504.183091
928.911275	2502.985817
929.215110	2501.849037
929.518906	2500.646721
929.822663	2505.077896
930.126381	2501.786022
930.430060	2504.672083
930.733699	2504.576301
931.037299	2505.024963
931.340861	2502.927843
931.644383	2502.360714
931.947866	2504.586383
932.251309	2504.719974
932.554714	2506.554954
932.858080	2507.694254
933.161407	2505.274501
933.464694	2503.920951
933.767943	2502.098574
934.071153	2506.000427
934.374323	2504.972031
934.677455	2503.847854
934.980548	2502.622854
935.283602	2503.999089
935.586617	2500.916423
935.889593	2505.168636
936.192530	2503.671414
936.495428	2504.178050
936.798287	2505.829028
937.101108	2503.696619
937.403890	2504.417504
937.706632	2505.652587
938.009336	2505.907165
938.312002	2504.972031
938.614628	2508.367248
938.917216	2511.495284
939.219765	2509.592249
939.522275	2507.396826
939.824747	2509.486385
940.127179	2504.190653
940.429573	2504.762823
940.731929	2506.693585
941.034246	2503.142093
941.336524	2507.842968
941.638763	2506.925478
941.940964	2506.723832
942.243126	2510.240037
942.545250	2504.838441
942.847335	2505.030005
943.149381	2504.359531
943.451389	2504.662000
943.753359	2508.518483
944.055290	2506.030674
944.357182	2506.623009
944.659036	2505.249295
944.960851	2504.530930
945.262628	2504.936743
945.564367	2505.788698
945.866067	2501.105466
946.167729	2506.025632
946.469352	2504.477998
946.770937	2505.682834
947.072484	2503.540344
947.373992	2507.359018
947.675462	2502.610251
947.976893	2502.590086
948.278286	2504.974552
948.579641	2508.400016
948.880958	2502.582524
949.182236	2505.266939
949.483476	2505.957577
949.784678	2506.479336
950.085841	2504.636795
950.386967	2503.870539
950.688054	2504.593945
950.989103	2503.331136
951.290114	2505.950015
951.591087	2503.247957
951.892021	2505.506394
952.192917	2508.725170
952.493776	2503.696619
952.794596	2506.239882
953.095378	2504.334325
953.396122	2503.865498
953.696828	2504.354490
953.997496	2506.882629
954.298126	2503.126969
954.598718	2505.642505
954.899272	2507.984121
955.199788	2503.419356
955.500266	2504.402381
955.800706	2504.233502
956.101108	2500.359376
956.401472	2500.850888
956.701798	2499.807369
957.002087	2501.551608
957.302337	2502.821979
957.602550	2504.616630
957.902724	2504.583862
958.202861	2501.990189
958.502960	2500.293841
958.803022	2503.484891
959.103045	2500.326608
959.403031	2501.619664
959.702979	2500.130003
960.002889	2503.106804
960.302762	2500.462719
960.602596	2497.087667
960.902393	2502.975734
961.202153	2500.792915
961.501875	2498.962976
961.801559	2502.544716
962.101205	2500.992040
962.400814	2500.860970
962.700385	2503.164778
962.999918	2501.554129
963.299414	2499.489777
963.598873	2502.678306
963.898293	2500.039262
964.197677	2502.348111
964.497022	2500.939108
964.796331	2499.751917
965.095601	2499.250322
965.394835	2502.690909
965.694030	2499.958604
965.993189	2499.121772
966.292309	2501.443224
966.591393	2499.542709
966.890439	2501.564211
967.189447	2497.954745
967.488419	2496.707060
967.787353	2499.648573
968.086249	2498.778974
968.385108	2502.239726
968.683930	2501.992709
968.982714	2502.970693
969.281462	2496.954076
969.580172	2501.165960
969.878844	2500.956752
970.177480	2499.270486
970.476078	2502.355673
970.774639	2499.807369
971.073162	2502.282576
971.371649	2498.163953
971.670098	2495.484580
971.968510	2496.215547
972.266885	2494.473828
972.565223	2501.947339
972.863524	2499.381392
973.161788	2501.196207
973.460014	2501.609582
973.758204	2499.333501
974.056356	2501.196207
974.354471	2501.778460
974.652550	2501.801146
974.950591	2503.046311
975.248595	2498.194200
975.546563	2503.787360
975.844493	2500.324088
976.142386	2502.484222
976.440243	2499.149499
976.738062	2501.034890
977.035845	2498.385764
977.333590	2502.504387
977.631299	2500.485404
977.928971	2503.827689
978.226606	2501.715446
978.524204	2501.836434
978.821765	2499.126813
979.119290	2499.741834
979.416777	2502.469098
979.714228	2500.641680
980.011642	2499.449447
980.309020	2504.039418
980.606360	2504.717453
980.903664	2501.564211
981.200931	2499.648573
981.498162	2501.042452
981.795356	2503.437000
982.092513	2505.019922
982.389633	2503.492453
982.686717	2504.742659
982.983764	2504.631753
983.280775	2506.935561
983.577749	2507.253153
983.874686	2506.897752
984.171587	2506.713750
984.468451	2504.079747
984.765279	2504.513286
985.062070	2505.564367
985.358824	2501.317195
985.655543	2501.609582
985.952224	2502.335508
986.248869	2500.213182
986.545478	2498.300064
986.842050	2497.823675
987.138586	2497.319560
987.435086	2497.516165
987.731549	2496.586072
988.027975	2501.254180
988.324366	2499.890548
988.620719	2499.920795
988.917037	2498.451299
989.213318	2500.765188
989.509563	2499.429283
989.805772	2499.736793
990.101944	2496.646566
990.398080	2498.368120
990.694180	2499.187307
990.990244	2499.109169
991.286271	2498.915085
991.582262	2501.455827
991.878217	2498.688233
992.174136	2499.681340
992.470019	2500.243429
992.765865	2498.128665
993.061676	2498.665548
993.357450	2500.069509
993.653188	2500.896258
993.948890	2499.764519
994.244556	2498.297544
994.540186	2501.034890
994.835780	2499.661176
995.131337	2501.513800
995.426859	2500.170332
995.722345	2500.445075
996.017795	2502.824500
996.313208	2502.388440
996.608586	2501.097905
996.903928	2505.340036
997.199234	2504.848523
997.494504	2504.261229
997.789738	2503.792401
998.084936	2505.211486
998.380099	2498.352996
998.675225	2502.731238
998.970316	2500.687051
999.265371	2501.506238
999.560390	2499.371309
999.855373	2503.651249
1000.150320	2500.346773
1000.445232	2502.917761
1000.740108	2499.381392
1001.034948	2500.626557
1001.329752	2497.889210
1001.624521	2499.343583
1001.919254	2493.745382
1002.213951	2498.509272
1002.508613	2495.391318
1002.803239	2499.212513
1003.097829	2495.454333
1003.392384	2497.170846
1003.686903	2500.185456
1003.981386	2500.374499
1004.275834	2498.915085
1004.570246	2499.313336
1004.864623	2495.703870
1005.158964	2499.124293
1005.453270	2496.875938
1005.747540	2496.694457
1006.041775	2498.418531
1006.335974	2497.543891
1006.630138	2498.668068
1006.924266	2498.872235
1007.218359	2497.432986
1007.512416	2499.583038
1007.806438	2498.756289
1008.100425	2501.362565
1008.394376	2499.061278
1008.688292	2497.014570
1008.982172	2496.581031
1009.276017	2501.176043
1009.569827	2499.399036
1009.863602	2501.289468
1010.157341	2495.315701
1010.451045	2499.711587
1010.744714	2498.002636
1011.038347	2495.648417
1011.331945	2496.785197
1011.625508	2501.110507
1011.919036	2500.308964
1012.212528	2496.049189
1012.505986	2499.797287
1012.799408	2499.078923
1013.092795	2499.275528
1013.386147	2498.678151
1013.679464	2499.252842
1013.972745	2497.339724
1014.265992	2498.975579
1014.559204	2496.321411
1014.852380	2498.252173
1015.145521	2497.702687
1015.438628	2498.983141
1015.731699	2497.748058
1016.024736	2497.211175
1016.317737	2498.562204
1016.610703	2503.651249
1016.903635	2494.917450
1017.196531	2494.236894
1017.489393	2493.959631
1017.782219	2496.336535
1018.075011	2499.391474
1018.367768	2496.502893
1018.660490	2497.896772
1018.953177	2497.896772
1019.245829	2497.896772
