Dividing Wavelength (nm)	Counts (n)	Blue Motor Position (mm): 0.000000	Red Motor Position (mm): 13.800000	
326.493990	2128.831378
326.888308	2128.831378
327.282561	2128.831378
327.676750	2095.859712
328.070874	2094.390215
328.464933	2097.520772
328.858929	2104.485126
329.252859	2114.655654
329.646726	2124.286778
330.040528	2137.184570
330.434265	2153.863228
330.827938	2173.049859
331.221547	2194.126923
331.615091	2209.290714
332.008571	2232.427090
332.401986	2247.361508
332.795338	2265.648294
333.188625	2287.476490
333.581847	2304.054324
333.975006	2325.219609
334.368100	2339.702844
334.761129	2359.552387
335.154095	2376.967053
335.546996	2395.510937
335.939833	2406.326733
336.332606	2424.056471
336.725315	2437.813780
337.117960	2445.912393
337.510540	2455.450257
337.903056	2465.179683
338.295508	2471.886939
338.687896	2478.929431
339.080220	2488.200112
339.472480	2492.674137
339.864676	2500.843326
340.256807	2504.858605
340.648875	2508.142917
341.040879	2511.951509
341.432818	2508.929337
341.824694	2511.149965
342.216506	2515.399658
342.608253	2515.092148
342.999937	2512.979904
343.391557	2514.129287
343.783113	2512.773217
344.174605	2513.219359
344.566033	2509.136024
344.957397	2509.188957
345.348697	2506.454131
345.739934	2505.955056
346.131106	2506.116373
346.522215	2501.775940
346.913260	2494.839312
347.304241	2497.153202
347.695159	2492.016266
348.086012	2496.845691
348.476802	2493.485762
348.867528	2492.454846
349.258191	2487.978302
349.648789	2490.569455
350.039324	2490.317397
350.429796	2488.865545
350.820203	2486.039978
351.210548	2484.953609
351.600828	2484.941007
351.991045	2484.436891
352.381198	2480.938330
352.771288	2481.036633
353.161314	2482.054946
353.551276	2482.506129
353.941175	2480.696355
354.331010	2482.758187
354.720782	2481.475213
355.110490	2483.544607
355.500135	2483.509319
355.889717	2482.541417
356.279235	2481.044195
356.668689	2482.818681
357.058080	2484.625934
357.447408	2482.112919
357.836672	2477.691827
358.225873	2483.799185
358.615010	2478.508494
359.004084	2486.075266
359.393095	2487.670791
359.782043	2488.525267
360.170927	2486.667602
360.559748	2485.455204
360.948505	2488.865545
361.337199	2487.857314
361.725830	2492.626246
362.114398	2490.622387
362.502903	2488.981491
362.891344	2490.211533
363.279722	2493.785711
363.668037	2491.771770
364.056289	2494.534322
364.444478	2495.494662
364.832603	2493.495845
365.220665	2495.255207
365.608665	2493.780670
365.996601	2497.211175
366.384474	2496.076915
366.772284	2498.058089
367.160031	2496.631442
367.547715	2501.561691
367.935336	2504.001609
368.322893	2506.688544
368.710388	2510.915552
369.097820	2518.033661
369.485189	2519.097344
369.872495	2525.320649
370.259738	2532.405991
370.646918	2537.966383
371.034035	2546.080120
371.421090	2556.530432
371.808081	2566.590055
372.195010	2575.099522
372.581875	2586.900864
372.968678	2604.320571
373.355418	2613.127467
373.742096	2629.410393
374.128710	2644.433032
374.515262	2659.808551
374.901751	2674.911848
375.288177	2686.357788
375.674540	2708.737990
376.060841	2728.721124
376.447079	2747.499422
376.833254	2768.122783
377.219367	2779.160389
377.605417	2819.877789
377.991404	2829.148471
378.377329	2847.331912
378.763191	2864.071064
379.148991	2901.420973
379.534727	2930.160591
379.920402	2956.835856
380.306013	2967.994450
380.691563	3014.940196
381.077049	3038.910882
381.462474	3055.239179
381.847835	3096.032196
382.233134	3116.605145
382.618371	3114.419805
383.003545	3184.068387
383.388657	3192.976105
383.773706	3224.511043
384.158693	3242.097108
384.543618	3266.234153
384.928480	3299.760347
385.313280	3346.907738
385.698017	3346.063345
386.082692	3399.302971
386.467305	3405.548960
386.851856	3436.080708
387.236344	3460.361426
387.620770	3486.051146
388.005133	3516.056094
388.389435	3540.273797
388.773674	3551.876012
389.157851	3590.554265
389.541965	3603.210082
389.926018	3569.552818
390.310008	3632.504227
390.693936	3648.807318
391.077802	3685.101106
391.461606	3666.514371
391.845348	3720.308524
392.229027	3710.710167
392.612645	3714.453224
392.996200	3776.741721
393.379694	3804.266421
393.763125	3848.568081
394.146494	3802.116369
394.529801	3839.403263
394.913047	3867.152294
395.296230	3817.597752
395.679351	3845.603882
396.062410	3841.061803
396.445408	3806.179539
396.828343	3808.591731
397.211217	3804.057213
397.594028	3710.153120
397.976778	3736.041965
398.359466	3730.063157
398.742092	3723.731468
399.124656	3634.737458
399.507158	3661.440450
399.889598	3650.055004
400.271977	3656.608504
400.654294	3603.346193
401.036549	3574.861153
401.418742	3521.319058
401.800874	3544.982234
402.182944	3517.707072
402.564952	3515.123480
402.946898	3469.634628
403.328783	3430.301026
403.710606	3349.967718
404.092367	3402.032755
404.474067	3347.752131
404.855705	3311.816266
405.237282	3248.786720
405.618797	3253.316196
406.000250	3227.273596
406.381642	3217.569374
406.762972	3169.287723
407.144240	3134.632311
407.525447	3100.176025
407.906593	3083.988880
408.287677	3058.004252
408.668700	3008.840399
409.049661	2989.121926
409.430560	2966.829944
409.811399	2920.960485
410.192176	2919.097779
410.572891	2882.725854
410.953545	2870.473329
411.334138	2828.024293
411.714669	2813.238589
412.095139	2776.609565
412.475547	2770.502207
412.855894	2751.018148
413.236180	2728.085939
413.616405	2707.301262
413.996568	2697.299612
414.376670	2674.269101
414.756711	2658.535660
415.136691	2648.831439
415.516609	2637.481281
415.896466	2631.169756
416.276262	2621.533591
416.655997	2605.477516
417.035670	2600.857298
417.415283	2599.019797
417.794834	2583.011613
418.174324	2579.898701
418.553753	2570.471743
418.933121	2570.108780
419.312428	2564.702143
419.691674	2560.351627
420.070859	2556.197716
420.449983	2552.419371
420.829045	2550.443239
421.208047	2547.408464
421.586988	2544.106509
421.965867	2543.337733
422.344686	2541.931251
422.723444	2538.510828
423.102141	2536.721218
423.480777	2538.344470
423.859352	2532.723583
424.237866	2538.067206
424.616319	2534.561084
424.994712	2538.283976
425.373044	2531.606968
425.751314	2533.588141
426.129524	2531.967410
426.507673	2529.209899
426.885762	2531.017153
427.263789	2533.852802
427.641756	2531.836340
428.019662	2533.666279
428.397508	2530.455064
428.775292	2532.501773
429.153016	2531.861546
429.530679	2532.743748
429.908282	2528.607481
430.285824	2530.530681
430.663305	2531.614529
431.040726	2530.659231
431.418086	2529.824920
431.795385	2531.710311
432.172624	2530.452543
432.549802	2530.301309
432.926920	2530.046731
433.303977	2529.535053
433.680974	2533.499921
434.057910	2533.129396
434.434786	2528.748633
434.811601	2532.814324
435.188355	2530.870959
435.565050	2531.576721
435.941683	2532.463964
436.318257	2530.878521
436.694770	2528.234436
437.071222	2530.719725
437.447614	2528.965403
437.823946	2530.598737
438.200218	2531.085208
438.576429	2533.905734
438.952580	2532.448840
439.328670	2533.199972
439.704700	2535.372710
440.080670	2531.899355
440.456580	2531.319622
440.832429	2531.765764
441.208218	2534.480425
441.583947	2534.374561
441.959616	2534.780374
442.335224	2534.679551
442.710773	2531.465815
443.086261	2534.188038
443.461689	2534.339273
443.837057	2532.539581
444.212365	2534.024201
444.587612	2535.496218
444.962800	2535.130734
445.337927	2533.406660
445.712995	2531.972451
446.088002	2537.177443
446.462949	2534.402287
446.837837	2536.118800
447.212664	2535.871784
447.587431	2536.484284
447.962139	2537.807587
448.336786	2540.091230
448.711374	2537.696682
449.085901	2539.796322
449.460369	2538.215920
449.834776	2538.321785
450.209124	2537.747093
450.583412	2539.342618
450.957640	2537.525282
451.331808	2539.866898
451.705917	2537.195087
452.079965	2536.517052
452.453954	2538.662063
452.827883	2537.709284
453.201752	2536.199459
453.575562	2537.553009
453.949311	2536.844727
454.323001	2537.631147
454.696632	2539.014943
455.070202	2539.050231
455.443713	2539.254398
455.817164	2541.457382
456.190556	2535.917154
456.563888	2538.044521
456.937160	2535.743234
457.310373	2540.476878
457.683526	2540.055942
458.056619	2541.164995
458.429653	2538.455375
458.802628	2539.004861
459.175542	2540.524769
459.548398	2540.078627
459.921194	2538.735159
460.293930	2541.593493
460.666607	2545.621375
461.039224	2545.530635
461.411782	2543.020140
461.784280	2545.656663
462.156719	2546.304452
462.529099	2546.422919
462.901419	2543.191539
463.273680	2543.143648
463.645882	2544.300593
464.018024	2544.368649
464.390106	2546.380069
464.762130	2546.785882
465.134094	2545.608773
465.505999	2550.095399
465.877845	2553.152859
466.249631	2554.466080
466.621358	2554.755946
466.993026	2558.418344
467.364634	2554.024979
467.736184	2550.455842
468.107674	2551.708569
468.479105	2553.379711
468.850477	2550.539021
469.221790	2552.890719
469.593043	2549.588763
469.964238	2549.714792
470.335373	2552.202602
470.706449	2550.990204
471.077467	2549.336706
471.448425	2552.608415
471.819324	2556.026317
472.190164	2558.529250
472.560945	2552.976419
472.931667	2551.307797
473.302330	2551.272509
473.672934	2551.388455
474.043479	2549.805533
474.413965	2551.035575
474.784393	2544.177085
475.154761	2550.987684
475.525070	2548.507436
475.895321	2545.465100
476.265513	2547.864689
476.635645	2552.905843
477.005719	2551.658157
477.375734	2551.169165
477.745691	2550.168496
478.115588	2553.926676
478.485427	2554.471121
478.855207	2555.391132
479.224928	2554.826522
479.594591	2556.900957
479.964194	2556.837943
480.333739	2560.691905
480.703226	2557.175700
481.072653	2557.200906
481.442022	2557.384908
481.811333	2558.501523
482.180584	2558.788869
482.549777	2558.178890
482.918912	2553.719989
483.287988	2557.576472
483.657005	2554.914742
484.025964	2554.899619
484.394864	2559.250135
484.763706	2557.737789
485.132489	2553.306614
485.501213	2556.900957
485.869879	2555.002963
486.238487	2555.517160
486.607036	2553.954403
486.975527	2555.315514
487.343959	2555.166800
487.712333	2557.064795
488.080648	2553.067160
488.448905	2555.474311
488.817104	2554.970195
489.185244	2557.967161
489.553326	2555.940617
489.921350	2557.982285
490.289315	2559.696277
490.657222	2561.372461
491.025070	2560.354148
491.392861	2561.185938
491.760593	2558.625032
492.128267	2560.885989
492.495883	2557.992367
492.863440	2556.903478
493.230939	2556.943807
493.598380	2554.297201
493.965763	2550.513815
494.333088	2554.072870
494.700354	2550.881819
495.067563	2553.465411
495.434713	2550.821326
495.801805	2554.645041
496.168839	2556.651420
496.535815	2552.825184
496.902733	2554.798796
497.269593	2555.522202
497.636395	2554.576985
498.003139	2556.255689
498.369825	2553.435164
498.736453	2553.906512
499.103023	2557.430278
499.469535	2554.148487
499.835989	2558.279713
500.202385	2556.880792
500.568723	2554.849207
500.935003	2554.461039
501.301226	2553.470452
501.667390	2557.836091
502.033497	2559.245094
502.399546	2556.880792
502.765537	2553.472972
503.131470	2556.477500
503.497345	2558.057902
503.863163	2555.514640
504.228923	2555.139074
504.594625	2555.207129
504.960269	2555.166800
505.325856	2559.015721
505.691385	2556.306101
506.056856	2554.609753
506.422270	2552.558003
506.787625	2555.870041
507.152924	2555.678477
507.518164	2556.366595
507.883347	2555.716286
508.248472	2556.797613
508.613540	2556.480021
508.978550	2557.556307
509.343503	2558.816596
509.708398	2555.968344
510.073236	2557.820968
510.438016	2558.251986
510.802738	2553.871224
511.167403	2558.103272
511.532010	2553.840977
511.896561	2559.207285
512.261053	2556.996739
512.625488	2554.980278
512.989866	2546.957281
513.354186	2555.204609
513.718449	2554.811399
514.082655	2556.558159
514.446803	2556.197716
514.810894	2557.692418
515.174927	2560.170145
515.538904	2555.771739
515.902822	2557.515978
516.266684	2558.375495
516.630488	2554.592109
516.994235	2558.713252
517.357925	2556.497665
517.721558	2554.445915
518.085133	2556.820299
518.448651	2558.073025
518.812112	2554.589588
519.175516	2557.528581
519.538863	2553.566234
519.902152	2558.846842
520.265385	2557.843653
520.628560	2558.713252
520.991678	2553.238559
521.354739	2557.979764
521.717743	2558.499003
522.080690	2556.795093
522.443580	2557.513457
522.806413	2559.557645
523.169189	2557.954558
523.531908	2555.917932
523.894569	2559.827347
524.257174	2559.368602
524.619722	2558.163766
524.982213	2558.655279
525.344647	2554.360216
525.707025	2555.557490
526.069345	2559.411452
526.431608	2559.335834
526.793815	2556.593447
527.155964	2557.636966
527.518057	2559.061092
527.880093	2557.052192
528.242072	2559.567727
528.603995	2558.224260
528.965860	2559.971020
529.327669	2559.923129
529.689421	2557.047151
530.051117	2559.824826
530.412755	2558.554456
530.774337	2554.382901
531.135862	2556.868190
531.497331	2556.870710
531.858743	2554.864331
532.220098	2556.008673
532.581396	2553.246121
532.942638	2554.304763
533.303824	2558.040258
533.664953	2557.881462
534.026025	2554.231666
534.387040	2556.953889
534.747999	2554.874413
535.108902	2556.706873
535.469748	2556.548076
535.830537	2557.785680
536.191270	2556.076728
536.551947	2558.178890
536.912567	2556.233004
537.273131	2559.678633
537.633638	2557.329455
537.994089	2553.954403
538.354483	2553.462890
538.714821	2556.230484
539.075103	2557.435319
539.435328	2554.720658
539.795497	2560.157542
540.155609	2559.083777
540.515665	2556.878272
540.875665	2559.333314
541.235609	2555.905329
541.595496	2558.216698
541.955328	2556.028837
542.315102	2557.657130
542.674821	2556.089331
543.034483	2562.438665
543.394090	2557.374826
543.753640	2559.149312
544.113134	2558.279713
544.472571	2558.640155
544.831953	2559.666030
545.191278	2557.954558
545.550548	2557.848694
545.909761	2559.202244
546.268918	2556.994218
546.628019	2556.893395
546.987064	2558.151163
547.346053	2555.862479
547.704986	2561.480845
548.063863	2557.412634
548.422684	2558.178890
548.781449	2559.708880
549.140158	2562.728531
549.498811	2561.432954
549.857408	2557.828529
550.215949	2553.115051
550.574434	2556.117058
550.932864	2554.813919
551.291237	2553.057077
551.649555	2557.266441
552.007817	2556.459856
552.366022	2559.484548
552.724173	2556.311142
553.082267	2556.492624
553.440305	2557.090000
553.798288	2557.115206
554.156215	2557.682336
554.514086	2558.166287
554.871902	2556.427089
555.229661	2560.949004
555.587365	2555.849877
555.945014	2558.393139
556.302606	2560.424724
556.660143	2556.991698
557.017625	2556.744681
557.375050	2558.327604
557.732421	2555.844835
558.089735	2558.955227
558.446994	2556.936245
558.804197	2556.217881
559.161345	2557.954558
559.518437	2559.030845
559.875474	2556.714434
560.232455	2555.365926
560.589381	2557.198385
560.946251	2558.776266
561.303065	2558.093190
561.659825	2556.069167
562.016528	2556.943807
562.373177	2558.922460
562.729770	2558.130999
563.086307	2556.802655
563.442789	2557.400031
563.799216	2558.264589
564.155587	2554.100596
564.511904	2557.289126
564.868164	2553.964485
565.224370	2557.382387
565.580520	2555.706204
565.936615	2559.855073
566.292654	2558.113355
566.648638	2555.587737
567.004567	2558.841801
567.360441	2556.845504
567.716260	2556.502706
568.072023	2557.944476
568.427732	2553.215874
568.783385	2557.004301
569.138982	2557.427758
569.494525	2556.903478
569.850013	2553.508261
570.205445	2556.810216
570.560823	2557.755433
570.916145	2556.076728
571.271412	2557.750392
571.626625	2557.863818
571.981782	2556.716955
572.336884	2558.617470
572.691931	2558.360371
573.046923	2558.113355
573.401860	2555.567572
573.756743	2556.724517
574.111570	2558.239383
574.466342	2557.878941
574.821059	2555.214691
575.175722	2557.470607
575.530330	2556.603529
575.884882	2556.626214
576.239380	2557.004301
576.593823	2560.787687
576.948211	2554.818961
577.302544	2557.218550
577.656823	2556.417006
578.011047	2559.229970
578.365216	2557.034548
578.719330	2556.769887
579.073389	2555.060936
579.427394	2557.203426
579.781344	2553.717468
580.135239	2557.165618
580.489080	2558.655279
580.842866	2554.977757
581.196597	2556.404403
581.550273	2557.314332
581.903895	2553.435164
582.257463	2554.808878
582.610975	2554.874413
582.964434	2554.057746
583.317837	2554.181255
583.671186	2554.498847
584.024481	2554.304763
584.377721	2553.919115
584.730906	2553.528425
585.084037	2555.418858
585.437113	2554.130843
585.790135	2553.964485
586.143103	2557.183262
586.496016	2558.027655
586.848874	2552.618497
587.201679	2553.291491
587.554428	2549.329144
587.907124	2553.190668
588.259765	2548.051212
588.612352	2555.179403
588.964884	2554.604712
589.317362	2553.903991
589.669786	2552.996583
590.022155	2557.616801
590.374470	2556.222922
590.726731	2554.304763
591.078937	2554.299722
591.431090	2553.236038
591.783188	2552.578168
592.135232	2553.399876
592.487222	2554.864331
592.839157	2554.110678
593.191038	2557.135371
593.542866	2554.103117
593.894639	2556.106975
594.246358	2555.053374
594.598022	2553.712427
594.949633	2556.500185
595.301190	2552.394166
595.652692	2552.862993
596.004141	2553.800647
596.355535	2555.570092
596.706876	2553.488096
597.058162	2550.985163
597.409395	2554.735782
597.760573	2552.943651
598.111698	2552.164793
598.462768	2555.192006
598.813785	2553.616645
599.164748	2555.786862
599.515657	2552.353836
599.866511	2554.365257
600.217312	2554.841646
600.568060	2552.144628
600.918753	2554.665205
601.269392	2552.638662
601.619978	2556.878272
601.970510	2553.072201
602.320988	2553.140256
602.671412	2553.626728
603.021783	2551.849721
603.372100	2555.045813
603.722363	2553.538507
604.072572	2552.547921
604.422728	2554.332489
604.772830	2549.792930
605.122878	2546.057435
605.472872	2549.548434
605.822813	2547.209339
606.172701	2549.283774
606.522534	2555.554969
606.872314	2552.868034
607.222041	2553.662016
607.571714	2552.056408
607.921333	2554.103117
608.270899	2550.634803
608.620411	2552.792417
608.969870	2553.309135
609.319276	2555.436502
609.668627	2554.377860
610.017926	2560.349106
610.367171	2559.202244
610.716362	2558.811554
611.065500	2559.166956
611.414585	2555.832233
611.763616	2557.263920
612.112594	2554.148487
612.461518	2554.771070
612.810389	2555.988508
613.159207	2555.451625
613.507971	2552.368960
613.856682	2552.633620
614.205340	2551.617828
614.553945	2556.391801
614.902496	2552.449618
615.250994	2553.656975
615.599439	2553.752757
615.947830	2553.609084
616.296169	2557.296688
616.644454	2554.703014
616.992686	2552.873075
617.340864	2552.318548
617.688990	2552.308466
618.037063	2555.103786
618.385082	2552.994063
618.733048	2552.454659
619.080961	2554.173693
619.428821	2553.767880
619.776628	2550.901984
620.124382	2554.340051
620.472083	2554.413148
620.819731	2553.901471
621.167326	2551.552293
621.514868	2554.692932
621.862357	2550.942313
622.209793	2551.196892
622.557176	2551.224618
622.904506	2550.962478
623.251783	2548.709082
623.599007	2550.733105
623.946179	2547.093392
624.293297	2550.564227
624.640363	2551.408620
624.987376	2551.839639
625.334336	2553.193188
625.681243	2549.056922
626.028097	2550.244113
626.374899	2552.810061
626.721647	2549.989535
627.068343	2549.308979
627.414987	2552.220246
627.761577	2549.886192
628.108115	2550.188661
628.454600	2548.121788
628.801032	2549.094730
629.147412	2549.550955
629.493739	2549.573640
629.840014	2552.232849
630.186236	2550.899463
630.532405	2549.866027
630.878521	2549.671942
631.224585	2547.640357
631.570597	2550.357539
631.916556	2553.203271
632.262462	2548.308310
632.608316	2550.730585
632.954117	2552.530277
633.299866	2550.836449
633.645562	2549.561037
633.991206	2551.060780
634.336797	2547.980635
634.682336	2549.394679
635.027823	2547.592467
635.373257	2547.121119
635.718639	2550.957437
636.063968	2549.140101
636.409245	2545.671787
636.754470	2548.537683
637.099642	2547.476520
637.444762	2548.290666
637.789829	2546.309493
638.134845	2550.264278
638.479808	2549.492982
638.824719	2546.596839
639.169577	2546.803526
639.514383	2547.358053
639.859137	2546.480892
640.203839	2549.145142
640.548489	2547.262271
640.893086	2545.810419
641.237632	2543.045346
641.582125	2545.467620
641.926566	2545.200439
642.270955	2548.898125
642.615292	2546.160779
642.959576	2549.419885
643.303809	2546.276725
643.647990	2550.390307
643.992118	2547.635316
644.336195	2547.118598
644.680219	2545.656663
645.024192	2548.210008
645.368112	2548.822508
645.711981	2548.842673
646.055797	2546.949719
646.399562	2546.851417
646.743274	2547.751263
647.086935	2546.617003
647.430544	2548.741850
647.774101	2549.480379
648.117606	2547.128680
648.461059	2548.751932
648.804460	2547.174051
649.147810	2545.117260
649.491108	2546.821170
649.834354	2546.654812
650.177548	2545.578526
650.520690	2548.081458
650.863781	2550.047508
651.206820	2548.893084
651.549807	2548.101623
651.892742	2547.431150
652.235626	2548.575492
652.578458	2546.367466
652.921238	2548.545245
653.263967	2545.308824
653.606644	2546.110367
653.949269	2545.848227
654.291843	2546.032229
654.634365	2548.530121
654.976836	2546.533824
655.319255	2546.201108
655.661622	2544.978628
656.003938	2545.228165
656.346203	2545.875954
656.688416	2545.928886
657.030577	2545.812939
657.372687	2545.510470
657.714746	2544.928217
658.056753	2548.560368
658.398708	2541.240613
658.740612	2544.771941
659.082465	2543.065510
659.424266	2543.478885
659.766016	2540.358411
660.107715	2546.695141
660.449362	2545.918803
660.790958	2545.873433
661.132503	2544.098947
661.473996	2545.460058
661.815438	2544.988711
662.156829	2546.347302
662.498168	2546.049873
662.839456	2542.684903
663.180693	2549.505584
663.521879	2544.497198
663.863013	2544.454348
664.204097	2545.220604
664.545129	2545.923845
664.886110	2545.709596
665.227040	2547.050542
665.567918	2547.320244
665.908746	2546.327137
666.249522	2546.579195
666.590248	2546.054915
666.930922	2548.076417
667.271545	2546.803526
667.612118	2546.231355
667.952639	2546.276725
668.293109	2547.108516
668.633528	2546.745553
668.973896	2543.322609
669.314213	2546.934596
669.654480	2545.011396
669.994695	2549.351829
670.334859	2546.301931
670.674973	2544.812270
671.015035	2546.140614
671.355047	2545.409647
671.695008	2545.092054
672.034918	2544.048535
672.374777	2542.243802
672.714585	2544.603062
673.054342	2544.391334
673.394049	2544.555171
673.733705	2548.134391
674.073310	2545.893598
674.412864	2546.906870
674.752368	2544.434184
675.091820	2544.910573
675.431223	2542.914276
675.770574	2547.358053
676.109875	2541.704399
676.449125	2543.126004
676.788324	2540.865047
677.127473	2543.715819
677.466571	2542.037115
677.805619	2545.855789
678.144616	2544.277908
678.483562	2543.786395
678.822458	2543.640202
679.161303	2544.484595
679.500098	2542.642053
679.838842	2543.670449
680.177535	2544.582898
680.516179	2547.552137
680.854771	2542.407640
681.193314	2545.734801
681.531805	2544.955943
681.870247	2546.339740
682.208638	2546.785882
682.546978	2546.498536
682.885268	2546.397713
683.223508	2546.498536
683.561697	2544.855120
683.899836	2544.300593
684.237925	2543.962836
684.575963	2547.592467
684.913951	2543.695655
685.251889	2545.041643
685.589776	2544.721529
685.927614	2547.123639
686.265401	2542.190870
686.603137	2546.669935
686.940824	2543.241951
687.278460	2543.998124
687.616046	2545.951571
687.953582	2544.739173
688.291068	2546.485933
688.628504	2545.563402
688.965889	2543.509132
689.303224	2544.734132
689.640510	2545.684390
689.977745	2546.140614
690.314930	2545.008875
690.652065	2542.112732
690.989150	2547.894936
691.326185	2545.964174
691.663170	2542.788247
692.000105	2545.449976
692.336990	2542.737835
692.673825	2543.836807
693.010610	2543.516694
693.347345	2541.805222
693.684030	2539.125849
694.020665	2540.310520
694.357251	2538.160468
694.693786	2543.511653
695.030272	2544.136756
695.366707	2540.716333
695.703093	2540.406302
696.039429	2544.068700
696.375716	2542.082485
696.711952	2544.237579
697.048139	2544.572815
697.384276	2544.139276
697.720363	2540.935623
698.056400	2542.473175
698.392388	2543.005017
698.728326	2543.330171
699.064214	2540.257588
699.400053	2543.110881
699.735842	2540.907897
700.071581	2540.282793
700.407270	2544.343443
700.742910	2541.573329
701.078501	2539.322454
701.414042	2541.311189
701.749533	2543.060469
702.084974	2539.123328
702.420366	2541.931251
702.755709	2543.478885
703.091002	2542.213555
703.426246	2540.986034
703.761440	2540.902855
704.096584	2541.623740
704.431679	2540.807073
704.766725	2540.297917
705.101721	2538.044521
705.436668	2542.901673
705.771565	2542.289173
706.106413	2542.314378
706.441212	2538.828421
706.775961	2540.696168
707.110661	2540.834800
707.445311	2538.936805
707.779913	2540.769265
708.114465	2541.512835
708.448967	2541.147351
708.783421	2542.074924
709.117825	2540.428987
709.452180	2543.138607
709.786485	2539.934954
710.120742	2540.010571
710.454949	2544.028371
710.789107	2541.389327
711.123216	2540.302958
711.457275	2543.312527
711.791286	2537.890766
712.125247	2541.618699
712.459159	2542.808412
712.793023	2544.020809
713.126837	2546.135573
713.460602	2542.480737
713.794318	2544.245140
714.127985	2542.445448
714.461602	2542.296734
714.795171	2542.856303
715.128691	2543.254554
715.462162	2542.195911
715.795584	2539.055273
716.128957	2539.481250
716.462281	2542.485778
716.795556	2541.729605
717.128782	2543.047866
717.461960	2543.151210
717.795088	2539.866898
718.128167	2541.500232
718.461198	2539.556867
718.794180	2540.297917
719.127113	2540.817156
719.459997	2540.418905
719.792833	2541.190201
720.125619	2540.050900
720.458357	2540.529810
720.791046	2541.981662
721.123686	2537.689120
721.456278	2538.538554
721.788821	2539.352701
722.121315	2541.762372
722.453761	2539.216589
722.786158	2537.348842
723.118506	2541.497712
723.450805	2538.601569
723.783056	2540.779347
724.115259	2540.653318
724.447412	2538.278935
724.779518	2540.933102
725.111574	2539.816487
725.443582	2543.015099
725.775542	2540.807073
726.107453	2539.640046
726.439315	2540.149203
726.771129	2545.525593
727.102895	2539.995448
727.434612	2538.982176
727.766281	2539.602238
728.097901	2538.079809
728.429473	2538.924203
728.760996	2537.298430
729.092471	2537.074099
729.423897	2539.879501
729.755276	2540.572660
730.086606	2540.134079
730.417887	2540.300437
730.749120	2541.255736
731.080305	2540.809594
731.411442	2536.464119
731.742530	2538.805735
732.073570	2541.585932
732.404562	2539.854295
732.735506	2540.229861
733.066401	2541.114584
733.397249	2542.072403
733.728048	2539.201466
734.058798	2539.965201
734.389501	2541.243133
734.720156	2539.640046
735.050762	2539.677855
735.381320	2540.202135
735.711831	2538.218441
736.042293	2541.790098
736.372707	2536.403626
736.703073	2537.376568
737.033391	2540.582742
737.363661	2539.259439
737.693883	2538.520910
738.024056	2540.809594
738.354182	2536.123842
738.684260	2540.449152
739.014290	2536.441434
739.344272	2538.699871
739.674207	2538.485622
740.004093	2539.846734
740.333931	2537.764737
740.663722	2542.828576
740.993464	2537.459747
741.323159	2542.158103
741.652806	2541.278421
741.982405	2539.088040
742.311956	2540.318082
742.641460	2540.769265
742.970915	2539.466127
743.300323	2542.889070
743.629683	2537.986548
743.958996	2540.776827
744.288260	2539.483771
744.617477	2538.294058
744.946647	2536.300282
745.275768	2535.690302
745.604842	2534.893800
745.933869	2536.716177
746.262847	2536.312885
746.591778	2539.123328
746.920662	2538.591486
747.249498	2538.939326
747.578286	2536.832124
747.907027	2538.828421
748.235720	2539.226672
748.564365	2539.574511
748.892963	2537.870601
749.221514	2538.856147
749.550017	2537.348842
749.878473	2538.720036
750.206881	2538.326826
750.535242	2537.303472
750.863555	2540.091230
751.191821	2539.289686
751.520039	2538.944367
751.848210	2540.222300
752.176334	2539.158616
752.504411	2539.987886
752.832440	2538.636857
753.160421	2538.374717
753.488356	2535.985210
753.816243	2538.765406
754.144082	2538.760365
754.471875	2538.936805
754.799620	2536.862371
755.127318	2536.663245
755.454969	2539.314892
755.782572	2541.225489
756.110129	2538.402443
756.437638	2536.015457
756.765100	2536.282638
757.092515	2541.228010
757.419882	2535.488656
757.747203	2538.372196
758.074477	2537.686599
758.401703	2539.511497
758.728882	2539.277083
759.056014	2537.863040
759.383099	2537.555529
759.710138	2540.655839
760.037129	2537.820190
760.364073	2537.028729
760.690970	2538.034439
761.017820	2539.519059
761.344623	2538.344470
761.671379	2538.641898
761.998088	2533.570497
762.324751	2539.330015
762.651366	2537.545447
762.977935	2543.113401
763.304456	2538.629295
763.630931	2544.913093
763.957359	2541.943854
764.283740	2542.679862
764.610074	2541.207845
764.936362	2539.151054
765.262602	2537.406815
765.588796	2539.869419
765.914943	2536.469161
766.241044	2535.660055
766.567097	2538.009233
766.893104	2536.736342
767.219064	2538.253729
767.544978	2537.900848
767.870845	2539.899666
768.196665	2538.941847
768.522438	2540.055942
768.848165	2538.294058
769.173846	2540.227341
769.499479	2538.566281
769.825066	2537.553009
770.150607	2538.800694
770.476101	2536.033101
770.801548	2538.702392
771.126949	2537.520241
771.452303	2538.783050
771.777611	2535.917154
772.102872	2537.610982
772.428087	2536.098636
772.753256	2536.358255
773.078378	2534.903882
773.403453	2535.939839
773.728482	2537.999151
774.053465	2533.593182
774.378401	2534.346835
774.703291	2537.467309
775.028135	2536.398584
775.352932	2535.526465
775.677683	2539.231713
776.002388	2537.064017
776.327046	2534.848430
776.651658	2535.445806
776.976224	2535.594520
777.300743	2537.036290
777.625216	2538.147865
777.949643	2534.883718
778.274024	2536.436393
778.598359	2532.511855
778.922647	2534.331711
779.246889	2532.398429
779.571086	2531.831299
779.895236	2535.234078
780.219339	2537.842875
780.543397	2539.181301
780.867409	2538.077289
781.191374	2534.530837
781.515294	2535.866743
781.839167	2535.707946
782.162995	2537.926054
782.486776	2538.044521
782.810511	2534.828265
783.134201	2535.045035
783.457844	2534.523275
783.781441	2534.384643
784.104993	2535.455889
784.428498	2536.627957
784.751958	2536.229706
785.075372	2535.745755
785.398739	2534.344314
785.722061	2535.065199
786.045337	2532.642925
786.368568	2536.033101
786.691752	2533.240302
787.014891	2535.211393
787.337983	2534.984541
787.661030	2536.708615
787.984031	2535.498738
788.306987	2537.061496
788.629897	2534.946732
788.952760	2537.767258
789.275579	2537.432021
789.598351	2536.391023
789.921078	2536.368337
790.243759	2536.131403
790.566395	2534.916485
790.888984	2535.503780
791.211529	2533.141999
791.534027	2536.479243
791.856480	2535.246681
792.178888	2534.573687
792.501249	2536.743903
792.823566	2536.098636
793.145836	2532.511855
793.468062	2535.624767
793.790241	2536.451517
794.112375	2535.506300
794.434464	2535.095446
794.756507	2536.789274
795.078505	2535.544109
795.400457	2534.223327
795.722364	2531.009591
796.044226	2533.416742
796.366042	2530.056813
796.687812	2533.580579
797.009538	2535.183666
797.331218	2535.024870
797.652852	2538.057124
797.974442	2537.053934
798.295986	2535.423121
798.617484	2535.508821
798.938938	2534.727442
799.260346	2535.740714
799.581709	2534.412370
799.903026	2535.564273
800.224299	2534.752648
800.545526	2534.687113
800.866708	2535.392874
801.187845	2537.812628
801.508936	2534.364479
801.829983	2535.438245
802.150984	2533.998995
802.471940	2533.678882
802.792851	2533.182328
803.113717	2532.413552
803.434538	2533.918337
803.755314	2536.174253
804.076045	2534.402287
804.396731	2535.370189
804.717372	2533.391536
805.037967	2536.275076
805.358518	2533.502442
805.679024	2535.788605
805.999485	2535.813811
806.319901	2536.506969
806.640272	2534.498069
806.960598	2533.089067
807.280879	2535.060158
807.601115	2534.442617
807.921306	2535.176105
808.241453	2533.386495
808.561554	2535.685261
808.881611	2534.979500
809.201623	2534.694674
809.521590	2535.246681
809.841513	2533.036135
810.161390	2533.691485
810.481223	2535.229037
810.801011	2536.111239
811.120755	2534.326670
811.440453	2537.883204
811.760107	2535.281969
812.079716	2534.296423
812.399281	2529.386339
812.718801	2533.262987
813.038276	2530.455064
813.357707	2533.895652
813.677093	2531.294416
813.996434	2537.023688
814.315731	2535.513862
814.634983	2535.362627
814.954191	2533.527647
815.273354	2535.050076
815.592473	2535.234078
815.911547	2532.952956
816.230577	2535.229037
816.549562	2535.070240
816.868502	2534.684592
817.187399	2535.327339
817.506250	2535.032432
817.825058	2535.423121
818.143821	2534.878677
818.462539	2535.329860
818.781213	2535.052596
819.099843	2534.556043
819.418429	2533.817514
819.736970	2538.692309
820.055466	2535.549150
820.373919	2535.420601
820.692327	2538.914120
821.010691	2541.598535
821.329011	2540.867567
821.647286	2553.409958
821.965517	2559.487069
822.283704	2566.401012
822.601847	2569.191290
822.919945	2563.522513
823.237999	2558.221739
823.556010	2555.504558
823.873976	2550.997766
824.191897	2547.615152
824.509775	2541.671631
824.827609	2543.511652
825.145398	2539.733308
825.463144	2543.509132
825.780845	2541.691796
826.098502	2544.522404
826.416116	2547.542055
826.733685	2546.216232
827.051210	2547.058104
827.368692	2546.629606
827.686129	2544.461910
828.003522	2540.171888
828.320872	2534.795497
828.638177	2535.939839
828.955439	2531.886752
829.272656	2533.935981
829.589830	2532.658048
829.906960	2534.765251
830.224046	2536.872453
830.541088	2537.777340
830.858086	2537.739531
831.175041	2536.985879
831.491952	2534.994623
831.808819	2535.816331
832.125642	2534.220806
832.442421	2535.299613
832.759157	2532.196783
833.075849	2536.320447
833.392497	2536.270035
833.709101	2540.396219
834.025662	2542.067362
834.342179	2538.886394
834.658653	2538.634336
834.975083	2538.916641
835.291469	2540.250026
835.607811	2536.534696
835.924110	2533.459592
836.240366	2532.879859
836.556578	2532.993285
836.872746	2536.648122
837.188871	2534.034283
837.504952	2536.736342
837.820990	2535.468492
838.136984	2532.300126
838.452935	2535.342463
838.768842	2535.234078
839.084706	2533.368851
839.400526	2533.923378
839.716303	2535.796167
840.032037	2536.630477
840.347727	2534.397246
840.663373	2537.326157
840.978977	2534.167874
841.294537	2533.210055
841.610054	2533.812472
841.925527	2533.265507
842.240957	2532.532019
842.556344	2534.387164
842.871687	2533.162164
843.186987	2533.270548
843.502244	2532.703419
843.817458	2532.874818
844.132629	2533.220137
844.447756	2532.476567
844.762840	2527.392563
845.077881	2532.015301
845.392879	2528.947759
845.707833	2530.172759
846.022745	2525.345855
846.337613	2530.954138
846.652438	2534.119983
846.967221	2534.268697
847.281960	2531.470857
847.596656	2531.448171
847.911309	2532.345497
848.225919	2533.963707
848.540485	2532.378264
848.855009	2533.431865
849.169490	2532.900024
849.483928	2530.376926
849.798323	2530.858356
850.112675	2530.717204
850.426984	2533.961187
850.741251	2532.826927
851.055474	2533.699047
851.369654	2534.712318
851.683792	2532.073274
851.997887	2532.448840
852.311938	2532.917668
852.625947	2532.748789
852.939914	2534.137627
853.253837	2535.508821
853.567718	2534.177956
853.881555	2530.089580
854.195350	2531.669982
854.509103	2532.993285
854.822812	2530.248377
855.136479	2532.552184
855.450103	2532.279962
855.763685	2534.089736
856.077224	2533.532688
856.390720	2532.413552
856.704173	2531.856505
857.017584	2530.034128
857.330953	2532.872297
857.644278	2532.058151
857.957561	2534.871115
858.270802	2533.018491
858.584000	2531.675023
858.897155	2532.942873
859.210268	2529.499765
859.523339	2532.479087
859.836367	2529.983716
860.149352	2533.688964
860.462295	2532.930271
860.775195	2528.269724
861.088054	2528.080681
861.400869	2528.930115
861.713642	2529.809796
862.026373	2530.573531
862.339062	2532.355579
862.651708	2531.370033
862.964312	2533.207534
863.276873	2535.087884
863.589392	2532.615198
863.901869	2533.134437
864.214303	2531.838861
864.526696	2532.988244
864.839045	2530.752492
865.151353	2532.947915
865.463619	2532.221988
865.775842	2533.978831
866.088023	2533.431865
866.400162	2530.359282
866.712258	2534.430014
867.024313	2534.233409
867.336325	2534.760209
867.648296	2531.112935
867.960224	2532.320291
868.272110	2534.508152
868.583954	2531.755682
868.895755	2531.120496
869.207515	2532.879859
869.519233	2532.577390
869.830909	2534.482946
870.142542	2531.662420
870.454134	2529.908099
870.765684	2532.184180
871.077191	2529.346010
871.388657	2531.682585
871.700081	2532.723583
872.011463	2533.280631
872.322803	2532.655528
872.634101	2532.458923
872.945357	2531.738038
873.256571	2532.224509
873.567744	2531.982534
873.878874	2530.371885
874.189963	2531.158305
874.501010	2534.041845
874.812015	2532.370702
875.122979	2530.054292
875.433900	2530.450023
875.744780	2536.522093
876.055618	2529.862728
876.366415	2533.235260
876.677169	2532.277441
876.987882	2531.554036
877.298554	2527.722759
877.609183	2533.497400
877.919771	2529.124199
878.230317	2530.770136
878.540822	2534.248532
878.851285	2534.760209
879.161707	2532.645445
879.472087	2535.042514
879.782425	2534.182997
880.092722	2535.899510
880.402977	2538.092412
880.713191	2544.542568
881.023363	2547.221942
881.333494	2551.995914
881.643583	2550.841490
881.953631	2553.641851
882.263637	2551.239741
882.573602	2550.654967
882.883526	2547.441232
883.193408	2543.405788
883.503248	2544.492157
883.813048	2541.117104
884.122806	2540.446631
884.432522	2538.548637
884.742197	2535.997813
885.051831	2533.646114
885.361424	2533.653676
885.670975	2533.522606
885.980485	2533.895652
886.289954	2534.659386
886.599382	2531.070085
886.908768	2536.201979
887.218113	2531.455733
887.527417	2533.184849
887.836680	2531.264169
888.145901	2535.014788
888.455082	2531.826258
888.764221	2532.658048
889.073319	2531.924560
889.382376	2533.285672
889.691392	2530.674354
890.000366	2530.593696
890.309300	2533.701567
890.618193	2534.906403
890.927044	2531.223840
891.235855	2534.122503
891.544625	2530.999509
891.853353	2532.378264
892.162041	2531.924560
892.470687	2533.744417
892.779293	2532.763913
893.087858	2530.041689
893.396381	2529.356093
893.704864	2534.729962
894.013306	2532.229550
894.321707	2532.809283
894.630068	2538.208359
894.938387	2536.300282
895.246665	2538.168029
895.554903	2536.948070
895.863100	2535.342463
896.171256	2537.356404
896.479371	2535.531506
896.787446	2534.394726
897.095480	2532.340456
897.403473	2534.024201
897.711425	2532.892462
898.019336	2534.316588
898.327207	2532.020342
898.635038	2532.786598
898.942827	2530.926412
899.250576	2533.268028
899.558284	2531.080167
899.865952	2533.580579
900.173579	2532.889941
900.481165	2530.296268
900.788711	2533.336083
901.096216	2532.726104
901.403681	2532.736186
901.711105	2529.855167
902.018489	2531.702750
902.325832	2533.300795
902.633135	2535.413039
902.940397	2532.015301
903.247619	2529.726617
903.554800	2533.078985
903.861941	2536.572504
904.169041	2543.715819
904.476101	2540.665921
904.783121	2541.568288
905.090100	2539.937474
905.397039	2539.103163
905.703938	2533.938501
906.010796	2536.650642
906.317614	2534.004036
906.624391	2530.666793
906.931129	2534.172915
907.237826	2532.426155
907.544483	2528.201668
907.851099	2533.807431
908.157675	2533.215096
908.464211	2531.589324
908.770707	2526.525485
909.077163	2530.976823
909.383578	2527.148067
909.689954	2527.639580
909.996289	2525.250073
910.302584	2531.254087
910.608839	2529.383819
910.915054	2529.993798
911.221229	2528.794004
911.527363	2530.397091
911.833458	2532.446320
912.139513	2528.032790
912.445527	2531.594365
912.751502	2532.937832
913.057436	2526.648993
913.363331	2529.751823
913.669186	2531.296937
913.975000	2531.889272
914.280775	2531.465815
914.586510	2533.046217
914.892205	2532.380785
915.197859	2533.164684
915.503475	2535.213913
915.809050	2537.066537
916.114585	2538.780530
916.420081	2539.476209
916.725536	2537.313554
917.030952	2536.272556
917.336328	2536.895138
917.641665	2534.712318
917.946961	2536.970755
918.252218	2534.142668
918.557435	2532.789118
918.862612	2533.315919
919.167750	2530.717204
919.472848	2533.273069
919.777906	2532.703419
920.082925	2532.063192
920.387904	2530.555887
920.692843	2531.327184
920.997743	2529.444313
921.302603	2532.907585
921.607423	2529.860208
921.912204	2531.667462
922.216946	2529.338448
922.521647	2531.347348
922.826310	2531.289375
923.130932	2531.251566
923.435516	2533.290713
923.740059	2530.026566
924.044564	2528.526823
924.349028	2530.371885
924.653454	2523.352078
924.957840	2528.259642
925.262186	2526.517923
925.566493	2527.316946
925.870761	2524.919877
926.174989	2529.227543
926.479178	2528.720907
926.783328	2530.588655
927.087438	2531.612009
927.391509	2529.277955
927.695541	2529.955990
927.999533	2529.386339
928.303486	2530.996988
928.607400	2527.432892
928.911275	2526.601102
929.215110	2528.052954
929.518906	2528.330218
929.822663	2532.305167
930.126381	2530.439941
930.430060	2528.625125
930.733699	2530.792821
931.037299	2530.830630
931.340861	2529.701412
931.644383	2528.541946
931.947866	2527.747964
932.251309	2530.772657
932.554714	2529.230064
932.858080	2531.685106
933.161407	2530.051772
933.464694	2532.395908
933.767943	2528.960362
934.071153	2528.080681
934.374323	2528.529343
934.677455	2529.840043
934.980548	2530.024045
935.283602	2529.285516
935.586617	2529.104035
935.889593	2527.841226
936.192530	2528.103366
936.495428	2530.071936
936.798287	2530.757533
937.101108	2531.831299
937.403890	2530.966741
937.706632	2529.769467
938.009336	2531.513706
938.312002	2529.925743
938.614628	2530.576052
938.917216	2532.259797
939.219765	2527.440454
939.522275	2528.965403
939.824747	2528.622605
940.127179	2526.359127
940.429573	2526.044054
940.731929	2527.861390
941.034246	2522.225380
941.336524	2527.647141
941.638763	2531.281813
941.940964	2528.204189
942.243126	2527.861390
942.545250	2528.486493
942.847335	2530.878521
943.149381	2529.116638
943.451389	2530.323994
943.753359	2528.514220
944.055290	2529.260311
944.357182	2531.047400
944.659036	2529.807276
944.960851	2531.170908
945.262628	2530.240815
945.564367	2529.706453
945.866067	2530.492873
946.167729	2531.054961
946.469352	2528.922553
946.770937	2528.322656
947.072484	2531.009591
947.373992	2527.085053
947.675462	2529.202337
947.976893	2529.333407
948.278286	2529.598068
948.579641	2530.593696
948.880958	2529.925743
949.182236	2530.076978
949.483476	2529.033459
949.784678	2529.091432
950.085841	2531.271731
950.386967	2530.755013
950.688054	2527.722759
950.989103	2529.285516
951.290114	2528.710825
951.591087	2529.983716
951.892021	2529.726617
952.192917	2526.706966
952.493776	2530.359282
952.794596	2528.806607
953.095378	2527.092614
953.396122	2530.903727
953.696828	2528.496576
953.997496	2530.964221
954.298126	2528.529343
954.598718	2527.521112
954.899272	2526.099507
955.199788	2532.937832
955.500266	2527.480783
955.800706	2525.880217
956.101108	2523.775535
956.401472	2527.581606
956.701798	2525.320649
957.002087	2523.387366
957.302337	2527.939528
957.602550	2531.748120
957.902724	2527.843746
958.202861	2530.444982
958.502960	2529.043541
958.803022	2529.996319
959.103045	2529.502286
959.403031	2531.029756
959.702979	2528.589837
960.002889	2528.536905
960.302762	2527.959693
960.602596	2529.323325
960.902393	2525.592871
961.202153	2525.721421
961.501875	2528.940197
961.801559	2529.330887
962.101205	2528.592358
962.400814	2527.480783
962.700385	2529.335928
962.999918	2527.009435
963.299414	2525.229908
963.598873	2527.997502
963.898293	2527.795855
964.197677	2529.706453
964.497022	2528.642769
964.796331	2529.645959
965.095601	2527.551359
965.394835	2528.688140
965.694030	2526.848118
965.993189	2531.727955
966.292309	2525.003056
966.591393	2525.398787
966.890439	2527.720238
967.189447	2527.677388
967.488419	2526.994312
967.787353	2528.783922
968.086249	2527.291740
968.385108	2529.930784
968.683930	2529.260311
968.982714	2527.858870
969.281462	2527.074970
969.580172	2529.661082
969.878844	2529.356092
970.177480	2527.647141
970.476078	2526.459950
970.774639	2529.388860
971.073162	2525.098838
971.371649	2526.888448
971.670098	2525.555062
971.968510	2524.312418
972.266885	2522.628673
972.565223	2525.691174
972.863524	2527.886596
973.161788	2527.334590
973.460014	2529.192255
973.758204	2527.788294
974.056356	2529.073788
974.354471	2525.119003
974.652550	2526.427182
974.950591	2525.408869
975.248595	2526.669157
975.546563	2526.946421
975.844493	2527.989940
976.142386	2528.851977
976.440243	2525.698735
976.738062	2526.704446
977.035845	2527.241328
977.333590	2531.054961
977.631299	2527.697553
977.928971	2527.957172
978.226606	2528.186545
978.524204	2525.663447
978.821765	2526.706966
979.119290	2525.204702
979.416777	2529.192255
979.714228	2527.369878
980.011642	2528.806607
980.309020	2528.962882
980.606360	2526.419620
980.903664	2528.678057
981.200931	2525.844929
981.498162	2528.778880
981.795356	2526.099507
982.092513	2526.722090
982.389633	2527.624456
982.686717	2529.635877
982.983764	2527.974816
983.280775	2529.746782
983.577749	2528.141174
983.874686	2527.495907
984.171587	2528.093283
984.468451	2525.839888
984.765279	2527.997502
985.062070	2528.171421
985.358824	2529.101514
985.655543	2527.994981
985.952224	2528.365506
986.248869	2526.946421
986.545478	2521.491893
986.842050	2523.941893
987.138586	2524.012469
987.435086	2523.155473
987.731549	2521.930473
988.027975	2529.882893
988.324366	2527.732841
988.620719	2528.491535
988.917037	2528.617563
989.213318	2529.593027
989.509563	2526.553211
989.805772	2529.101514
990.101944	2526.200330
990.398080	2528.249559
990.694180	2529.242667
990.990244	2527.016997
991.286271	2526.875845
991.582262	2527.374919
991.878217	2526.540608
992.174136	2529.502286
992.470019	2525.887779
992.765865	2527.727800
993.061676	2526.883407
993.357450	2527.253931
993.653188	2527.906761
993.948890	2528.350382
994.244556	2529.020856
994.540186	2527.284178
994.835780	2524.730834
995.131337	2529.562780
995.426859	2526.374250
995.722345	2528.496576
996.017795	2526.351565
996.313208	2528.592358
996.608586	2527.125382
996.903928	2525.912984
997.199234	2526.495238
997.494504	2525.698735
997.789738	2526.669158
998.084936	2529.073788
998.380099	2527.385001
998.675225	2527.216123
998.970316	2527.221164
999.265371	2527.117820
999.560390	2528.317615
999.855373	2527.453057
1000.150320	2525.247552
1000.445232	2527.226205
1000.740108	2526.991791
1001.034948	2526.679240
1001.329752	2527.392563
1001.624521	2528.373067
1001.919254	2523.215967
1002.213951	2525.199661
1002.508613	2524.882068
1002.803239	2523.707480
1003.097829	2522.386697
1003.392384	2523.883920
1003.686903	2528.632687
1003.981386	2528.214271
1004.275834	2528.683098
1004.570246	2528.000022
1004.864623	2526.245701
1005.158964	2528.453726
1005.453270	2524.864424
1005.747540	2527.009435
1006.041775	2527.722759
1006.335974	2529.711494
1006.630138	2525.905423
1006.924266	2526.906092
1007.218359	2526.023890
1007.512416	2528.047913
1007.806438	2528.662934
1008.100425	2526.066740
1008.394376	2527.417769
1008.688292	2524.488858
1008.982172	2524.017511
1009.276017	2526.724610
1009.569827	2525.587830
1009.863602	2529.882893
1010.157341	2526.157480
1010.451045	2525.809641
1010.744714	2526.565814
1011.038347	2526.628828
1011.331945	2526.598581
1011.625508	2527.253931
1011.919036	2527.664785
1012.212528	2526.588499
1012.505986	2525.547501
1012.799408	2525.857532
1013.092795	2526.767460
1013.386147	2525.461801
1013.679464	2528.423479
1013.972745	2525.295443
1014.265992	2526.417100
1014.559204	2527.299302
1014.852380	2524.171266
1015.145521	2527.014477
1015.438628	2528.478932
1015.731699	2525.509692
1016.024736	2525.229908
1016.317737	2526.482635
1016.610703	2526.810310
1016.903635	2526.197810
1017.196531	2522.991636
1017.489393	2523.997346
1017.782219	2522.096831
1018.075011	2525.781914
1018.367768	2525.771832
1018.660490	2524.685463
1018.953177	2524.685463
1019.245829	2524.685463
