Dividing Wavelength (nm)	Counts (n)	Blue Motor Position (mm): 0.000000	Red Motor Position (mm): 0.100000	
326.493990	2200.463654
326.888308	2200.463654
327.282561	2200.463654
327.676750	2044.187885
328.070874	2074.434808
328.464933	2087.037692
328.858929	2099.640577
329.252859	2061.831923
329.646726	2134.928654
330.040528	2139.969808
330.434265	2147.531538
330.827938	2187.860769
331.221547	2190.381346
331.615091	2180.299038
332.008571	2213.066538
332.401986	2202.984231
332.795338	2202.984231
333.188625	2258.436923
333.581847	2278.601538
333.975006	2255.916346
334.368100	2245.834038
334.761129	2286.163269
335.154095	2414.712692
335.546996	2344.136538
335.939833	2281.122115
336.332606	2371.862885
336.725315	2356.739423
337.117960	2457.562500
337.510540	2422.274423
337.903056	2465.124231
338.295508	2389.506923
338.687896	2477.727115
339.080220	2472.685962
339.472480	2439.918462
339.864676	2548.303269
340.256807	2414.712692
340.648875	2442.439038
341.040879	2470.165385
341.432818	2540.741538
341.824694	2482.768269
342.216506	2412.192115
342.608253	2515.535769
342.999937	2450.000769
343.391557	2460.083077
343.783113	2465.124231
344.174605	2515.535769
344.566033	2402.109808
344.957397	2520.576923
345.348697	2384.465769
345.739934	2563.426731
346.131106	2538.220962
346.522215	2455.041923
346.913260	2550.823846
347.304241	2472.685962
347.695159	2540.741538
348.086012	2528.138654
348.476802	2467.644808
348.867528	2450.000769
349.258191	2515.535769
349.648789	2500.412308
350.039324	2432.356731
350.429796	2487.809423
350.820203	2414.712692
351.210548	2442.439038
351.600828	2465.124231
351.991045	2354.218846
352.381198	2538.220962
352.771288	2442.439038
353.161314	2485.288846
353.551276	2371.862885
353.941175	2497.891731
354.331010	2376.904038
354.720782	2490.330000
355.110490	2437.397885
355.500135	2455.041923
355.889717	2422.274423
356.279235	2402.109808
356.668689	2369.342308
357.058080	2412.192115
357.447408	2407.150962
357.836672	2424.795000
358.225873	2510.494615
358.615010	2455.041923
359.004084	2404.630385
359.393095	2452.521346
359.782043	2477.727115
360.170927	2414.712692
360.559748	2457.562500
360.948505	2402.109808
361.337199	2450.000769
361.725830	2417.233269
362.114398	2472.685962
362.502903	2472.685962
362.891344	2414.712692
363.279722	2394.548077
363.668037	2437.397885
364.056289	2424.795000
364.444478	2535.700385
364.832603	2422.274423
365.220665	2432.356731
365.608665	2467.644808
365.996601	2492.850577
366.384474	2412.192115
366.772284	2384.465769
367.160031	2505.453462
367.547715	2447.480192
367.935336	2505.453462
368.322893	2475.206538
368.710388	2507.974038
369.097820	2452.521346
369.485189	2361.780577
369.872495	2593.673654
370.259738	2467.644808
370.646918	2397.068654
371.034035	2515.535769
371.421090	2434.877308
371.808081	2520.576923
372.195010	2412.192115
372.581875	2457.562500
372.968678	2538.220962
373.355418	2482.768269
373.742096	2460.083077
374.128710	2414.712692
374.515262	2427.315577
374.901751	2437.397885
375.288177	2475.206538
375.674540	2530.659231
376.060841	2371.862885
376.447079	2467.644808
376.833254	2447.480192
377.219367	2518.056346
377.605417	2399.589231
377.991404	2470.165385
378.377329	2381.945192
378.763191	2452.521346
379.148991	2422.274423
379.534727	2460.083077
379.920402	2394.548077
380.306013	2450.000769
380.691563	2450.000769
381.077049	2505.453462
381.462474	2450.000769
381.847835	2477.727115
382.233134	2450.000769
382.618371	2434.877308
383.003545	2412.192115
383.388657	2450.000769
383.773706	2507.974038
384.158693	2429.836154
384.543618	2462.603654
384.928480	2465.124231
385.313280	2540.741538
385.698017	2422.274423
386.082692	2480.247692
386.467305	2439.918462
386.851856	2482.768269
387.236344	2455.041923
387.620770	2515.535769
388.005133	2424.795000
388.389435	2490.330000
388.773674	2475.206538
389.157851	2548.303269
389.541965	2447.480192
389.926018	2407.150962
390.310008	2480.247692
390.693936	2392.027500
391.077802	2543.262115
391.461606	2472.685962
391.845348	2497.891731
392.229027	2465.124231
392.612645	2444.959615
392.996200	2465.124231
393.379694	2545.782692
393.763125	2397.068654
394.146494	2497.891731
394.529801	2462.603654
394.913047	2477.727115
395.296230	2407.150962
395.679351	2402.109808
396.062410	2462.603654
396.445408	2450.000769
396.828343	2502.932885
397.211217	2548.303269
397.594028	2485.288846
397.976778	2520.576923
398.359466	2424.795000
398.742092	2480.247692
399.124656	2462.603654
399.507158	2523.097500
399.889598	2455.041923
400.271977	2492.850577
400.654294	2500.412308
401.036549	2409.671538
401.418742	2505.453462
401.800874	2457.562500
402.182944	2465.124231
402.564952	2525.618077
402.946898	2439.918462
403.328783	2538.220962
403.710606	2487.809423
404.092367	2558.385577
404.474067	2553.344423
404.855705	2429.836154
405.237282	2538.220962
405.618797	2442.439038
406.000250	2523.097500
406.381642	2444.959615
406.762972	2485.288846
407.144240	2462.603654
407.525447	2414.712692
407.906593	2439.918462
408.287677	2502.932885
408.668700	2427.315577
409.049661	2495.371154
409.430560	2442.439038
409.811399	2450.000769
410.192176	2510.494615
410.572891	2502.932885
410.953545	2538.220962
411.334138	2460.083077
411.714669	2545.782692
412.095139	2455.041923
412.475547	2419.753846
412.855894	2432.356731
413.236180	2520.576923
413.616405	2467.644808
413.996568	2437.397885
414.376670	2414.712692
414.756711	2465.124231
415.136691	2550.823846
415.516609	2437.397885
415.896466	2497.891731
416.276262	2402.109808
416.655997	2558.385577
417.035670	2424.795000
417.415283	2381.945192
417.794834	2497.891731
418.174324	2540.741538
418.553753	2553.344423
418.933121	2437.397885
419.312428	2520.576923
419.691674	2467.644808
420.070859	2520.576923
420.449983	2465.124231
420.829045	2487.809423
421.208047	2419.753846
421.586988	2432.356731
421.965867	2450.000769
422.344686	2482.768269
422.723444	2482.768269
423.102141	2475.206538
423.480777	2470.165385
423.859352	2465.124231
424.237866	2525.618077
424.616319	2525.618077
424.994712	2548.303269
425.373044	2485.288846
425.751314	2518.056346
426.129524	2507.974038
426.507673	2442.439038
426.885762	2507.974038
427.263789	2427.315577
427.641756	2457.562500
428.019662	2482.768269
428.397508	2480.247692
428.775292	2513.015192
429.153016	2457.562500
429.530679	2507.974038
429.908282	2581.070769
430.285824	2439.918462
430.663305	2485.288846
431.040726	2346.657115
431.418086	2442.439038
431.795385	2434.877308
432.172624	2530.659231
432.549802	2467.644808
432.926920	2573.509038
433.303977	2404.630385
433.680974	2507.974038
434.057910	2545.782692
434.434786	2467.644808
434.811601	2470.165385
435.188355	2477.727115
435.565050	2497.891731
435.941683	2543.262115
436.318257	2492.850577
436.694770	2460.083077
437.071222	2492.850577
437.447614	2432.356731
437.823946	2500.412308
438.200218	2485.288846
438.576429	2490.330000
438.952580	2485.288846
439.328670	2359.260000
439.704700	2444.959615
440.080670	2538.220962
440.456580	2510.494615
440.832429	2462.603654
441.208218	2450.000769
441.583947	2482.768269
441.959616	2427.315577
442.335224	2460.083077
442.710773	2465.124231
443.086261	2500.412308
443.461689	2475.206538
443.837057	2528.138654
444.212365	2505.453462
444.587612	2563.426731
444.962800	2540.741538
445.337927	2568.467885
445.712995	2608.797115
446.088002	2457.562500
446.462949	2530.659231
446.837837	2485.288846
447.212664	2482.768269
447.587431	2513.015192
447.962139	2442.439038
448.336786	2505.453462
448.711374	2538.220962
449.085901	2500.412308
449.460369	2470.165385
449.834776	2434.877308
450.209124	2513.015192
450.583412	2457.562500
450.957640	2591.153077
451.331808	2480.247692
451.705917	2462.603654
452.079965	2485.288846
452.453954	2432.356731
452.827883	2429.836154
453.201752	2460.083077
453.575562	2455.041923
453.949311	2523.097500
454.323001	2520.576923
454.696632	2399.589231
455.070202	2384.465769
455.443713	2502.932885
455.817164	2525.618077
456.190556	2470.165385
456.563888	2550.823846
456.937160	2462.603654
457.310373	2535.700385
457.683526	2502.932885
458.056619	2495.371154
458.429653	2444.959615
458.802628	2439.918462
459.175542	2482.768269
459.548398	2586.111923
459.921194	2513.015192
460.293930	2492.850577
460.666607	2495.371154
461.039224	2515.535769
461.411782	2513.015192
461.784280	2490.330000
462.156719	2465.124231
462.529099	2487.809423
462.901419	2523.097500
463.273680	2540.741538
463.645882	2424.795000
464.018024	2432.356731
464.390106	2553.344423
464.762130	2586.111923
465.134094	2520.576923
465.505999	2563.426731
465.877845	2465.124231
466.249631	2520.576923
466.621358	2407.150962
466.993026	2565.947308
467.364634	2500.412308
467.736184	2477.727115
468.107674	2515.535769
468.479105	2507.974038
468.850477	2507.974038
469.221790	2540.741538
469.593043	2336.574808
469.964238	2492.850577
470.335373	2538.220962
470.706449	2472.685962
471.077467	2505.453462
471.448425	2452.521346
471.819324	2545.782692
472.190164	2467.644808
472.560945	2485.288846
472.931667	2558.385577
473.302330	2505.453462
473.672934	2497.891731
474.043479	2518.056346
474.413965	2447.480192
474.784393	2482.768269
475.154761	2528.138654
475.525070	2487.809423
475.895321	2507.974038
476.265513	2457.562500
476.635645	2520.576923
477.005719	2477.727115
477.375734	2472.685962
477.745691	2437.397885
478.115588	2482.768269
478.485427	2470.165385
478.855207	2482.768269
479.224928	2470.165385
479.594591	2462.603654
479.964194	2439.918462
480.333739	2525.618077
480.703226	2490.330000
481.072653	2505.453462
481.442022	2555.865000
481.811333	2535.700385
482.180584	2487.809423
482.549777	2495.371154
482.918912	2502.932885
483.287988	2528.138654
483.657005	2417.233269
484.025964	2472.685962
484.394864	2457.562500
484.763706	2490.330000
485.132489	2487.809423
485.501213	2472.685962
485.869879	2470.165385
486.238487	2523.097500
486.607036	2505.453462
486.975527	2492.850577
487.343959	2455.041923
487.712333	2515.535769
488.080648	2485.288846
488.448905	2533.179808
488.817104	2555.865000
489.185244	2462.603654
489.553326	2487.809423
489.921350	2523.097500
490.289315	2606.276538
490.657222	2487.809423
491.025070	2540.741538
491.392861	2528.138654
491.760593	2545.782692
492.128267	2447.480192
492.495883	2518.056346
492.863440	2480.247692
493.230939	2533.179808
493.598380	2472.685962
493.965763	2437.397885
494.333088	2432.356731
494.700354	2500.412308
495.067563	2354.218846
495.434713	2500.412308
495.801805	2447.480192
496.168839	2540.741538
496.535815	2490.330000
496.902733	2507.974038
497.269593	2500.412308
497.636395	2513.015192
498.003139	2490.330000
498.369825	2470.165385
498.736453	2487.809423
499.103023	2565.947308
499.469535	2586.111923
499.835989	2495.371154
500.202385	2470.165385
500.568723	2477.727115
500.935003	2533.179808
501.301226	2533.179808
501.667390	2482.768269
502.033497	2460.083077
502.399546	2538.220962
502.765537	2434.877308
503.131470	2424.795000
503.497345	2576.029615
503.863163	2581.070769
504.228923	2472.685962
504.594625	2548.303269
504.960269	2457.562500
505.325856	2447.480192
505.691385	2475.206538
506.056856	2500.412308
506.422270	2477.727115
506.787625	2573.509038
507.152924	2452.521346
507.518164	2513.015192
507.883347	2535.700385
508.248472	2502.932885
508.613540	2495.371154
508.978550	2480.247692
509.343503	2505.453462
509.708398	2543.262115
510.073236	2515.535769
510.438016	2533.179808
510.802738	2460.083077
511.167403	2502.932885
511.532010	2465.124231
511.896561	2502.932885
512.261053	2510.494615
512.625488	2525.618077
512.989866	2530.659231
513.354186	2412.192115
513.718449	2525.618077
514.082655	2500.412308
514.446803	2538.220962
514.810894	2510.494615
515.174927	2515.535769
515.538904	2553.344423
515.902822	2500.412308
516.266684	2578.550192
516.630488	2520.576923
516.994235	2533.179808
517.357925	2530.659231
517.721558	2490.330000
518.085133	2533.179808
518.448651	2490.330000
518.812112	2535.700385
519.175516	2460.083077
519.538863	2550.823846
519.902152	2515.535769
520.265385	2535.700385
520.628560	2477.727115
520.991678	2525.618077
521.354739	2455.041923
521.717743	2477.727115
522.080690	2487.809423
522.443580	2492.850577
522.806413	2523.097500
523.169189	2513.015192
523.531908	2513.015192
523.894569	2538.220962
524.257174	2505.453462
524.619722	2495.371154
524.982213	2485.288846
525.344647	2500.412308
525.707025	2407.150962
526.069345	2427.315577
526.431608	2467.644808
526.793815	2402.109808
527.155964	2505.453462
527.518057	2407.150962
527.880093	2457.562500
528.242072	2523.097500
528.603995	2560.906154
528.965860	2528.138654
529.327669	2538.220962
529.689421	2437.397885
530.051117	2525.618077
530.412755	2510.494615
530.774337	2492.850577
531.135862	2533.179808
531.497331	2507.974038
531.858743	2553.344423
532.220098	2570.988462
532.581396	2399.589231
532.942638	2535.700385
533.303824	2533.179808
533.664953	2475.206538
534.026025	2525.618077
534.387040	2500.412308
534.747999	2563.426731
535.108902	2495.371154
535.469748	2477.727115
535.830537	2492.850577
536.191270	2530.659231
536.551947	2500.412308
536.912567	2457.562500
537.273131	2361.780577
537.633638	2490.330000
537.994089	2535.700385
538.354483	2520.576923
538.714821	2492.850577
539.075103	2419.753846
539.435328	2480.247692
539.795497	2507.974038
540.155609	2485.288846
540.515665	2500.412308
540.875665	2450.000769
541.235609	2455.041923
541.595496	2553.344423
541.955328	2487.809423
542.315102	2485.288846
542.674821	2470.165385
543.034483	2447.480192
543.394090	2480.247692
543.753640	2407.150962
544.113134	2553.344423
544.472571	2480.247692
544.831953	2523.097500
545.191278	2586.111923
545.550548	2447.480192
545.909761	2515.535769
546.268918	2465.124231
546.628019	2495.371154
546.987064	2482.768269
547.346053	2487.809423
547.704986	2543.262115
548.063863	2593.673654
548.422684	2477.727115
548.781449	2490.330000
549.140158	2447.480192
549.498811	2525.618077
549.857408	2470.165385
550.215949	2497.891731
550.574434	2545.782692
550.932864	2477.727115
551.291237	2462.603654
551.649555	2540.741538
552.007817	2432.356731
552.366022	2578.550192
552.724173	2543.262115
553.082267	2560.906154
553.440305	2480.247692
553.798288	2540.741538
554.156215	2497.891731
554.514086	2525.618077
554.871902	2520.576923
555.229661	2515.535769
555.587365	2429.836154
555.945014	2457.562500
556.302606	2548.303269
556.660143	2475.206538
557.017625	2553.344423
557.375050	2505.453462
557.732421	2578.550192
558.089735	2467.644808
558.446994	2538.220962
558.804197	2490.330000
559.161345	2492.850577
559.518437	2492.850577
559.875474	2583.591346
560.232455	2502.932885
560.589381	2525.618077
560.946251	2455.041923
561.303065	2450.000769
561.659825	2455.041923
562.016528	2510.494615
562.373177	2573.509038
562.729770	2467.644808
563.086307	2485.288846
563.442789	2502.932885
563.799216	2560.906154
564.155587	2455.041923
564.511904	2513.015192
564.868164	2462.603654
565.224370	2545.782692
565.580520	2495.371154
565.936615	2472.685962
566.292654	2545.782692
566.648638	2500.412308
567.004567	2422.274423
567.360441	2462.603654
567.716260	2455.041923
568.072023	2487.809423
568.427732	2500.412308
568.783385	2540.741538
569.138982	2545.782692
569.494525	2507.974038
569.850013	2442.439038
570.205445	2424.795000
570.560823	2475.206538
570.916145	2422.274423
571.271412	2467.644808
571.626625	2510.494615
571.981782	2528.138654
572.336884	2487.809423
572.691931	2545.782692
573.046923	2437.397885
573.401860	2520.576923
573.756743	2457.562500
574.111570	2497.891731
574.466342	2482.768269
574.821059	2467.644808
575.175722	2530.659231
575.530330	2573.509038
575.884882	2482.768269
576.239380	2475.206538
576.593823	2573.509038
576.948211	2586.111923
577.302544	2520.576923
577.656823	2444.959615
578.011047	2497.891731
578.365216	2465.124231
578.719330	2507.974038
579.073389	2535.700385
579.427394	2452.521346
579.781344	2543.262115
580.135239	2598.714808
580.489080	2502.932885
580.842866	2467.644808
581.196597	2550.823846
581.550273	2545.782692
581.903895	2467.644808
582.257463	2515.535769
582.610975	2447.480192
582.964434	2540.741538
583.317837	2518.056346
583.671186	2523.097500
584.024481	2533.179808
584.377721	2447.480192
584.730906	2520.576923
585.084037	2462.603654
585.437113	2550.823846
585.790135	2495.371154
586.143103	2442.439038
586.496016	2535.700385
586.848874	2465.124231
587.201679	2581.070769
587.554428	2482.768269
587.907124	2535.700385
588.259765	2518.056346
588.612352	2482.768269
588.964884	2439.918462
589.317362	2540.741538
589.669786	2447.480192
590.022155	2523.097500
590.374470	2505.453462
590.726731	2490.330000
591.078937	2565.947308
591.431090	2442.439038
591.783188	2545.782692
592.135232	2467.644808
592.487222	2586.111923
592.839157	2588.632500
593.191038	2581.070769
593.542866	2432.356731
593.894639	2477.727115
594.246358	2492.850577
594.598022	2518.056346
594.949633	2545.782692
595.301190	2601.235385
595.652692	2497.891731
596.004141	2570.988462
596.355535	2518.056346
596.706876	2553.344423
597.058162	2470.165385
597.409395	2482.768269
597.760573	2505.453462
598.111698	2523.097500
598.462768	2450.000769
598.813785	2429.836154
599.164748	2570.988462
599.515657	2482.768269
599.866511	2555.865000
600.217312	2530.659231
600.568060	2515.535769
600.918753	2480.247692
601.269392	2450.000769
601.619978	2578.550192
601.970510	2495.371154
602.320988	2482.768269
602.671412	2505.453462
603.021783	2424.795000
603.372100	2538.220962
603.722363	2533.179808
604.072572	2490.330000
604.422728	2472.685962
604.772830	2477.727115
605.122878	2422.274423
605.472872	2450.000769
605.822813	2525.618077
606.172701	2545.782692
606.522534	2543.262115
606.872314	2444.959615
607.222041	2465.124231
607.571714	2442.439038
607.921333	2487.809423
608.270899	2530.659231
608.620411	2523.097500
608.969870	2447.480192
609.319276	2424.795000
609.668627	2472.685962
610.017926	2475.206538
610.367171	2525.618077
610.716362	2598.714808
611.065500	2593.673654
611.414585	2510.494615
611.763616	2492.850577
612.112594	2452.521346
612.461518	2502.932885
612.810389	2495.371154
613.159207	2475.206538
613.507971	2535.700385
613.856682	2409.671538
614.205340	2465.124231
614.553945	2558.385577
614.902496	2568.467885
615.250994	2528.138654
615.599439	2384.465769
615.947830	2513.015192
616.296169	2487.809423
616.644454	2477.727115
616.992686	2472.685962
617.340864	2477.727115
617.688990	2465.124231
618.037063	2538.220962
618.385082	2513.015192
618.733048	2581.070769
619.080961	2472.685962
619.428821	2462.603654
619.776628	2538.220962
620.124382	2525.618077
620.472083	2520.576923
620.819731	2510.494615
621.167326	2560.906154
621.514868	2523.097500
621.862357	2558.385577
622.209793	2525.618077
622.557176	2500.412308
622.904506	2505.453462
623.251783	2555.865000
623.599007	2422.274423
623.946179	2518.056346
624.293297	2495.371154
624.640363	2417.233269
624.987376	2548.303269
625.334336	2444.959615
625.681243	2523.097500
626.028097	2583.591346
626.374899	2502.932885
626.721647	2502.932885
627.068343	2518.056346
627.414987	2490.330000
627.761577	2470.165385
628.108115	2515.535769
628.454600	2500.412308
628.801032	2533.179808
629.147412	2475.206538
629.493739	2530.659231
629.840014	2583.591346
630.186236	2515.535769
630.532405	2455.041923
630.878521	2507.974038
631.224585	2535.700385
631.570597	2555.865000
631.916556	2528.138654
632.262462	2533.179808
632.608316	2487.809423
632.954117	2467.644808
633.299866	2472.685962
633.645562	2583.591346
633.991206	2480.247692
634.336797	2487.809423
634.682336	2543.262115
635.027823	2424.795000
635.373257	2545.782692
635.718639	2404.630385
636.063968	2437.397885
636.409245	2545.782692
636.754470	2497.891731
637.099642	2497.891731
637.444762	2407.150962
637.789829	2568.467885
638.134845	2482.768269
638.479808	2472.685962
638.824719	2487.809423
639.169577	2507.974038
639.514383	2538.220962
639.859137	2510.494615
640.203839	2535.700385
640.548489	2407.150962
640.893086	2497.891731
641.237632	2502.932885
641.582125	2540.741538
641.926566	2462.603654
642.270955	2497.891731
642.615292	2563.426731
642.959576	2455.041923
643.303809	2480.247692
643.647990	2626.441154
643.992118	2487.809423
644.336195	2555.865000
644.680219	2538.220962
645.024192	2515.535769
645.368112	2618.879423
645.711981	2502.932885
646.055797	2563.426731
646.399562	2548.303269
646.743274	2442.439038
647.086935	2513.015192
647.430544	2470.165385
647.774101	2475.206538
648.117606	2538.220962
648.461059	2490.330000
648.804460	2510.494615
649.147810	2510.494615
649.491108	2462.603654
649.834354	2452.521346
650.177548	2455.041923
650.520690	2530.659231
650.863781	2480.247692
651.206820	2540.741538
651.549807	2485.288846
651.892742	2472.685962
652.235626	2455.041923
652.578458	2525.618077
652.921238	2404.630385
653.263967	2472.685962
653.606644	2500.412308
653.949269	2538.220962
654.291843	2558.385577
654.634365	2427.315577
654.976836	2490.330000
655.319255	2520.576923
655.661622	2513.015192
656.003938	2457.562500
656.346203	2442.439038
656.688416	2570.988462
657.030577	2444.959615
657.372687	2515.535769
657.714746	2523.097500
658.056753	2465.124231
658.398708	2525.618077
658.740612	2482.768269
659.082465	2513.015192
659.424266	2485.288846
659.766016	2432.356731
660.107715	2467.644808
660.449362	2560.906154
660.790958	2530.659231
661.132503	2513.015192
661.473996	2505.453462
661.815438	2513.015192
662.156829	2581.070769
662.498168	2500.412308
662.839456	2470.165385
663.180693	2482.768269
663.521879	2560.906154
663.863013	2545.782692
664.204097	2545.782692
664.545129	2495.371154
664.886110	2510.494615
665.227040	2535.700385
665.567918	2528.138654
665.908746	2558.385577
666.249522	2588.632500
666.590248	2550.823846
666.930922	2518.056346
667.271545	2558.385577
667.612118	2472.685962
667.952639	2563.426731
668.293109	2545.782692
668.633528	2472.685962
668.973896	2523.097500
669.314213	2535.700385
669.654480	2404.630385
669.994695	2472.685962
670.334859	2505.453462
670.674973	2485.288846
671.015035	2497.891731
671.355047	2533.179808
671.695008	2540.741538
672.034918	2553.344423
672.374777	2563.426731
672.714585	2528.138654
673.054342	2525.618077
673.394049	2510.494615
673.733705	2535.700385
674.073310	2520.576923
674.412864	2538.220962
674.752368	2457.562500
675.091820	2555.865000
675.431223	2543.262115
675.770574	2495.371154
676.109875	2477.727115
676.449125	2538.220962
676.788324	2487.809423
677.127473	2530.659231
677.466571	2487.809423
677.805619	2457.562500
678.144616	2507.974038
678.483562	2452.521346
678.822458	2480.247692
679.161303	2482.768269
679.500098	2523.097500
679.838842	2568.467885
680.177535	2490.330000
680.516179	2470.165385
680.854771	2485.288846
681.193314	2565.947308
681.531805	2472.685962
681.870247	2520.576923
682.208638	2455.041923
682.546978	2422.274423
682.885268	2543.262115
683.223508	2414.712692
683.561697	2475.206538
683.899836	2543.262115
684.237925	2515.535769
684.575963	2510.494615
684.913951	2497.891731
685.251889	2407.150962
685.589776	2540.741538
685.927614	2502.932885
686.265401	2480.247692
686.603137	2472.685962
686.940824	2507.974038
687.278460	2470.165385
687.616046	2555.865000
687.953582	2545.782692
688.291068	2515.535769
688.628504	2523.097500
688.965889	2545.782692
689.303224	2523.097500
689.640510	2497.891731
689.977745	2507.974038
690.314930	2525.618077
690.652065	2467.644808
690.989150	2460.083077
691.326185	2457.562500
691.663170	2477.727115
692.000105	2502.932885
692.336990	2513.015192
692.673825	2505.453462
693.010610	2538.220962
693.347345	2492.850577
693.684030	2460.083077
694.020665	2525.618077
694.357251	2422.274423
694.693786	2528.138654
695.030272	2520.576923
695.366707	2455.041923
695.703093	2462.603654
696.039429	2429.836154
696.375716	2507.974038
696.711952	2480.247692
697.048139	2543.262115
697.384276	2444.959615
697.720363	2490.330000
698.056400	2497.891731
698.392388	2560.906154
698.728326	2434.877308
699.064214	2548.303269
699.400053	2505.453462
699.735842	2533.179808
700.071581	2555.865000
700.407270	2513.015192
700.742910	2467.644808
701.078501	2513.015192
701.414042	2485.288846
701.749533	2507.974038
702.084974	2460.083077
702.420366	2523.097500
702.755709	2540.741538
703.091002	2472.685962
703.426246	2487.809423
703.761440	2455.041923
704.096584	2525.618077
704.431679	2414.712692
704.766725	2485.288846
705.101721	2467.644808
705.436668	2543.262115
705.771565	2402.109808
706.106413	2513.015192
706.441212	2427.315577
706.775961	2442.439038
707.110661	2530.659231
707.445311	2576.029615
707.779913	2460.083077
708.114465	2533.179808
708.448967	2560.906154
708.783421	2540.741538
709.117825	2528.138654
709.452180	2586.111923
709.786485	2379.424615
710.120742	2530.659231
710.454949	2535.700385
710.789107	2543.262115
711.123216	2573.509038
711.457275	2540.741538
711.791286	2455.041923
712.125247	2507.974038
712.459159	2495.371154
712.793023	2530.659231
713.126837	2520.576923
713.460602	2392.027500
713.794318	2563.426731
714.127985	2487.809423
714.461602	2505.453462
714.795171	2414.712692
715.128691	2465.124231
715.462162	2485.288846
715.795584	2432.356731
716.128957	2538.220962
716.462281	2573.509038
716.795556	2593.673654
717.128782	2477.727115
717.461960	2439.918462
717.795088	2548.303269
718.128167	2465.124231
718.461198	2545.782692
718.794180	2442.439038
719.127113	2470.165385
719.459997	2412.192115
719.792833	2563.426731
720.125619	2553.344423
720.458357	2490.330000
720.791046	2550.823846
721.123686	2495.371154
721.456278	2530.659231
721.788821	2500.412308
722.121315	2530.659231
722.453761	2535.700385
722.786158	2467.644808
723.118506	2530.659231
723.450805	2505.453462
723.783056	2510.494615
724.115259	2507.974038
724.447412	2487.809423
724.779518	2475.206538
725.111574	2492.850577
725.443582	2455.041923
725.775542	2553.344423
726.107453	2492.850577
726.439315	2543.262115
726.771129	2530.659231
727.102895	2427.315577
727.434612	2505.453462
727.766281	2495.371154
728.097901	2475.206538
728.429473	2439.918462
728.760996	2487.809423
729.092471	2417.233269
729.423897	2523.097500
729.755276	2462.603654
730.086606	2510.494615
730.417887	2457.562500
730.749120	2538.220962
731.080305	2490.330000
731.411442	2550.823846
731.742530	2424.795000
732.073570	2513.015192
732.404562	2563.426731
732.735506	2495.371154
733.066401	2560.906154
733.397249	2618.879423
733.728048	2450.000769
734.058798	2545.782692
734.389501	2502.932885
734.720156	2560.906154
735.050762	2502.932885
735.381320	2515.535769
735.711831	2482.768269
736.042293	2515.535769
736.372707	2485.288846
736.703073	2424.795000
737.033391	2432.356731
737.363661	2540.741538
737.693883	2502.932885
738.024056	2492.850577
738.354182	2528.138654
738.684260	2490.330000
739.014290	2465.124231
739.344272	2434.877308
739.674207	2475.206538
740.004093	2497.891731
740.333931	2535.700385
740.663722	2452.521346
740.993464	2492.850577
741.323159	2462.603654
741.652806	2553.344423
741.982405	2447.480192
742.311956	2550.823846
742.641460	2470.165385
742.970915	2485.288846
743.300323	2490.330000
743.629683	2507.974038
743.958996	2520.576923
744.288260	2439.918462
744.617477	2553.344423
744.946647	2460.083077
745.275768	2477.727115
745.604842	2490.330000
745.933869	2495.371154
746.262847	2439.918462
746.591778	2475.206538
746.920662	2492.850577
747.249498	2485.288846
747.578286	2518.056346
747.907027	2591.153077
748.235720	2543.262115
748.564365	2500.412308
748.892963	2487.809423
749.221514	2482.768269
749.550017	2485.288846
749.878473	2404.630385
750.206881	2505.453462
750.535242	2507.974038
750.863555	2510.494615
751.191821	2492.850577
751.520039	2477.727115
751.848210	2462.603654
752.176334	2437.397885
752.504411	2429.836154
752.832440	2485.288846
753.160421	2533.179808
753.488356	2560.906154
753.816243	2472.685962
754.144082	2419.753846
754.471875	2502.932885
754.799620	2545.782692
755.127318	2495.371154
755.454969	2470.165385
755.782572	2540.741538
756.110129	2439.918462
756.437638	2497.891731
756.765100	2543.262115
757.092515	2505.453462
757.419882	2470.165385
757.747203	2565.947308
758.074477	2533.179808
758.401703	2500.412308
758.728882	2477.727115
759.056014	2535.700385
759.383099	2492.850577
759.710138	2510.494615
760.037129	2470.165385
760.364073	2523.097500
760.690970	2507.974038
761.017820	2399.589231
761.344623	2555.865000
761.671379	2424.795000
761.998088	2450.000769
762.324751	2644.085192
762.651366	2495.371154
762.977935	2482.768269
763.304456	2523.097500
763.630931	2470.165385
763.957359	2586.111923
764.283740	2563.426731
764.610074	2450.000769
764.936362	2500.412308
765.262602	2540.741538
765.588796	2477.727115
765.914943	2475.206538
766.241044	2470.165385
766.567097	2535.700385
766.893104	2520.576923
767.219064	2492.850577
767.544978	2568.467885
767.870845	2530.659231
768.196665	2477.727115
768.522438	2450.000769
768.848165	2565.947308
769.173846	2487.809423
769.499479	2520.576923
769.825066	2578.550192
770.150607	2535.700385
770.476101	2497.891731
770.801548	2482.768269
771.126949	2520.576923
771.452303	2578.550192
771.777611	2497.891731
772.102872	2533.179808
772.428087	2455.041923
772.753256	2530.659231
773.078378	2502.932885
773.403453	2538.220962
773.728482	2525.618077
774.053465	2482.768269
774.378401	2414.712692
774.703291	2455.041923
775.028135	2558.385577
775.352932	2513.015192
775.677683	2500.412308
776.002388	2452.521346
776.327046	2528.138654
776.651658	2548.303269
776.976224	2535.700385
777.300743	2495.371154
777.625216	2480.247692
777.949643	2482.768269
778.274024	2452.521346
778.598359	2457.562500
778.922647	2442.439038
779.246889	2525.618077
779.571086	2465.124231
779.895236	2450.000769
780.219339	2507.974038
780.543397	2505.453462
780.867409	2442.439038
781.191374	2447.480192
781.515294	2495.371154
781.839167	2437.397885
782.162995	2603.755962
782.486776	2460.083077
782.810511	2593.673654
783.134201	2472.685962
783.457844	2513.015192
783.781441	2520.576923
784.104993	2540.741538
784.428498	2505.453462
784.751958	2450.000769
785.075372	2490.330000
785.398739	2520.576923
785.722061	2399.589231
786.045337	2457.562500
786.368568	2490.330000
786.691752	2475.206538
787.014891	2485.288846
787.337983	2545.782692
787.661030	2497.891731
787.984031	2545.782692
788.306987	2528.138654
788.629897	2477.727115
788.952760	2553.344423
789.275579	2533.179808
789.598351	2533.179808
789.921078	2523.097500
790.243759	2507.974038
790.566395	2465.124231
790.888984	2525.618077
791.211529	2495.371154
791.534027	2510.494615
791.856480	2457.562500
792.178888	2427.315577
792.501249	2513.015192
792.823566	2497.891731
793.145836	2550.823846
793.468062	2568.467885
793.790241	2462.603654
794.112375	2505.453462
794.434464	2533.179808
794.756507	2576.029615
795.078505	2447.480192
795.400457	2535.700385
795.722364	2437.397885
796.044226	2480.247692
796.366042	2533.179808
796.687812	2472.685962
797.009538	2427.315577
797.331218	2442.439038
797.652852	2439.918462
797.974442	2510.494615
798.295986	2495.371154
798.617484	2513.015192
798.938938	2485.288846
799.260346	2545.782692
799.581709	2515.535769
799.903026	2487.809423
800.224299	2581.070769
800.545526	2563.426731
800.866708	2533.179808
801.187845	2523.097500
801.508936	2563.426731
801.829983	2450.000769
802.150984	2424.795000
802.471940	2550.823846
802.792851	2545.782692
803.113717	2450.000769
803.434538	2540.741538
803.755314	2492.850577
804.076045	2510.494615
804.396731	2497.891731
804.717372	2525.618077
805.037967	2500.412308
805.358518	2490.330000
805.679024	2455.041923
805.999485	2523.097500
806.319901	2528.138654
806.640272	2480.247692
806.960598	2414.712692
807.280879	2513.015192
807.601115	2570.988462
807.921306	2563.426731
808.241453	2525.618077
808.561554	2497.891731
808.881611	2434.877308
809.201623	2500.412308
809.521590	2495.371154
809.841513	2472.685962
810.161390	2513.015192
810.481223	2497.891731
810.801011	2439.918462
811.120755	2538.220962
811.440453	2450.000769
811.760107	2389.506923
812.079716	2457.562500
812.399281	2611.317692
812.718801	2497.891731
813.038276	2414.712692
813.357707	2429.836154
813.677093	2513.015192
813.996434	2570.988462
814.315731	2492.850577
814.634983	2538.220962
814.954191	2490.330000
815.273354	2611.317692
815.592473	2490.330000
815.911547	2460.083077
816.230577	2462.603654
816.549562	2394.548077
816.868502	2510.494615
817.187399	2555.865000
817.506250	2515.535769
817.825058	2495.371154
818.143821	2422.274423
818.462539	2419.753846
818.781213	2558.385577
819.099843	2528.138654
819.418429	2477.727115
819.736970	2439.918462
820.055466	2525.618077
820.373919	2386.986346
820.692327	2513.015192
821.010691	2533.179808
821.329011	2555.865000
821.647286	2502.932885
821.965517	2487.809423
822.283704	2465.124231
822.601847	2419.753846
822.919945	2487.809423
823.237999	2525.618077
823.556010	2482.768269
823.873976	2497.891731
824.191897	2520.576923
824.509775	2427.315577
824.827609	2492.850577
825.145398	2490.330000
825.463144	2482.768269
825.780845	2505.453462
826.098502	2492.850577
826.416116	2510.494615
826.733685	2460.083077
827.051210	2515.535769
827.368692	2558.385577
827.686129	2434.877308
828.003522	2530.659231
828.320872	2515.535769
828.638177	2528.138654
828.955439	2432.356731
829.272656	2487.809423
829.589830	2475.206538
829.906960	2568.467885
830.224046	2437.397885
830.541088	2485.288846
830.858086	2467.644808
831.175041	2492.850577
831.491952	2623.920577
831.808819	2462.603654
832.125642	2497.891731
832.442421	2502.932885
832.759157	2450.000769
833.075849	2455.041923
833.392497	2555.865000
833.709101	2533.179808
834.025662	2510.494615
834.342179	2480.247692
834.658653	2442.439038
834.975083	2472.685962
835.291469	2505.453462
835.607811	2525.618077
835.924110	2535.700385
836.240366	2485.288846
836.556578	2545.782692
836.872746	2563.426731
837.188871	2558.385577
837.504952	2528.138654
837.820990	2487.809423
838.136984	2513.015192
838.452935	2470.165385
838.768842	2523.097500
839.084706	2583.591346
839.400526	2477.727115
839.716303	2434.877308
840.032037	2495.371154
840.347727	2530.659231
840.663373	2455.041923
840.978977	2452.521346
841.294537	2533.179808
841.610054	2578.550192
841.925527	2455.041923
842.240957	2462.603654
842.556344	2621.400000
842.871687	2450.000769
843.186987	2467.644808
843.502244	2437.397885
843.817458	2530.659231
844.132629	2505.453462
844.447756	2545.782692
844.762840	2502.932885
845.077881	2422.274423
845.392879	2550.823846
845.707833	2543.262115
846.022745	2518.056346
846.337613	2470.165385
846.652438	2460.083077
846.967221	2540.741538
847.281960	2439.918462
847.596656	2518.056346
847.911309	2500.412308
848.225919	2465.124231
848.540485	2495.371154
848.855009	2570.988462
849.169490	2437.397885
849.483928	2540.741538
849.798323	2482.768269
850.112675	2513.015192
850.426984	2439.918462
850.741251	2568.467885
851.055474	2465.124231
851.369654	2485.288846
851.683792	2525.618077
851.997887	2490.330000
852.311938	2513.015192
852.625947	2427.315577
852.939914	2533.179808
853.253837	2598.714808
853.567718	2495.371154
853.881555	2429.836154
854.195350	2457.562500
854.509103	2470.165385
854.822812	2507.974038
855.136479	2502.932885
855.450103	2515.535769
855.763685	2578.550192
856.077224	2475.206538
856.390720	2492.850577
856.704173	2475.206538
857.017584	2513.015192
857.330953	2528.138654
857.644278	2492.850577
857.957561	2560.906154
858.270802	2553.344423
858.584000	2525.618077
858.897155	2543.262115
859.210268	2581.070769
859.523339	2414.712692
859.836367	2515.535769
860.149352	2472.685962
860.462295	2525.618077
860.775195	2455.041923
861.088054	2507.974038
861.400869	2553.344423
861.713642	2470.165385
862.026373	2523.097500
862.339062	2553.344423
862.651708	2427.315577
862.964312	2540.741538
863.276873	2470.165385
863.589392	2475.206538
863.901869	2470.165385
864.214303	2553.344423
864.526696	2429.836154
864.839045	2515.535769
865.151353	2513.015192
865.463619	2530.659231
865.775842	2424.795000
866.088023	2495.371154
866.400162	2578.550192
866.712258	2510.494615
867.024313	2505.453462
867.336325	2427.315577
867.648296	2548.303269
867.960224	2543.262115
868.272110	2510.494615
868.583954	2392.027500
868.895755	2482.768269
869.207515	2457.562500
869.519233	2480.247692
869.830909	2475.206538
870.142542	2565.947308
870.454134	2525.618077
870.765684	2538.220962
871.077191	2505.453462
871.388657	2422.274423
871.700081	2482.768269
872.011463	2538.220962
872.322803	2437.397885
872.634101	2568.467885
872.945357	2570.988462
873.256571	2379.424615
873.567744	2462.603654
873.878874	2407.150962
874.189963	2467.644808
874.501010	2540.741538
874.812015	2520.576923
875.122979	2490.330000
875.433900	2502.932885
875.744780	2538.220962
876.055618	2470.165385
876.366415	2495.371154
876.677169	2550.823846
876.987882	2465.124231
877.298554	2513.015192
877.609183	2455.041923
877.919771	2528.138654
878.230317	2480.247692
878.540822	2543.262115
878.851285	2455.041923
879.161707	2462.603654
879.472087	2412.192115
879.782425	2540.741538
880.092722	2500.412308
880.402977	2482.768269
880.713191	2550.823846
881.023363	2530.659231
881.333494	2434.877308
881.643583	2419.753846
881.953631	2540.741538
882.263637	2525.618077
882.573602	2520.576923
882.883526	2417.233269
883.193408	2570.988462
883.503248	2470.165385
883.813048	2482.768269
884.122806	2520.576923
884.432522	2442.439038
884.742197	2515.535769
885.051831	2434.877308
885.361424	2429.836154
885.670975	2465.124231
885.980485	2495.371154
886.289954	2477.727115
886.599382	2472.685962
886.908768	2515.535769
887.218113	2528.138654
887.527417	2528.138654
887.836680	2457.562500
888.145901	2480.247692
888.455082	2538.220962
888.764221	2477.727115
889.073319	2437.397885
889.382376	2538.220962
889.691392	2500.412308
890.000366	2533.179808
890.309300	2578.550192
890.618193	2553.344423
890.927044	2518.056346
891.235855	2515.535769
891.544625	2439.918462
891.853353	2422.274423
892.162041	2505.453462
892.470687	2548.303269
892.779293	2497.891731
893.087858	2470.165385
893.396381	2470.165385
893.704864	2538.220962
894.013306	2518.056346
894.321707	2412.192115
894.630068	2444.959615
894.938387	2480.247692
895.246665	2467.644808
895.554903	2417.233269
895.863100	2520.576923
896.171256	2427.315577
896.479371	2480.247692
896.787446	2472.685962
897.095480	2518.056346
897.403473	2465.124231
897.711425	2553.344423
898.019336	2505.453462
898.327207	2505.453462
898.635038	2502.932885
898.942827	2558.385577
899.250576	2500.412308
899.558284	2553.344423
899.865952	2502.932885
900.173579	2450.000769
900.481165	2447.480192
900.788711	2389.506923
901.096216	2434.877308
901.403681	2465.124231
901.711105	2470.165385
902.018489	2452.521346
902.325832	2495.371154
902.633135	2477.727115
902.940397	2437.397885
903.247619	2510.494615
903.554800	2535.700385
903.861941	2437.397885
904.169041	2482.768269
904.476101	2447.480192
904.783121	2565.947308
905.090100	2487.809423
905.397039	2507.974038
905.703938	2475.206538
906.010796	2523.097500
906.317614	2437.397885
906.624391	2472.685962
906.931129	2437.397885
907.237826	2502.932885
907.544483	2495.371154
907.851099	2583.591346
908.157675	2515.535769
908.464211	2548.303269
908.770707	2429.836154
909.077163	2386.986346
909.383578	2460.083077
909.689954	2432.356731
909.996289	2543.262115
910.302584	2465.124231
910.608839	2548.303269
910.915054	2535.700385
911.221229	2515.535769
911.527363	2495.371154
911.833458	2472.685962
912.139513	2487.809423
912.445527	2507.974038
912.751502	2452.521346
913.057436	2487.809423
913.363331	2500.412308
913.669186	2422.274423
913.975000	2442.439038
914.280775	2439.918462
914.586510	2502.932885
914.892205	2480.247692
915.197859	2495.371154
915.503475	2515.535769
915.809050	2364.301154
916.114585	2520.576923
916.420081	2444.959615
916.725536	2513.015192
917.030952	2573.509038
917.336328	2472.685962
917.641665	2510.494615
917.946961	2457.562500
918.252218	2465.124231
918.557435	2490.330000
918.862612	2475.206538
919.167750	2515.535769
919.472848	2477.727115
919.777906	2568.467885
920.082925	2399.589231
920.387904	2477.727115
920.692843	2452.521346
920.997743	2457.562500
921.302603	2538.220962
921.607423	2455.041923
921.912204	2492.850577
922.216946	2490.330000
922.521647	2502.932885
922.826310	2442.439038
923.130932	2518.056346
923.435516	2500.412308
923.740059	2495.371154
924.044564	2530.659231
924.349028	2565.947308
924.653454	2432.356731
924.957840	2480.247692
925.262186	2477.727115
925.566493	2485.288846
925.870761	2497.891731
926.174989	2500.412308
926.479178	2545.782692
926.783328	2573.509038
927.087438	2507.974038
927.391509	2442.439038
927.695541	2510.494615
927.999533	2467.644808
928.303486	2510.494615
928.607400	2442.439038
928.911275	2550.823846
929.215110	2510.494615
929.518906	2467.644808
929.822663	2500.412308
930.126381	2606.276538
930.430060	2460.083077
930.733699	2500.412308
931.037299	2553.344423
931.340861	2520.576923
931.644383	2447.480192
931.947866	2515.535769
932.251309	2470.165385
932.554714	2429.836154
932.858080	2510.494615
933.161407	2497.891731
933.464694	2422.274423
933.767943	2520.576923
934.071153	2550.823846
934.374323	2586.111923
934.677455	2497.891731
934.980548	2424.795000
935.283602	2515.535769
935.586617	2429.836154
935.889593	2507.974038
936.192530	2462.603654
936.495428	2518.056346
936.798287	2462.603654
937.101108	2490.330000
937.403890	2437.397885
937.706632	2490.330000
938.009336	2427.315577
938.312002	2550.823846
938.614628	2591.153077
938.917216	2477.727115
939.219765	2419.753846
939.522275	2563.426731
939.824747	2550.823846
940.127179	2414.712692
940.429573	2477.727115
940.731929	2470.165385
941.034246	2540.741538
941.336524	2490.330000
941.638763	2502.932885
941.940964	2376.904038
942.243126	2510.494615
942.545250	2424.795000
942.847335	2490.330000
943.149381	2550.823846
943.451389	2502.932885
943.753359	2475.206538
944.055290	2477.727115
944.357182	2414.712692
944.659036	2369.342308
944.960851	2540.741538
945.262628	2477.727115
945.564367	2548.303269
945.866067	2447.480192
946.167729	2515.535769
946.469352	2470.165385
946.770937	2492.850577
947.072484	2502.932885
947.373992	2518.056346
947.675462	2462.603654
947.976893	2560.906154
948.278286	2525.618077
948.579641	2490.330000
948.880958	2497.891731
949.182236	2560.906154
949.483476	2480.247692
949.784678	2497.891731
950.085841	2460.083077
950.386967	2513.015192
950.688054	2439.918462
950.989103	2480.247692
951.290114	2533.179808
951.591087	2560.906154
951.892021	2505.453462
952.192917	2510.494615
952.493776	2510.494615
952.794596	2475.206538
953.095378	2429.836154
953.396122	2462.603654
953.696828	2480.247692
953.997496	2530.659231
954.298126	2467.644808
954.598718	2465.124231
954.899272	2485.288846
955.199788	2455.041923
955.500266	2490.330000
955.800706	2492.850577
956.101108	2497.891731
956.401472	2386.986346
956.701798	2558.385577
957.002087	2505.453462
957.302337	2419.753846
957.602550	2538.220962
957.902724	2487.809423
958.202861	2467.644808
958.502960	2523.097500
958.803022	2505.453462
959.103045	2477.727115
959.403031	2528.138654
959.702979	2467.644808
960.002889	2505.453462
960.302762	2412.192115
960.602596	2507.974038
960.902393	2392.027500
961.202153	2422.274423
961.501875	2492.850577
961.801559	2545.782692
962.101205	2543.262115
962.400814	2510.494615
962.700385	2465.124231
962.999918	2369.342308
963.299414	2492.850577
963.598873	2475.206538
963.898293	2399.589231
964.197677	2578.550192
964.497022	2545.782692
964.796331	2419.753846
965.095601	2523.097500
965.394835	2495.371154
965.694030	2467.644808
965.993189	2623.920577
966.292309	2455.041923
966.591393	2586.111923
966.890439	2402.109808
967.189447	2487.809423
967.488419	2560.906154
967.787353	2528.138654
968.086249	2563.426731
968.385108	2389.506923
968.683930	2487.809423
968.982714	2444.959615
969.281462	2407.150962
969.580172	2576.029615
969.878844	2495.371154
970.177480	2568.467885
970.476078	2457.562500
970.774639	2523.097500
971.073162	2578.550192
971.371649	2528.138654
971.670098	2392.027500
971.968510	2507.974038
972.266885	2470.165385
972.565223	2558.385577
972.863524	2467.644808
973.161788	2515.535769
973.460014	2457.562500
973.758204	2495.371154
974.056356	2462.603654
974.354471	2462.603654
974.652550	2533.179808
974.950591	2518.056346
975.248595	2417.233269
975.546563	2500.412308
975.844493	2419.753846
976.142386	2434.877308
976.440243	2487.809423
976.738062	2477.727115
977.035845	2596.194231
977.333590	2460.083077
977.631299	2578.550192
977.928971	2477.727115
978.226606	2487.809423
978.524204	2457.562500
978.821765	2490.330000
979.119290	2422.274423
979.416777	2538.220962
979.714228	2472.685962
980.011642	2507.974038
980.309020	2495.371154
980.606360	2510.494615
980.903664	2553.344423
981.200931	2530.659231
981.498162	2563.426731
981.795356	2462.603654
982.092513	2495.371154
982.389633	2490.330000
982.686717	2495.371154
982.983764	2540.741538
983.280775	2490.330000
983.577749	2568.467885
983.874686	2480.247692
984.171587	2427.315577
984.468451	2565.947308
984.765279	2460.083077
985.062070	2487.809423
985.358824	2530.659231
985.655543	2482.768269
985.952224	2507.974038
986.248869	2414.712692
986.545478	2472.685962
986.842050	2465.124231
987.138586	2394.548077
987.435086	2422.274423
987.731549	2573.509038
988.027975	2475.206538
988.324366	2497.891731
988.620719	2442.439038
988.917037	2596.194231
989.213318	2439.918462
989.509563	2543.262115
989.805772	2528.138654
990.101944	2535.700385
990.398080	2447.480192
990.694180	2500.412308
990.990244	2475.206538
991.286271	2558.385577
991.582262	2467.644808
991.878217	2472.685962
992.174136	2525.618077
992.470019	2578.550192
992.765865	2492.850577
993.061676	2407.150962
993.357450	2475.206538
993.653188	2467.644808
993.948890	2568.467885
994.244556	2470.165385
994.540186	2528.138654
994.835780	2502.932885
995.131337	2437.397885
995.426859	2538.220962
995.722345	2520.576923
996.017795	2497.891731
996.313208	2404.630385
996.608586	2472.685962
996.903928	2452.521346
997.199234	2450.000769
997.494504	2518.056346
997.789738	2518.056346
998.084936	2399.589231
998.380099	2450.000769
998.675225	2485.288846
998.970316	2467.644808
999.265371	2467.644808
999.560390	2495.371154
999.855373	2555.865000
1000.150320	2462.603654
1000.445232	2487.809423
1000.740108	2502.932885
1001.034948	2487.809423
1001.329752	2472.685962
1001.624521	2500.412308
1001.919254	2477.727115
1002.213951	2515.535769
1002.508613	2528.138654
1002.803239	2535.700385
1003.097829	2495.371154
1003.392384	2452.521346
1003.686903	2513.015192
1003.981386	2442.439038
1004.275834	2533.179808
1004.570246	2507.974038
1004.864623	2450.000769
1005.158964	2495.371154
1005.453270	2540.741538
1005.747540	2480.247692
1006.041775	2548.303269
1006.335974	2525.618077
1006.630138	2553.344423
1006.924266	2465.124231
1007.218359	2520.576923
1007.512416	2482.768269
1007.806438	2513.015192
1008.100425	2515.535769
1008.394376	2477.727115
1008.688292	2560.906154
1008.982172	2439.918462
1009.276017	2505.453462
1009.569827	2477.727115
1009.863602	2371.862885
1010.157341	2520.576923
1010.451045	2500.412308
1010.744714	2417.233269
1011.038347	2513.015192
1011.331945	2495.371154
1011.625508	2460.083077
1011.919036	2510.494615
1012.212528	2467.644808
1012.505986	2444.959615
1012.799408	2563.426731
1013.092795	2444.959615
1013.386147	2485.288846
1013.679464	2482.768269
1013.972745	2457.562500
1014.265992	2520.576923
1014.559204	2442.439038
1014.852380	2412.192115
1015.145521	2444.959615
1015.438628	2432.356731
1015.731699	2596.194231
1016.024736	2581.070769
1016.317737	2495.371154
1016.610703	2472.685962
1016.903635	2490.330000
1017.196531	2533.179808
1017.489393	2384.465769
1017.782219	2402.109808
1018.075011	2500.412308
1018.367768	2434.877308
1018.660490	2565.947308
1018.953177	2565.947308
1019.245829	2565.947308
