Dividing Wavelength (nm)	Counts (n)	Blue Motor Position (mm): 0.000000	Red Motor Position (mm): 6.000000	
326.493990	2155.093269
326.888308	2155.093269
327.282561	2155.093269
327.676750	2200.463654
328.070874	2157.613846
328.464933	2134.928654
328.858929	2127.366923
329.252859	2225.669423
329.646726	2192.901923
330.040528	2263.478077
330.434265	2150.052115
330.827938	2213.066538
331.221547	2245.834038
331.615091	2235.751731
332.008571	2276.080962
332.401986	2354.218846
332.795338	2346.657115
333.188625	2356.739423
333.581847	2301.286731
333.975006	2326.492500
334.368100	2366.821731
334.761129	2311.369038
335.154095	2432.356731
335.546996	2439.918462
335.939833	2432.356731
336.332606	2462.603654
336.725315	2475.206538
337.117960	2475.206538
337.510540	2364.301154
337.903056	2530.659231
338.295508	2455.041923
338.687896	2593.673654
339.080220	2502.932885
339.472480	2558.385577
339.864676	2475.206538
340.256807	2593.673654
340.648875	2555.865000
341.040879	2475.206538
341.432818	2558.385577
341.824694	2618.879423
342.216506	2591.153077
342.608253	2618.879423
342.999937	2538.220962
343.391557	2578.550192
343.783113	2553.344423
344.174605	2510.494615
344.566033	2487.809423
344.957397	2608.797115
345.348697	2482.768269
345.739934	2611.317692
346.131106	2560.906154
346.522215	2654.167500
346.913260	2528.138654
347.304241	2540.741538
347.695159	2555.865000
348.086012	2485.288846
348.476802	2621.400000
348.867528	2639.044038
349.258191	2606.276538
349.648789	2578.550192
350.039324	2623.920577
350.429796	2636.523462
350.820203	2502.932885
351.210548	2548.303269
351.600828	2427.315577
351.991045	2651.646923
352.381198	2533.179808
352.771288	2601.235385
353.161314	2507.974038
353.551276	2603.755962
353.941175	2606.276538
354.331010	2530.659231
354.720782	2550.823846
355.110490	2528.138654
355.500135	2621.400000
355.889717	2538.220962
356.279235	2560.906154
356.668689	2555.865000
357.058080	2457.562500
357.447408	2596.194231
357.836672	2548.303269
358.225873	2540.741538
358.615010	2553.344423
359.004084	2497.891731
359.393095	2563.426731
359.782043	2563.426731
360.170927	2535.700385
360.559748	2576.029615
360.948505	2513.015192
361.337199	2601.235385
361.725830	2611.317692
362.114398	2639.044038
362.502903	2644.085192
362.891344	2460.083077
363.279722	2525.618077
363.668037	2535.700385
364.056289	2578.550192
364.444478	2520.576923
364.832603	2530.659231
365.220665	2573.509038
365.608665	2518.056346
365.996601	2523.097500
366.384474	2505.453462
366.772284	2611.317692
367.160031	2611.317692
367.547715	2538.220962
367.935336	2565.947308
368.322893	2528.138654
368.710388	2586.111923
369.097820	2570.988462
369.485189	2588.632500
369.872495	2502.932885
370.259738	2563.426731
370.646918	2492.850577
371.034035	2555.865000
371.421090	2507.974038
371.808081	2636.523462
372.195010	2570.988462
372.581875	2530.659231
372.968678	2543.262115
373.355418	2654.167500
373.742096	2553.344423
374.128710	2520.576923
374.515262	2576.029615
374.901751	2550.823846
375.288177	2621.400000
375.674540	2515.535769
376.060841	2565.947308
376.447079	2603.755962
376.833254	2641.564615
377.219367	2545.782692
377.605417	2603.755962
377.991404	2467.644808
378.377329	2530.659231
378.763191	2535.700385
379.148991	2533.179808
379.534727	2520.576923
379.920402	2613.838269
380.306013	2550.823846
380.691563	2523.097500
381.077049	2560.906154
381.462474	2550.823846
381.847835	2606.276538
382.233134	2636.523462
382.618371	2626.441154
383.003545	2570.988462
383.388657	2586.111923
383.773706	2538.220962
384.158693	2618.879423
384.543618	2543.262115
384.928480	2505.453462
385.313280	2543.262115
385.698017	2588.632500
386.082692	2598.714808
386.467305	2621.400000
386.851856	2583.591346
387.236344	2651.646923
387.620770	2583.591346
388.005133	2568.467885
388.389435	2611.317692
388.773674	2606.276538
389.157851	2596.194231
389.541965	2505.453462
389.926018	2598.714808
390.310008	2560.906154
390.693936	2563.426731
391.077802	2563.426731
391.461606	2623.920577
391.845348	2548.303269
392.229027	2616.358846
392.612645	2601.235385
392.996200	2560.906154
393.379694	2656.688077
393.763125	2603.755962
394.146494	2603.755962
394.529801	2485.288846
394.913047	2586.111923
395.296230	2583.591346
395.679351	2641.564615
396.062410	2525.618077
396.445408	2603.755962
396.828343	2538.220962
397.211217	2621.400000
397.594028	2616.358846
397.976778	2634.002885
398.359466	2495.371154
398.742092	2543.262115
399.124656	2601.235385
399.507158	2553.344423
399.889598	2596.194231
400.271977	2644.085192
400.654294	2581.070769
401.036549	2515.535769
401.418742	2601.235385
401.800874	2719.702500
402.182944	2465.124231
402.564952	2576.029615
402.946898	2568.467885
403.328783	2611.317692
403.710606	2507.974038
404.092367	2533.179808
404.474067	2608.797115
404.855705	2558.385577
405.237282	2480.247692
405.618797	2533.179808
406.000250	2480.247692
406.381642	2583.591346
406.762972	2603.755962
407.144240	2540.741538
407.525447	2636.523462
407.906593	2591.153077
408.287677	2560.906154
408.668700	2545.782692
409.049661	2656.688077
409.430560	2659.208654
409.811399	2626.441154
410.192176	2611.317692
410.572891	2588.632500
410.953545	2593.673654
411.334138	2598.714808
411.714669	2523.097500
412.095139	2596.194231
412.475547	2613.838269
412.855894	2651.646923
413.236180	2639.044038
413.616405	2676.852692
413.996568	2583.591346
414.376670	2540.741538
414.756711	2606.276538
415.136691	2608.797115
415.516609	2598.714808
415.896466	2621.400000
416.276262	2596.194231
416.655997	2699.537885
417.035670	2598.714808
417.415283	2553.344423
417.794834	2611.317692
418.174324	2709.620192
418.553753	2573.509038
418.933121	2608.797115
419.312428	2550.823846
419.691674	2621.400000
420.070859	2603.755962
420.449983	2661.729231
420.829045	2502.932885
421.208047	2707.099615
421.586988	2616.358846
421.965867	2550.823846
422.344686	2606.276538
422.723444	2591.153077
423.102141	2639.044038
423.480777	2613.838269
423.859352	2530.659231
424.237866	2583.591346
424.616319	2596.194231
424.994712	2639.044038
425.373044	2641.564615
425.751314	2591.153077
426.129524	2651.646923
426.507673	2578.550192
426.885762	2558.385577
427.263789	2691.976154
427.641756	2621.400000
428.019662	2555.865000
428.397508	2593.673654
428.775292	2588.632500
429.153016	2565.947308
429.530679	2611.317692
429.908282	2603.755962
430.285824	2656.688077
430.663305	2679.373269
431.040726	2674.332115
431.418086	2651.646923
431.795385	2601.235385
432.172624	2618.879423
432.549802	2523.097500
432.926920	2641.564615
433.303977	2581.070769
433.680974	2636.523462
434.057910	2603.755962
434.434786	2671.811538
434.811601	2611.317692
435.188355	2671.811538
435.565050	2618.879423
435.941683	2621.400000
436.318257	2646.605769
436.694770	2636.523462
437.071222	2591.153077
437.447614	2639.044038
437.823946	2545.782692
438.200218	2623.920577
438.576429	2669.290962
438.952580	2631.482308
439.328670	2659.208654
439.704700	2694.496731
440.080670	2732.305385
440.456580	2754.990577
440.832429	2697.017308
441.208218	2669.290962
441.583947	2631.482308
441.959616	2742.387692
442.335224	2767.593462
442.710773	2739.867115
443.086261	2855.813654
443.461689	2767.593462
443.837057	2833.128462
444.212365	2770.114038
444.587612	2795.319808
444.962800	2918.828077
445.337927	2881.019423
445.712995	2959.157308
446.088002	2991.924808
446.462949	3019.651154
446.837837	2991.924808
447.212664	3097.789038
447.587431	3148.200577
447.962139	3309.517500
448.336786	3425.464038
448.711374	3511.163654
449.085901	3468.313846
449.460369	3427.984615
449.834776	3443.108077
450.209124	3692.645192
450.583412	3775.824231
450.957640	3972.429231
451.331808	4007.717308
451.705917	3838.838654
452.079965	3851.441538
452.453954	3964.867500
452.827883	4113.581538
453.201752	4156.431346
453.575562	4312.707115
453.949311	4375.721538
454.323001	4421.091923
454.696632	4683.231923
455.070202	4824.384231
455.443713	4963.015962
455.817164	5373.870000
456.190556	5426.802115
456.563888	5497.378269
456.937160	5603.242500
457.310373	5560.392692
457.683526	5787.244615
458.056619	5898.150000
458.429653	5943.520385
458.802628	6001.493654
459.175542	6172.892885
459.548398	6724.899231
459.921194	6911.421923
460.293930	7397.893269
460.666607	7773.459231
461.039224	8378.397692
461.411782	8968.212692
461.784280	8834.622115
462.156719	9041.309423
462.529099	9154.735385
462.901419	8958.130385
463.273680	8844.704423
463.645882	8872.430769
464.018024	9016.103654
464.390106	9356.381538
464.762130	9918.470192
465.134094	10848.563077
465.505999	12582.720000
465.877845	14674.798846
466.249631	16776.960000
466.621358	16310.653269
466.993026	15551.959615
467.364634	15047.844231
467.736184	14843.677500
468.107674	14558.852308
468.479105	14884.006731
468.850477	14546.249423
469.221790	14904.171346
469.593043	14452.988077
469.964238	14271.506538
470.335373	14226.136154
470.706449	15186.475962
471.077467	15173.873077
471.448425	17293.678269
471.819324	20736.786346
472.190164	21313.998462
472.560945	18173.359615
472.931667	16978.606154
473.302330	17134.881923
473.672934	17026.497115
474.043479	17215.540385
474.413965	17137.402500
474.784393	16787.042308
475.154761	17974.234038
475.525070	17535.653654
475.895321	17828.040577
476.265513	18584.213654
476.635645	19277.372308
477.005719	19168.987500
477.375734	19494.141923
477.745691	19912.557692
478.115588	20472.125769
478.485427	21470.274231
478.855207	22765.850769
479.224928	24704.174423
479.594591	26874.391154
479.964194	26196.355962
480.333739	26624.854038
480.703226	26385.399231
481.072653	26455.975385
481.442022	27325.574423
481.811333	28023.774231
482.180584	27587.714423
482.549777	27106.284231
482.918912	26778.609231
483.287988	26904.638077
483.657005	26196.355962
484.025964	26471.098846
484.394864	26065.285962
484.763706	25493.115000
485.132489	25535.964808
485.501213	25770.378462
485.869879	25566.211731
486.238487	25286.427692
486.607036	25132.672500
486.975527	24799.956346
487.343959	25064.616923
487.712333	25082.260962
488.080648	24343.731923
488.448905	24875.573654
488.817104	24381.540577
489.185244	25392.291923
489.553326	24895.738269
489.921350	26337.508269
490.289315	28396.819615
490.657222	29087.457692
491.025070	29442.859038
491.392861	29147.951538
491.760593	28008.650769
492.128267	26619.812885
492.495883	26123.259231
492.863440	24782.312308
493.230939	24081.591923
493.598380	23668.217308
493.965763	23073.361154
494.333088	22110.500769
494.700354	22170.994615
495.067563	21331.642500
495.434713	21210.654808
495.801805	21462.712500
496.168839	20774.595000
496.535815	20502.372692
496.902733	20167.135962
497.269593	19980.613269
497.636395	19668.061731
498.003139	19385.757115
498.369825	19163.946346
498.736453	19100.931923
499.103023	18740.489423
499.469535	18453.143654
499.835989	18478.349423
500.202385	18185.962500
500.568723	17752.423269
500.935003	17520.530192
501.301226	17150.005385
501.667390	17374.336731
502.033497	17122.279038
502.399546	16809.727500
502.765537	16124.130577
503.131470	16015.745769
503.497345	16172.021538
503.863163	15425.930769
504.228923	15602.371154
504.594625	15148.667308
504.960269	14964.665192
505.325856	14775.621923
505.691385	14170.683462
506.056856	14087.504423
506.422270	14032.051731
506.787625	13626.238846
507.152924	13467.442500
507.518164	13129.685192
507.883347	12728.913462
508.248472	12590.281731
508.613540	12645.734423
508.978550	12328.141731
509.343503	12189.510000
509.708398	11849.232115
510.073236	11818.985192
510.438016	11529.118846
510.802738	11108.182500
511.167403	11161.114615
511.532010	10863.686538
511.896561	10752.781154
512.261053	10412.503269
512.625488	10357.050577
512.989866	10006.690385
513.354186	9555.507115
513.718449	9525.260192
514.082655	9505.095577
514.446803	9109.365000
514.810894	9061.474038
515.174927	8915.280577
515.538904	8703.552115
515.902822	8527.111731
516.266684	8194.395577
516.630488	8305.300962
516.994235	7718.006538
517.357925	7803.706154
517.721558	7801.185577
518.085133	7382.769808
518.448651	7402.934423
518.812112	7231.535192
519.175516	7072.738846
519.538863	7004.683269
519.902152	6810.598846
520.265385	6714.816923
520.628560	6603.911538
520.991678	6440.074038
521.354739	6248.510192
521.717743	6142.645962
522.080690	5903.191154
522.443580	5832.615000
522.806413	5774.641731
523.169189	5628.448269
523.531908	5464.610769
523.894569	5411.678654
524.257174	5184.826731
524.619722	5225.155962
524.982213	5227.676538
525.344647	4960.495385
525.707025	4897.480962
526.069345	4688.273077
526.431608	4683.231923
526.793815	4620.217500
527.155964	4637.861538
527.518057	4549.641346
527.880093	4416.050769
528.242072	4287.501346
528.603995	4163.993077
528.965860	4259.775000
529.327669	4053.087692
529.689421	3957.305769
530.051117	4007.717308
530.412755	3856.482692
530.774337	3793.468269
531.135862	3851.441538
531.497331	3853.962115
531.858743	3627.110192
532.220098	3717.850962
532.581396	3574.178077
532.942638	3564.095769
533.303824	3675.001154
533.664953	3561.575192
534.026025	3460.752115
534.387040	3440.587500
534.747999	3380.093654
535.108902	3274.229423
535.469748	3256.585385
535.830537	3170.885769
536.191270	3170.885769
536.551947	3211.215000
536.912567	3208.694423
537.273131	3130.556538
537.633638	3067.542115
537.994089	3173.406346
538.354483	3097.789038
538.714821	3105.350769
539.075103	3027.212885
539.435328	3034.774615
539.795497	3017.130577
540.155609	3044.856923
540.515665	2913.786923
540.875665	2918.828077
541.235609	2949.075000
541.595496	2923.869231
541.955328	2984.363077
542.315102	2903.704615
542.674821	2881.019423
543.034483	2896.142885
543.394090	2858.334231
543.753640	2833.128462
544.113134	2868.416538
544.472571	2765.072885
544.831953	2792.799231
545.191278	2810.443269
545.550548	2802.881538
545.909761	2825.566731
546.268918	2792.799231
546.628019	2777.675769
546.987064	2785.237500
547.346053	2828.087308
547.704986	2828.087308
548.063863	2828.087308
548.422684	2840.690192
548.781449	2722.223077
549.140158	2724.743654
549.498811	2719.702500
549.857408	2734.825962
550.215949	2714.661346
550.574434	2742.387692
550.932864	2747.428846
551.291237	2684.414423
551.649555	2712.140769
552.007817	2722.223077
552.366022	2752.470000
552.724173	2749.949423
553.082267	2717.181923
553.440305	2616.358846
553.798288	2666.770385
554.156215	2762.552308
554.514086	2724.743654
554.871902	2639.044038
555.229661	2684.414423
555.587365	2699.537885
555.945014	2772.634615
556.302606	2686.935000
556.660143	2684.414423
557.017625	2661.729231
557.375050	2689.455577
557.732421	2727.264231
558.089735	2739.867115
558.446994	2661.729231
558.804197	2661.729231
559.161345	2719.702500
559.518437	2719.702500
559.875474	2634.002885
560.232455	2717.181923
560.589381	2681.893846
560.946251	2704.579038
561.303065	2654.167500
561.659825	2676.852692
562.016528	2644.085192
562.373177	2661.729231
562.729770	2636.523462
563.086307	2666.770385
563.442789	2634.002885
563.799216	2691.976154
564.155587	2661.729231
564.511904	2623.920577
564.868164	2578.550192
565.224370	2676.852692
565.580520	2591.153077
565.936615	2641.564615
566.292654	2621.400000
566.648638	2654.167500
567.004567	2669.290962
567.360441	2570.988462
567.716260	2626.441154
568.072023	2596.194231
568.427732	2621.400000
568.783385	2639.044038
569.138982	2550.823846
569.494525	2724.743654
569.850013	2689.455577
570.205445	2747.428846
570.560823	2679.373269
570.916145	2722.223077
571.271412	2666.770385
571.626625	2593.673654
571.981782	2674.332115
572.336884	2649.126346
572.691931	2691.976154
573.046923	2603.755962
573.401860	2565.947308
573.756743	2691.976154
574.111570	2623.920577
574.466342	2676.852692
574.821059	2601.235385
575.175722	2659.208654
575.530330	2591.153077
575.884882	2626.441154
576.239380	2699.537885
576.593823	2656.688077
576.948211	2664.249808
577.302544	2636.523462
577.656823	2628.961731
578.011047	2613.838269
578.365216	2684.414423
578.719330	2681.893846
579.073389	2639.044038
579.427394	2593.673654
579.781344	2656.688077
580.135239	2626.441154
580.489080	2676.852692
580.842866	2618.879423
581.196597	2606.276538
581.550273	2548.303269
581.903895	2739.867115
582.257463	2669.290962
582.610975	2669.290962
582.964434	2623.920577
583.317837	2634.002885
583.671186	2623.920577
584.024481	2538.220962
584.377721	2674.332115
584.730906	2631.482308
585.084037	2505.453462
585.437113	2616.358846
585.790135	2608.797115
586.143103	2601.235385
586.496016	2651.646923
586.848874	2623.920577
587.201679	2628.961731
587.554428	2533.179808
587.907124	2686.935000
588.259765	2651.646923
588.612352	2616.358846
588.964884	2659.208654
589.317362	2586.111923
589.669786	2628.961731
590.022155	2636.523462
590.374470	2578.550192
590.726731	2634.002885
591.078937	2613.838269
591.431090	2613.838269
591.783188	2553.344423
592.135232	2639.044038
592.487222	2586.111923
592.839157	2606.276538
593.191038	2661.729231
593.542866	2651.646923
593.894639	2644.085192
594.246358	2654.167500
594.598022	2684.414423
594.949633	2621.400000
595.301190	2656.688077
595.652692	2621.400000
596.004141	2651.646923
596.355535	2671.811538
596.706876	2596.194231
597.058162	2634.002885
597.409395	2666.770385
597.760573	2686.935000
598.111698	2636.523462
598.462768	2623.920577
598.813785	2601.235385
599.164748	2664.249808
599.515657	2659.208654
599.866511	2533.179808
600.217312	2631.482308
600.568060	2681.893846
600.918753	2702.058462
601.269392	2613.838269
601.619978	2681.893846
601.970510	2616.358846
602.320988	2697.017308
602.671412	2646.605769
603.021783	2631.482308
603.372100	2676.852692
603.722363	2669.290962
604.072572	2634.002885
604.422728	2724.743654
604.772830	2666.770385
605.122878	2533.179808
605.472872	2669.290962
605.822813	2621.400000
606.172701	2691.976154
606.522534	2664.249808
606.872314	2631.482308
607.222041	2613.838269
607.571714	2586.111923
607.921333	2586.111923
608.270899	2641.564615
608.620411	2646.605769
608.969870	2676.852692
609.319276	2598.714808
609.668627	2623.920577
610.017926	2641.564615
610.367171	2603.755962
610.716362	2644.085192
611.065500	2679.373269
611.414585	2646.605769
611.763616	2697.017308
612.112594	2601.235385
612.461518	2616.358846
612.810389	2709.620192
613.159207	2674.332115
613.507971	2644.085192
613.856682	2565.947308
614.205340	2674.332115
614.553945	2659.208654
614.902496	2596.194231
615.250994	2661.729231
615.599439	2603.755962
615.947830	2656.688077
616.296169	2598.714808
616.644454	2618.879423
616.992686	2601.235385
617.340864	2500.412308
617.688990	2634.002885
618.037063	2714.661346
618.385082	2689.455577
618.733048	2631.482308
619.080961	2560.906154
619.428821	2671.811538
619.776628	2681.893846
620.124382	2568.467885
620.472083	2606.276538
620.819731	2646.605769
621.167326	2681.893846
621.514868	2636.523462
621.862357	2608.797115
622.209793	2634.002885
622.557176	2628.961731
622.904506	2656.688077
623.251783	2644.085192
623.599007	2689.455577
623.946179	2702.058462
624.293297	2593.673654
624.640363	2583.591346
624.987376	2560.906154
625.334336	2623.920577
625.681243	2616.358846
626.028097	2621.400000
626.374899	2576.029615
626.721647	2616.358846
627.068343	2712.140769
627.414987	2598.714808
627.761577	2611.317692
628.108115	2674.332115
628.454600	2573.509038
628.801032	2601.235385
629.147412	2618.879423
629.493739	2666.770385
629.840014	2606.276538
630.186236	2606.276538
630.532405	2626.441154
630.878521	2608.797115
631.224585	2689.455577
631.570597	2613.838269
631.916556	2578.550192
632.262462	2593.673654
632.608316	2588.632500
632.954117	2608.797115
633.299866	2621.400000
633.645562	2628.961731
633.991206	2611.317692
634.336797	2558.385577
634.682336	2618.879423
635.027823	2606.276538
635.373257	2553.344423
635.718639	2616.358846
636.063968	2644.085192
636.409245	2639.044038
636.754470	2593.673654
637.099642	2591.153077
637.444762	2634.002885
637.789829	2636.523462
638.134845	2528.138654
638.479808	2646.605769
638.824719	2697.017308
639.169577	2702.058462
639.514383	2679.373269
639.859137	2654.167500
640.203839	2694.496731
640.548489	2628.961731
640.893086	2616.358846
641.237632	2689.455577
641.582125	2631.482308
641.926566	2560.906154
642.270955	2628.961731
642.615292	2553.344423
642.959576	2603.755962
643.303809	2565.947308
643.647990	2581.070769
643.992118	2603.755962
644.336195	2601.235385
644.680219	2646.605769
645.024192	2523.097500
645.368112	2601.235385
645.711981	2651.646923
646.055797	2702.058462
646.399562	2689.455577
646.743274	2651.646923
647.086935	2656.688077
647.430544	2581.070769
647.774101	2555.865000
648.117606	2659.208654
648.461059	2621.400000
648.804460	2654.167500
649.147810	2581.070769
649.491108	2674.332115
649.834354	2568.467885
650.177548	2666.770385
650.520690	2616.358846
650.863781	2646.605769
651.206820	2616.358846
651.549807	2649.126346
651.892742	2634.002885
652.235626	2644.085192
652.578458	2608.797115
652.921238	2558.385577
653.263967	2644.085192
653.606644	2576.029615
653.949269	2661.729231
654.291843	2669.290962
654.634365	2644.085192
654.976836	2631.482308
655.319255	2664.249808
655.661622	2565.947308
656.003938	2669.290962
656.346203	2641.564615
656.688416	2591.153077
657.030577	2606.276538
657.372687	2714.661346
657.714746	2603.755962
658.056753	2641.564615
658.398708	2616.358846
658.740612	2628.961731
659.082465	2606.276538
659.424266	2631.482308
659.766016	2621.400000
660.107715	2659.208654
660.449362	2684.414423
660.790958	2669.290962
661.132503	2636.523462
661.473996	2601.235385
661.815438	2714.661346
662.156829	2591.153077
662.498168	2558.385577
662.839456	2553.344423
663.180693	2570.988462
663.521879	2550.823846
663.863013	2606.276538
664.204097	2613.838269
664.545129	2606.276538
664.886110	2616.358846
665.227040	2646.605769
665.567918	2664.249808
665.908746	2661.729231
666.249522	2664.249808
666.590248	2674.332115
666.930922	2603.755962
667.271545	2550.823846
667.612118	2676.852692
667.952639	2525.618077
668.293109	2651.646923
668.633528	2646.605769
668.973896	2565.947308
669.314213	2664.249808
669.654480	2563.426731
669.994695	2641.564615
670.334859	2679.373269
670.674973	2588.632500
671.015035	2591.153077
671.355047	2691.976154
671.695008	2616.358846
672.034918	2664.249808
672.374777	2618.879423
672.714585	2601.235385
673.054342	2681.893846
673.394049	2634.002885
673.733705	2591.153077
674.073310	2618.879423
674.412864	2686.935000
674.752368	2626.441154
675.091820	2611.317692
675.431223	2651.646923
675.770574	2548.303269
676.109875	2639.044038
676.449125	2689.455577
676.788324	2616.358846
677.127473	2611.317692
677.466571	2613.838269
677.805619	2543.262115
678.144616	2543.262115
678.483562	2649.126346
678.822458	2681.893846
679.161303	2616.358846
679.500098	2676.852692
679.838842	2631.482308
680.177535	2623.920577
680.516179	2626.441154
680.854771	2644.085192
681.193314	2659.208654
681.531805	2631.482308
681.870247	2621.400000
682.208638	2674.332115
682.546978	2661.729231
682.885268	2634.002885
683.223508	2555.865000
683.561697	2681.893846
683.899836	2661.729231
684.237925	2626.441154
684.575963	2601.235385
684.913951	2613.838269
685.251889	2621.400000
685.589776	2656.688077
685.927614	2684.414423
686.265401	2636.523462
686.603137	2631.482308
686.940824	2606.276538
687.278460	2588.632500
687.616046	2510.494615
687.953582	2639.044038
688.291068	2616.358846
688.628504	2634.002885
688.965889	2623.920577
689.303224	2636.523462
689.640510	2593.673654
689.977745	2618.879423
690.314930	2606.276538
690.652065	2641.564615
690.989150	2618.879423
691.326185	2576.029615
691.663170	2588.632500
692.000105	2649.126346
692.336990	2676.852692
692.673825	2644.085192
693.010610	2664.249808
693.347345	2679.373269
693.684030	2654.167500
694.020665	2583.591346
694.357251	2641.564615
694.693786	2626.441154
695.030272	2659.208654
695.366707	2676.852692
695.703093	2596.194231
696.039429	2666.770385
696.375716	2573.509038
696.711952	2639.044038
697.048139	2568.467885
697.384276	2613.838269
697.720363	2649.126346
698.056400	2666.770385
698.392388	2709.620192
698.728326	2628.961731
699.064214	2621.400000
699.400053	2598.714808
699.735842	2538.220962
700.071581	2654.167500
700.407270	2543.262115
700.742910	2626.441154
701.078501	2639.044038
701.414042	2528.138654
701.749533	2621.400000
702.084974	2732.305385
702.420366	2623.920577
702.755709	2634.002885
703.091002	2669.290962
703.426246	2586.111923
703.761440	2601.235385
704.096584	2686.935000
704.431679	2636.523462
704.766725	2628.961731
705.101721	2608.797115
705.436668	2626.441154
705.771565	2664.249808
706.106413	2739.867115
706.441212	2563.426731
706.775961	2618.879423
707.110661	2618.879423
707.445311	2606.276538
707.779913	2613.838269
708.114465	2626.441154
708.448967	2674.332115
708.783421	2603.755962
709.117825	2613.838269
709.452180	2550.823846
709.786485	2573.509038
710.120742	2586.111923
710.454949	2540.741538
710.789107	2601.235385
711.123216	2666.770385
711.457275	2626.441154
711.791286	2659.208654
712.125247	2641.564615
712.459159	2626.441154
712.793023	2598.714808
713.126837	2634.002885
713.460602	2669.290962
713.794318	2601.235385
714.127985	2644.085192
714.461602	2578.550192
714.795171	2611.317692
715.128691	2694.496731
715.462162	2606.276538
715.795584	2661.729231
716.128957	2649.126346
716.462281	2631.482308
716.795556	2676.852692
717.128782	2558.385577
717.461960	2631.482308
717.795088	2598.714808
718.128167	2545.782692
718.461198	2538.220962
718.794180	2623.920577
719.127113	2651.646923
719.459997	2654.167500
719.792833	2639.044038
720.125619	2628.961731
720.458357	2697.017308
720.791046	2626.441154
721.123686	2611.317692
721.456278	2649.126346
721.788821	2709.620192
722.121315	2628.961731
722.453761	2649.126346
722.786158	2606.276538
723.118506	2669.290962
723.450805	2573.509038
723.783056	2644.085192
724.115259	2664.249808
724.447412	2588.632500
724.779518	2598.714808
725.111574	2686.935000
725.443582	2606.276538
725.775542	2581.070769
726.107453	2583.591346
726.439315	2644.085192
726.771129	2674.332115
727.102895	2573.509038
727.434612	2621.400000
727.766281	2651.646923
728.097901	2596.194231
728.429473	2530.659231
728.760996	2606.276538
729.092471	2656.688077
729.423897	2570.988462
729.755276	2628.961731
730.086606	2606.276538
730.417887	2689.455577
730.749120	2613.838269
731.080305	2560.906154
731.411442	2583.591346
731.742530	2654.167500
732.073570	2644.085192
732.404562	2601.235385
732.735506	2656.688077
733.066401	2651.646923
733.397249	2631.482308
733.728048	2591.153077
734.058798	2636.523462
734.389501	2568.467885
734.720156	2666.770385
735.050762	2646.605769
735.381320	2702.058462
735.711831	2558.385577
736.042293	2674.332115
736.372707	2669.290962
736.703073	2659.208654
737.033391	2707.099615
737.363661	2538.220962
737.693883	2611.317692
738.024056	2664.249808
738.354182	2603.755962
738.684260	2634.002885
739.014290	2689.455577
739.344272	2586.111923
739.674207	2616.358846
740.004093	2651.646923
740.333931	2606.276538
740.663722	2639.044038
740.993464	2613.838269
741.323159	2684.414423
741.652806	2621.400000
741.982405	2613.838269
742.311956	2618.879423
742.641460	2621.400000
742.970915	2565.947308
743.300323	2591.153077
743.629683	2651.646923
743.958996	2588.632500
744.288260	2661.729231
744.617477	2598.714808
744.946647	2520.576923
745.275768	2530.659231
745.604842	2613.838269
745.933869	2656.688077
746.262847	2573.509038
746.591778	2631.482308
746.920662	2540.741538
747.249498	2621.400000
747.578286	2578.550192
747.907027	2596.194231
748.235720	2616.358846
748.564365	2641.564615
748.892963	2611.317692
749.221514	2598.714808
749.550017	2654.167500
749.878473	2659.208654
750.206881	2691.976154
750.535242	2621.400000
750.863555	2669.290962
751.191821	2596.194231
751.520039	2639.044038
751.848210	2671.811538
752.176334	2661.729231
752.504411	2518.056346
752.832440	2613.838269
753.160421	2613.838269
753.488356	2606.276538
753.816243	2626.441154
754.144082	2603.755962
754.471875	2636.523462
754.799620	2752.470000
755.127318	2563.426731
755.454969	2583.591346
755.782572	2601.235385
756.110129	2583.591346
756.437638	2586.111923
756.765100	2565.947308
757.092515	2631.482308
757.419882	2611.317692
757.747203	2646.605769
758.074477	2497.891731
758.401703	2593.673654
758.728882	2530.659231
759.056014	2581.070769
759.383099	2644.085192
759.710138	2598.714808
760.037129	2596.194231
760.364073	2606.276538
760.690970	2565.947308
761.017820	2550.823846
761.344623	2568.467885
761.671379	2558.385577
761.998088	2644.085192
762.324751	2598.714808
762.651366	2611.317692
762.977935	2608.797115
763.304456	2618.879423
763.630931	2520.576923
763.957359	2634.002885
764.283740	2576.029615
764.610074	2613.838269
764.936362	2649.126346
765.262602	2621.400000
765.588796	2646.605769
765.914943	2513.015192
766.241044	2661.729231
766.567097	2659.208654
766.893104	2570.988462
767.219064	2513.015192
767.544978	2641.564615
767.870845	2565.947308
768.196665	2634.002885
768.522438	2596.194231
768.848165	2565.947308
769.173846	2626.441154
769.499479	2518.056346
769.825066	2641.564615
770.150607	2603.755962
770.476101	2689.455577
770.801548	2538.220962
771.126949	2573.509038
771.452303	2656.688077
771.777611	2515.535769
772.102872	2634.002885
772.428087	2583.591346
772.753256	2621.400000
773.078378	2654.167500
773.403453	2659.208654
773.728482	2586.111923
774.053465	2586.111923
774.378401	2616.358846
774.703291	2611.317692
775.028135	2573.509038
775.352932	2689.455577
775.677683	2583.591346
776.002388	2578.550192
776.327046	2631.482308
776.651658	2586.111923
776.976224	2593.673654
777.300743	2641.564615
777.625216	2649.126346
777.949643	2661.729231
778.274024	2689.455577
778.598359	2737.346538
778.922647	2636.523462
779.246889	2628.961731
779.571086	2621.400000
779.895236	2563.426731
780.219339	2639.044038
780.543397	2553.344423
780.867409	2644.085192
781.191374	2591.153077
781.515294	2646.605769
781.839167	2573.509038
782.162995	2581.070769
782.486776	2576.029615
782.810511	2626.441154
783.134201	2634.002885
783.457844	2611.317692
783.781441	2570.988462
784.104993	2563.426731
784.428498	2548.303269
784.751958	2596.194231
785.075372	2626.441154
785.398739	2581.070769
785.722061	2576.029615
786.045337	2644.085192
786.368568	2598.714808
786.691752	2613.838269
787.014891	2621.400000
787.337983	2618.879423
787.661030	2666.770385
787.984031	2558.385577
788.306987	2560.906154
788.629897	2681.893846
788.952760	2568.467885
789.275579	2578.550192
789.598351	2588.632500
789.921078	2601.235385
790.243759	2646.605769
790.566395	2664.249808
790.888984	2613.838269
791.211529	2618.879423
791.534027	2581.070769
791.856480	2593.673654
792.178888	2601.235385
792.501249	2550.823846
792.823566	2669.290962
793.145836	2651.646923
793.468062	2651.646923
793.790241	2591.153077
794.112375	2626.441154
794.434464	2669.290962
794.756507	2560.906154
795.078505	2581.070769
795.400457	2641.564615
795.722364	2603.755962
796.044226	2659.208654
796.366042	2611.317692
796.687812	2581.070769
797.009538	2601.235385
797.331218	2535.700385
797.652852	2573.509038
797.974442	2535.700385
798.295986	2616.358846
798.617484	2606.276538
798.938938	2588.632500
799.260346	2591.153077
799.581709	2598.714808
799.903026	2603.755962
800.224299	2598.714808
800.545526	2649.126346
800.866708	2611.317692
801.187845	2573.509038
801.508936	2611.317692
801.829983	2528.138654
802.150984	2583.591346
802.471940	2681.893846
802.792851	2545.782692
803.113717	2530.659231
803.434538	2628.961731
803.755314	2626.441154
804.076045	2560.906154
804.396731	2634.002885
804.717372	2616.358846
805.037967	2563.426731
805.358518	2659.208654
805.679024	2530.659231
805.999485	2576.029615
806.319901	2573.509038
806.640272	2576.029615
806.960598	2613.838269
807.280879	2560.906154
807.601115	2618.879423
807.921306	2626.441154
808.241453	2603.755962
808.561554	2591.153077
808.881611	2611.317692
809.201623	2548.303269
809.521590	2628.961731
809.841513	2576.029615
810.161390	2636.523462
810.481223	2560.906154
810.801011	2588.632500
811.120755	2578.550192
811.440453	2623.920577
811.760107	2639.044038
812.079716	2616.358846
812.399281	2533.179808
812.718801	2603.755962
813.038276	2581.070769
813.357707	2573.509038
813.677093	2684.414423
813.996434	2702.058462
814.315731	2616.358846
814.634983	2656.688077
814.954191	2570.988462
815.273354	2656.688077
815.592473	2611.317692
815.911547	2623.920577
816.230577	2583.591346
816.549562	2601.235385
816.868502	2644.085192
817.187399	2646.605769
817.506250	2550.823846
817.825058	2626.441154
818.143821	2586.111923
818.462539	2576.029615
818.781213	2578.550192
819.099843	2515.535769
819.418429	2568.467885
819.736970	2674.332115
820.055466	2644.085192
820.373919	2568.467885
820.692327	2588.632500
821.010691	2538.220962
821.329011	2621.400000
821.647286	2702.058462
821.965517	2659.208654
822.283704	2719.702500
822.601847	2684.414423
822.919945	2686.935000
823.237999	2641.564615
823.556010	2598.714808
823.873976	2628.961731
824.191897	2631.482308
824.509775	2578.550192
824.827609	2671.811538
825.145398	2669.290962
825.463144	2593.673654
825.780845	2616.358846
826.098502	2588.632500
826.416116	2697.017308
826.733685	2694.496731
827.051210	2631.482308
827.368692	2588.632500
827.686129	2593.673654
828.003522	2644.085192
828.320872	2540.741538
828.638177	2702.058462
828.955439	2639.044038
829.272656	2550.823846
829.589830	2646.605769
829.906960	2646.605769
830.224046	2611.317692
830.541088	2654.167500
830.858086	2596.194231
831.175041	2639.044038
831.491952	2518.056346
831.808819	2621.400000
832.125642	2621.400000
832.442421	2523.097500
832.759157	2623.920577
833.075849	2649.126346
833.392497	2631.482308
833.709101	2641.564615
834.025662	2671.811538
834.342179	2626.441154
834.658653	2608.797115
834.975083	2545.782692
835.291469	2591.153077
835.607811	2535.700385
835.924110	2583.591346
836.240366	2608.797115
836.556578	2573.509038
836.872746	2656.688077
837.188871	2628.961731
837.504952	2560.906154
837.820990	2639.044038
838.136984	2560.906154
838.452935	2623.920577
838.768842	2573.509038
839.084706	2681.893846
839.400526	2654.167500
839.716303	2606.276538
840.032037	2621.400000
840.347727	2545.782692
840.663373	2616.358846
840.978977	2722.223077
841.294537	2563.426731
841.610054	2631.482308
841.925527	2623.920577
842.240957	2654.167500
842.556344	2656.688077
842.871687	2570.988462
843.186987	2611.317692
843.502244	2601.235385
843.817458	2601.235385
844.132629	2568.467885
844.447756	2505.453462
844.762840	2555.865000
845.077881	2570.988462
845.392879	2646.605769
845.707833	2593.673654
846.022745	2568.467885
846.337613	2548.303269
846.652438	2611.317692
846.967221	2639.044038
847.281960	2712.140769
847.596656	2649.126346
847.911309	2649.126346
848.225919	2560.906154
848.540485	2553.344423
848.855009	2646.605769
849.169490	2588.632500
849.483928	2623.920577
849.798323	2576.029615
850.112675	2565.947308
850.426984	2634.002885
850.741251	2558.385577
851.055474	2530.659231
851.369654	2674.332115
851.683792	2553.344423
851.997887	2560.906154
852.311938	2639.044038
852.625947	2550.823846
852.939914	2661.729231
853.253837	2545.782692
853.567718	2656.688077
853.881555	2588.632500
854.195350	2611.317692
854.509103	2601.235385
854.822812	2558.385577
855.136479	2639.044038
855.450103	2613.838269
855.763685	2656.688077
856.077224	2641.564615
856.390720	2568.467885
856.704173	2578.550192
857.017584	2565.947308
857.330953	2608.797115
857.644278	2596.194231
857.957561	2674.332115
858.270802	2548.303269
858.584000	2644.085192
858.897155	2628.961731
859.210268	2533.179808
859.523339	2646.605769
859.836367	2608.797115
860.149352	2616.358846
860.462295	2583.591346
860.775195	2611.317692
861.088054	2613.838269
861.400869	2593.673654
861.713642	2639.044038
862.026373	2560.906154
862.339062	2636.523462
862.651708	2565.947308
862.964312	2631.482308
863.276873	2664.249808
863.589392	2586.111923
863.901869	2553.344423
864.214303	2689.455577
864.526696	2596.194231
864.839045	2631.482308
865.151353	2497.891731
865.463619	2540.741538
865.775842	2623.920577
866.088023	2613.838269
866.400162	2570.988462
866.712258	2497.891731
867.024313	2661.729231
867.336325	2621.400000
867.648296	2570.988462
867.960224	2611.317692
868.272110	2618.879423
868.583954	2621.400000
868.895755	2596.194231
869.207515	2591.153077
869.519233	2616.358846
869.830909	2649.126346
870.142542	2621.400000
870.454134	2588.632500
870.765684	2565.947308
871.077191	2583.591346
871.388657	2608.797115
871.700081	2565.947308
872.011463	2507.974038
872.322803	2634.002885
872.634101	2565.947308
872.945357	2573.509038
873.256571	2598.714808
873.567744	2563.426731
873.878874	2616.358846
874.189963	2598.714808
874.501010	2591.153077
874.812015	2507.974038
875.122979	2591.153077
875.433900	2568.467885
875.744780	2523.097500
876.055618	2581.070769
876.366415	2623.920577
876.677169	2676.852692
876.987882	2598.714808
877.298554	2646.605769
877.609183	2525.618077
877.919771	2596.194231
878.230317	2538.220962
878.540822	2639.044038
878.851285	2583.591346
879.161707	2593.673654
879.472087	2618.879423
879.782425	2684.414423
880.092722	2623.920577
880.402977	2611.317692
880.713191	2661.729231
881.023363	2659.208654
881.333494	2616.358846
881.643583	2646.605769
881.953631	2550.823846
882.263637	2611.317692
882.573602	2674.332115
882.883526	2628.961731
883.193408	2613.838269
883.503248	2621.400000
883.813048	2671.811538
884.122806	2681.893846
884.432522	2608.797115
884.742197	2686.935000
885.051831	2636.523462
885.361424	2646.605769
885.670975	2601.235385
885.980485	2634.002885
886.289954	2558.385577
886.599382	2588.632500
886.908768	2628.961731
887.218113	2530.659231
887.527417	2616.358846
887.836680	2583.591346
888.145901	2634.002885
888.455082	2563.426731
888.764221	2611.317692
889.073319	2533.179808
889.382376	2560.906154
889.691392	2621.400000
890.000366	2586.111923
890.309300	2576.029615
890.618193	2651.646923
890.927044	2676.852692
891.235855	2581.070769
891.544625	2644.085192
891.853353	2583.591346
892.162041	2606.276538
892.470687	2613.838269
892.779293	2631.482308
893.087858	2565.947308
893.396381	2671.811538
893.704864	2623.920577
894.013306	2581.070769
894.321707	2626.441154
894.630068	2634.002885
894.938387	2616.358846
895.246665	2621.400000
895.554903	2586.111923
895.863100	2618.879423
896.171256	2626.441154
896.479371	2548.303269
896.787446	2510.494615
897.095480	2603.755962
897.403473	2568.467885
897.711425	2598.714808
898.019336	2543.262115
898.327207	2636.523462
898.635038	2621.400000
898.942827	2634.002885
899.250576	2598.714808
899.558284	2626.441154
899.865952	2699.537885
900.173579	2666.770385
900.481165	2545.782692
900.788711	2623.920577
901.096216	2613.838269
901.403681	2608.797115
901.711105	2644.085192
902.018489	2553.344423
902.325832	2550.823846
902.633135	2636.523462
902.940397	2613.838269
903.247619	2616.358846
903.554800	2631.482308
903.861941	2671.811538
904.169041	2618.879423
904.476101	2611.317692
904.783121	2608.797115
905.090100	2525.618077
905.397039	2631.482308
905.703938	2628.961731
906.010796	2525.618077
906.317614	2634.002885
906.624391	2543.262115
906.931129	2545.782692
907.237826	2558.385577
907.544483	2583.591346
907.851099	2530.659231
908.157675	2646.605769
908.464211	2588.632500
908.770707	2608.797115
909.077163	2591.153077
909.383578	2601.235385
909.689954	2558.385577
909.996289	2593.673654
910.302584	2654.167500
910.608839	2636.523462
910.915054	2576.029615
911.221229	2568.467885
911.527363	2631.482308
911.833458	2535.700385
912.139513	2558.385577
912.445527	2608.797115
912.751502	2598.714808
913.057436	2565.947308
913.363331	2543.262115
913.669186	2659.208654
913.975000	2593.673654
914.280775	2528.138654
914.586510	2563.426731
914.892205	2586.111923
915.197859	2523.097500
915.503475	2621.400000
915.809050	2634.002885
916.114585	2581.070769
916.420081	2608.797115
916.725536	2626.441154
917.030952	2596.194231
917.336328	2596.194231
917.641665	2570.988462
917.946961	2644.085192
918.252218	2583.591346
918.557435	2588.632500
918.862612	2628.961731
919.167750	2570.988462
919.472848	2576.029615
919.777906	2626.441154
920.082925	2563.426731
920.387904	2618.879423
920.692843	2621.400000
920.997743	2613.838269
921.302603	2543.262115
921.607423	2581.070769
921.912204	2593.673654
922.216946	2586.111923
922.521647	2570.988462
922.826310	2606.276538
923.130932	2621.400000
923.435516	2591.153077
923.740059	2623.920577
924.044564	2586.111923
924.349028	2644.085192
924.653454	2651.646923
924.957840	2591.153077
925.262186	2581.070769
925.566493	2492.850577
925.870761	2545.782692
926.174989	2616.358846
926.479178	2515.535769
926.783328	2626.441154
927.087438	2686.935000
927.391509	2593.673654
927.695541	2588.632500
927.999533	2573.509038
928.303486	2558.385577
928.607400	2548.303269
928.911275	2530.659231
929.215110	2548.303269
929.518906	2560.906154
929.822663	2583.591346
930.126381	2639.044038
930.430060	2540.741538
930.733699	2603.755962
931.037299	2576.029615
931.340861	2646.605769
931.644383	2634.002885
931.947866	2656.688077
932.251309	2576.029615
932.554714	2553.344423
932.858080	2563.426731
933.161407	2591.153077
933.464694	2548.303269
933.767943	2568.467885
934.071153	2591.153077
934.374323	2555.865000
934.677455	2631.482308
934.980548	2613.838269
935.283602	2639.044038
935.586617	2565.947308
935.889593	2538.220962
936.192530	2560.906154
936.495428	2586.111923
936.798287	2639.044038
937.101108	2558.385577
937.403890	2568.467885
937.706632	2646.605769
938.009336	2543.262115
938.312002	2699.537885
938.614628	2628.961731
938.917216	2659.208654
939.219765	2588.632500
939.522275	2530.659231
939.824747	2573.509038
940.127179	2613.838269
940.429573	2623.920577
940.731929	2598.714808
941.034246	2606.276538
941.336524	2611.317692
941.638763	2555.865000
941.940964	2586.111923
942.243126	2603.755962
942.545250	2613.838269
942.847335	2581.070769
943.149381	2558.385577
943.451389	2649.126346
943.753359	2601.235385
944.055290	2545.782692
944.357182	2555.865000
944.659036	2613.838269
944.960851	2518.056346
945.262628	2565.947308
945.564367	2613.838269
945.866067	2497.891731
946.167729	2540.741538
946.469352	2684.414423
946.770937	2583.591346
947.072484	2616.358846
947.373992	2573.509038
947.675462	2621.400000
947.976893	2485.288846
948.278286	2545.782692
948.579641	2578.550192
948.880958	2535.700385
949.182236	2651.646923
949.483476	2583.591346
949.784678	2573.509038
950.085841	2553.344423
950.386967	2608.797115
950.688054	2616.358846
950.989103	2676.852692
951.290114	2626.441154
951.591087	2576.029615
951.892021	2538.220962
952.192917	2588.632500
952.493776	2588.632500
952.794596	2583.591346
953.095378	2608.797115
953.396122	2623.920577
953.696828	2603.755962
953.997496	2598.714808
954.298126	2586.111923
954.598718	2679.373269
954.899272	2581.070769
955.199788	2490.330000
955.500266	2548.303269
955.800706	2593.673654
956.101108	2593.673654
956.401472	2611.317692
956.701798	2616.358846
957.002087	2583.591346
957.302337	2510.494615
957.602550	2591.153077
957.902724	2626.441154
958.202861	2548.303269
958.502960	2656.688077
958.803022	2616.358846
959.103045	2666.770385
959.403031	2634.002885
959.702979	2649.126346
960.002889	2634.002885
960.302762	2649.126346
960.602596	2598.714808
960.902393	2540.741538
961.202153	2613.838269
961.501875	2611.317692
961.801559	2533.179808
962.101205	2639.044038
962.400814	2636.523462
962.700385	2586.111923
962.999918	2530.659231
963.299414	2601.235385
963.598873	2588.632500
963.898293	2598.714808
964.197677	2613.838269
964.497022	2601.235385
964.796331	2530.659231
965.095601	2593.673654
965.394835	2558.385577
965.694030	2626.441154
965.993189	2581.070769
966.292309	2606.276538
966.591393	2540.741538
966.890439	2644.085192
967.189447	2528.138654
967.488419	2666.770385
967.787353	2654.167500
968.086249	2581.070769
968.385108	2596.194231
968.683930	2623.920577
968.982714	2553.344423
969.281462	2621.400000
969.580172	2671.811538
969.878844	2613.838269
970.177480	2586.111923
970.476078	2621.400000
970.774639	2616.358846
971.073162	2671.811538
971.371649	2591.153077
971.670098	2598.714808
971.968510	2631.482308
972.266885	2553.344423
972.565223	2626.441154
972.863524	2555.865000
973.161788	2664.249808
973.460014	2545.782692
973.758204	2636.523462
974.056356	2543.262115
974.354471	2659.208654
974.652550	2631.482308
974.950591	2497.891731
975.248595	2558.385577
975.546563	2525.618077
975.844493	2644.085192
976.142386	2606.276538
976.440243	2518.056346
976.738062	2603.755962
977.035845	2628.961731
977.333590	2651.646923
977.631299	2583.591346
977.928971	2598.714808
978.226606	2525.618077
978.524204	2618.879423
978.821765	2586.111923
979.119290	2545.782692
979.416777	2634.002885
979.714228	2518.056346
980.011642	2618.879423
980.309020	2598.714808
980.606360	2608.797115
980.903664	2555.865000
981.200931	2634.002885
981.498162	2573.509038
981.795356	2618.879423
982.092513	2563.426731
982.389633	2583.591346
982.686717	2565.947308
982.983764	2606.276538
983.280775	2618.879423
983.577749	2616.358846
983.874686	2661.729231
984.171587	2608.797115
984.468451	2548.303269
984.765279	2613.838269
985.062070	2472.685962
985.358824	2586.111923
985.655543	2598.714808
985.952224	2613.838269
986.248869	2555.865000
986.545478	2576.029615
986.842050	2553.344423
987.138586	2608.797115
987.435086	2586.111923
987.731549	2623.920577
988.027975	2513.015192
988.324366	2596.194231
988.620719	2487.809423
988.917037	2649.126346
989.213318	2555.865000
989.509563	2661.729231
989.805772	2543.262115
990.101944	2568.467885
990.398080	2563.426731
990.694180	2608.797115
990.990244	2525.618077
991.286271	2626.441154
991.582262	2613.838269
991.878217	2555.865000
992.174136	2644.085192
992.470019	2618.879423
992.765865	2659.208654
993.061676	2616.358846
993.357450	2568.467885
993.653188	2626.441154
993.948890	2618.879423
994.244556	2649.126346
994.540186	2613.838269
994.835780	2608.797115
995.131337	2573.509038
995.426859	2583.591346
995.722345	2618.879423
996.017795	2601.235385
996.313208	2523.097500
996.608586	2646.605769
996.903928	2555.865000
997.199234	2563.426731
997.494504	2686.935000
997.789738	2591.153077
998.084936	2553.344423
998.380099	2558.385577
998.675225	2570.988462
998.970316	2573.509038
999.265371	2626.441154
999.560390	2581.070769
999.855373	2639.044038
1000.150320	2555.865000
1000.445232	2565.947308
1000.740108	2588.632500
1001.034948	2500.412308
1001.329752	2548.303269
1001.624521	2583.591346
1001.919254	2578.550192
1002.213951	2639.044038
1002.508613	2515.535769
1002.803239	2659.208654
1003.097829	2626.441154
1003.392384	2583.591346
1003.686903	2528.138654
1003.981386	2568.467885
1004.275834	2623.920577
1004.570246	2538.220962
1004.864623	2576.029615
1005.158964	2548.303269
1005.453270	2538.220962
1005.747540	2606.276538
1006.041775	2477.727115
1006.335974	2644.085192
1006.630138	2528.138654
1006.924266	2543.262115
1007.218359	2608.797115
1007.512416	2644.085192
1007.806438	2576.029615
1008.100425	2613.838269
1008.394376	2560.906154
1008.688292	2649.126346
1008.982172	2510.494615
1009.276017	2558.385577
1009.569827	2555.865000
1009.863602	2631.482308
1010.157341	2628.961731
1010.451045	2525.618077
1010.744714	2558.385577
1011.038347	2689.455577
1011.331945	2565.947308
1011.625508	2593.673654
1011.919036	2628.961731
1012.212528	2659.208654
1012.505986	2608.797115
1012.799408	2613.838269
1013.092795	2505.453462
1013.386147	2583.591346
1013.679464	2543.262115
1013.972745	2533.179808
1014.265992	2530.659231
1014.559204	2664.249808
1014.852380	2616.358846
1015.145521	2656.688077
1015.438628	2535.700385
1015.731699	2601.235385
1016.024736	2636.523462
1016.317737	2618.879423
1016.610703	2568.467885
1016.903635	2659.208654
1017.196531	2591.153077
1017.489393	2548.303269
1017.782219	2568.467885
1018.075011	2593.673654
1018.367768	2618.879423
1018.660490	2565.947308
1018.953177	2565.947308
1019.245829	2565.947308
