Dividing Wavelength (nm)	Counts (n)	Blue Motor Position (mm): 0.000000	Red Motor Position (mm): 9.000000	
326.493990	2150.052115
326.888308	2150.052115
327.282561	2150.052115
327.676750	2039.146731
328.070874	2051.749615
328.464933	2107.202308
328.858929	2031.585000
329.252859	2107.202308
329.646726	2107.202308
330.040528	2099.640577
330.434265	2122.325769
330.827938	2150.052115
331.221547	2167.696154
331.615091	2202.984231
332.008571	2177.778462
332.401986	2240.792885
332.795338	2177.778462
333.188625	2233.231154
333.581847	2235.751731
333.975006	2273.560385
334.368100	2243.313462
334.761129	2323.971923
335.154095	2336.574808
335.546996	2392.027500
335.939833	2336.574808
336.332606	2326.492500
336.725315	2422.274423
337.117960	2356.739423
337.510540	2409.671538
337.903056	2462.603654
338.295508	2407.150962
338.687896	2359.260000
339.080220	2492.850577
339.472480	2444.959615
339.864676	2414.712692
340.256807	2528.138654
340.648875	2495.371154
341.040879	2465.124231
341.432818	2492.850577
341.824694	2492.850577
342.216506	2422.274423
342.608253	2492.850577
342.999937	2528.138654
343.391557	2515.535769
343.783113	2495.371154
344.174605	2450.000769
344.566033	2465.124231
344.957397	2467.644808
345.348697	2507.974038
345.739934	2467.644808
346.131106	2550.823846
346.522215	2457.562500
346.913260	2487.809423
347.304241	2467.644808
347.695159	2518.056346
348.086012	2525.618077
348.476802	2492.850577
348.867528	2402.109808
349.258191	2427.315577
349.648789	2487.809423
350.039324	2442.439038
350.429796	2450.000769
350.820203	2419.753846
351.210548	2417.233269
351.600828	2392.027500
351.991045	2409.671538
352.381198	2490.330000
352.771288	2439.918462
353.161314	2376.904038
353.551276	2505.453462
353.941175	2439.918462
354.331010	2505.453462
354.720782	2399.589231
355.110490	2397.068654
355.500135	2507.974038
355.889717	2439.918462
356.279235	2356.739423
356.668689	2495.371154
357.058080	2482.768269
357.447408	2442.439038
357.836672	2434.877308
358.225873	2462.603654
358.615010	2467.644808
359.004084	2480.247692
359.393095	2419.753846
359.782043	2593.673654
360.170927	2505.453462
360.559748	2477.727115
360.948505	2560.906154
361.337199	2455.041923
361.725830	2510.494615
362.114398	2513.015192
362.502903	2346.657115
362.891344	2495.371154
363.279722	2513.015192
363.668037	2480.247692
364.056289	2444.959615
364.444478	2427.315577
364.832603	2437.397885
365.220665	2455.041923
365.608665	2374.383462
365.996601	2422.274423
366.384474	2507.974038
366.772284	2477.727115
367.160031	2533.179808
367.547715	2452.521346
367.935336	2414.712692
368.322893	2432.356731
368.710388	2533.179808
369.097820	2399.589231
369.485189	2404.630385
369.872495	2518.056346
370.259738	2450.000769
370.646918	2475.206538
371.034035	2424.795000
371.421090	2482.768269
371.808081	2487.809423
372.195010	2450.000769
372.581875	2437.397885
372.968678	2472.685962
373.355418	2500.412308
373.742096	2417.233269
374.128710	2434.877308
374.515262	2462.603654
374.901751	2414.712692
375.288177	2404.630385
375.674540	2397.068654
376.060841	2432.356731
376.447079	2424.795000
376.833254	2477.727115
377.219367	2437.397885
377.605417	2502.932885
377.991404	2439.918462
378.377329	2462.603654
378.763191	2467.644808
379.148991	2467.644808
379.534727	2424.795000
379.920402	2495.371154
380.306013	2444.959615
380.691563	2533.179808
381.077049	2442.439038
381.462474	2381.945192
381.847835	2507.974038
382.233134	2417.233269
382.618371	2419.753846
383.003545	2475.206538
383.388657	2495.371154
383.773706	2457.562500
384.158693	2432.356731
384.543618	2540.741538
384.928480	2427.315577
385.313280	2457.562500
385.698017	2563.426731
386.082692	2460.083077
386.467305	2460.083077
386.851856	2502.932885
387.236344	2452.521346
387.620770	2450.000769
388.005133	2520.576923
388.389435	2475.206538
388.773674	2444.959615
389.157851	2460.083077
389.541965	2460.083077
389.926018	2450.000769
390.310008	2412.192115
390.693936	2472.685962
391.077802	2444.959615
391.461606	2515.535769
391.845348	2475.206538
392.229027	2389.506923
392.612645	2429.836154
392.996200	2513.015192
393.379694	2507.974038
393.763125	2513.015192
394.146494	2455.041923
394.529801	2450.000769
394.913047	2379.424615
395.296230	2467.644808
395.679351	2455.041923
396.062410	2447.480192
396.445408	2465.124231
396.828343	2389.506923
397.211217	2523.097500
397.594028	2437.397885
397.976778	2452.521346
398.359466	2492.850577
398.742092	2495.371154
399.124656	2475.206538
399.507158	2452.521346
399.889598	2419.753846
400.271977	2490.330000
400.654294	2392.027500
401.036549	2492.850577
401.418742	2470.165385
401.800874	2591.153077
402.182944	2515.535769
402.564952	2409.671538
402.946898	2570.988462
403.328783	2495.371154
403.710606	2424.795000
404.092367	2492.850577
404.474067	2379.424615
404.855705	2545.782692
405.237282	2492.850577
405.618797	2513.015192
406.000250	2444.959615
406.381642	2495.371154
406.762972	2518.056346
407.144240	2434.877308
407.525447	2450.000769
407.906593	2487.809423
408.287677	2492.850577
408.668700	2492.850577
409.049661	2407.150962
409.430560	2475.206538
409.811399	2457.562500
410.192176	2444.959615
410.572891	2510.494615
410.953545	2507.974038
411.334138	2457.562500
411.714669	2447.480192
412.095139	2492.850577
412.475547	2455.041923
412.855894	2513.015192
413.236180	2497.891731
413.616405	2487.809423
413.996568	2434.877308
414.376670	2507.974038
414.756711	2460.083077
415.136691	2392.027500
415.516609	2497.891731
415.896466	2432.356731
416.276262	2487.809423
416.655997	2470.165385
417.035670	2465.124231
417.415283	2477.727115
417.794834	2429.836154
418.174324	2492.850577
418.553753	2424.795000
418.933121	2543.262115
419.312428	2457.562500
419.691674	2505.453462
420.070859	2429.836154
420.449983	2452.521346
420.829045	2455.041923
421.208047	2452.521346
421.586988	2482.768269
421.965867	2434.877308
422.344686	2520.576923
422.723444	2437.397885
423.102141	2560.906154
423.480777	2460.083077
423.859352	2518.056346
424.237866	2444.959615
424.616319	2452.521346
424.994712	2389.506923
425.373044	2540.741538
425.751314	2477.727115
426.129524	2538.220962
426.507673	2450.000769
426.885762	2455.041923
427.263789	2465.124231
427.641756	2452.521346
428.019662	2477.727115
428.397508	2535.700385
428.775292	2502.932885
429.153016	2507.974038
429.530679	2444.959615
429.908282	2548.303269
430.285824	2507.974038
430.663305	2444.959615
431.040726	2543.262115
431.418086	2513.015192
431.795385	2518.056346
432.172624	2467.644808
432.549802	2482.768269
432.926920	2444.959615
433.303977	2530.659231
433.680974	2482.768269
434.057910	2472.685962
434.434786	2490.330000
434.811601	2477.727115
435.188355	2555.865000
435.565050	2525.618077
435.941683	2444.959615
436.318257	2485.288846
436.694770	2487.809423
437.071222	2427.315577
437.447614	2487.809423
437.823946	2538.220962
438.200218	2432.356731
438.576429	2528.138654
438.952580	2497.891731
439.328670	2472.685962
439.704700	2492.850577
440.080670	2485.288846
440.456580	2432.356731
440.832429	2497.891731
441.208218	2414.712692
441.583947	2520.576923
441.959616	2457.562500
442.335224	2490.330000
442.710773	2346.657115
443.086261	2492.850577
443.461689	2520.576923
443.837057	2381.945192
444.212365	2485.288846
444.587612	2528.138654
444.962800	2465.124231
445.337927	2505.453462
445.712995	2505.453462
446.088002	2427.315577
446.462949	2492.850577
446.837837	2447.480192
447.212664	2507.974038
447.587431	2487.809423
447.962139	2442.439038
448.336786	2455.041923
448.711374	2487.809423
449.085901	2422.274423
449.460369	2507.974038
449.834776	2465.124231
450.209124	2457.562500
450.583412	2482.768269
450.957640	2490.330000
451.331808	2502.932885
451.705917	2528.138654
452.079965	2523.097500
452.453954	2470.165385
452.827883	2540.741538
453.201752	2470.165385
453.575562	2578.550192
453.949311	2505.453462
454.323001	2465.124231
454.696632	2460.083077
455.070202	2555.865000
455.443713	2437.397885
455.817164	2523.097500
456.190556	2482.768269
456.563888	2535.700385
456.937160	2487.809423
457.310373	2346.657115
457.683526	2525.618077
458.056619	2414.712692
458.429653	2402.109808
458.802628	2472.685962
459.175542	2533.179808
459.548398	2422.274423
459.921194	2533.179808
460.293930	2495.371154
460.666607	2545.782692
461.039224	2510.494615
461.411782	2444.959615
461.784280	2500.412308
462.156719	2442.439038
462.529099	2462.603654
462.901419	2470.165385
463.273680	2538.220962
463.645882	2465.124231
464.018024	2545.782692
464.390106	2490.330000
464.762130	2505.453462
465.134094	2533.179808
465.505999	2462.603654
465.877845	2477.727115
466.249631	2455.041923
466.621358	2533.179808
466.993026	2460.083077
467.364634	2419.753846
467.736184	2477.727115
468.107674	2497.891731
468.479105	2480.247692
468.850477	2409.671538
469.221790	2465.124231
469.593043	2518.056346
469.964238	2482.768269
470.335373	2485.288846
470.706449	2429.836154
471.077467	2437.397885
471.448425	2533.179808
471.819324	2530.659231
472.190164	2452.521346
472.560945	2560.906154
472.931667	2457.562500
473.302330	2470.165385
473.672934	2465.124231
474.043479	2475.206538
474.413965	2500.412308
474.784393	2568.467885
475.154761	2419.753846
475.525070	2533.179808
475.895321	2422.274423
476.265513	2470.165385
476.635645	2528.138654
477.005719	2490.330000
477.375734	2414.712692
477.745691	2490.330000
478.115588	2525.618077
478.485427	2487.809423
478.855207	2510.494615
479.224928	2533.179808
479.594591	2429.836154
479.964194	2548.303269
480.333739	2502.932885
480.703226	2455.041923
481.072653	2510.494615
481.442022	2465.124231
481.811333	2543.262115
482.180584	2565.947308
482.549777	2457.562500
482.918912	2434.877308
483.287988	2492.850577
483.657005	2565.947308
484.025964	2462.603654
484.394864	2507.974038
484.763706	2472.685962
485.132489	2444.959615
485.501213	2502.932885
485.869879	2510.494615
486.238487	2523.097500
486.607036	2545.782692
486.975527	2397.068654
487.343959	2520.576923
487.712333	2510.494615
488.080648	2520.576923
488.448905	2608.797115
488.817104	2422.274423
489.185244	2601.235385
489.553326	2460.083077
489.921350	2490.330000
490.289315	2462.603654
490.657222	2505.453462
491.025070	2399.589231
491.392861	2540.741538
491.760593	2495.371154
492.128267	2480.247692
492.495883	2513.015192
492.863440	2490.330000
493.230939	2520.576923
493.598380	2533.179808
493.965763	2465.124231
494.333088	2520.576923
494.700354	2450.000769
495.067563	2480.247692
495.434713	2404.630385
495.801805	2412.192115
496.168839	2450.000769
496.535815	2510.494615
496.902733	2495.371154
497.269593	2477.727115
497.636395	2530.659231
498.003139	2455.041923
498.369825	2555.865000
498.736453	2543.262115
499.103023	2477.727115
499.469535	2535.700385
499.835989	2477.727115
500.202385	2437.397885
500.568723	2434.877308
500.935003	2502.932885
501.301226	2558.385577
501.667390	2518.056346
502.033497	2492.850577
502.399546	2507.974038
502.765537	2485.288846
503.131470	2482.768269
503.497345	2472.685962
503.863163	2485.288846
504.228923	2487.809423
504.594625	2523.097500
504.960269	2480.247692
505.325856	2520.576923
505.691385	2497.891731
506.056856	2487.809423
506.422270	2505.453462
506.787625	2545.782692
507.152924	2525.618077
507.518164	2528.138654
507.883347	2462.603654
508.248472	2618.879423
508.613540	2507.974038
508.978550	2563.426731
509.343503	2467.644808
509.708398	2545.782692
510.073236	2568.467885
510.438016	2467.644808
510.802738	2414.712692
511.167403	2467.644808
511.532010	2563.426731
511.896561	2507.974038
512.261053	2432.356731
512.625488	2447.480192
512.989866	2432.356731
513.354186	2460.083077
513.718449	2482.768269
514.082655	2520.576923
514.446803	2492.850577
514.810894	2465.124231
515.174927	2505.453462
515.538904	2576.029615
515.902822	2601.235385
516.266684	2525.618077
516.630488	2457.562500
516.994235	2487.809423
517.357925	2487.809423
517.721558	2444.959615
518.085133	2502.932885
518.448651	2497.891731
518.812112	2457.562500
519.175516	2568.467885
519.538863	2492.850577
519.902152	2485.288846
520.265385	2482.768269
520.628560	2462.603654
520.991678	2452.521346
521.354739	2535.700385
521.717743	2573.509038
522.080690	2535.700385
522.443580	2455.041923
522.806413	2570.988462
523.169189	2482.768269
523.531908	2530.659231
523.894569	2523.097500
524.257174	2518.056346
524.619722	2495.371154
524.982213	2470.165385
525.344647	2515.535769
525.707025	2485.288846
526.069345	2553.344423
526.431608	2447.480192
526.793815	2505.453462
527.155964	2603.755962
527.518057	2392.027500
527.880093	2444.959615
528.242072	2482.768269
528.603995	2487.809423
528.965860	2470.165385
529.327669	2540.741538
529.689421	2497.891731
530.051117	2470.165385
530.412755	2538.220962
530.774337	2485.288846
531.135862	2490.330000
531.497331	2492.850577
531.858743	2495.371154
532.220098	2442.439038
532.581396	2402.109808
532.942638	2576.029615
533.303824	2455.041923
533.664953	2507.974038
534.026025	2535.700385
534.387040	2404.630385
534.747999	2487.809423
535.108902	2528.138654
535.469748	2492.850577
535.830537	2487.809423
536.191270	2507.974038
536.551947	2402.109808
536.912567	2523.097500
537.273131	2465.124231
537.633638	2467.644808
537.994089	2417.233269
538.354483	2470.165385
538.714821	2485.288846
539.075103	2497.891731
539.435328	2543.262115
539.795497	2548.303269
540.155609	2535.700385
540.515665	2427.315577
540.875665	2487.809423
541.235609	2540.741538
541.595496	2452.521346
541.955328	2518.056346
542.315102	2528.138654
542.674821	2497.891731
543.034483	2525.618077
543.394090	2500.412308
543.753640	2507.974038
544.113134	2558.385577
544.472571	2467.644808
544.831953	2432.356731
545.191278	2414.712692
545.550548	2502.932885
545.909761	2543.262115
546.268918	2472.685962
546.628019	2596.194231
546.987064	2477.727115
547.346053	2545.782692
547.704986	2515.535769
548.063863	2555.865000
548.422684	2482.768269
548.781449	2518.056346
549.140158	2472.685962
549.498811	2482.768269
549.857408	2447.480192
550.215949	2510.494615
550.574434	2482.768269
550.932864	2505.453462
551.291237	2460.083077
551.649555	2568.467885
552.007817	2515.535769
552.366022	2429.836154
552.724173	2523.097500
553.082267	2525.618077
553.440305	2502.932885
553.798288	2397.068654
554.156215	2480.247692
554.514086	2480.247692
554.871902	2482.768269
555.229661	2500.412308
555.587365	2518.056346
555.945014	2434.877308
556.302606	2530.659231
556.660143	2414.712692
557.017625	2570.988462
557.375050	2487.809423
557.732421	2507.974038
558.089735	2576.029615
558.446994	2417.233269
558.804197	2465.124231
559.161345	2457.562500
559.518437	2543.262115
559.875474	2487.809423
560.232455	2528.138654
560.589381	2472.685962
560.946251	2447.480192
561.303065	2515.535769
561.659825	2472.685962
562.016528	2523.097500
562.373177	2565.947308
562.729770	2502.932885
563.086307	2518.056346
563.442789	2560.906154
563.799216	2500.412308
564.155587	2507.974038
564.511904	2455.041923
564.868164	2513.015192
565.224370	2460.083077
565.580520	2555.865000
565.936615	2452.521346
566.292654	2477.727115
566.648638	2485.288846
567.004567	2475.206538
567.360441	2523.097500
567.716260	2535.700385
568.072023	2558.385577
568.427732	2497.891731
568.783385	2477.727115
569.138982	2404.630385
569.494525	2558.385577
569.850013	2533.179808
570.205445	2477.727115
570.560823	2548.303269
570.916145	2492.850577
571.271412	2513.015192
571.626625	2424.795000
571.981782	2507.974038
572.336884	2513.015192
572.691931	2565.947308
573.046923	2450.000769
573.401860	2518.056346
573.756743	2477.727115
574.111570	2570.988462
574.466342	2467.644808
574.821059	2429.836154
575.175722	2533.179808
575.530330	2528.138654
575.884882	2444.959615
576.239380	2513.015192
576.593823	2525.618077
576.948211	2515.535769
577.302544	2538.220962
577.656823	2513.015192
578.011047	2586.111923
578.365216	2437.397885
578.719330	2618.879423
579.073389	2412.192115
579.427394	2576.029615
579.781344	2462.603654
580.135239	2497.891731
580.489080	2457.562500
580.842866	2550.823846
581.196597	2452.521346
581.550273	2586.111923
581.903895	2538.220962
582.257463	2558.385577
582.610975	2439.918462
582.964434	2495.371154
583.317837	2528.138654
583.671186	2482.768269
584.024481	2497.891731
584.377721	2545.782692
584.730906	2568.467885
585.084037	2523.097500
585.437113	2460.083077
585.790135	2507.974038
586.143103	2568.467885
586.496016	2482.768269
586.848874	2460.083077
587.201679	2525.618077
587.554428	2553.344423
587.907124	2533.179808
588.259765	2475.206538
588.612352	2525.618077
588.964884	2492.850577
589.317362	2606.276538
589.669786	2520.576923
590.022155	2523.097500
590.374470	2543.262115
590.726731	2565.947308
591.078937	2548.303269
591.431090	2444.959615
591.783188	2455.041923
592.135232	2495.371154
592.487222	2543.262115
592.839157	2513.015192
593.191038	2573.509038
593.542866	2467.644808
593.894639	2442.439038
594.246358	2424.795000
594.598022	2520.576923
594.949633	2485.288846
595.301190	2437.397885
595.652692	2475.206538
596.004141	2518.056346
596.355535	2470.165385
596.706876	2507.974038
597.058162	2558.385577
597.409395	2492.850577
597.760573	2497.891731
598.111698	2490.330000
598.462768	2513.015192
598.813785	2563.426731
599.164748	2530.659231
599.515657	2497.891731
599.866511	2535.700385
600.217312	2429.836154
600.568060	2550.823846
600.918753	2470.165385
601.269392	2402.109808
601.619978	2568.467885
601.970510	2460.083077
602.320988	2500.412308
602.671412	2450.000769
603.021783	2525.618077
603.372100	2452.521346
603.722363	2525.618077
604.072572	2460.083077
604.422728	2545.782692
604.772830	2487.809423
605.122878	2485.288846
605.472872	2487.809423
605.822813	2530.659231
606.172701	2568.467885
606.522534	2513.015192
606.872314	2558.385577
607.222041	2523.097500
607.571714	2399.589231
607.921333	2417.233269
608.270899	2520.576923
608.620411	2462.603654
608.969870	2485.288846
609.319276	2480.247692
609.668627	2528.138654
610.017926	2485.288846
610.367171	2500.412308
610.716362	2513.015192
611.065500	2535.700385
611.414585	2523.097500
611.763616	2492.850577
612.112594	2560.906154
612.461518	2475.206538
612.810389	2533.179808
613.159207	2485.288846
613.507971	2550.823846
613.856682	2455.041923
614.205340	2573.509038
614.553945	2530.659231
614.902496	2462.603654
615.250994	2455.041923
615.599439	2457.562500
615.947830	2515.535769
616.296169	2576.029615
616.644454	2495.371154
616.992686	2477.727115
617.340864	2492.850577
617.688990	2497.891731
618.037063	2518.056346
618.385082	2492.850577
618.733048	2477.727115
619.080961	2555.865000
619.428821	2497.891731
619.776628	2513.015192
620.124382	2490.330000
620.472083	2487.809423
620.819731	2543.262115
621.167326	2472.685962
621.514868	2470.165385
621.862357	2500.412308
622.209793	2417.233269
622.557176	2460.083077
622.904506	2379.424615
623.251783	2510.494615
623.599007	2470.165385
623.946179	2538.220962
624.293297	2424.795000
624.640363	2535.700385
624.987376	2460.083077
625.334336	2434.877308
625.681243	2457.562500
626.028097	2518.056346
626.374899	2497.891731
626.721647	2434.877308
627.068343	2452.521346
627.414987	2523.097500
627.761577	2492.850577
628.108115	2437.397885
628.454600	2487.809423
628.801032	2475.206538
629.147412	2480.247692
629.493739	2455.041923
629.840014	2492.850577
630.186236	2558.385577
630.532405	2487.809423
630.878521	2500.412308
631.224585	2437.397885
631.570597	2581.070769
631.916556	2472.685962
632.262462	2492.850577
632.608316	2540.741538
632.954117	2407.150962
633.299866	2555.865000
633.645562	2470.165385
633.991206	2555.865000
634.336797	2414.712692
634.682336	2432.356731
635.027823	2553.344423
635.373257	2510.494615
635.718639	2513.015192
636.063968	2523.097500
636.409245	2490.330000
636.754470	2520.576923
637.099642	2475.206538
637.444762	2540.741538
637.789829	2500.412308
638.134845	2424.795000
638.479808	2525.618077
638.824719	2608.797115
639.169577	2540.741538
639.514383	2434.877308
639.859137	2553.344423
640.203839	2437.397885
640.548489	2462.603654
640.893086	2500.412308
641.237632	2518.056346
641.582125	2495.371154
641.926566	2437.397885
642.270955	2394.548077
642.615292	2480.247692
642.959576	2523.097500
643.303809	2558.385577
643.647990	2407.150962
643.992118	2487.809423
644.336195	2535.700385
644.680219	2480.247692
645.024192	2457.562500
645.368112	2497.891731
645.711981	2558.385577
646.055797	2492.850577
646.399562	2500.412308
646.743274	2553.344423
647.086935	2548.303269
647.430544	2462.603654
647.774101	2480.247692
648.117606	2520.576923
648.461059	2475.206538
648.804460	2487.809423
649.147810	2510.494615
649.491108	2480.247692
649.834354	2434.877308
650.177548	2402.109808
650.520690	2492.850577
650.863781	2535.700385
651.206820	2581.070769
651.549807	2563.426731
651.892742	2505.453462
652.235626	2550.823846
652.578458	2497.891731
652.921238	2475.206538
653.263967	2591.153077
653.606644	2472.685962
653.949269	2520.576923
654.291843	2523.097500
654.634365	2523.097500
654.976836	2455.041923
655.319255	2475.206538
655.661622	2500.412308
656.003938	2429.836154
656.346203	2510.494615
656.688416	2477.727115
657.030577	2472.685962
657.372687	2465.124231
657.714746	2485.288846
658.056753	2515.535769
658.398708	2497.891731
658.740612	2495.371154
659.082465	2497.891731
659.424266	2528.138654
659.766016	2477.727115
660.107715	2452.521346
660.449362	2558.385577
660.790958	2447.480192
661.132503	2502.932885
661.473996	2482.768269
661.815438	2465.124231
662.156829	2497.891731
662.498168	2442.439038
662.839456	2500.412308
663.180693	2485.288846
663.521879	2523.097500
663.863013	2513.015192
664.204097	2510.494615
664.545129	2465.124231
664.886110	2482.768269
665.227040	2495.371154
665.567918	2540.741538
665.908746	2475.206538
666.249522	2528.138654
666.590248	2465.124231
666.930922	2518.056346
667.271545	2485.288846
667.612118	2502.932885
667.952639	2477.727115
668.293109	2457.562500
668.633528	2507.974038
668.973896	2513.015192
669.314213	2535.700385
669.654480	2533.179808
669.994695	2366.821731
670.334859	2553.344423
670.674973	2485.288846
671.015035	2518.056346
671.355047	2455.041923
671.695008	2392.027500
672.034918	2510.494615
672.374777	2477.727115
672.714585	2563.426731
673.054342	2452.521346
673.394049	2530.659231
673.733705	2475.206538
674.073310	2462.603654
674.412864	2545.782692
674.752368	2455.041923
675.091820	2490.330000
675.431223	2477.727115
675.770574	2565.947308
676.109875	2573.509038
676.449125	2523.097500
676.788324	2485.288846
677.127473	2543.262115
677.466571	2593.673654
677.805619	2439.918462
678.144616	2490.330000
678.483562	2538.220962
678.822458	2540.741538
679.161303	2520.576923
679.500098	2500.412308
679.838842	2455.041923
680.177535	2558.385577
680.516179	2434.877308
680.854771	2510.494615
681.193314	2480.247692
681.531805	2518.056346
681.870247	2543.262115
682.208638	2558.385577
682.546978	2565.947308
682.885268	2465.124231
683.223508	2487.809423
683.561697	2475.206538
683.899836	2523.097500
684.237925	2467.644808
684.575963	2518.056346
684.913951	2487.809423
685.251889	2482.768269
685.589776	2444.959615
685.927614	2492.850577
686.265401	2558.385577
686.603137	2467.644808
686.940824	2550.823846
687.278460	2462.603654
687.616046	2550.823846
687.953582	2482.768269
688.291068	2472.685962
688.628504	2490.330000
688.965889	2505.453462
689.303224	2555.865000
689.640510	2490.330000
689.977745	2485.288846
690.314930	2530.659231
690.652065	2528.138654
690.989150	2548.303269
691.326185	2490.330000
691.663170	2538.220962
692.000105	2565.947308
692.336990	2462.603654
692.673825	2422.274423
693.010610	2525.618077
693.347345	2422.274423
693.684030	2593.673654
694.020665	2535.700385
694.357251	2505.453462
694.693786	2482.768269
695.030272	2439.918462
695.366707	2525.618077
695.703093	2477.727115
696.039429	2487.809423
696.375716	2530.659231
696.711952	2520.576923
697.048139	2618.879423
697.384276	2538.220962
697.720363	2422.274423
698.056400	2409.671538
698.392388	2465.124231
698.728326	2507.974038
699.064214	2518.056346
699.400053	2505.453462
699.735842	2535.700385
700.071581	2442.439038
700.407270	2528.138654
700.742910	2487.809423
701.078501	2518.056346
701.414042	2457.562500
701.749533	2510.494615
702.084974	2447.480192
702.420366	2513.015192
702.755709	2538.220962
703.091002	2412.192115
703.426246	2540.741538
703.761440	2402.109808
704.096584	2500.412308
704.431679	2397.068654
704.766725	2530.659231
705.101721	2455.041923
705.436668	2450.000769
705.771565	2535.700385
706.106413	2603.755962
706.441212	2409.671538
706.775961	2497.891731
707.110661	2434.877308
707.445311	2462.603654
707.779913	2465.124231
708.114465	2525.618077
708.448967	2482.768269
708.783421	2487.809423
709.117825	2570.988462
709.452180	2568.467885
709.786485	2482.768269
710.120742	2520.576923
710.454949	2533.179808
710.789107	2475.206538
711.123216	2523.097500
711.457275	2475.206538
711.791286	2470.165385
712.125247	2555.865000
712.459159	2452.521346
712.793023	2460.083077
713.126837	2523.097500
713.460602	2530.659231
713.794318	2528.138654
714.127985	2485.288846
714.461602	2581.070769
714.795171	2465.124231
715.128691	2485.288846
715.462162	2548.303269
715.795584	2457.562500
716.128957	2535.700385
716.462281	2442.439038
716.795556	2513.015192
717.128782	2553.344423
717.461960	2548.303269
717.795088	2502.932885
718.128167	2470.165385
718.461198	2495.371154
718.794180	2500.412308
719.127113	2462.603654
719.459997	2419.753846
719.792833	2500.412308
720.125619	2467.644808
720.458357	2429.836154
720.791046	2525.618077
721.123686	2480.247692
721.456278	2520.576923
721.788821	2497.891731
722.121315	2545.782692
722.453761	2497.891731
722.786158	2601.235385
723.118506	2404.630385
723.450805	2507.974038
723.783056	2422.274423
724.115259	2533.179808
724.447412	2460.083077
724.779518	2422.274423
725.111574	2497.891731
725.443582	2505.453462
725.775542	2444.959615
726.107453	2485.288846
726.439315	2565.947308
726.771129	2492.850577
727.102895	2437.397885
727.434612	2482.768269
727.766281	2477.727115
728.097901	2472.685962
728.429473	2470.165385
728.760996	2497.891731
729.092471	2455.041923
729.423897	2452.521346
729.755276	2470.165385
730.086606	2460.083077
730.417887	2528.138654
730.749120	2447.480192
731.080305	2404.630385
731.411442	2480.247692
731.742530	2500.412308
732.073570	2467.644808
732.404562	2462.603654
732.735506	2543.262115
733.066401	2439.918462
733.397249	2535.700385
733.728048	2467.644808
734.058798	2470.165385
734.389501	2444.959615
734.720156	2540.741538
735.050762	2502.932885
735.381320	2502.932885
735.711831	2455.041923
736.042293	2507.974038
736.372707	2470.165385
736.703073	2455.041923
737.033391	2399.589231
737.363661	2523.097500
737.693883	2472.685962
738.024056	2480.247692
738.354182	2462.603654
738.684260	2581.070769
739.014290	2429.836154
739.344272	2495.371154
739.674207	2525.618077
740.004093	2525.618077
740.333931	2480.247692
740.663722	2510.494615
740.993464	2492.850577
741.323159	2427.315577
741.652806	2538.220962
741.982405	2419.753846
742.311956	2535.700385
742.641460	2460.083077
742.970915	2462.603654
743.300323	2543.262115
743.629683	2455.041923
743.958996	2507.974038
744.288260	2510.494615
744.617477	2525.618077
744.946647	2480.247692
745.275768	2457.562500
745.604842	2528.138654
745.933869	2596.194231
746.262847	2457.562500
746.591778	2480.247692
746.920662	2452.521346
747.249498	2523.097500
747.578286	2472.685962
747.907027	2513.015192
748.235720	2540.741538
748.564365	2480.247692
748.892963	2540.741538
749.221514	2515.535769
749.550017	2505.453462
749.878473	2480.247692
750.206881	2565.947308
750.535242	2369.342308
750.863555	2573.509038
751.191821	2472.685962
751.520039	2475.206538
751.848210	2507.974038
752.176334	2510.494615
752.504411	2500.412308
752.832440	2495.371154
753.160421	2502.932885
753.488356	2538.220962
753.816243	2470.165385
754.144082	2490.330000
754.471875	2442.439038
754.799620	2414.712692
755.127318	2528.138654
755.454969	2495.371154
755.782572	2495.371154
756.110129	2515.535769
756.437638	2533.179808
756.765100	2513.015192
757.092515	2528.138654
757.419882	2558.385577
757.747203	2502.932885
758.074477	2515.535769
758.401703	2550.823846
758.728882	2482.768269
759.056014	2573.509038
759.383099	2424.795000
759.710138	2462.603654
760.037129	2586.111923
760.364073	2555.865000
760.690970	2520.576923
761.017820	2442.439038
761.344623	2545.782692
761.671379	2422.274423
761.998088	2361.780577
762.324751	2560.906154
762.651366	2520.576923
762.977935	2477.727115
763.304456	2475.206538
763.630931	2540.741538
763.957359	2490.330000
764.283740	2485.288846
764.610074	2462.603654
764.936362	2518.056346
765.262602	2444.959615
765.588796	2540.741538
765.914943	2467.644808
766.241044	2560.906154
766.567097	2523.097500
766.893104	2548.303269
767.219064	2439.918462
767.544978	2487.809423
767.870845	2465.124231
768.196665	2530.659231
768.522438	2518.056346
768.848165	2465.124231
769.173846	2477.727115
769.499479	2543.262115
769.825066	2576.029615
770.150607	2502.932885
770.476101	2452.521346
770.801548	2528.138654
771.126949	2530.659231
771.452303	2457.562500
771.777611	2495.371154
772.102872	2470.165385
772.428087	2507.974038
772.753256	2485.288846
773.078378	2467.644808
773.403453	2523.097500
773.728482	2586.111923
774.053465	2558.385577
774.378401	2487.809423
774.703291	2472.685962
775.028135	2434.877308
775.352932	2487.809423
775.677683	2507.974038
776.002388	2487.809423
776.327046	2500.412308
776.651658	2452.521346
776.976224	2548.303269
777.300743	2533.179808
777.625216	2457.562500
777.949643	2545.782692
778.274024	2485.288846
778.598359	2432.356731
778.922647	2414.712692
779.246889	2487.809423
779.571086	2477.727115
779.895236	2487.809423
780.219339	2530.659231
780.543397	2472.685962
780.867409	2497.891731
781.191374	2497.891731
781.515294	2563.426731
781.839167	2450.000769
782.162995	2505.453462
782.486776	2477.727115
782.810511	2492.850577
783.134201	2495.371154
783.457844	2520.576923
783.781441	2492.850577
784.104993	2558.385577
784.428498	2455.041923
784.751958	2563.426731
785.075372	2485.288846
785.398739	2520.576923
785.722061	2533.179808
786.045337	2598.714808
786.368568	2465.124231
786.691752	2502.932885
787.014891	2485.288846
787.337983	2480.247692
787.661030	2452.521346
787.984031	2407.150962
788.306987	2389.506923
788.629897	2467.644808
788.952760	2490.330000
789.275579	2434.877308
789.598351	2482.768269
789.921078	2535.700385
790.243759	2518.056346
790.566395	2540.741538
790.888984	2457.562500
791.211529	2525.618077
791.534027	2492.850577
791.856480	2487.809423
792.178888	2555.865000
792.501249	2492.850577
792.823566	2487.809423
793.145836	2505.453462
793.468062	2492.850577
793.790241	2487.809423
794.112375	2525.618077
794.434464	2513.015192
794.756507	2548.303269
795.078505	2414.712692
795.400457	2447.480192
795.722364	2472.685962
796.044226	2500.412308
796.366042	2513.015192
796.687812	2533.179808
797.009538	2533.179808
797.331218	2555.865000
797.652852	2545.782692
797.974442	2515.535769
798.295986	2505.453462
798.617484	2565.947308
798.938938	2497.891731
799.260346	2507.974038
799.581709	2376.904038
799.903026	2427.315577
800.224299	2447.480192
800.545526	2528.138654
800.866708	2487.809423
801.187845	2427.315577
801.508936	2528.138654
801.829983	2518.056346
802.150984	2538.220962
802.471940	2442.439038
802.792851	2513.015192
803.113717	2452.521346
803.434538	2513.015192
803.755314	2487.809423
804.076045	2434.877308
804.396731	2490.330000
804.717372	2530.659231
805.037967	2439.918462
805.358518	2407.150962
805.679024	2538.220962
805.999485	2565.947308
806.319901	2434.877308
806.640272	2495.371154
806.960598	2578.550192
807.280879	2497.891731
807.601115	2558.385577
807.921306	2497.891731
808.241453	2487.809423
808.561554	2417.233269
808.881611	2477.727115
809.201623	2477.727115
809.521590	2523.097500
809.841513	2462.603654
810.161390	2472.685962
810.481223	2477.727115
810.801011	2492.850577
811.120755	2550.823846
811.440453	2545.782692
811.760107	2429.836154
812.079716	2513.015192
812.399281	2470.165385
812.718801	2510.494615
813.038276	2452.521346
813.357707	2515.535769
813.677093	2485.288846
813.996434	2505.453462
814.315731	2525.618077
814.634983	2465.124231
814.954191	2427.315577
815.273354	2528.138654
815.592473	2437.397885
815.911547	2457.562500
816.230577	2447.480192
816.549562	2593.673654
816.868502	2533.179808
817.187399	2533.179808
817.506250	2492.850577
817.825058	2558.385577
818.143821	2535.700385
818.462539	2505.453462
818.781213	2525.618077
819.099843	2475.206538
819.418429	2492.850577
819.736970	2467.644808
820.055466	2457.562500
820.373919	2563.426731
820.692327	2452.521346
821.010691	2460.083077
821.329011	2467.644808
821.647286	2558.385577
821.965517	2444.959615
822.283704	2404.630385
822.601847	2465.124231
822.919945	2578.550192
823.237999	2457.562500
823.556010	2513.015192
823.873976	2412.192115
824.191897	2533.179808
824.509775	2497.891731
824.827609	2523.097500
825.145398	2560.906154
825.463144	2470.165385
825.780845	2485.288846
826.098502	2568.467885
826.416116	2581.070769
826.733685	2515.535769
827.051210	2545.782692
827.368692	2588.632500
827.686129	2452.521346
828.003522	2429.836154
828.320872	2442.439038
828.638177	2533.179808
828.955439	2442.439038
829.272656	2525.618077
829.589830	2444.959615
829.906960	2515.535769
830.224046	2586.111923
830.541088	2500.412308
830.858086	2502.932885
831.175041	2533.179808
831.491952	2462.603654
831.808819	2568.467885
832.125642	2576.029615
832.442421	2419.753846
832.759157	2460.083077
833.075849	2510.494615
833.392497	2487.809423
833.709101	2437.397885
834.025662	2404.630385
834.342179	2510.494615
834.658653	2520.576923
834.975083	2513.015192
835.291469	2472.685962
835.607811	2538.220962
835.924110	2404.630385
836.240366	2540.741538
836.556578	2500.412308
836.872746	2530.659231
837.188871	2548.303269
837.504952	2482.768269
837.820990	2490.330000
838.136984	2510.494615
838.452935	2515.535769
838.768842	2462.603654
839.084706	2480.247692
839.400526	2475.206538
839.716303	2439.918462
840.032037	2573.509038
840.347727	2601.235385
840.663373	2470.165385
840.978977	2492.850577
841.294537	2429.836154
841.610054	2480.247692
841.925527	2450.000769
842.240957	2545.782692
842.556344	2490.330000
842.871687	2439.918462
843.186987	2535.700385
843.502244	2419.753846
843.817458	2523.097500
844.132629	2429.836154
844.447756	2455.041923
844.762840	2538.220962
845.077881	2500.412308
845.392879	2470.165385
845.707833	2485.288846
846.022745	2437.397885
846.337613	2457.562500
846.652438	2576.029615
846.967221	2515.535769
847.281960	2523.097500
847.596656	2497.891731
847.911309	2487.809423
848.225919	2578.550192
848.540485	2417.233269
848.855009	2555.865000
849.169490	2502.932885
849.483928	2497.891731
849.798323	2427.315577
850.112675	2376.904038
850.426984	2457.562500
850.741251	2555.865000
851.055474	2452.521346
851.369654	2422.274423
851.683792	2513.015192
851.997887	2457.562500
852.311938	2492.850577
852.625947	2525.618077
852.939914	2460.083077
853.253837	2480.247692
853.567718	2477.727115
853.881555	2455.041923
854.195350	2492.850577
854.509103	2515.535769
854.822812	2485.288846
855.136479	2482.768269
855.450103	2457.562500
855.763685	2555.865000
856.077224	2422.274423
856.390720	2528.138654
856.704173	2465.124231
857.017584	2462.603654
857.330953	2487.809423
857.644278	2555.865000
857.957561	2482.768269
858.270802	2492.850577
858.584000	2470.165385
858.897155	2482.768269
859.210268	2477.727115
859.523339	2470.165385
859.836367	2480.247692
860.149352	2525.618077
860.462295	2485.288846
860.775195	2513.015192
861.088054	2545.782692
861.400869	2475.206538
861.713642	2558.385577
862.026373	2477.727115
862.339062	2505.453462
862.651708	2528.138654
862.964312	2477.727115
863.276873	2407.150962
863.589392	2548.303269
863.901869	2447.480192
864.214303	2538.220962
864.526696	2487.809423
864.839045	2528.138654
865.151353	2482.768269
865.463619	2452.521346
865.775842	2427.315577
866.088023	2513.015192
866.400162	2497.891731
866.712258	2455.041923
867.024313	2475.206538
867.336325	2442.439038
867.648296	2455.041923
867.960224	2518.056346
868.272110	2477.727115
868.583954	2472.685962
868.895755	2434.877308
869.207515	2558.385577
869.519233	2477.727115
869.830909	2528.138654
870.142542	2545.782692
870.454134	2507.974038
870.765684	2477.727115
871.077191	2497.891731
871.388657	2447.480192
871.700081	2507.974038
872.011463	2452.521346
872.322803	2422.274423
872.634101	2528.138654
872.945357	2548.303269
873.256571	2553.344423
873.567744	2475.206538
873.878874	2460.083077
874.189963	2492.850577
874.501010	2427.315577
874.812015	2444.959615
875.122979	2442.439038
875.433900	2540.741538
875.744780	2485.288846
876.055618	2568.467885
876.366415	2422.274423
876.677169	2515.535769
876.987882	2434.877308
877.298554	2437.397885
877.609183	2487.809423
877.919771	2525.618077
878.230317	2497.891731
878.540822	2467.644808
878.851285	2543.262115
879.161707	2452.521346
879.472087	2588.632500
879.782425	2392.027500
880.092722	2507.974038
880.402977	2485.288846
880.713191	2500.412308
881.023363	2457.562500
881.333494	2455.041923
881.643583	2513.015192
881.953631	2548.303269
882.263637	2510.494615
882.573602	2558.385577
882.883526	2482.768269
883.193408	2404.630385
883.503248	2447.480192
883.813048	2545.782692
884.122806	2523.097500
884.432522	2465.124231
884.742197	2507.974038
885.051831	2507.974038
885.361424	2467.644808
885.670975	2490.330000
885.980485	2452.521346
886.289954	2518.056346
886.599382	2568.467885
886.908768	2452.521346
887.218113	2525.618077
887.527417	2535.700385
887.836680	2356.739423
888.145901	2528.138654
888.455082	2505.453462
888.764221	2558.385577
889.073319	2422.274423
889.382376	2492.850577
889.691392	2502.932885
890.000366	2462.603654
890.309300	2467.644808
890.618193	2490.330000
890.927044	2570.988462
891.235855	2465.124231
891.544625	2555.865000
891.853353	2502.932885
892.162041	2525.618077
892.470687	2429.836154
892.779293	2462.603654
893.087858	2386.986346
893.396381	2480.247692
893.704864	2356.739423
894.013306	2515.535769
894.321707	2525.618077
894.630068	2482.768269
894.938387	2505.453462
895.246665	2477.727115
895.554903	2578.550192
895.863100	2472.685962
896.171256	2500.412308
896.479371	2422.274423
896.787446	2528.138654
897.095480	2553.344423
897.403473	2465.124231
897.711425	2505.453462
898.019336	2475.206538
898.327207	2472.685962
898.635038	2505.453462
898.942827	2427.315577
899.250576	2523.097500
899.558284	2497.891731
899.865952	2455.041923
900.173579	2518.056346
900.481165	2462.603654
900.788711	2505.453462
901.096216	2513.015192
901.403681	2502.932885
901.711105	2447.480192
902.018489	2485.288846
902.325832	2462.603654
902.633135	2480.247692
902.940397	2419.753846
903.247619	2583.591346
903.554800	2502.932885
903.861941	2565.947308
904.169041	2530.659231
904.476101	2394.548077
904.783121	2500.412308
905.090100	2500.412308
905.397039	2538.220962
905.703938	2475.206538
906.010796	2568.467885
906.317614	2485.288846
906.624391	2535.700385
906.931129	2543.262115
907.237826	2543.262115
907.544483	2518.056346
907.851099	2502.932885
908.157675	2427.315577
908.464211	2475.206538
908.770707	2500.412308
909.077163	2487.809423
909.383578	2450.000769
909.689954	2442.439038
909.996289	2528.138654
910.302584	2434.877308
910.608839	2472.685962
910.915054	2505.453462
911.221229	2460.083077
911.527363	2553.344423
911.833458	2497.891731
912.139513	2455.041923
912.445527	2513.015192
912.751502	2540.741538
913.057436	2495.371154
913.363331	2528.138654
913.669186	2442.439038
913.975000	2409.671538
914.280775	2424.795000
914.586510	2487.809423
914.892205	2502.932885
915.197859	2505.453462
915.503475	2545.782692
915.809050	2507.974038
916.114585	2543.262115
916.420081	2485.288846
916.725536	2538.220962
917.030952	2462.603654
917.336328	2457.562500
917.641665	2555.865000
917.946961	2432.356731
918.252218	2467.644808
918.557435	2515.535769
918.862612	2462.603654
919.167750	2538.220962
919.472848	2490.330000
919.777906	2538.220962
920.082925	2513.015192
920.387904	2444.959615
920.692843	2472.685962
920.997743	2505.453462
921.302603	2442.439038
921.607423	2555.865000
921.912204	2518.056346
922.216946	2505.453462
922.521647	2533.179808
922.826310	2490.330000
923.130932	2477.727115
923.435516	2497.891731
923.740059	2487.809423
924.044564	2444.959615
924.349028	2465.124231
924.653454	2427.315577
924.957840	2548.303269
925.262186	2407.150962
925.566493	2518.056346
925.870761	2548.303269
926.174989	2533.179808
926.479178	2442.439038
926.783328	2543.262115
927.087438	2462.603654
927.391509	2502.932885
927.695541	2510.494615
927.999533	2480.247692
928.303486	2399.589231
928.607400	2525.618077
928.911275	2470.165385
929.215110	2480.247692
929.518906	2470.165385
929.822663	2485.288846
930.126381	2432.356731
930.430060	2480.247692
930.733699	2465.124231
931.037299	2455.041923
931.340861	2447.480192
931.644383	2424.795000
931.947866	2505.453462
932.251309	2518.056346
932.554714	2487.809423
932.858080	2472.685962
933.161407	2442.439038
933.464694	2462.603654
933.767943	2467.644808
934.071153	2467.644808
934.374323	2485.288846
934.677455	2444.959615
934.980548	2505.453462
935.283602	2452.521346
935.586617	2507.974038
935.889593	2518.056346
936.192530	2553.344423
936.495428	2472.685962
936.798287	2434.877308
937.101108	2447.480192
937.403890	2618.879423
937.706632	2540.741538
938.009336	2480.247692
938.312002	2487.809423
938.614628	2487.809423
938.917216	2417.233269
939.219765	2525.618077
939.522275	2510.494615
939.824747	2563.426731
940.127179	2573.509038
940.429573	2482.768269
940.731929	2543.262115
941.034246	2470.165385
941.336524	2545.782692
941.638763	2525.618077
941.940964	2480.247692
942.243126	2545.782692
942.545250	2424.795000
942.847335	2487.809423
943.149381	2462.603654
943.451389	2515.535769
943.753359	2472.685962
944.055290	2452.521346
944.357182	2513.015192
944.659036	2490.330000
944.960851	2467.644808
945.262628	2550.823846
945.564367	2419.753846
945.866067	2505.453462
946.167729	2631.482308
946.469352	2462.603654
946.770937	2450.000769
947.072484	2535.700385
947.373992	2548.303269
947.675462	2535.700385
947.976893	2520.576923
948.278286	2500.412308
948.579641	2437.397885
948.880958	2427.315577
949.182236	2578.550192
949.483476	2439.918462
949.784678	2450.000769
950.085841	2457.562500
950.386967	2543.262115
950.688054	2548.303269
950.989103	2439.918462
951.290114	2505.453462
951.591087	2543.262115
951.892021	2444.959615
952.192917	2518.056346
952.493776	2525.618077
952.794596	2447.480192
953.095378	2394.548077
953.396122	2492.850577
953.696828	2523.097500
953.997496	2563.426731
954.298126	2583.591346
954.598718	2462.603654
954.899272	2540.741538
955.199788	2455.041923
955.500266	2520.576923
955.800706	2530.659231
956.101108	2560.906154
956.401472	2560.906154
956.701798	2487.809423
957.002087	2404.630385
957.302337	2520.576923
957.602550	2470.165385
957.902724	2510.494615
958.202861	2583.591346
958.502960	2462.603654
958.803022	2515.535769
959.103045	2520.576923
959.403031	2596.194231
959.702979	2475.206538
960.002889	2460.083077
960.302762	2432.356731
960.602596	2470.165385
960.902393	2588.632500
961.202153	2497.891731
961.501875	2424.795000
961.801559	2470.165385
962.101205	2455.041923
962.400814	2457.562500
962.700385	2502.932885
962.999918	2457.562500
963.299414	2520.576923
963.598873	2472.685962
963.898293	2538.220962
964.197677	2500.412308
964.497022	2472.685962
964.796331	2455.041923
965.095601	2475.206538
965.394835	2392.027500
965.694030	2515.535769
965.993189	2490.330000
966.292309	2548.303269
966.591393	2538.220962
966.890439	2510.494615
967.189447	2502.932885
967.488419	2520.576923
967.787353	2553.344423
968.086249	2412.192115
968.385108	2500.412308
968.683930	2465.124231
968.982714	2505.453462
969.281462	2495.371154
969.580172	2505.453462
969.878844	2480.247692
970.177480	2528.138654
970.476078	2538.220962
970.774639	2497.891731
971.073162	2528.138654
971.371649	2434.877308
971.670098	2462.603654
971.968510	2538.220962
972.266885	2578.550192
972.565223	2492.850577
972.863524	2513.015192
973.161788	2495.371154
973.460014	2427.315577
973.758204	2462.603654
974.056356	2490.330000
974.354471	2525.618077
974.652550	2487.809423
974.950591	2477.727115
975.248595	2470.165385
975.546563	2470.165385
975.844493	2482.768269
976.142386	2467.644808
976.440243	2492.850577
976.738062	2475.206538
977.035845	2515.535769
977.333590	2409.671538
977.631299	2467.644808
977.928971	2414.712692
978.226606	2492.850577
978.524204	2558.385577
978.821765	2485.288846
979.119290	2538.220962
979.416777	2392.027500
979.714228	2485.288846
980.011642	2422.274423
980.309020	2518.056346
980.606360	2553.344423
980.903664	2485.288846
981.200931	2533.179808
981.498162	2470.165385
981.795356	2472.685962
982.092513	2490.330000
982.389633	2442.439038
982.686717	2591.153077
982.983764	2475.206538
983.280775	2480.247692
983.577749	2455.041923
983.874686	2535.700385
984.171587	2485.288846
984.468451	2507.974038
984.765279	2495.371154
985.062070	2487.809423
985.358824	2528.138654
985.655543	2553.344423
985.952224	2573.509038
986.248869	2467.644808
986.545478	2523.097500
986.842050	2462.603654
987.138586	2490.330000
987.435086	2490.330000
987.731549	2472.685962
988.027975	2515.535769
988.324366	2429.836154
988.620719	2485.288846
988.917037	2495.371154
989.213318	2455.041923
989.509563	2482.768269
989.805772	2495.371154
990.101944	2543.262115
990.398080	2538.220962
990.694180	2442.439038
990.990244	2485.288846
991.286271	2467.644808
991.582262	2505.453462
991.878217	2427.315577
992.174136	2500.412308
992.470019	2462.603654
992.765865	2497.891731
993.061676	2397.068654
993.357450	2548.303269
993.653188	2450.000769
993.948890	2455.041923
994.244556	2548.303269
994.540186	2472.685962
994.835780	2528.138654
995.131337	2570.988462
995.426859	2497.891731
995.722345	2533.179808
996.017795	2429.836154
996.313208	2427.315577
996.608586	2500.412308
996.903928	2452.521346
997.199234	2581.070769
997.494504	2480.247692
997.789738	2477.727115
998.084936	2510.494615
998.380099	2465.124231
998.675225	2470.165385
998.970316	2429.836154
999.265371	2417.233269
999.560390	2500.412308
999.855373	2482.768269
1000.150320	2460.083077
1000.445232	2565.947308
1000.740108	2497.891731
1001.034948	2495.371154
1001.329752	2364.301154
1001.624521	2490.330000
1001.919254	2472.685962
1002.213951	2543.262115
1002.508613	2477.727115
1002.803239	2477.727115
1003.097829	2495.371154
1003.392384	2465.124231
1003.686903	2540.741538
1003.981386	2507.974038
1004.275834	2492.850577
1004.570246	2447.480192
1004.864623	2492.850577
1005.158964	2460.083077
1005.453270	2487.809423
1005.747540	2465.124231
1006.041775	2467.644808
1006.335974	2495.371154
1006.630138	2470.165385
1006.924266	2422.274423
1007.218359	2492.850577
1007.512416	2472.685962
1007.806438	2548.303269
1008.100425	2510.494615
1008.394376	2500.412308
1008.688292	2409.671538
1008.982172	2500.412308
1009.276017	2381.945192
1009.569827	2470.165385
1009.863602	2475.206538
1010.157341	2480.247692
1010.451045	2485.288846
1010.744714	2520.576923
1011.038347	2490.330000
1011.331945	2603.755962
1011.625508	2535.700385
1011.919036	2497.891731
1012.212528	2550.823846
1012.505986	2510.494615
1012.799408	2424.795000
1013.092795	2533.179808
1013.386147	2513.015192
1013.679464	2500.412308
1013.972745	2465.124231
1014.265992	2533.179808
1014.559204	2505.453462
1014.852380	2465.124231
1015.145521	2500.412308
1015.438628	2477.727115
1015.731699	2485.288846
1016.024736	2457.562500
1016.317737	2492.850577
1016.610703	2475.206538
1016.903635	2432.356731
1017.196531	2533.179808
1017.489393	2477.727115
1017.782219	2500.412308
1018.075011	2472.685962
1018.367768	2480.247692
1018.660490	2455.041923
1018.953177	2455.041923
1019.245829	2455.041923
