Dividing Wavelength (nm)	Counts (n)	Blue Motor Position (mm): 42.800000	Red Motor Position (mm): 0.000000	
326.493990	2256.801069
326.888308	2256.801069
327.282561	2256.801069
327.676750	2219.332693
328.070874	2214.079810
328.464933	2216.378577
328.858929	2219.219267
329.252859	2224.255379
329.646726	2233.087481
330.040528	2245.150962
330.434265	2258.353744
330.827938	2278.253699
331.221547	2292.873045
331.615091	2311.495067
332.008571	2328.241780
332.401986	2349.134843
332.795338	2366.988089
333.188625	2389.312839
333.581847	2405.913358
333.975006	2427.539908
334.368100	2447.187805
334.761129	2462.671709
335.154095	2480.114102
335.546996	2507.966477
335.939833	2548.240255
336.332606	2564.321536
336.725315	2578.754359
337.117960	2588.972778
337.510540	2599.206320
337.903056	2609.434821
338.295508	2619.864969
338.687896	2627.958541
339.080220	2635.651342
339.472480	2639.959008
339.864676	2646.431849
340.256807	2650.464772
340.648875	2656.672953
341.040879	2657.174548
341.432818	2660.862152
341.824694	2663.970024
342.216506	2664.063285
342.608253	2666.268790
342.999937	2664.277534
343.391557	2666.840961
343.783113	2665.252997
344.174605	2664.156546
344.566033	2663.992709
344.957397	2664.093532
345.348697	2661.008346
345.739934	2659.914415
346.131106	2655.326965
346.522215	2656.919970
346.913260	2655.301760
347.304241	2654.432161
347.695159	2650.938641
348.086012	2651.223466
348.476802	2649.753970
348.867528	2644.027219
349.258191	2640.211066
349.648789	2640.722743
350.039324	2638.769296
350.429796	2641.723412
350.820203	2640.306847
351.210548	2639.147382
351.600828	2639.795170
351.991045	2636.720067
352.381198	2634.998512
352.771288	2634.814510
353.161314	2633.377782
353.551276	2635.842906
353.941175	2635.658904
354.331010	2634.189407
354.720782	2632.137658
355.110490	2632.979530
355.500135	2631.784777
355.889717	2631.787298
356.279235	2634.292751
356.668689	2633.145888
357.058080	2632.636732
357.447408	2636.155457
357.836672	2634.101187
358.225873	2632.422483
358.615010	2632.677061
359.004084	2634.254942
359.393095	2638.028246
359.782043	2638.953298
360.170927	2640.014461
360.559748	2636.082361
360.948505	2640.793319
361.337199	2640.369862
361.725830	2642.991262
362.114398	2641.037815
362.502903	2641.199132
362.891344	2642.048566
363.279722	2640.420273
363.668037	2641.461272
364.056289	2646.414205
364.444478	2645.821870
364.832603	2646.179792
365.220665	2646.993938
365.608665	2646.255409
365.996601	2646.573002
366.384474	2648.080307
366.772284	2647.994607
367.160031	2648.924700
367.547715	2650.832777
367.935336	2650.709268
368.322893	2648.329844
368.710388	2647.213228
369.097820	2650.250523
369.485189	2648.309679
369.872495	2655.727737
370.259738	2654.069197
370.646918	2651.291522
371.034035	2656.110865
371.421090	2654.535504
371.808081	2655.016934
372.195010	2658.699497
372.581875	2657.151863
372.968678	2656.413334
373.355418	2655.669764
373.742096	2657.600526
374.128710	2655.957110
374.515262	2658.326452
374.901751	2658.112203
375.288177	2659.692605
375.674540	2659.876607
376.060841	2662.737462
376.447079	2663.440702
376.833254	2663.488593
377.219367	2661.719148
377.605417	2661.794766
377.991404	2663.856598
378.377329	2664.632935
378.763191	2666.798111
379.148991	2668.819614
379.534727	2672.114008
379.920402	2674.032167
380.306013	2682.171110
380.691563	2684.905936
381.077049	2689.480783
381.462474	2700.097453
381.847835	2714.414330
382.233134	2726.573593
382.618371	2744.184864
383.003545	2768.127824
383.388657	2791.496092
383.773706	2823.681339
384.158693	2856.683253
384.543618	2888.462687
384.928480	2930.883996
385.313280	2976.430821
385.698017	3015.688807
386.082692	3077.339598
386.467305	3109.802108
386.851856	3159.497803
387.236344	3231.150243
387.620770	3279.641102
388.005133	3342.285000
388.389435	3403.096439
388.773674	3445.923561
389.157851	3530.393135
389.541965	3614.469499
389.926018	3629.141777
390.310008	3736.480546
390.693936	3814.736897
391.077802	3879.971949
391.461606	3915.514604
391.845348	4000.057274
392.229027	4085.106581
392.612645	4117.894246
392.996200	4235.511927
393.379694	4321.239268
393.763125	4437.082463
394.146494	4489.397037
394.529801	4578.169236
394.913047	4676.418804
395.296230	4662.054036
395.679351	4786.036173
396.062410	4862.049212
396.445408	4857.590311
396.828343	4936.794400
397.211217	5004.166900
397.594028	4908.815996
397.976778	5037.627559
398.359466	5090.549592
398.742092	5128.910252
399.124656	5054.389396
399.507158	5181.184497
399.889598	5253.499849
400.271977	5377.013159
400.654294	5379.178335
401.036549	5424.652063
401.418742	5351.005847
401.800874	5554.292896
402.182944	5614.426300
402.564952	5727.479216
402.946898	5788.789729
403.328783	5632.569412
403.710606	5644.557276
404.092367	5973.132122
404.474067	5983.184183
404.855705	5893.749073
405.237282	5833.464434
405.618797	6079.276137
406.000250	6063.648560
406.381642	6265.967708
406.762972	6285.711387
407.144240	6347.042065
407.525447	6324.641698
407.906593	6359.929775
408.287677	6505.026785
408.668700	6422.601399
409.049661	6537.083483
409.430560	6569.072124
409.811399	6424.365803
410.192176	6696.235230
410.572891	6703.544903
410.953545	6903.789616
411.334138	6628.817359
411.714669	6803.279091
412.095139	6603.024295
412.475547	6846.267530
412.855894	6911.459732
413.236180	7093.510921
413.616405	6767.776765
413.996568	6989.249777
414.376670	7023.479211
414.756711	6919.727224
415.136691	7012.219794
415.516609	7222.017494
415.896466	7210.382511
416.276262	7412.106803
416.655997	7394.520737
417.035670	7581.305570
417.415283	7919.090604
417.794834	7973.605641
418.174324	7829.466450
418.553753	7755.076663
418.933121	8062.518992
419.312428	8162.515320
419.691674	7940.641536
420.070859	8417.547293
420.449983	8103.024663
420.829045	8455.199671
421.208047	8234.979386
421.586988	8540.669914
421.965867	8561.200013
422.344686	8664.336980
422.723444	8711.890184
423.102141	8066.148623
423.480777	8826.034510
423.859352	8348.067590
424.237866	8961.490314
424.616319	8833.939039
424.994712	9253.481506
425.373044	8810.157396
425.751314	9275.677707
426.129524	9152.550044
426.507673	9261.522147
426.885762	9406.964476
427.263789	9322.381476
427.641756	9252.135518
428.019662	9349.873409
428.397508	9602.415052
428.775292	9280.038305
429.153016	9665.265637
429.530679	9494.093259
429.908282	9521.345736
430.285824	9245.450948
430.663305	9927.360267
431.040726	9383.586125
431.418086	9357.026806
431.795385	9686.922434
432.172624	9781.660839
432.549802	9690.617600
432.926920	9769.292368
433.303977	9644.017174
433.680974	9851.763124
434.057910	9941.621691
434.434786	10005.830868
434.811601	9843.155354
435.188355	10404.744933
435.565050	10142.781374
435.941683	10066.574251
436.318257	10550.010823
436.694770	10700.330469
437.071222	10758.996897
437.447614	10593.538666
437.823946	10505.918371
438.200218	10621.068407
438.576429	10455.048087
438.952580	10699.244100
439.328670	10735.656354
439.704700	10526.871927
440.080670	10523.443942
440.456580	11054.726105
440.832429	10836.728968
441.208218	10431.762997
441.583947	10736.735161
441.959616	10900.774307
442.335224	10719.396113
442.710773	10834.715027
443.086261	11062.129039
443.461689	10329.488068
443.837057	11002.492189
444.212365	11256.513411
444.587612	10886.744776
444.962800	11114.037800
445.337927	10864.301559
445.712995	10506.689667
446.088002	11564.966491
446.462949	11244.437327
446.837837	11212.267203
447.212664	11164.746767
447.587431	11720.176056
447.962139	12461.749952
448.336786	14743.333333
448.711374	15254.224028
449.085901	13083.762801
449.460369	12722.266700
449.834776	12166.986125
450.209124	13078.439343
450.583412	13500.068848
450.957640	14432.732721
451.331808	13509.987318
451.705917	12545.990153
452.079965	11820.585759
452.453954	12735.928227
452.827883	12379.745502
453.201752	12672.321468
453.575562	12204.179758
453.949311	12626.247843
454.323001	12592.663676
454.696632	12822.414263
455.070202	13111.040485
455.443713	13318.650324
455.817164	13803.828614
456.190556	13774.869706
456.563888	14143.554492
456.937160	14301.544254
457.310373	13646.186692
457.683526	13749.658895
458.056619	13277.028037
458.429653	13475.740239
458.802628	12846.853776
459.175542	13252.497782
459.548398	14205.749728
459.921194	14555.797368
460.293930	14628.584068
460.666607	15478.605786
461.039224	16540.567693
461.411782	17251.778719
461.784280	17073.674754
462.156719	17160.783372
462.529099	16831.341447
462.901419	15779.933195
463.273680	15551.914245
463.645882	15439.037769
464.018024	15172.096070
464.390106	15388.308638
464.762130	16106.274810
465.134094	16896.710089
465.505999	18931.264329
465.877845	22193.790713
466.249631	25014.550704
466.621358	24646.170907
466.993026	23221.676941
467.364634	22645.921719
467.736184	21177.650373
468.107674	20371.642970
468.479105	20507.149186
468.850477	19963.735486
469.221790	19563.838396
469.593043	18870.581439
469.964238	18306.125964
470.335373	17950.996840
470.706449	18436.265871
471.077467	18008.231580
471.448425	19886.167252
471.819324	23979.818589
472.190164	25868.428904
472.560945	22232.199264
472.931667	19912.557692
473.302330	19301.690834
473.672934	18898.930368
474.043479	19155.305808
474.413965	18963.681468
474.784393	18573.473476
475.154761	19315.150715
475.525070	19252.330376
475.895321	18957.001940
476.265513	19562.804959
476.635645	20150.754732
477.005719	19902.651825
477.375734	20094.114848
477.745691	20596.135633
478.115588	21114.537648
478.485427	21666.813696
478.855207	22759.685438
479.224928	24540.198291
479.594591	26768.685719
479.964194	26714.760497
480.333739	26936.488087
480.703226	26515.803798
481.072653	26221.095424
481.442022	26830.170152
481.811333	27758.395289
482.180584	27637.757957
482.549777	26684.591712
482.918912	26355.737082
483.287988	26496.733113
483.657005	26117.081297
484.025964	25899.797484
484.394864	25767.966269
484.763706	25441.801095
485.132489	24907.509363
485.501213	25087.047537
485.869879	24997.836758
486.238487	24838.700134
486.607036	24967.000020
486.975527	24702.720050
487.343959	24995.850543
487.712333	24914.811475
488.080648	24582.130609
488.448905	25083.034779
488.817104	24834.596635
489.185244	25538.671907
489.553326	25486.969833
489.921350	26529.548504
490.289315	28850.289048
490.657222	30595.786047
491.025070	31108.559613
491.392861	30850.863390
491.760593	29992.140641
492.128267	29081.017618
492.495883	28025.752884
492.863440	27151.485737
493.230939	26298.169625
493.598380	26125.573120
493.965763	25730.770116
494.333088	25263.321564
494.700354	25221.863114
495.067563	25076.052781
495.434713	24815.606608
495.801805	24991.734441
496.168839	24772.129177
496.535815	24623.851198
496.902733	24854.032803
497.269593	24539.563106
497.636395	24711.859662
498.003139	24661.501056
498.369825	24386.801021
498.736453	24613.831905
499.103023	24461.004285
499.469535	24472.203208
499.835989	24698.162847
500.202385	24723.023297
500.568723	24250.624332
500.935003	24444.585247
501.301226	24113.794814
501.667390	24962.137827
502.033497	25165.588714
502.399546	24901.308744
502.765537	24449.129847
503.131470	24835.771224
503.497345	24974.496216
503.863163	24205.841242
504.228923	24770.967191
504.594625	25002.101574
504.960269	24552.639859
505.325856	25036.162130
505.691385	24428.135962
506.056856	25044.396855
506.422270	24997.075544
506.787625	24549.600043
507.152924	24991.132023
507.518164	25017.950962
507.883347	24839.264743
508.248472	24508.965823
508.613540	25286.951972
508.978550	25090.530974
509.343503	25102.758293
509.708398	25310.342926
510.073236	25478.130170
510.438016	25695.053541
510.802738	25355.234401
511.167403	25597.179539
511.532010	25344.164027
511.896561	26102.552691
512.261053	26054.034106
512.625488	25904.957105
512.989866	25778.305676
513.354186	25614.334585
513.718449	25744.088844
514.082655	26106.167199
514.446803	25836.268863
514.810894	26338.070358
515.174927	25824.006256
515.538904	25846.499885
515.902822	26348.976894
516.266684	26098.229902
516.630488	26000.265159
516.994235	25958.655475
517.357925	26280.089527
517.721558	26435.709946
518.085133	26566.709370
518.448651	26441.572808
518.812112	26214.932613
519.175516	26433.872446
519.538863	26574.946615
519.902152	26369.113783
520.265385	26616.188295
520.628560	26429.111076
520.991678	26417.879385
521.354739	26486.766752
521.717743	26562.167290
522.080690	26345.185947
522.443580	26691.288884
522.806413	26654.251527
523.169189	26767.934587
523.531908	26807.295917
523.894569	26423.154952
524.257174	26514.951843
524.619722	26663.287795
524.982213	26376.950257
525.344647	26415.172285
525.707025	26574.240854
526.069345	26536.512858
526.431608	26498.633628
526.793815	26682.237493
527.155964	26173.950553
527.518057	26337.609092
527.880093	26253.968788
528.242072	26473.571532
528.603995	26204.109256
528.965860	25980.894526
529.327669	26025.601998
529.689421	26022.915063
530.051117	25858.931370
530.412755	26030.842278
530.774337	25815.368239
531.135862	25716.143208
531.497331	25896.906382
531.858743	25486.309442
532.220098	25939.839369
532.581396	25639.184953
532.942638	25528.415680
533.303824	25655.238508
533.664953	25647.076880
534.026025	25300.941174
534.387040	25552.519957
534.747999	25605.013492
535.108902	25767.411743
535.469748	25263.515648
535.830537	25440.140035
536.191270	25565.274076
536.551947	25406.018985
536.912567	25033.563415
537.273131	25453.342817
537.633638	25132.848940
537.994089	25348.265006
538.354483	24853.143040
538.714821	25363.937953
539.075103	25403.097636
539.435328	25166.899414
539.795497	24777.001452
540.155609	25130.020853
540.515665	25430.783653
540.875665	24646.667461
541.235609	24974.786082
541.595496	24931.210348
541.955328	25281.288236
542.315102	25196.453178
542.674821	24713.026689
543.034483	24599.628454
543.394090	24779.297698
543.753640	24574.407561
544.113134	25209.769386
544.472571	24798.529700
544.831953	25102.342398
545.191278	24733.208949
545.550548	24636.658250
545.909761	24826.646735
546.268918	25063.633898
546.628019	25040.270671
546.987064	24735.908487
547.346053	24460.858092
547.704986	24575.700617
548.063863	24738.517284
548.422684	24763.196252
548.781449	24262.448358
549.140158	24684.299674
549.498811	24249.265741
549.857408	24018.874928
550.215949	24401.279215
550.574434	24105.590336
550.932864	24304.148783
551.291237	24487.843388
551.649555	24325.777854
552.007817	24398.166302
552.366022	24246.377160
552.724173	24268.175109
553.082267	24233.542382
553.440305	24726.834410
553.798288	23954.156595
554.156215	24455.622853
554.514086	24582.110444
554.871902	23965.148831
555.229661	24239.354833
555.587365	24086.852367
555.945014	23992.184539
556.302606	24209.475914
556.660143	24178.860987
557.017625	24413.844291
557.375050	23948.742396
557.732421	24324.479757
558.089735	24154.728983
558.446994	24199.749008
558.804197	24251.413273
559.161345	24147.331090
559.518437	23927.887142
559.875474	24114.677016
560.232455	24295.790550
560.589381	24107.505974
560.946251	24102.059008
561.303065	24407.603342
561.659825	24506.833415
562.016528	24098.300827
562.373177	23847.019473
562.729770	24211.232756
563.086307	24055.168715
563.442789	24223.152564
563.799216	24062.405292
564.155587	24067.043153
564.511904	24054.911616
564.868164	23990.747810
565.224370	23947.643424
565.580520	23889.876842
565.936615	24003.146528
566.292654	23713.242373
566.648638	23958.960815
567.004567	23792.610299
567.360441	23734.279108
567.716260	23459.982366
568.072023	23785.083857
568.427732	23560.646646
568.783385	23319.515655
569.138982	23568.629313
569.494525	23601.888326
569.850013	23355.733825
570.205445	23454.384164
570.560823	23283.937712
570.916145	23036.495196
571.271412	23224.230286
571.626625	22977.546463
571.981782	23086.420263
572.336884	22884.063306
572.691931	23025.250902
573.046923	22763.773814
573.401860	22642.138333
573.756743	22675.581348
574.111570	22558.611455
574.466342	22482.245536
574.821059	22554.971742
575.175722	22276.193414
575.530330	22241.071695
575.884882	22256.331268
576.239380	22178.450482
576.593823	22069.773287
576.948211	22035.843801
577.302544	21894.280640
577.656823	21749.949884
578.011047	21856.071214
578.365216	21729.908777
578.719330	21598.937080
579.073389	21484.742342
579.427394	21646.296200
579.781344	21399.055330
580.135239	21292.694545
580.489080	21232.120041
580.842866	21005.149651
581.196597	21229.448229
581.550273	21184.329902
581.903895	21068.874876
582.257463	21380.907176
582.610975	20916.044736
582.964434	21235.570711
583.317837	20909.874363
583.671186	21006.334322
584.024481	20996.204123
584.377721	20751.229252
584.730906	20836.034062
585.084037	20826.332362
585.437113	20756.277967
585.790135	20957.261210
586.143103	20402.184801
586.496016	20433.818041
586.848874	20663.646766
587.201679	20582.859755
587.554428	20278.217787
587.907124	20613.716657
588.259765	20374.206397
588.612352	20448.230700
588.964884	20018.179948
589.317362	20184.280926
589.669786	20246.453476
590.022155	20260.273799
590.374470	20483.876699
590.726731	20239.426108
591.078937	20039.022598
591.431090	20124.782708
591.783188	19893.524816
592.135232	19845.394400
592.487222	19957.328180
592.839157	19965.106680
593.191038	19845.220480
593.542866	19730.428366
593.894639	19440.670404
594.246358	19654.861469
594.598022	19537.911741
594.949633	19304.987748
595.301190	19276.711917
595.652692	19454.778073
596.004141	19675.346198
596.355535	18995.027363
596.706876	19025.178504
597.058162	18916.728162
597.409395	19165.352828
597.760573	19208.598366
598.111698	18968.425194
598.462768	18926.845757
598.813785	18898.191839
599.164748	18692.243060
599.515657	18756.432072
599.866511	18548.534887
600.217312	18898.148989
600.568060	18414.500689
600.918753	18722.560559
601.269392	18619.685733
601.619978	18410.923990
601.970510	18608.506974
602.320988	18553.376916
602.671412	18756.570704
603.021783	18695.106436
603.372100	18396.980159
603.722363	18543.133291
604.072572	18496.058997
604.422728	18640.304052
604.772830	18385.763592
605.122878	18357.926340
605.472872	18334.255602
605.822813	18321.090629
606.172701	18309.879103
606.522534	18480.867479
606.872314	18508.109875
607.222041	18352.398715
607.571714	18561.107525
607.921333	18392.740548
608.270899	18465.791909
608.620411	18615.504096
608.969870	18415.521523
609.319276	18410.432478
609.668627	18429.377134
610.017926	18577.415658
610.367171	18680.832408
610.716362	18744.010669
611.065500	18552.212409
611.414585	18706.789310
611.763616	18683.400876
612.112594	18616.655999
612.461518	18593.212113
612.810389	18773.438405
613.159207	18641.546697
613.507971	18545.870638
613.856682	18811.242017
614.205340	18720.586948
614.553945	18879.980671
614.902496	18628.608575
615.250994	18841.292335
615.599439	18790.096898
615.947830	18778.179610
616.296169	18844.526236
616.644454	18806.820925
616.992686	18777.262120
617.340864	18994.742538
617.688990	18746.364888
618.037063	18915.414941
618.385082	18777.990567
618.733048	19045.824550
619.080961	18932.491850
619.428821	18955.817268
619.776628	18838.980966
620.124382	18778.353530
620.472083	18830.007712
620.819731	18832.356890
621.167326	18525.378347
621.514868	18563.917968
621.862357	18352.854939
622.209793	18348.058281
622.557176	18180.893620
622.904506	18017.799690
623.251783	17937.826825
623.599007	17680.415428
623.946179	17628.448693
624.293297	17550.668731
624.640363	17294.242878
624.987376	17326.138259
625.334336	17122.210983
625.681243	16975.576420
626.028097	16987.763410
626.374899	16907.162922
626.721647	16769.904905
627.068343	16597.555417
627.414987	16537.646345
627.761577	16509.899834
628.108115	16535.541663
628.454600	16255.412305
628.801032	16370.083432
629.147412	16301.415355
629.493739	16316.624516
629.840014	16127.213243
630.186236	16221.079527
630.532405	15986.880122
630.878521	16182.373548
631.224585	16084.313023
631.570597	15914.320274
631.916556	15936.667709
632.262462	15908.903555
632.608316	15826.780638
632.954117	15768.406597
633.299866	15761.631286
633.645562	15675.188101
633.991206	15437.860660
634.336797	15307.143541
634.682336	15285.093534
635.027823	15150.850127
635.373257	15024.052505
635.718639	14940.243322
636.063968	14878.647984
636.409245	14639.838444
636.754470	14660.829809
637.099642	14515.420247
637.444762	14286.123364
637.789829	14324.010156
638.134845	14149.558506
638.479808	14191.574003
638.824719	14113.778917
639.169577	13979.883350
639.514383	14019.857180
639.859137	13847.643803
640.203839	13950.218680
640.548489	13784.478145
640.893086	13764.608437
641.237632	13647.421775
641.582125	13801.376092
641.926566	13618.120068
642.270955	13631.592552
642.615292	13589.955141
642.959576	13596.879166
643.303809	13628.532571
643.647990	13560.597982
643.992118	13623.720790
644.336195	13402.010844
644.680219	13622.016880
645.024192	13521.032486
645.368112	13763.050720
645.711981	13818.735306
646.055797	14002.598789
646.399562	13981.862003
646.743274	14233.970107
647.086935	14517.983673
647.430544	14475.378362
647.774101	14517.230021
648.117606	14659.284695
648.461059	14635.051869
648.804460	14613.311893
649.147810	14341.523124
649.491108	14255.861318
649.834354	14257.456843
650.177548	13941.094192
650.520690	13750.374739
650.863781	13685.598433
651.206820	13723.762488
651.549807	13553.134554
651.892742	13345.635620
652.235626	13296.721304
652.578458	13293.537816
652.921238	12991.091270
653.263967	13190.272300
653.606644	13023.891538
653.949269	12999.497394
654.291843	12786.811113
654.634365	12957.169346
654.976836	12808.939258
655.319255	12800.147486
655.661622	12771.634720
656.003938	12690.409128
656.346203	12610.731171
656.688416	12691.450127
657.030577	12650.014363
657.372687	12549.473590
657.714746	12545.803630
658.056753	12729.473030
658.398708	12539.678628
658.740612	12541.687528
659.082465	12652.933191
659.424266	12620.546298
659.766016	12638.994400
660.107715	12562.830127
660.449362	12640.960450
660.790958	12585.185124
661.132503	12522.044672
661.473996	12601.687341
661.815438	12615.162346
662.156829	12634.777475
662.498168	12611.144546
662.839456	12616.709980
663.180693	12627.636681
663.521879	12728.926064
663.863013	12695.929192
664.204097	12665.389882
664.545129	12805.120584
664.886110	12771.649843
665.227040	12868.198022
665.567918	12871.820091
665.908746	12891.994788
666.249522	12874.161707
666.590248	12935.903238
666.930922	13048.610836
667.271545	13018.520188
667.612118	13106.402623
667.952639	13000.669462
668.293109	13023.594110
668.633528	12976.749187
668.973896	12952.546608
669.314213	13019.281403
669.654480	12763.039552
669.994695	12848.212367
670.334859	12869.087785
670.674973	12815.840598
671.015035	12847.012573
671.355047	12796.714460
671.695008	12770.997014
672.034918	12772.194288
672.374777	12818.522492
672.714585	12723.829458
673.054342	12762.109460
673.394049	12719.080691
673.733705	12812.919249
674.073310	12707.927138
674.412864	12723.088408
674.752368	12582.382243
675.091820	12630.679017
675.431223	12600.091816
675.770574	12467.007875
676.109875	12382.288764
676.449125	12348.356758
676.788324	12296.430352
677.127473	12126.606482
677.466571	12117.968465
677.805619	12004.567709
678.144616	11940.850045
678.483562	11913.753843
678.822458	11783.382043
679.161303	11757.888928
679.500098	11747.625139
679.838842	11698.355422
680.177535	11735.828839
680.516179	11801.162193
680.854771	11739.314797
681.193314	11957.679938
681.531805	12123.808642
681.870247	12556.294272
682.208638	12975.113333
682.546978	13267.684258
682.885268	13295.556798
683.223508	12996.303823
683.561697	12847.735978
683.899836	12751.442378
684.237925	12541.886654
684.575963	12464.535189
684.913951	12382.487890
685.251889	12333.203049
685.589776	12440.272116
685.927614	12351.525123
686.265401	12325.807677
686.603137	12377.366078
686.940824	12532.794933
687.278460	12666.662773
687.616046	12696.070344
687.953582	12847.436030
688.291068	12785.974282
688.628504	13027.369934
688.965889	13026.701981
689.303224	12979.236997
689.640510	12870.138866
689.977745	12553.912326
690.314930	12330.725322
690.652065	12240.493709
690.989150	11945.155191
691.326185	11723.452806
691.663170	11517.688030
692.000105	11280.022832
692.336990	11163.496561
692.673825	10903.088197
693.010610	10790.146186
693.347345	10582.057438
693.684030	10387.468899
694.020665	10322.995062
694.357251	10134.468511
694.693786	10056.595287
695.030272	9906.373944
695.366707	9787.443042
695.703093	9721.323268
696.039429	9723.795954
696.375716	9623.388772
696.711952	9495.098969
697.048139	9549.324140
697.384276	9502.297737
697.720363	9535.949959
698.056400	9455.631775
698.392388	9406.402387
698.728326	9371.444506
699.064214	9308.772882
699.400053	9345.182615
699.735842	9164.469853
700.071581	9119.343964
700.407270	9048.944251
700.742910	8973.659659
701.078501	8871.740131
701.414042	8747.090041
701.749533	8686.593674
702.084974	8547.435143
702.420366	8665.672885
702.755709	8540.952219
703.091002	8407.601097
703.426246	8444.701468
703.761440	8389.800782
704.096584	8351.455246
704.431679	8285.910163
704.766725	8264.838140
705.101721	8225.401194
705.436668	8269.395343
705.771565	8160.980289
706.106413	8246.886591
706.441212	8280.730378
706.775961	8245.669153
707.110661	8288.070298
707.445311	8424.304960
707.779913	8315.353022
708.114465	8449.566182
708.448967	8480.418043
708.783421	8640.421746
709.117825	8817.903129
709.452180	8851.583078
709.786485	8938.366541
710.120742	9225.414882
710.454949	9227.486796
710.789107	9330.195265
711.123216	9558.720851
711.457275	9726.883661
711.791286	9878.055262
712.125247	9874.286999
712.459159	9861.580771
712.793023	10090.202139
713.126837	9671.730917
713.460602	9825.914608
713.794318	9659.548969
714.127985	9683.171816
714.461602	9339.365124
714.795171	9298.677971
715.128691	9046.980721
715.462162	8800.395201
715.795584	8744.304803
716.128957	8584.258251
716.462281	8419.397397
716.795556	8465.644942
717.128782	8259.650793
717.461960	8004.565888
717.795088	8074.950478
718.128167	7979.899522
718.461198	7818.890109
718.794180	7758.078670
719.127113	7750.726148
719.459997	7579.581495
719.792833	7365.839093
720.125619	7431.250584
720.458357	7275.083200
720.791046	7274.788292
721.123686	7262.359327
721.456278	7097.281704
721.788821	7117.194261
722.121315	7026.466095
722.453761	7093.611744
722.786158	7027.998606
723.118506	7036.888681
723.450805	7003.135635
723.783056	7060.758544
724.115259	6980.546225
724.447412	6983.699466
724.779518	7031.774430
725.111574	7031.643360
725.443582	7110.212263
725.775542	7086.728048
726.107453	7288.802700
726.439315	7197.036056
726.771129	7265.169771
727.102895	7442.394055
727.434612	7550.304994
727.766281	7583.894202
728.097901	7660.101325
728.429473	7668.736821
728.760996	7647.243862
729.092471	7617.649768
729.423897	7557.942342
729.755276	7557.647435
730.086606	7484.220508
730.417887	7584.438647
730.749120	7801.293962
731.080305	7990.004515
731.411442	8097.713808
731.742530	8082.187054
732.073570	8199.494704
732.404562	8283.261037
732.735506	8137.536403
733.066401	8271.212679
733.397249	8190.029938
733.728048	7947.797454
734.058798	7619.129347
734.389501	7391.261631
734.720156	7211.466359
735.050762	6989.093501
735.381320	6902.771303
735.711831	6834.292269
736.042293	6734.958853
736.372707	6744.322797
736.703073	6616.882427
737.033391	6655.018756
737.363661	6668.806312
737.693883	6701.780499
738.024056	6789.756196
738.354182	6818.594116
738.684260	6851.512851
739.014290	6980.279043
739.344272	7085.240908
739.674207	7114.431709
740.004093	7193.038421
740.333931	7203.720626
740.663722	7208.678601
740.993464	7284.547966
741.323159	7263.057527
741.652806	7017.051740
741.982405	7051.213119
742.311956	7092.074192
742.641460	6917.670433
742.970915	6728.372586
743.300323	6717.473611
743.629683	6678.228228
743.958996	6536.743205
744.288260	6445.132836
744.617477	6396.881432
744.946647	6384.117231
745.275768	6228.262398
745.604842	6181.215830
745.933869	6165.573129
746.262847	6124.122242
746.591778	6109.560869
746.920662	6067.071504
747.249498	6066.249796
747.578286	6115.905161
747.907027	6188.931316
748.235720	6251.371047
748.564365	6221.713939
748.892963	6265.264467
749.221514	6399.215487
749.550017	6217.529781
749.878473	6106.752946
750.206881	6170.210991
750.535242	6112.325942
750.863555	6042.329521
751.191821	6054.622374
751.520039	6052.099277
751.848210	5955.135203
752.176334	5991.814638
752.504411	6030.908787
752.832440	5957.968332
753.160421	5890.285800
753.488356	5938.650630
753.816243	5963.654753
754.144082	5818.623278
754.471875	5795.305420
754.799620	5833.267829
755.127318	5848.010684
755.454969	5802.015196
755.782572	5769.479589
756.110129	5815.197813
756.437638	5789.576149
756.765100	5732.961471
757.092515	5742.254838
757.419882	5793.057066
757.747203	5765.981028
758.074477	5830.500236
758.401703	5809.390404
758.728882	5767.362305
759.056014	5837.003324
759.383099	5950.547753
759.710138	5962.240709
760.037129	5956.818948
760.364073	5953.199400
760.690970	6042.528646
761.017820	6011.822978
761.344623	5976.184541
761.671379	6082.157157
761.998088	6212.821344
762.324751	6470.802392
762.651366	7105.617252
762.977935	8471.651477
763.304456	10123.816553
763.630931	10977.417490
763.957359	10530.078100
764.283740	9567.653776
764.610074	8705.198052
764.936362	7703.704785
765.262602	7114.656040
765.588796	6583.580565
765.914943	6251.045893
766.241044	6082.187403
766.567097	5868.699579
766.893104	5609.722903
767.219064	5436.307211
767.544978	5372.468559
767.870845	5286.589983
768.196665	5183.299261
768.522438	5113.693529
768.848165	5073.392025
769.173846	5011.277448
769.499479	4963.993945
769.825066	4913.844547
770.150607	4851.374568
770.476101	4830.345395
770.801548	4821.508252
771.126949	4741.026231
771.452303	4685.976831
771.777611	4651.180267
772.102872	4670.654244
772.428087	4633.004387
772.753256	4589.111060
773.078378	4538.137433
773.403453	4473.343483
773.728482	4461.668170
774.053465	4413.719236
774.378401	4400.138367
774.703291	4395.770207
775.028135	4323.843024
775.352932	4275.591620
775.677683	4262.071246
776.002388	4280.562198
776.327046	4287.655101
776.651658	4215.869071
776.976224	4153.699041
777.300743	4158.934279
777.625216	4181.685006
777.949643	4173.447761
778.274024	4135.140033
778.598359	4091.662602
778.922647	4115.091364
779.246889	4107.151547
779.571086	4095.781224
779.895236	4082.253288
780.219339	4069.098397
780.543397	4066.282912
780.867409	4118.105974
781.191374	4131.717089
781.515294	4067.417172
781.839167	4058.779155
782.162995	4083.634564
782.486776	4068.937080
782.810511	4083.770675
783.134201	4067.381884
783.457844	4024.186757
783.781441	3973.261021
784.104993	3979.040704
784.428498	3995.588292
784.751958	3992.523270
785.075372	3971.942759
785.398739	3934.676030
785.722061	3949.575160
786.045337	3989.075121
786.368568	4019.871530
786.691752	3930.199485
787.014891	3991.656192
787.337983	4125.516470
787.661030	4286.057056
787.984031	4445.501190
788.306987	4611.594606
788.629897	4693.460424
788.952760	4651.238240
789.275579	4584.354732
789.598351	4513.508876
789.921078	4360.519939
790.243759	4166.306967
790.566395	4153.618382
790.888984	4147.470695
791.211529	4038.347358
791.534027	3979.532217
791.856480	3962.624187
792.178888	3901.590937
792.501249	3857.445553
792.823566	3871.124724
793.145836	3893.048702
793.468062	3842.644725
793.790241	3794.912560
794.112375	3829.583095
794.434464	3894.268661
794.756507	3917.518462
795.078505	3892.476531
795.400457	3936.460598
795.722364	4076.627360
796.044226	4182.728525
796.366042	4257.463631
796.687812	4226.324424
797.009538	4229.578488
797.331218	4197.582285
797.652852	4171.154036
797.974442	4144.735869
798.295986	4143.838544
798.617484	4057.105492
798.938938	3975.587514
799.260346	4021.096530
799.581709	4010.540354
799.903026	3935.222995
800.224299	3901.588416
800.545526	3895.249165
800.866708	3856.447404
801.187845	3796.969351
801.508936	3831.511337
801.829983	3821.880212
802.150984	3748.324737
802.471940	3739.263263
802.792851	3744.710229
803.113717	3743.356679
803.434538	3746.971187
803.755314	3686.358873
804.076045	3664.432375
804.396731	3689.033206
804.717372	3714.412895
805.037967	3693.255172
805.358518	3683.293852
805.679024	3716.220148
805.999485	3730.108527
806.319901	3736.054568
806.640272	3743.444900
806.960598	3758.860748
807.280879	3734.131368
807.601115	3750.573091
807.921306	3763.410389
808.241453	3804.659631
808.561554	3776.945888
808.881611	3708.176987
809.201623	3754.618617
809.521590	3760.388218
809.841513	3732.515678
810.161390	3762.492899
810.481223	3738.580186
810.801011	3682.572967
811.120755	3679.447452
811.440453	3715.804253
811.760107	3715.965570
812.079716	3667.925894
812.399281	3641.258191
812.718801	3667.144516
813.038276	3638.152840
813.357707	3635.539002
813.677093	3653.861075
813.996434	3598.902416
814.315731	3612.992441
814.634983	3615.243316
814.954191	3632.048002
815.273354	3657.672187
815.592473	3650.342350
815.911547	3661.009431
816.230577	3705.265721
816.549562	3756.191457
816.868502	3800.369609
817.187399	3821.239986
817.506250	3816.879388
817.825058	3795.051192
818.143821	3894.072056
818.462539	3992.437570
818.781213	4038.463305
819.099843	4103.290023
819.418429	4364.517574
819.736970	4605.943473
820.055466	4858.971587
820.373919	5231.061673
820.692327	5652.328215
821.010691	6135.865610
821.329011	7614.559541
821.647286	10499.208595
821.965517	15213.506628
822.283704	19226.426407
822.601847	21220.643854
822.919945	19306.389189
823.237999	16656.546999
823.556010	14147.549607
823.873976	11993.749393
824.191897	9883.396364
824.509775	8547.974546
824.827609	7415.920435
825.145398	6890.130610
825.463144	6773.788341
825.780845	6883.564507
826.098502	7103.474761
826.416116	8045.447125
826.733685	9403.024814
827.051210	10504.602629
827.368692	10449.691861
827.686129	9135.132858
828.003522	7620.061960
828.320872	6604.839111
828.638177	5887.772785
828.955439	5316.320188
829.272656	4812.852591
829.589830	4539.281775
829.906960	4362.962378
830.224046	4173.848533
830.541088	4049.994944
830.858086	4004.342255
831.175041	3922.841921
831.491952	3909.951691
831.808819	3917.871343
832.125642	3998.003004
832.442421	4157.573168
832.759157	4450.199545
833.075849	5035.081776
833.392497	5923.912817
833.709101	6712.364402
834.025662	7018.548963
834.342179	6602.250478
834.658653	5927.716367
834.975083	5267.332775
835.291469	4687.325340
835.607811	4279.869039
835.924110	4140.617247
836.240366	3940.591824
836.556578	3731.671285
836.872746	3626.142291
837.188871	3580.986155
837.504952	3510.263808
837.820990	3428.093000
838.136984	3386.810991
838.452935	3411.752100
838.768842	3405.889238
839.084706	3429.539811
839.400526	3602.010287
839.716303	3962.611584
840.032037	4509.334801
840.347727	4744.890276
840.663373	4436.681691
840.978977	4046.660221
841.294537	3739.114548
841.610054	3514.513501
841.925527	3410.990886
842.240957	3339.650997
842.556344	3279.421812
842.871687	3219.439642
843.186987	3169.305367
843.502244	3133.997126
843.817458	3097.678133
844.132629	3070.949935
844.447756	3078.360432
844.762840	3059.866959
845.077881	3030.348482
845.392879	3012.601100
845.707833	3009.163033
846.022745	3009.891480
846.337613	3004.648680
846.652438	2995.052844
846.967221	2992.847339
847.281960	2978.338898
847.596656	2974.477374
847.911309	2977.171871
848.225919	2968.901858
848.540485	2965.131075
848.855009	2962.882720
849.169490	2953.196143
849.483928	2944.495112
849.798323	2941.994699
850.112675	2940.137034
850.426984	2952.576081
850.741251	2948.961574
851.055474	2936.585541
851.369654	2930.596651
851.683792	2937.936571
851.997887	2946.685493
852.311938	2950.463838
852.625947	2936.567897
852.939914	2939.547219
853.253837	2942.715584
853.567718	2929.792587
853.881555	2929.656475
854.195350	2942.677776
854.509103	2941.157868
854.822812	2931.191507
855.136479	2927.151022
855.450103	2930.841147
855.763685	2926.155394
856.077224	2921.356216
856.390720	2933.162598
856.704173	2943.456634
857.017584	2936.535130
857.330953	2933.487752
857.644278	2943.892694
857.957561	2950.574743
858.270802	2957.962554
858.584000	2953.843932
858.897155	2938.304575
859.210268	2940.555450
859.523339	2937.215686
859.836367	2936.996395
860.149352	2932.383740
860.462295	2925.936104
860.775195	2937.182918
861.088054	2934.337187
861.400869	2916.612490
861.713642	2915.962181
862.026373	2932.151847
862.339062	2934.488421
862.651708	2938.856581
862.964312	2943.083589
863.276873	2935.652928
863.589392	2948.102057
863.901869	2956.757718
864.214303	2980.352839
864.526696	2997.477639
864.839045	2992.267606
865.151353	2991.143429
865.463619	2991.939931
865.775842	2987.987667
866.088023	3013.228724
866.400162	3015.787109
866.712258	2984.547079
867.024313	2976.176243
867.336325	2986.210660
867.648296	3005.183042
867.960224	2999.141219
868.272110	2986.150166
868.583954	2992.199551
868.895755	3005.241016
869.207515	2991.007318
869.519233	2997.366733
869.830909	3011.829804
870.142542	3017.644775
870.454134	3016.636544
870.765684	3019.830115
871.077191	3017.609487
871.388657	3029.131044
871.700081	3042.507745
872.011463	3052.577450
872.322803	3050.611400
872.634101	3048.718447
872.945357	3071.897672
873.256571	3098.709049
873.567744	3090.265116
873.878874	3084.167841
874.189963	3105.350769
874.501010	3104.254318
874.812015	3096.395159
875.122979	3094.078749
875.433900	3093.360385
875.744780	3103.601489
876.055618	3107.042076
876.366415	3101.458998
876.677169	3113.214969
876.987882	3110.719598
877.298554	3108.660287
877.609183	3133.858494
877.919771	3155.333810
878.230317	3183.198787
878.540822	3233.922877
878.851285	3273.324536
879.161707	3322.589212
879.472087	3434.260852
879.782425	3681.743697
880.092722	4138.595744
880.402977	4679.262014
880.713191	5343.688612
881.023363	6549.923301
881.333494	7862.778395
881.643583	8382.135708
881.953631	8050.193371
882.263637	7380.622276
882.573602	6763.108656
882.883526	6182.392939
883.193408	5608.190392
883.503248	5152.840610
883.813048	4839.379143
884.122806	4509.748175
884.432522	4190.595246
884.742197	3948.282104
885.051831	3755.160541
885.361424	3627.279071
885.670975	3555.770304
885.980485	3458.576858
886.289954	3379.823952
886.599382	3334.012467
886.908768	3298.850418
887.218113	3255.761156
887.527417	3195.564738
887.836680	3146.055566
888.145901	3139.370996
888.455082	3126.299284
888.764221	3076.008733
889.073319	3043.959598
889.382376	3041.655790
889.691392	3049.653581
890.000366	3044.078065
890.309300	3033.552136
890.618193	3045.219886
890.927044	3064.824933
891.235855	3063.846950
891.544625	3047.052346
891.853353	3061.681774
892.162041	3077.218610
892.470687	3122.377266
892.779293	3174.361645
893.087858	3222.895353
893.396381	3298.933598
893.704864	3432.292281
894.013306	3682.391485
894.321707	3996.387314
894.630068	4189.846634
894.938387	4177.684851
895.246665	4138.384015
895.554903	4011.392309
895.863100	3801.274496
896.171256	3630.913743
896.479371	3489.521980
896.787446	3362.542877
897.095480	3256.729057
897.403473	3193.961651
897.711425	3157.987977
898.019336	3149.473468
898.327207	3117.885598
898.635038	3078.569639
898.942827	3064.015828
899.250576	3052.549724
899.558284	3019.232738
899.865952	3000.714059
900.173579	2976.776140
900.481165	2970.953608
900.788711	2958.794345
901.096216	2933.724687
901.403681	2924.247317
901.711105	2929.505241
902.018489	2928.418872
902.325832	2928.514654
902.633135	2941.465378
902.940397	2975.513331
903.247619	3063.746127
903.554800	3274.940226
903.861941	3639.491266
904.169041	4088.595059
904.476101	4374.395715
904.783121	4302.907112
905.090100	4044.265673
905.397039	3767.758385
905.703938	3510.155423
906.010796	3325.848318
906.317614	3209.301882
906.624391	3112.242027
906.931129	3038.011036
907.237826	2979.528610
907.544483	2931.216713
907.851099	2902.227557
908.157675	2877.737632
908.464211	2857.063860
908.770707	2845.728826
909.077163	2828.674602
909.383578	2814.821511
909.689954	2804.217444
909.996289	2802.601754
910.302584	2803.700726
910.608839	2803.862043
910.915054	2798.311732
911.221229	2788.236987
911.527363	2793.066412
911.833458	2801.694347
912.139513	2805.593679
912.445527	2808.729277
912.751502	2819.459373
913.057436	2827.353820
913.363331	2841.637929
913.669186	2866.846219
913.975000	2902.406518
914.280775	2967.588638
914.586510	3040.037580
914.892205	3122.062194
915.197859	3257.822988
915.503475	3464.540543
915.809050	3688.297197
916.114585	3832.630473
916.420081	3842.838809
916.725536	3780.310858
917.030952	3654.639933
917.336328	3521.626569
917.641665	3387.176475
917.946961	3285.009931
918.252218	3213.128118
918.557435	3128.877834
918.862612	3068.857857
919.167750	3018.869775
919.472848	2979.064824
919.777906	2950.418468
920.082925	2924.711103
920.387904	2891.711710
920.692843	2875.847199
920.997743	2861.210209
921.302603	2848.486337
921.607423	2839.185408
921.912204	2825.954900
922.216946	2814.282108
922.521647	2805.732311
922.826310	2798.183183
923.130932	2790.006432
923.435516	2779.961932
923.740059	2771.023967
924.044564	2763.464757
924.349028	2758.917636
924.653454	2750.718199
924.957840	2747.000348
925.262186	2740.769482
925.566493	2734.984758
925.870761	2732.363358
926.174989	2728.151474
926.479178	2723.506051
926.783328	2720.932542
927.087438	2716.950030
927.391509	2712.828887
927.695541	2712.470965
927.999533	2710.847713
928.303486	2705.120962
928.607400	2705.630119
928.911275	2705.481405
929.215110	2704.216075
929.518906	2700.334387
929.822663	2702.691126
930.126381	2703.424614
930.430060	2706.688761
930.733699	2703.656507
931.037299	2706.976107
931.340861	2703.979141
931.644383	2707.512990
931.947866	2707.034080
932.251309	2703.167515
932.554714	2701.410673
932.858080	2701.146013
933.161407	2699.618543
933.464694	2698.179294
933.767943	2693.972451
934.071153	2698.696012
934.374323	2696.006556
934.677455	2696.465301
934.980548	2697.077802
935.283602	2694.658048
935.586617	2692.628983
935.889593	2696.908923
936.192530	2693.959848
936.495428	2696.268696
936.798287	2697.803728
937.101108	2704.763041
937.403890	2706.199769
937.706632	2709.158927
938.009336	2716.594629
938.312002	2723.311966
938.614628	2733.618605
938.917216	2740.648494
939.219765	2742.228896
939.522275	2743.975656
939.824747	2738.455592
940.127179	2734.866291
940.429573	2734.029459
940.731929	2731.907133
941.034246	2725.308263
941.336524	2724.393294
941.638763	2721.098900
941.940964	2720.667881
942.243126	2717.554968
942.545250	2715.974567
942.847335	2710.847713
943.149381	2707.074410
943.451389	2703.250694
943.753359	2701.715663
944.055290	2700.788091
944.357182	2700.498224
944.659036	2698.625436
944.960851	2698.799356
945.262628	2697.183666
945.564367	2697.261804
945.866067	2696.626618
946.167729	2695.925898
946.469352	2695.661237
946.770937	2696.621577
947.072484	2695.832637
947.373992	2693.705270
947.675462	2694.653007
947.976893	2690.587316
948.278286	2690.327697
948.579641	2689.291739
948.880958	2687.789476
949.182236	2689.095134
949.483476	2687.232428
949.784678	2686.067922
950.085841	2687.066070
950.386967	2690.012624
950.688054	2689.490865
950.989103	2689.596729
951.290114	2690.317614
951.591087	2692.412214
951.892021	2697.009746
952.192917	2699.857998
952.493776	2700.944367
952.794596	2701.440920
953.095378	2701.219109
953.396122	2699.971424
953.696828	2697.488656
953.997496	2696.750127
954.298126	2695.890610
954.598718	2693.052440
954.899272	2687.272757
955.199788	2686.670339
955.500266	2684.248065
955.800706	2681.442663
956.101108	2680.142045
956.401472	2679.436284
956.701798	2675.524348
957.002087	2673.573422
957.302337	2673.656601
957.602550	2673.510407
957.902724	2671.693071
958.202861	2668.804490
958.502960	2667.786177
958.803022	2667.292144
959.103045	2667.176197
959.403031	2665.021104
959.702979	2665.575631
960.002889	2668.040755
960.302762	2662.838285
960.602596	2665.316012
960.902393	2664.630415
961.202153	2661.446926
961.501875	2663.554128
961.801559	2662.923984
962.101205	2661.988850
962.400814	2660.778973
962.700385	2662.682009
962.999918	2659.967347
963.299414	2658.603715
963.598873	2658.563386
963.898293	2655.233704
964.197677	2660.068171
964.497022	2658.477687
964.796331	2659.448109
965.095601	2659.685043
965.394835	2661.043634
965.694030	2660.670588
965.993189	2661.031031
966.292309	2661.540187
966.591393	2658.969199
966.890439	2660.342913
967.189447	2659.231339
967.488419	2657.245124
967.787353	2660.791576
968.086249	2658.999446
968.385108	2659.806031
968.683930	2657.789569
968.982714	2659.760660
969.281462	2657.827378
969.580172	2660.715959
969.878844	2659.987512
970.177480	2659.470794
970.476078	2660.710918
970.774639	2658.616318
971.073162	2660.166473
971.371649	2661.930877
971.670098	2661.346103
971.968510	2659.506082
972.266885	2661.439364
972.565223	2659.990033
972.863524	2660.451298
973.161788	2659.669919
973.460014	2658.964158
973.758204	2658.679333
974.056356	2658.644045
974.354471	2659.127995
974.652550	2660.801658
974.950591	2660.368119
975.248595	2662.457677
975.546563	2660.529436
975.844493	2661.514982
976.142386	2657.557676
976.440243	2658.770073
976.738062	2657.867707
977.035845	2659.092707
977.333590	2659.531288
977.631299	2656.385608
977.928971	2655.856287
978.226606	2654.870741
978.524204	2655.568941
978.821765	2655.994918
979.119290	2657.459373
979.416777	2657.552635
979.714228	2657.484579
980.011642	2654.361584
980.309020	2657.497182
980.606360	2657.996256
980.903664	2659.140598
981.200931	2658.371822
981.498162	2659.616987
981.795356	2661.202430
982.092513	2660.600012
982.389633	2664.534633
982.686717	2667.072854
982.983764	2671.236847
983.280775	2675.781447
983.577749	2675.801612
983.874686	2672.567712
984.171587	2673.883453
984.468451	2671.398164
984.765279	2665.900786
985.062070	2663.261742
985.358824	2663.057575
985.655543	2662.185455
985.952224	2661.857780
986.248869	2659.876607
986.545478	2656.483910
986.842050	2659.541370
987.138586	2654.321255
987.435086	2656.657830
987.731549	2656.171359
988.027975	2655.213539
988.324366	2657.464415
988.620719	2656.904847
988.917037	2655.268992
989.213318	2655.319404
989.509563	2654.969043
989.805772	2653.673467
990.101944	2653.716317
990.398080	2655.195895
990.694180	2653.852428
990.990244	2653.549959
991.286271	2652.980308
991.582262	2653.713796
991.878217	2655.415186
992.174136	2654.681698
992.470019	2653.812099
992.765865	2651.132725
993.061676	2649.993425
993.357450	2652.380411
993.653188	2649.569968
993.948890	2654.185144
994.244556	2653.272695
994.540186	2655.024496
994.835780	2656.073056
995.131337	2657.350989
995.426859	2656.047850
995.722345	2654.865700
996.017795	2656.824188
996.313208	2658.883499
996.608586	2659.657317
996.903928	2658.704538
997.199234	2658.943993
997.494504	2656.441060
997.789738	2659.937101
998.084936	2658.586071
998.380099	2656.143632
998.675225	2656.473828
998.970316	2655.561379
999.265371	2653.297901
999.560390	2652.372849
999.855373	2655.175731
1000.150320	2651.702376
1000.445232	2652.713127
1000.740108	2652.493837
1001.034948	2649.832108
1001.329752	2652.587098
1001.624521	2653.038282
1001.919254	2655.014414
1002.213951	2653.847387
1002.508613	2651.835966
1002.803239	2652.486275
1003.097829	2651.286481
1003.392384	2651.873775
1003.686903	2653.522232
1003.981386	2651.384783
1004.275834	2651.397386
1004.570246	2649.741367
1004.864623	2651.415030
1005.158964	2653.466780
1005.453270	2651.828405
1005.747540	2648.866727
1006.041775	2650.414361
1006.335974	2651.099958
1006.630138	2651.644402
1006.924266	2653.600370
1007.218359	2652.428302
1007.512416	2650.442087
1007.806438	2646.646098
1008.100425	2649.771614
1008.394376	2647.508136
1008.688292	2652.241779
1008.982172	2652.264464
1009.276017	2656.589774
1009.569827	2648.844042
1009.863602	2651.437715
1010.157341	2651.331851
1010.451045	2653.751605
1010.744714	2653.640699
1011.038347	2649.907725
1011.331945	2651.289001
1011.625508	2652.254382
1011.919036	2650.069042
1012.212528	2650.495019
1012.505986	2650.096768
1012.799408	2650.671460
1013.092795	2648.849083
1013.386147	2650.532828
1013.679464	2651.911584
1013.972745	2650.253044
1014.265992	2651.583909
1014.559204	2650.971408
1014.852380	2652.690442
1015.145521	2651.314207
1015.438628	2651.402427
1015.731699	2651.543579
1016.024736	2650.593322
1016.317737	2651.294042
1016.610703	2650.583240
1016.903635	2651.205822
1017.196531	2650.159783
1017.489393	2649.370842
1017.782219	2651.115081
1018.075011	2650.749598
1018.367768	2647.392189
1018.660490	2646.900677
1018.953177	2646.900677
1019.245829	2646.900677
