Dividing Wavelength (nm)	Counts (n)	Blue Motor Position (mm): 0.000000	Red Motor Position (mm): 27.500000	
326.493990	2145.557927
326.888308	2145.557927
327.282561	2145.557927
327.676750	2117.125819
328.070874	2117.042640
328.464933	2124.566562
328.858929	2133.675927
329.252859	2146.162865
329.646726	2158.473363
330.040528	2174.000117
330.434265	2191.871007
330.827938	2212.408668
331.221547	2231.665876
331.615091	2249.390573
332.008571	2270.717174
332.401986	2292.500000
332.795338	2312.261323
333.188625	2331.427790
333.581847	2350.327075
333.975006	2372.099819
334.368100	2390.973899
334.761129	2404.935374
335.154095	2424.371543
335.546996	2437.823862
335.939833	2455.760287
336.332606	2469.424335
336.725315	2481.044195
337.117960	2487.295225
337.510540	2495.960969
337.903056	2506.751559
338.295508	2511.986797
338.687896	2519.367046
339.080220	2528.390712
339.472480	2534.823224
339.864676	2534.520755
340.256807	2540.257588
340.648875	2540.214738
341.040879	2543.667928
341.432818	2542.463092
341.824694	2544.804708
342.216506	2544.638350
342.608253	2543.983000
342.999937	2543.751107
343.391557	2541.938812
343.783113	2543.741025
344.174605	2541.394368
344.566033	2536.199459
344.957397	2536.930426
345.348697	2535.188708
345.739934	2535.007226
346.131106	2534.102339
346.522215	2530.772657
346.913260	2530.129910
347.304241	2525.981040
347.695159	2524.178827
348.086012	2523.410052
348.476802	2522.669002
348.867528	2523.571368
349.258191	2518.562982
349.648789	2520.554238
350.039324	2517.267406
350.429796	2518.809999
350.820203	2519.087262
351.210548	2517.584998
351.600828	2516.397807
351.991045	2515.129956
352.381198	2513.695748
352.771288	2516.833866
353.161314	2514.605676
353.551276	2513.615090
353.941175	2515.162724
354.331010	2512.337157
354.720782	2516.049967
355.110490	2515.782786
355.500135	2512.851355
355.889717	2515.460152
356.279235	2516.589370
356.668689	2516.972498
357.058080	2516.518794
357.447408	2513.456293
357.836672	2514.499812
358.225873	2514.328413
358.615010	2514.061232
359.004084	2518.615914
359.393095	2517.083403
359.782043	2519.513240
360.170927	2520.241686
360.559748	2520.607170
360.948505	2522.061543
361.337199	2520.952489
361.725830	2522.492562
362.114398	2522.890813
362.502903	2521.058353
362.891344	2521.912829
363.279722	2521.756553
363.668037	2524.710669
364.056289	2524.403159
364.444478	2525.723941
364.832603	2524.861904
365.220665	2525.182017
365.608665	2525.234949
365.996601	2526.764939
366.384474	2527.087573
366.772284	2522.696728
367.160031	2528.572193
367.547715	2526.790145
367.935336	2527.480783
368.322893	2529.411545
368.710388	2531.664941
369.097820	2532.227030
369.485189	2528.700743
369.872495	2531.052441
370.259738	2529.600588
370.646918	2529.764426
371.034035	2529.570342
371.421090	2532.282482
371.808081	2532.635363
372.195010	2532.582431
372.581875	2530.845753
372.968678	2537.258101
373.355418	2533.436907
373.742096	2535.506300
374.128710	2537.903369
374.515262	2536.887576
374.901751	2536.824562
375.288177	2539.735828
375.674540	2538.505787
376.060841	2543.478885
376.447079	2545.092054
376.833254	2545.341591
377.219367	2543.715819
377.605417	2550.352498
377.991404	2553.460370
378.377329	2553.619166
378.763191	2553.520863
379.148991	2561.122923
379.534727	2566.355641
379.920402	2570.514593
380.306013	2573.466189
380.691563	2577.483988
381.077049	2577.814184
381.462474	2585.325503
381.847835	2591.226174
382.233134	2598.964345
382.618371	2599.042483
383.003545	2607.362907
383.388657	2610.417846
383.773706	2617.661984
384.158693	2623.925618
384.543618	2635.379120
384.928480	2636.621764
385.313280	2648.793630
385.698017	2653.370998
386.082692	2663.753254
386.467305	2667.619819
386.851856	2677.006447
387.236344	2689.644620
387.620770	2693.180990
388.005133	2702.615509
388.389435	2714.913404
388.773674	2720.078066
389.157851	2729.197513
389.541965	2740.683782
389.926018	2741.437435
390.310008	2753.528642
390.693936	2762.590116
391.077802	2773.733587
391.461606	2783.599125
391.845348	2790.324024
392.229027	2801.704429
392.612645	2814.892087
392.996200	2826.002791
393.379694	2836.773216
393.763125	2850.888447
394.146494	2862.790611
394.529801	2874.299565
394.913047	2890.358161
395.296230	2891.089128
395.679351	2899.505334
396.062410	2915.553848
396.445408	2913.398754
396.828343	2924.224632
397.211217	2931.821651
397.594028	2925.134560
397.976778	2938.130655
398.359466	2956.480455
398.742092	2950.448714
399.124656	2966.172073
399.507158	2980.040288
399.889598	2983.959785
400.271977	3001.576097
400.654294	3006.622292
401.036549	3016.790299
401.418742	3023.570651
401.800874	3044.788868
402.182944	3052.723644
402.564952	3083.434353
402.946898	3072.447158
403.328783	3085.385279
403.710606	3097.438678
404.092367	3122.142853
404.474067	3144.575987
404.855705	3136.210192
405.237282	3140.409474
405.618797	3172.705626
406.000250	3191.942669
406.381642	3224.173286
406.762972	3226.996332
407.144240	3213.561657
407.525447	3238.253229
407.906593	3239.251377
408.287677	3256.214860
408.668700	3277.521297
409.049661	3273.216151
409.430560	3292.042340
409.811399	3296.350006
410.192176	3317.815239
410.572891	3325.195488
410.953545	3364.914740
411.334138	3329.881241
411.714669	3383.940054
412.095139	3328.063905
412.475547	3377.295813
412.855894	3369.998743
413.236180	3399.421438
413.616405	3381.840414
413.996568	3402.990575
414.376670	3408.124990
414.756711	3403.897982
415.136691	3428.067794
415.516609	3453.570992
415.896466	3457.056950
416.276262	3484.536279
416.655997	3514.284128
417.035670	3522.191178
417.415283	3590.851693
417.794834	3608.982203
418.174324	3591.907815
418.553753	3596.132302
418.933121	3639.564363
419.312428	3627.715131
419.691674	3620.856641
420.070859	3659.257630
420.449983	3640.701143
420.829045	3691.654606
421.208047	3676.642049
421.586988	3720.689131
421.965867	3753.585181
422.344686	3760.723454
422.723444	3800.059578
423.102141	3702.452757
423.480777	3805.998057
423.859352	3776.459416
424.237866	3872.296792
424.616319	3854.110829
424.994712	3914.791198
425.373044	3902.137902
425.751314	3967.864466
426.129524	3905.144950
426.507673	4001.902337
426.885762	3978.758399
427.263789	4004.856453
427.641756	4004.682533
428.019662	4036.812327
428.397508	4036.640928
428.775292	4075.445210
429.153016	4078.348914
429.530679	4093.389197
429.908282	4101.558387
430.285824	4084.363011
430.663305	4157.454700
431.040726	4109.803194
431.418086	4107.411166
431.795385	4178.309954
432.172624	4212.178946
432.549802	4178.665355
432.926920	4198.540104
433.303977	4191.767314
433.680974	4228.708889
434.057910	4254.416253
434.434786	4261.441101
434.811601	4253.463475
435.188355	4361.641596
435.565050	4328.317048
435.941683	4327.021472
436.318257	4420.214762
436.694770	4418.672169
437.071222	4476.922702
437.447614	4408.879728
437.823946	4417.376593
438.200218	4430.992749
438.576429	4415.138320
438.952580	4437.100107
439.328670	4442.806693
439.704700	4485.532993
440.080670	4449.715595
440.456580	4512.135162
440.832429	4548.242426
441.208218	4446.358186
441.583947	4501.185775
441.959616	4517.287221
442.335224	4541.968710
442.710773	4561.467893
443.086261	4617.104587
443.461689	4568.061722
443.837057	4580.422632
444.212365	4655.911390
444.587612	4660.138397
444.962800	4629.949448
445.337927	4668.327752
445.712995	4553.560843
446.088002	4747.108383
446.462949	4769.833905
446.837837	4785.453920
447.212664	4773.788690
447.587431	4994.888657
447.962139	5297.335202
448.336786	5631.873733
448.711374	5611.371361
449.085901	5262.488226
449.460369	5202.233835
449.834776	5136.971057
450.209124	5368.337334
450.583412	5377.171956
450.957640	5499.293908
451.331808	5363.628896
451.705917	5215.577769
452.079965	5205.248445
452.453954	5244.801338
452.827883	5205.989495
453.201752	5217.828644
453.575562	5241.010390
453.949311	5379.790835
454.323001	5385.240323
454.696632	5375.712542
455.070202	5527.116036
455.443713	5554.597886
455.817164	5648.363347
456.190556	5719.741045
456.563888	5694.063928
456.937160	5769.242655
457.310373	5609.838850
457.683526	5665.019320
458.056619	5658.793495
458.429653	5634.154855
458.802628	5676.087173
459.175542	5708.224529
459.548398	5849.517989
459.921194	6026.291090
460.293930	6088.236788
460.666607	6334.383727
461.039224	6539.949378
461.411782	6659.245764
461.784280	6574.869451
462.156719	6577.705100
462.529099	6532.009561
462.901419	6396.788171
463.273680	6261.977635
463.645882	6239.733543
464.018024	6240.903091
464.390106	6299.352749
464.762130	6547.881634
465.134094	6913.456029
465.505999	7514.389293
465.877845	8189.588837
466.249631	8527.048716
466.621358	8446.052497
466.993026	8255.169207
467.364634	8041.106691
467.736184	7748.626507
468.107674	7587.733041
468.479105	7493.014801
468.850477	7409.223263
469.221790	7243.694455
469.593043	7022.647421
469.964238	6913.456029
470.335373	6879.166100
470.706449	7008.194433
471.077467	7164.621437
471.448425	7748.692042
471.819324	8279.283567
472.190164	8296.068088
472.560945	7831.911410
472.931667	7377.922738
473.302330	7180.611977
473.672934	7054.603295
474.043479	7101.266736
474.413965	6989.968141
474.784393	6926.729387
475.154761	7035.716612
475.525070	7025.508276
475.895321	6958.448327
476.265513	7016.023345
476.635645	7132.519369
477.005719	7096.691889
477.375734	7146.687532
477.745691	7202.591407
478.115588	7349.488110
478.485427	7517.396342
478.855207	7885.609780
479.224928	8183.990635
479.594591	8467.996640
479.964194	8434.704860
480.333739	8468.301630
480.703226	8428.330321
481.072653	8454.677912
481.442022	8489.792069
481.811333	8561.560456
482.180584	8384.373980
482.549777	8286.731871
482.918912	8192.495062
483.287988	8122.281871
483.657005	7996.121955
484.025964	7883.250520
484.394864	7876.749952
484.763706	7788.938094
485.132489	7662.715163
485.501213	7606.110567
485.869879	7592.804442
486.238487	7489.256621
486.607036	7477.999724
486.975527	7387.944552
487.343959	7363.593258
487.712333	7330.704771
488.080648	7296.079606
488.448905	7300.896428
488.817104	7240.667242
489.185244	7278.397758
489.553326	7337.560740
489.921350	7553.813637
490.289315	7847.947320
490.657222	7947.174872
491.025070	7974.734860
491.392861	7846.598811
491.760593	7679.020775
492.128267	7458.669420
492.495883	7254.222905
492.863440	7044.894033
493.230939	6852.455547
493.598380	6684.791811
493.965763	6597.436176
494.333088	6464.006916
494.700354	6355.387695
495.067563	6271.026506
495.434713	6202.174427
495.801805	6156.678013
496.168839	6071.399334
496.535815	5981.777701
496.902733	5934.353046
497.269593	5851.042938
497.636395	5785.545747
498.003139	5755.364358
498.369825	5662.082848
498.736453	5633.028157
499.103023	5545.188572
499.469535	5483.240353
499.835989	5433.547179
500.202385	5360.442887
500.568723	5296.473165
500.935003	5258.351960
501.301226	5179.558725
501.667390	5168.516078
502.033497	5135.811592
502.399546	5053.668511
502.765537	4961.165858
503.131470	4934.316673
503.497345	4899.809975
503.863163	4775.235501
504.228923	4748.683744
504.594625	4718.330957
504.960269	4638.763905
505.325856	4618.964773
505.691385	4534.417062
506.056856	4492.552799
506.422270	4458.348571
506.787625	4390.025813
507.152924	4346.371941
507.518164	4307.224861
507.883347	4228.366091
508.248472	4193.425854
508.613540	4163.239424
508.978550	4125.513950
509.343503	4071.293819
509.708398	4037.381977
510.073236	4010.318543
510.438016	3966.841112
510.802738	3906.599323
511.167403	3881.784243
511.532010	3845.626568
511.896561	3818.842917
512.261053	3801.571924
512.625488	3744.405239
512.989866	3699.049978
513.354186	3658.017507
513.718449	3620.806229
514.082655	3599.693877
514.446803	3558.303483
514.810894	3534.940256
515.174927	3496.879544
515.538904	3461.467959
515.902822	3443.284517
516.266684	3401.899165
516.630488	3376.610217
516.994235	3346.945547
517.357925	3322.412772
517.721558	3300.947538
518.085133	3275.661111
518.448651	3252.315527
518.812112	3221.156155
519.175516	3196.560366
519.538863	3174.585976
519.902152	3151.653767
520.265385	3135.212044
520.628560	3112.846965
520.991678	3087.661360
521.354739	3069.757703
521.717743	3052.559806
522.080690	3032.697660
522.443580	3019.217615
522.806413	3000.504852
523.169189	2979.513487
523.531908	2965.983030
523.894569	2950.857048
524.257174	2934.924481
524.619722	2921.520053
524.982213	2907.719894
525.344647	2894.426372
525.707025	2880.419526
526.069345	2868.298071
526.431608	2857.996473
526.793815	2849.209742
527.155964	2837.282372
527.518057	2825.254179
527.880093	2813.871254
528.242072	2807.491674
528.603995	2798.460447
528.965860	2789.083900
529.327669	2779.949330
529.689421	2770.955911
530.051117	2767.104470
530.412755	2760.845877
530.774337	2752.061667
531.135862	2745.205697
531.497331	2739.242012
531.858743	2731.254304
532.220098	2727.309601
532.581396	2720.856924
532.942638	2715.039433
533.303824	2711.185471
533.664953	2710.729246
534.026025	2704.548792
534.387040	2702.096270
534.747999	2697.773481
535.108902	2695.265507
535.469748	2691.023376
535.830537	2687.842408
536.191270	2682.460976
536.551947	2682.408044
536.912567	2679.070800
537.273131	2679.083403
537.633638	2674.906807
537.994089	2670.319357
538.354483	2667.307267
538.714821	2668.776764
539.075103	2667.345076
539.435328	2663.667554
539.795497	2661.157060
540.155609	2662.913902
540.515665	2660.917605
540.875665	2657.446771
541.235609	2656.413334
541.595496	2654.162459
541.955328	2659.284271
542.315102	2655.301760
542.674821	2650.547952
543.034483	2651.513332
543.394090	2649.945534
543.753640	2648.062663
544.113134	2650.643733
544.472571	2646.787251
544.831953	2646.197436
545.191278	2646.283135
545.550548	2644.407826
545.909761	2642.900521
546.268918	2644.216262
546.628019	2644.054945
546.987064	2641.897332
547.346053	2638.887763
547.704986	2639.974131
548.063863	2640.102681
548.422684	2636.868781
548.781449	2637.864408
549.140158	2640.190901
549.498811	2638.958339
549.857408	2635.845426
550.215949	2632.457771
550.574434	2631.804942
550.932864	2633.637401
551.291237	2627.870321
551.649555	2634.723770
552.007817	2632.276289
552.366022	2633.345014
552.724173	2634.209572
553.082267	2633.846609
553.440305	2636.372227
553.798288	2632.339304
554.156215	2630.035497
554.514086	2629.551546
554.871902	2631.648666
555.229661	2631.885600
555.587365	2630.073305
555.945014	2629.919550
556.302606	2630.017852
556.660143	2629.468367
557.017625	2627.582975
557.375050	2630.789149
557.732421	2629.412914
558.089735	2629.208747
558.446994	2627.409055
558.804197	2627.015845
559.161345	2630.085908
559.518437	2627.081380
559.875474	2628.084570
560.232455	2626.471401
560.589381	2628.422327
560.946251	2627.588016
561.303065	2628.656741
561.659825	2627.338479
562.016528	2624.192799
562.373177	2626.083232
562.729770	2626.441154
563.086307	2625.836215
563.442789	2624.885958
563.799216	2627.938377
564.155587	2624.381842
564.511904	2626.481483
564.868164	2624.845629
565.224370	2626.476442
565.580520	2625.780763
565.936615	2626.489045
566.292654	2625.138016
566.648638	2625.601802
567.004567	2621.354630
567.360441	2625.130454
567.716260	2625.846298
568.072023	2628.255969
568.427732	2620.235493
568.783385	2620.883282
569.138982	2622.612397
569.494525	2623.875207
569.850013	2618.423199
570.205445	2625.576596
570.560823	2624.117182
570.916145	2625.316977
571.271412	2621.402521
571.626625	2626.814199
571.981782	2623.429064
572.336884	2624.074332
572.691931	2622.067953
573.046923	2620.837911
573.401860	2620.734568
573.756743	2621.742798
574.111570	2623.610546
574.466342	2622.335134
574.821059	2622.793879
575.175722	2621.336986
575.530330	2620.918570
575.884882	2621.904115
576.239380	2619.756584
576.593823	2620.479989
576.948211	2618.947479
577.302544	2621.279012
577.656823	2619.897736
578.011047	2617.367077
578.365216	2620.190123
578.719330	2619.890174
579.073389	2619.086110
579.427394	2620.996708
579.781344	2619.290277
580.135239	2622.146091
580.489080	2620.943776
580.842866	2617.200719
581.196597	2620.157356
581.550273	2618.836573
581.903895	2620.880761
582.257463	2618.191306
582.610975	2619.381018
582.964434	2619.504526
583.317837	2619.943107
583.671186	2619.058384
584.024481	2619.083590
584.377721	2618.239197
584.730906	2617.999742
585.084037	2619.524691
585.437113	2618.881944
585.790135	2617.495626
586.143103	2617.039402
586.496016	2617.858589
586.848874	2615.874895
587.201679	2615.421192
587.554428	2615.365739
587.907124	2616.278188
588.259765	2611.985645
588.612352	2617.616614
588.964884	2616.124432
589.317362	2615.431274
589.669786	2617.553600
590.022155	2620.860597
590.374470	2616.933538
590.726731	2616.227776
591.078937	2616.250461
591.431090	2614.836418
591.783188	2617.883795
592.135232	2616.852879
592.487222	2617.296501
592.839157	2617.556120
593.191038	2614.188629
593.542866	2615.360698
593.894639	2614.448249
594.246358	2613.213166
594.598022	2613.724843
594.949633	2614.775924
595.301190	2613.220728
595.652692	2613.157713
596.004141	2613.155193
596.355535	2613.760131
596.706876	2612.237703
597.058162	2612.232662
597.409395	2612.928341
597.760573	2613.896242
598.111698	2612.144442
598.462768	2614.962447
598.813785	2611.536982
599.164748	2612.623351
599.515657	2611.093361
599.866511	2614.460852
600.217312	2613.858434
600.568060	2610.904318
600.918753	2613.054370
601.269392	2614.160903
601.619978	2611.491612
601.970510	2611.799122
602.320988	2613.780296
602.671412	2613.193002
603.021783	2613.447580
603.372100	2614.057559
603.722363	2610.927003
604.072572	2611.352980
604.422728	2611.809205
604.772830	2607.677979
605.122878	2607.688062
605.472872	2606.513473
605.822813	2607.055397
606.172701	2607.635129
606.522534	2608.161930
606.872314	2611.741149
607.222041	2610.322064
607.571714	2612.698968
607.921333	2610.501025
608.270899	2611.864657
608.620411	2610.334667
608.969870	2612.668722
609.319276	2611.315172
609.668627	2610.304420
610.017926	2611.622682
610.367171	2615.277519
610.716362	2610.501025
611.065500	2610.183433
611.414585	2611.925151
611.763616	2611.113526
612.112594	2611.564709
612.461518	2611.547065
612.810389	2612.925820
613.159207	2611.879781
613.507971	2614.193671
613.856682	2611.804164
614.205340	2610.264091
614.553945	2613.225769
614.902496	2613.687035
615.250994	2612.330964
615.599439	2611.196705
615.947830	2614.871706
616.296169	2611.489092
616.644454	2613.384565
616.992686	2614.105450
617.340864	2612.759462
617.688990	2612.232662
618.037063	2611.741149
618.385082	2611.630244
618.733048	2611.300048
619.080961	2612.709051
619.428821	2615.332971
619.776628	2612.870368
620.124382	2613.162755
620.472083	2613.734926
620.819731	2611.839452
621.167326	2613.157713
621.514868	2613.538321
621.862357	2610.846344
622.209793	2610.082610
622.557176	2612.696448
622.904506	2611.191663
623.251783	2606.707557
623.599007	2607.859461
623.946179	2607.854420
624.293297	2605.787547
624.640363	2609.966663
624.987376	2609.815428
625.334336	2609.717126
625.681243	2607.204111
626.028097	2607.572115
626.374899	2609.144955
626.721647	2607.995572
627.068343	2607.685541
627.414987	2607.740994
627.761577	2608.015737
628.108115	2609.195367
628.454600	2604.141610
628.801032	2609.129832
629.147412	2609.255860
629.493739	2607.128493
629.840014	2606.543720
630.186236	2606.276538
630.532405	2606.858792
630.878521	2603.975252
631.224585	2606.339553
631.570597	2605.474995
631.916556	2607.967846
632.262462	2604.875098
632.608316	2607.814090
632.954117	2606.027001
633.299866	2604.547423
633.645562	2606.180757
633.991206	2607.146138
634.336797	2605.389295
634.682336	2605.911055
635.027823	2604.630602
635.373257	2605.575818
635.718639	2604.318050
636.063968	2603.191352
636.409245	2603.216558
636.754470	2604.567587
637.099642	2603.692947
637.444762	2603.846702
637.789829	2606.110180
638.134845	2602.352000
638.479808	2601.918461
638.824719	2602.427617
639.169577	2599.992740
639.514383	2600.050713
639.859137	2602.604058
640.203839	2601.537854
640.548489	2601.013574
640.893086	2597.162132
641.237632	2598.356886
641.582125	2598.694643
641.926566	2595.135588
642.270955	2602.417535
642.615292	2600.610282
642.959576	2600.020467
643.303809	2601.668924
643.647990	2602.089860
643.992118	2604.023143
644.336195	2600.421238
644.680219	2601.056424
645.024192	2600.706063
645.368112	2603.463575
645.711981	2600.892586
646.055797	2600.537185
646.399562	2601.782350
646.743274	2602.646908
647.086935	2602.528441
647.430544	2605.106991
647.774101	2601.489963
648.117606	2600.736310
648.461059	2603.577001
648.804460	2605.933740
649.147810	2601.996599
649.491108	2598.311515
649.834354	2602.851074
650.177548	2600.302771
650.520690	2603.675303
650.863781	2601.938626
651.206820	2601.963831
651.549807	2601.421907
651.892742	2601.600868
652.235626	2598.402256
652.578458	2600.106166
652.921238	2598.893769
653.263967	2598.656834
653.606644	2599.070209
653.949269	2597.260435
654.291843	2597.827565
654.634365	2599.894438
654.976836	2596.221957
655.319255	2599.171032
655.661622	2597.532657
656.003938	2597.764550
656.346203	2597.981320
656.688416	2597.968717
657.030577	2596.917636
657.372687	2595.949735
657.714746	2596.708428
658.056753	2598.210692
658.398708	2593.542584
658.740612	2596.201793
659.082465	2594.999477
659.424266	2593.356061
659.766016	2592.657861
660.107715	2594.671802
660.449362	2594.500403
660.790958	2597.320929
661.132503	2597.623398
661.473996	2596.431165
661.815438	2595.440578
662.156829	2597.930908
662.498168	2596.844540
662.839456	2597.981320
663.180693	2598.747575
663.521879	2597.883017
663.863013	2598.492997
664.204097	2595.480907
664.545129	2595.866556
664.886110	2598.674478
665.227040	2597.893100
665.567918	2598.409818
665.908746	2597.804879
666.249522	2596.388315
666.590248	2598.936618
666.930922	2599.037442
667.271545	2598.205651
667.612118	2601.079109
667.952639	2597.283120
668.293109	2598.341762
668.633528	2599.423090
668.973896	2593.809765
669.314213	2598.225816
669.654480	2595.866556
669.994695	2597.424272
670.334859	2598.760178
670.674973	2596.794128
671.015035	2599.617174
671.355047	2597.179776
671.695008	2595.175918
672.034918	2595.896803
672.374777	2598.039293
672.714585	2597.381422
673.054342	2594.855804
673.394049	2596.252204
673.733705	2597.779674
674.073310	2596.983171
674.412864	2596.252204
674.752368	2597.809921
675.091820	2598.891248
675.431223	2597.933429
675.770574	2595.478387
676.109875	2592.400762
676.449125	2593.582913
676.788324	2594.757502
677.127473	2593.918150
677.466571	2592.609970
677.805619	2596.819334
678.144616	2596.738675
678.483562	2595.972420
678.822458	2593.600557
679.161303	2597.641042
679.500098	2596.642893
679.838842	2593.605598
680.177535	2595.874117
680.516179	2595.400249
680.854771	2594.981833
681.193314	2595.049889
681.531805	2594.772625
681.870247	2595.120465
682.208638	2597.394025
682.546978	2598.354365
682.885268	2597.164653
683.223508	2598.833275
683.561697	2596.862184
683.899836	2596.773963
684.237925	2594.797831
684.575963	2595.347317
684.913951	2598.755137
685.251889	2598.195569
685.589776	2595.944694
685.927614	2599.813779
686.265401	2599.176073
686.603137	2598.074581
686.940824	2599.087853
687.278460	2597.005857
687.616046	2597.220106
687.953582	2595.758171
688.291068	2595.831268
688.628504	2599.312184
688.965889	2595.974941
689.303224	2597.658686
689.640510	2597.136927
689.977745	2596.287492
690.314930	2596.625249
690.652065	2596.655496
690.989150	2595.433017
691.326185	2595.727924
691.663170	2594.528129
692.000105	2592.249528
692.336990	2592.791452
692.673825	2592.534353
693.010610	2593.444281
693.347345	2589.741554
693.684030	2589.245000
694.020665	2589.129054
694.357251	2589.096286
694.693786	2587.924218
695.030272	2591.190886
695.366707	2589.708786
695.703093	2589.711307
696.039429	2589.534867
696.375716	2588.874475
696.711952	2586.300966
697.048139	2589.592840
697.384276	2586.767273
697.720363	2589.267685
698.056400	2589.492017
698.392388	2587.168045
698.728326	2586.545462
699.064214	2589.429002
699.400053	2590.101996
699.735842	2587.949424
700.071581	2588.619897
700.407270	2588.284660
700.742910	2589.625607
701.078501	2587.909094
701.414042	2585.446491
701.749533	2586.343816
702.084974	2588.501430
702.420366	2585.542273
702.755709	2586.215267
703.091002	2585.640575
703.426246	2586.522777
703.761440	2584.138311
704.096584	2585.625452
704.431679	2585.771645
704.766725	2586.752150
705.101721	2582.454566
705.436668	2587.503282
705.771565	2584.244176
706.106413	2587.099989
706.441212	2585.131419
706.775961	2585.854824
707.110661	2584.768456
707.445311	2586.830287
707.779913	2586.038826
708.114465	2586.013621
708.448967	2585.270050
708.783421	2588.279619
709.117825	2584.599577
709.452180	2586.069073
709.786485	2586.248034
710.120742	2587.460432
710.454949	2588.468662
710.789107	2586.250555
711.123216	2586.091758
711.457275	2584.609659
711.791286	2588.022520
712.125247	2587.077304
712.459159	2589.696183
712.793023	2590.177614
713.126837	2591.730289
713.460602	2592.899837
713.794318	2589.572675
714.127985	2590.394383
714.461602	2589.260124
714.795171	2593.058633
715.128691	2586.507654
715.462162	2590.356575
715.795584	2588.236769
716.128957	2589.789445
716.462281	2586.371542
716.795556	2588.261975
717.128782	2587.069742
717.461960	2585.806933
717.795088	2586.001018
718.128167	2583.971953
718.461198	2584.133270
718.794180	2585.670822
719.127113	2581.017837
719.459997	2585.156624
719.792833	2582.426840
720.125619	2583.225862
720.458357	2582.240317
720.791046	2581.753846
721.123686	2581.363156
721.456278	2583.349371
721.788821	2582.134453
722.121315	2584.440781
722.453761	2581.075810
722.786158	2581.118660
723.118506	2582.903229
723.450805	2583.183013
723.783056	2583.119998
724.115259	2578.535069
724.447412	2583.614031
724.779518	2583.798033
725.111574	2584.491192
725.443582	2580.286870
725.775542	2583.424988
726.107453	2586.623600
726.439315	2584.176120
726.771129	2583.883733
727.102895	2582.625965
727.434612	2585.774166
727.766281	2583.926583
728.097901	2581.254771
728.429473	2582.787282
728.760996	2581.756366
729.092471	2580.478434
729.423897	2584.919690
729.755276	2587.115113
730.086606	2585.015472
730.417887	2585.058322
730.749120	2587.296594
731.080305	2585.325503
731.411442	2585.650657
731.742530	2585.368353
732.073570	2588.171234
732.404562	2584.954978
732.735506	2587.200812
733.066401	2587.417582
733.397249	2585.895153
733.728048	2584.713003
734.058798	2585.890112
734.389501	2585.496902
734.720156	2584.231573
735.050762	2583.876171
735.381320	2581.892477
735.711831	2583.225862
736.042293	2578.829976
736.372707	2579.129925
736.703073	2582.820050
737.033391	2582.910790
737.363661	2582.497416
737.693883	2585.786769
738.024056	2584.181161
738.354182	2583.039340
738.684260	2579.596232
739.014290	2583.054463
739.344272	2583.180492
739.674207	2582.754515
740.004093	2584.929772
740.333931	2585.746439
740.663722	2583.372056
740.993464	2583.200657
741.323159	2584.629824
741.652806	2583.596387
741.982405	2583.452714
742.311956	2582.777200
742.641460	2582.986408
742.970915	2580.503639
743.300323	2583.898857
743.629683	2579.175295
743.958996	2580.301993
744.288260	2582.948599
744.617477	2579.079513
744.946647	2577.685634
745.275768	2579.200501
745.604842	2576.692527
745.933869	2577.370562
746.262847	2577.186560
746.591778	2579.427353
746.920662	2580.649833
747.249498	2579.986921
747.578286	2580.400296
747.907027	2584.380287
748.235720	2578.953485
748.564365	2581.506829
748.892963	2580.624627
749.221514	2582.043712
749.550017	2578.945923
749.878473	2580.112950
750.206881	2580.662436
750.535242	2578.653536
750.863555	2581.963053
751.191821	2580.889288
751.520039	2582.444484
751.848210	2580.581777
752.176334	2580.859041
752.504411	2578.023392
752.832440	2579.717219
753.160421	2581.955492
753.488356	2580.876685
753.816243	2578.245202
754.144082	2579.692014
754.471875	2581.113619
754.799620	2581.947930
755.127318	2576.967270
755.454969	2578.938361
755.782572	2578.285532
756.110129	2577.980542
756.437638	2579.634040
756.765100	2578.797209
757.092515	2576.722774
757.419882	2576.135480
757.747203	2580.672518
758.074477	2579.195460
758.401703	2580.480954
758.728882	2579.336612
759.056014	2578.313258
759.383099	2580.264185
759.710138	2580.662436
760.037129	2579.712178
760.364073	2579.984401
760.690970	2580.233938
761.017820	2579.845769
761.344623	2581.463979
761.671379	2581.842066
761.998088	2575.593556
762.324751	2577.665470
762.651366	2580.412899
762.977935	2586.406831
763.304456	2587.462952
763.630931	2595.861515
763.957359	2591.392532
764.283740	2592.718355
764.610074	2590.190217
764.936362	2588.551842
765.262602	2586.956316
765.588796	2585.824577
765.914943	2583.142683
766.241044	2578.711509
766.567097	2580.697724
766.893104	2578.827456
767.219064	2577.509194
767.544978	2578.184709
767.870845	2576.034657
768.196665	2579.268557
768.522438	2574.968453
768.848165	2576.432908
769.173846	2576.747980
769.499479	2576.440469
769.825066	2575.195304
770.150607	2579.291242
770.476101	2575.911148
770.801548	2578.668659
771.126949	2577.436097
771.452303	2576.082547
771.777611	2574.174471
772.102872	2578.406519
772.428087	2573.645150
772.753256	2575.006261
773.078378	2576.770665
773.403453	2575.366704
773.728482	2574.970973
774.053465	2573.141034
774.378401	2575.154975
774.703291	2574.827300
775.028135	2571.295972
775.352932	2573.352763
775.677683	2572.848647
776.002388	2575.490212
776.327046	2573.902248
776.651658	2573.453586
776.976224	2573.430901
777.300743	2574.126580
777.625216	2572.369738
777.949643	2572.475602
778.274024	2575.757393
778.598359	2571.008626
778.922647	2571.641291
779.246889	2569.045097
779.571086	2570.491908
779.895236	2571.185067
780.219339	2572.241188
780.543397	2570.118862
780.867409	2573.630026
781.191374	2573.624985
781.515294	2570.812021
781.839167	2571.258163
782.162995	2571.467371
782.486776	2573.083061
782.810511	2573.914851
783.134201	2568.926630
783.457844	2573.075499
783.781441	2572.042063
784.104993	2571.883266
784.428498	2572.664645
784.751958	2572.304203
785.075372	2573.340160
785.398739	2574.136662
785.722061	2573.509038
786.045337	2572.946950
786.368568	2573.572053
786.691752	2573.274625
787.014891	2574.519790
787.337983	2576.049780
787.661030	2573.957701
787.984031	2572.410067
788.306987	2576.601786
788.629897	2576.062383
788.952760	2577.650346
789.275579	2577.007599
789.598351	2576.591704
789.921078	2573.892166
790.243759	2572.500808
790.566395	2574.504666
790.888984	2574.015674
791.211529	2573.632547
791.534027	2573.259501
791.856480	2571.714388
792.178888	2572.767989
792.501249	2571.885787
792.823566	2572.909141
793.145836	2573.181363
793.468062	2575.273442
793.790241	2574.807136
794.112375	2572.652042
794.434464	2573.335119
794.756507	2570.764130
795.078505	2572.639439
795.400457	2567.663821
795.722364	2568.016701
796.044226	2570.885118
796.366042	2569.110632
796.687812	2570.005437
797.009538	2574.494584
797.331218	2571.905952
797.652852	2573.302351
797.974442	2573.501477
798.295986	2575.326374
798.617484	2573.115828
798.938938	2572.276476
799.260346	2572.659604
799.581709	2574.020716
799.903026	2573.665314
800.224299	2574.658422
800.545526	2572.183215
800.866708	2573.188925
801.187845	2572.314285
801.508936	2570.068451
801.829983	2571.457289
802.150984	2571.812690
802.471940	2571.139696
802.792851	2569.834037
803.113717	2573.473750
803.434538	2570.882597
803.755314	2570.023081
804.076045	2569.128276
804.396731	2571.626168
804.717372	2571.316137
805.037967	2573.337639
805.358518	2573.219172
805.679024	2573.035170
805.999485	2571.139696
806.319901	2576.624472
806.640272	2570.980900
806.960598	2573.173802
807.280879	2571.641291
807.601115	2569.952504
807.921306	2571.495098
808.241453	2569.138358
808.561554	2570.370920
808.881611	2571.091805
809.201623	2570.754048
809.521590	2572.054666
809.841513	2573.221693
810.161390	2572.120201
810.481223	2572.026939
810.801011	2569.831517
811.120755	2571.593400
811.440453	2573.561971
811.760107	2572.236147
812.079716	2569.939902
812.399281	2567.515107
812.718801	2569.556774
813.038276	2566.587534
813.357707	2570.607854
813.677093	2568.818245
813.996434	2570.265056
814.315731	2572.609192
814.634983	2572.067268
814.954191	2570.282700
815.273354	2570.335632
815.592473	2570.418811
815.911547	2572.984758
816.230577	2573.561971
816.549562	2570.590210
816.868502	2570.365879
817.187399	2572.142886
817.506250	2572.810839
817.825058	2572.876374
818.143821	2572.170612
818.462539	2573.597259
818.781213	2573.564491
819.099843	2574.048442
819.418429	2577.055490
819.736970	2576.828638
820.055466	2577.778896
820.373919	2580.569174
820.692327	2585.615369
821.010691	2587.152921
821.329011	2596.612647
821.647286	2615.600152
821.965517	2637.458596
822.283704	2651.359577
822.601847	2661.628408
822.919945	2656.103303
823.237999	2652.463590
823.556010	2642.154430
823.873976	2632.356948
824.191897	2625.445526
824.509775	2613.669391
824.827609	2610.112857
825.145398	2605.996754
825.463144	2603.256887
825.780845	2596.514344
826.098502	2601.000971
826.416116	2602.450303
826.733685	2606.536158
827.051210	2608.570263
827.368692	2608.504728
827.686129	2604.512135
828.003522	2599.544077
828.320872	2589.945721
828.638177	2589.081163
828.955439	2583.535893
829.272656	2583.072107
829.589830	2578.114132
829.906960	2580.422981
830.224046	2578.192270
830.541088	2575.989286
830.858086	2578.542631
831.175041	2574.358473
831.491952	2573.143555
831.808819	2573.940057
832.125642	2573.337639
832.442421	2576.037177
832.759157	2577.826787
833.075849	2583.692169
833.392497	2584.029927
833.709101	2589.222315
834.025662	2587.072263
834.342179	2588.471183
834.658653	2588.685432
834.975083	2583.588826
835.291469	2587.959506
835.607811	2582.235276
835.924110	2580.695203
836.240366	2575.835531
836.556578	2574.741601
836.872746	2574.025757
837.188871	2572.556260
837.504952	2570.446537
837.820990	2571.558112
838.136984	2565.047462
838.452935	2570.320509
838.768842	2570.141548
839.084706	2569.337484
839.400526	2572.803277
839.716303	2571.744635
840.032037	2577.138669
840.347727	2574.166909
840.663373	2573.531724
840.978977	2577.539441
841.294537	2573.337639
841.610054	2573.123390
841.925527	2570.121383
842.240957	2570.320509
842.556344	2569.539130
842.871687	2568.493090
843.186987	2566.451423
843.502244	2566.514437
843.817458	2568.583831
844.132629	2567.749520
844.447756	2565.745662
844.762840	2564.462688
845.077881	2564.190466
845.392879	2560.981771
845.707833	2565.075188
846.022745	2561.712738
846.337613	2567.250446
846.652438	2566.370765
846.967221	2567.038718
847.281960	2565.173491
847.596656	2568.707339
847.911309	2564.734910
848.225919	2566.272462
848.540485	2565.584345
848.855009	2562.199210
849.169490	2568.157854
849.483928	2567.081567
849.798323	2563.174673
850.112675	2565.607030
850.426984	2566.027966
850.741251	2567.394119
851.055474	2566.030487
851.369654	2563.923284
851.683792	2565.410425
851.997887	2566.280024
852.311938	2566.118707
852.625947	2561.720300
852.939914	2567.159705
853.253837	2565.601989
853.567718	2565.927143
853.881555	2562.476473
854.195350	2567.348748
854.509103	2566.196845
854.822812	2566.930333
855.136479	2566.133830
855.450103	2563.439334
855.763685	2568.039387
856.077224	2566.733728
856.390720	2565.090312
856.704173	2566.297668
857.017584	2568.109963
857.330953	2563.759447
857.644278	2568.155333
857.957561	2568.982082
858.270802	2566.479149
858.584000	2565.586865
858.897155	2568.193142
859.210268	2564.850857
859.523339	2565.357493
859.836367	2564.568552
860.149352	2566.489232
860.462295	2566.494273
860.775195	2559.635783
861.088054	2561.569066
861.400869	2563.822461
861.713642	2559.734086
862.026373	2563.527554
862.339062	2566.239695
862.651708	2565.332287
862.964312	2564.586196
863.276873	2563.993861
863.589392	2564.281206
863.901869	2565.982596
864.214303	2566.491752
864.526696	2566.615261
864.839045	2566.733728
865.151353	2564.059396
865.463619	2566.504355
865.775842	2569.670200
866.088023	2565.992678
866.400162	2565.632236
866.712258	2565.095353
867.024313	2567.474777
867.336325	2566.569890
867.648296	2564.084601
867.960224	2568.901424
868.272110	2565.302040
868.583954	2566.786660
868.895755	2567.704150
869.207515	2565.692729
869.519233	2565.133161
869.830909	2566.784139
870.142542	2564.896227
870.454134	2566.917730
870.765684	2566.033007
871.077191	2567.487380
871.388657	2568.876218
871.700081	2566.093501
872.011463	2567.452092
872.322803	2566.733728
872.634101	2568.243553
872.945357	2565.410425
873.256571	2571.290931
873.567744	2566.590055
873.878874	2567.510065
874.189963	2567.973852
874.501010	2569.897052
874.812015	2568.266238
875.122979	2570.174315
875.433900	2566.920250
875.744780	2565.954869
876.055618	2567.371434
876.366415	2567.832699
876.677169	2567.830179
876.987882	2566.078378
877.298554	2564.248439
877.609183	2564.414797
877.919771	2564.162739
878.230317	2563.711556
878.540822	2572.001733
878.851285	2571.164902
879.161707	2569.526527
879.472087	2573.325036
879.782425	2576.437949
880.092722	2578.716550
880.402977	2584.226532
880.713191	2592.793972
881.023363	2601.426948
881.333494	2608.101436
881.643583	2612.890532
881.953631	2614.395317
882.263637	2614.097889
882.573602	2610.256529
882.883526	2608.686210
883.193408	2603.665221
883.503248	2601.931064
883.813048	2597.215064
884.122806	2596.254725
884.432522	2592.698191
884.742197	2589.323138
885.051831	2584.400451
885.361424	2580.813670
885.670975	2578.892991
885.980485	2579.152610
886.289954	2576.611869
886.599382	2574.043401
886.908768	2574.693710
887.218113	2572.836044
887.527417	2572.503328
887.836680	2571.285890
888.145901	2570.136507
888.455082	2570.270097
888.764221	2570.189439
889.073319	2567.295816
889.382376	2568.238512
889.691392	2569.382854
890.000366	2565.627194
890.309300	2569.644994
890.618193	2565.738100
890.927044	2567.394119
891.235855	2565.697771
891.544625	2568.208265
891.853353	2570.910324
892.162041	2569.256825
892.470687	2571.245560
892.779293	2569.178687
893.087858	2566.942936
893.396381	2569.239181
893.704864	2570.118862
894.013306	2571.593400
894.321707	2576.833679
894.630068	2581.564802
894.938387	2581.038002
895.246665	2580.909452
895.554903	2581.995821
895.863100	2580.649833
896.171256	2578.010789
896.479371	2574.164388
896.787446	2575.918710
897.095480	2574.043401
897.403473	2572.475602
897.711425	2573.713205
898.019336	2574.129100
898.327207	2569.919737
898.635038	2569.181208
898.942827	2569.551733
899.250576	2571.031311
899.558284	2569.029973
899.865952	2567.217678
900.173579	2570.635581
900.481165	2565.007132
900.788711	2566.902606
901.096216	2567.401681
901.403681	2568.112483
901.711105	2569.619788
902.018489	2567.169788
902.325832	2569.942422
902.633135	2565.947308
902.940397	2567.651218
903.247619	2569.211455
903.554800	2571.510221
903.861941	2574.184553
904.169041	2579.044225
904.476101	2584.970102
904.783121	2582.744432
905.090100	2582.331058
905.397039	2583.167889
905.703938	2578.867785
906.010796	2580.543969
906.317614	2576.558937
906.624391	2575.011302
906.931129	2571.621126
907.237826	2572.158009
907.544483	2571.691702
907.851099	2572.699933
908.157675	2571.578277
908.464211	2569.229099
908.770707	2562.237018
909.077163	2562.539488
909.383578	2562.123593
909.689954	2561.488407
909.996289	2562.080743
910.302584	2566.953018
910.608839	2564.364385
910.915054	2563.767009
911.221229	2566.617781
911.527363	2568.523337
911.833458	2565.866649
912.139513	2566.706001
912.445527	2565.992678
912.751502	2565.748182
913.057436	2564.560990
913.363331	2566.068295
913.669186	2565.145764
913.975000	2570.106260
914.280775	2568.490570
914.586510	2568.578790
914.892205	2569.995354
915.197859	2573.622464
915.503475	2578.245202
915.809050	2579.502970
916.114585	2582.429360
916.420081	2580.664956
916.725536	2581.756366
917.030952	2584.932293
917.336328	2583.130081
917.641665	2581.804257
917.946961	2580.266705
918.252218	2577.259657
918.557435	2578.406519
918.862612	2576.203535
919.167750	2573.045252
919.472848	2576.672362
919.777906	2571.167423
920.082925	2572.500808
920.387904	2571.253122
920.692843	2570.892680
920.997743	2569.745817
921.302603	2568.573749
921.607423	2568.780436
921.912204	2569.057700
922.216946	2569.786146
922.521647	2565.165929
922.826310	2567.298337
923.130932	2563.961093
923.435516	2568.200703
923.740059	2565.410425
924.044564	2565.846485
924.349028	2566.564849
924.653454	2561.700136
924.957840	2562.592420
925.262186	2559.958417
925.566493	2563.809858
925.870761	2558.904816
926.174989	2562.443706
926.479178	2564.566032
926.783328	2566.804304
927.087438	2563.542677
927.391509	2565.168449
927.695541	2565.077709
927.999533	2563.877914
928.303486	2562.181566
928.607400	2562.915054
928.911275	2566.080898
929.215110	2565.851526
929.518906	2562.625187
929.822663	2564.014025
930.126381	2565.296999
930.430060	2563.041083
930.733699	2563.976217
931.037299	2562.370609
931.340861	2561.405228
931.644383	2561.276679
931.947866	2561.760629
932.251309	2560.349106
932.554714	2565.269273
932.858080	2561.072512
933.161407	2561.914385
933.464694	2562.075702
933.767943	2563.421690
934.071153	2563.313305
934.374323	2563.036041
934.677455	2562.335321
934.980548	2561.841288
935.283602	2561.087635
935.586617	2562.277348
935.889593	2559.953376
936.192530	2559.189641
936.495428	2561.798438
936.798287	2562.408418
937.101108	2558.746019
937.403890	2562.652914
937.706632	2563.434292
938.009336	2563.877914
938.312002	2563.615774
938.614628	2563.945970
938.917216	2561.715259
939.219765	2560.729713
939.522275	2565.264231
939.824747	2565.551577
940.127179	2559.920608
940.429573	2561.314487
940.731929	2560.359189
941.034246	2558.287274
941.336524	2562.405897
941.638763	2563.290620
941.940964	2563.272976
942.243126	2565.042421
942.545250	2564.261042
942.847335	2563.656103
943.149381	2563.341031
943.451389	2561.465722
943.753359	2564.878583
944.055290	2565.687688
944.357182	2565.511248
944.659036	2561.843808
944.960851	2565.503686
945.262628	2561.735424
945.564367	2562.549570
945.866067	2561.332131
946.167729	2562.965465
946.469352	2565.170970
946.770937	2563.378840
947.072484	2563.706515
947.373992	2562.110990
947.675462	2565.518810
947.976893	2561.100238
948.278286	2561.503531
948.579641	2562.413459
948.880958	2560.734755
949.182236	2561.715259
949.483476	2559.681153
949.784678	2561.987481
950.085841	2562.572255
950.386967	2563.419169
950.688054	2563.192317
950.989103	2562.582338
951.290114	2562.998233
951.591087	2563.081412
951.892021	2562.282389
952.192917	2562.257183
952.493776	2562.768860
952.794596	2561.611915
953.095378	2562.131154
953.396122	2563.981258
953.696828	2563.562842
953.997496	2561.672409
954.298126	2564.573593
954.598718	2561.511092
954.899272	2562.118551
955.199788	2561.778273
955.500266	2563.025959
955.800706	2560.916236
956.101108	2560.049158
956.401472	2558.171328
956.701798	2558.572100
957.002087	2559.597974
957.302337	2564.324056
957.602550	2563.199879
957.902724	2559.517316
958.202861	2562.151319
958.502960	2560.933880
958.803022	2562.443706
959.103045	2559.459343
959.403031	2560.109652
959.702979	2560.412121
960.002889	2560.313818
960.302762	2559.902964
960.602596	2559.615618
960.902393	2561.301884
961.202153	2561.006977
961.501875	2558.609908
961.801559	2561.478325
962.101205	2561.034703
962.400814	2561.997564
962.700385	2558.839281
962.999918	2561.657286
963.299414	2559.686195
963.598873	2561.538819
963.898293	2561.397666
964.197677	2561.949673
964.497022	2561.193500
964.796331	2559.776935
965.095601	2561.483366
965.394835	2561.226267
965.694030	2560.795248
965.993189	2560.207954
966.292309	2559.590413
966.591393	2558.423386
966.890439	2560.679302
967.189447	2562.524364
967.488419	2559.540001
967.787353	2561.863973
968.086249	2560.263407
968.385108	2560.659137
968.683930	2561.755588
968.982714	2560.381874
969.281462	2559.164435
969.580172	2558.766184
969.878844	2557.818447
970.177480	2559.971020
970.476078	2559.844991
970.774639	2559.494631
971.073162	2560.333983
971.371649	2555.902809
971.670098	2558.846843
971.968510	2558.493962
972.266885	2555.537325
972.565223	2558.017573
972.863524	2557.626883
973.161788	2562.002605
973.460014	2561.478325
973.758204	2561.672409
974.056356	2559.527398
974.354471	2559.913047
974.652550	2558.584703
974.950591	2557.503375
975.248595	2560.762481
975.546563	2562.214333
975.844493	2559.663509
976.142386	2559.620660
976.440243	2560.308777
976.738062	2562.237018
977.035845	2557.790721
977.333590	2561.947152
977.631299	2558.501523
977.928971	2556.076728
978.226606	2560.903633
978.524204	2562.050496
978.821765	2557.773077
979.119290	2562.103428
979.416777	2559.474466
979.714228	2559.139229
980.011642	2557.601678
980.309020	2563.489745
980.606360	2560.608726
980.903664	2560.465053
981.200931	2558.383056
981.498162	2558.877089
981.795356	2564.437482
982.092513	2561.848850
982.389633	2561.443037
982.686717	2562.118551
982.983764	2562.887327
983.280775	2563.973696
983.577749	2563.144426
983.874686	2564.853377
984.171587	2561.979920
984.468451	2563.260373
984.765279	2558.965310
985.062070	2561.717780
985.358824	2564.160219
985.655543	2563.361196
985.952224	2561.511092
986.248869	2563.290620
986.545478	2557.826009
986.842050	2561.024621
987.138586	2557.500854
987.435086	2557.276523
987.731549	2555.789383
988.027975	2559.729044
988.324366	2559.000598
988.620719	2561.397666
988.917037	2561.349775
989.213318	2562.403377
989.509563	2558.768705
989.805772	2559.479507
990.101944	2560.233160
990.398080	2556.399362
990.694180	2559.920608
990.990244	2560.160063
991.286271	2559.439178
991.582262	2560.447409
991.878217	2559.663509
992.174136	2561.712738
992.470019	2558.294836
992.765865	2559.668551
993.061676	2559.292985
993.357450	2560.031514
993.653188	2558.861966
993.948890	2559.005639
994.244556	2559.673592
994.540186	2560.477656
994.835780	2559.822306
995.131337	2560.903633
995.426859	2559.320711
995.722345	2557.034548
996.017795	2562.481514
996.313208	2561.279199
996.608586	2563.933367
996.903928	2560.220557
997.199234	2561.019580
997.494504	2559.718962
997.789738	2559.252655
998.084936	2560.364230
998.380099	2562.486556
998.675225	2560.396997
998.970316	2561.848850
999.265371	2559.388767
999.560390	2560.270968
999.855373	2561.019580
1000.150320	2560.054199
1000.445232	2562.574776
1000.740108	2559.968499
1001.034948	2561.649724
1001.329752	2560.144940
1001.624521	2556.621173
1001.919254	2555.670916
1002.213951	2557.029507
1002.508613	2556.772408
1002.803239	2556.719476
1003.097829	2555.262582
1003.392384	2558.735937
1003.686903	2558.272151
1003.981386	2558.803993
1004.275834	2557.105124
1004.570246	2560.689384
1004.864623	2559.141750
1005.158964	2557.518498
1005.453270	2559.335834
1005.747540	2559.164435
1006.041775	2557.115206
1006.335974	2558.786349
1006.630138	2556.474980
1006.924266	2558.834240
1007.218359	2558.372974
1007.512416	2558.105793
1007.806438	2558.199054
1008.100425	2556.848025
1008.394376	2559.106462
1008.688292	2559.192162
1008.982172	2556.409445
1009.276017	2559.121585
1009.569827	2560.949004
1009.863602	2560.328942
1010.157341	2556.938766
1010.451045	2561.453119
1010.744714	2559.219888
1011.038347	2558.680484
1011.331945	2558.274672
1011.625508	2558.698128
1011.919036	2556.023796
1012.212528	2559.466904
1012.505986	2558.551935
1012.799408	2558.930022
1013.092795	2558.367933
1013.386147	2558.385577
1013.679464	2560.840619
1013.972745	2558.095711
1014.265992	2558.098231
1014.559204	2558.877089
1014.852380	2555.227294
1015.145521	2559.232491
1015.438628	2557.331976
1015.731699	2560.911195
1016.024736	2557.319373
1016.317737	2560.369271
1016.610703	2560.775084
1016.903635	2553.949362
1017.196531	2556.893395
1017.489393	2556.744681
1017.782219	2554.874413
1018.075011	2555.232335
1018.367768	2559.308108
1018.660490	2559.774415
1018.953177	2559.774415
1019.245829	2559.774415
