Dividing Wavelength (nm)	Counts (n)	Blue Motor Position (mm): 0.000000	Red Motor Position (mm): 13.000000	
326.493990	2125.894906
326.888308	2125.894906
327.282561	2125.894906
327.676750	2093.916347
328.070874	2095.867273
328.464933	2093.999526
328.858929	2104.432194
329.252859	2114.053236
329.646726	2126.678806
330.040528	2139.637092
330.434265	2154.410193
330.827938	2169.717657
331.221547	2188.332117
331.615091	2210.193081
332.008571	2225.881152
332.401986	2245.912176
332.795338	2266.593510
333.188625	2286.571603
333.581847	2303.703964
333.975006	2324.357571
334.368100	2341.580673
334.761129	2358.324866
335.154095	2375.028729
335.546996	2395.669734
335.939833	2406.926630
336.332606	2423.265010
336.725315	2433.957297
337.117960	2445.589760
337.510540	2450.126798
337.903056	2463.856381
338.295508	2468.469036
338.687896	2478.490850
339.080220	2486.823877
339.472480	2496.074395
339.864676	2498.070692
340.256807	2502.396002
340.648875	2506.502022
341.040879	2509.289780
341.432818	2509.778772
341.824694	2512.909328
342.216506	2512.183402
342.608253	2510.850017
342.999937	2511.396982
343.391557	2511.422188
343.783113	2512.856396
344.174605	2510.603000
344.566033	2509.415808
344.957397	2508.576456
345.348697	2504.510766
345.739934	2502.522031
346.131106	2501.034890
346.522215	2502.499345
346.913260	2500.177894
347.304241	2497.369971
347.695159	2494.962820
348.086012	2492.961482
348.476802	2492.084322
348.867528	2489.271358
349.258191	2489.334372
349.648789	2485.966881
350.039324	2485.482931
350.429796	2487.567448
350.820203	2484.724237
351.210548	2484.232724
351.600828	2484.734319
351.991045	2480.756849
352.381198	2483.050574
352.771288	2482.307004
353.161314	2478.780717
353.551276	2482.022178
353.941175	2482.448156
354.331010	2482.115440
354.720782	2479.546972
355.110490	2478.448000
355.500135	2481.830615
355.889717	2481.971767
356.279235	2480.671149
356.668689	2482.826243
357.058080	2480.159472
357.447408	2478.291725
357.836672	2478.430356
358.225873	2480.320789
358.615010	2479.640233
359.004084	2483.300111
359.393095	2482.967395
359.782043	2485.692138
360.170927	2484.779690
360.559748	2485.833291
360.948505	2487.625421
361.337199	2486.581902
361.725830	2486.856645
362.114398	2488.338744
362.502903	2489.725062
362.891344	2491.355875
363.279722	2489.659527
363.668037	2490.730772
364.056289	2490.912253
364.444478	2493.833602
364.832603	2493.561380
365.220665	2492.822851
365.608665	2495.434168
365.996601	2492.981647
366.384474	2496.081957
366.772284	2498.481546
367.160031	2498.156391
367.547715	2501.481032
367.935336	2502.237205
368.322893	2505.682834
368.710388	2507.704337
369.097820	2517.247241
369.485189	2515.341685
369.872495	2523.987264
370.259738	2530.104704
370.646918	2538.435211
371.034035	2542.326981
371.421090	2556.679146
371.808081	2565.291958
372.195010	2569.392936
372.581875	2586.661409
372.968678	2601.053903
373.355418	2610.201077
373.742096	2628.719755
374.128710	2643.749956
374.515262	2655.236225
374.901751	2674.627023
375.288177	2682.975174
375.674540	2706.592979
376.060841	2725.666185
376.447079	2746.390368
376.833254	2764.634304
377.219367	2778.595780
377.605417	2814.428301
377.991404	2824.402224
378.377329	2846.457272
378.763191	2863.766074
379.148991	2899.797721
379.534727	2926.132709
379.920402	2955.479786
380.306013	2963.888431
380.691563	3014.196625
381.077049	3036.324770
381.462474	3053.910835
381.847835	3091.361567
382.233134	3113.885443
382.618371	3114.916359
383.003545	3182.397244
383.388657	3191.557021
383.773706	3221.393090
384.158693	3238.585945
384.543618	3266.881941
384.928480	3300.264462
385.313280	3345.347501
385.698017	3344.722398
386.082692	3396.162332
386.467305	3400.016294
386.851856	3430.502672
387.236344	3451.083182
387.620770	3480.357163
388.005133	3501.383815
388.389435	3525.173020
388.773674	3531.482024
389.157851	3568.395873
389.541965	3572.141451
389.926018	3533.100235
390.310008	3590.017382
390.693936	3595.963423
391.077802	3624.380407
391.461606	3599.164556
391.845348	3642.810866
392.229027	3627.677322
392.612645	3621.670787
392.996200	3671.946215
393.379694	3687.974563
393.763125	3722.302300
394.146494	3668.966893
394.529801	3697.530070
394.913047	3707.035166
395.296230	3656.006086
395.679351	3673.934950
396.062410	3660.986746
396.445408	3616.601907
396.828343	3607.676544
397.211217	3595.736571
397.594028	3507.594517
397.976778	3516.794623
398.359466	3502.019001
398.742092	3482.882781
399.124656	3405.987541
399.507158	3416.687390
399.889598	3396.706776
400.271977	3392.787279
400.654294	3341.009588
401.036549	3305.603044
401.418742	3260.051178
401.800874	3264.817589
402.182944	3241.940833
402.564952	3226.887947
402.946898	3187.574509
403.328783	3150.229641
403.710606	3081.465782
404.092367	3110.777571
404.474067	3065.240829
404.855705	3037.726211
405.237282	2988.343068
405.618797	2979.223621
406.000250	2957.370219
406.381642	2944.694237
406.762972	2906.625964
407.144240	2881.059752
407.525447	2854.853314
407.906593	2837.579800
408.287677	2816.379228
408.668700	2784.468724
409.049661	2769.806528
409.430560	2752.202819
409.811399	2726.913871
410.192176	2719.647047
410.572891	2698.073429
410.953545	2689.745443
411.334138	2663.773419
411.714669	2656.367964
412.095139	2634.834675
412.475547	2630.584982
412.855894	2614.297014
413.236180	2608.386261
413.616405	2595.473346
413.996568	2585.764083
414.376670	2580.112950
414.756711	2571.469892
415.136691	2566.673234
415.516609	2562.829354
415.896466	2558.892213
416.276262	2554.375339
416.655997	2547.166489
417.035670	2542.813453
417.415283	2542.354708
417.794834	2537.668955
418.174324	2539.264480
418.553753	2537.721887
418.933121	2536.378420
419.312428	2536.370858
419.691674	2534.482946
420.070859	2534.445137
420.449983	2531.755682
420.829045	2530.283665
421.208047	2530.944056
421.586988	2530.525640
421.965867	2531.480939
422.344686	2529.187214
422.723444	2530.061854
423.102141	2527.022038
423.480777	2531.748120
423.859352	2527.632018
424.237866	2529.782070
424.616319	2529.406504
424.994712	2529.918181
425.373044	2526.885927
425.751314	2526.911133
426.129524	2525.794517
426.507673	2529.882893
426.885762	2528.284847
427.263789	2530.255938
427.641756	2527.417769
428.019662	2527.879034
428.397508	2530.192924
428.775292	2527.027079
429.153016	2531.879190
429.530679	2529.688809
429.908282	2527.942049
430.285824	2525.141688
430.663305	2529.633356
431.040726	2529.651000
431.418086	2526.835516
431.795385	2526.827954
432.172624	2528.395753
432.549802	2528.776360
432.926920	2527.969775
433.303977	2528.892306
433.680974	2528.302491
434.057910	2531.400280
434.434786	2528.123530
434.811601	2530.742410
435.188355	2531.357431
435.565050	2530.825589
435.941683	2530.336597
436.318257	2525.141688
436.694770	2526.255783
437.071222	2529.794673
437.447614	2524.768642
437.823946	2527.937008
438.200218	2528.983047
438.576429	2531.629653
438.952580	2530.553367
439.328670	2529.570342
439.704700	2530.850795
440.080670	2530.873480
440.456580	2530.029087
440.832429	2531.430527
441.208218	2526.321318
441.583947	2535.284489
441.959616	2529.151926
442.335224	2527.410207
442.710773	2530.908768
443.086261	2531.299457
443.461689	2528.463808
443.837057	2534.929088
444.212365	2533.141999
444.587612	2530.200486
444.962800	2534.850950
445.337927	2530.707122
445.712995	2532.947915
446.088002	2533.454551
446.462949	2533.361289
446.837837	2535.730632
447.212664	2533.099149
447.587431	2534.593851
447.962139	2532.658048
448.336786	2538.778009
448.711374	2534.414890
449.085901	2534.520755
449.460369	2533.789787
449.834776	2534.634181
450.209124	2537.268183
450.583412	2537.767258
450.957640	2534.883718
451.331808	2535.806249
451.705917	2532.973120
452.079965	2535.138296
452.453954	2536.126362
452.827883	2536.196938
453.201752	2536.171732
453.575562	2534.026722
453.949311	2535.251722
454.323001	2533.613347
454.696632	2536.413708
455.070202	2538.805735
455.443713	2539.569470
455.817164	2535.249201
456.190556	2534.220806
456.563888	2535.592000
456.937160	2534.261135
457.310373	2537.689120
457.683526	2539.463606
458.056619	2538.052083
458.429653	2534.898841
458.802628	2540.615510
459.175542	2536.575025
459.548398	2537.495035
459.921194	2540.141641
460.293930	2537.381609
460.666607	2540.391178
461.039224	2541.086857
461.411782	2541.477547
461.784280	2541.999306
462.156719	2539.806404
462.529099	2539.483771
462.901419	2541.989224
463.273680	2542.652136
463.645882	2541.485109
464.018024	2540.555016
464.390106	2539.952598
464.762130	2543.181457
465.134094	2543.988042
465.505999	2546.831252
465.877845	2552.663867
466.249631	2552.063970
466.621358	2551.764021
466.993026	2550.806202
467.364634	2551.872406
467.736184	2545.475182
468.107674	2545.152548
468.479105	2546.286808
468.850477	2550.009700
469.221790	2550.695297
469.593043	2544.071221
469.964238	2546.725388
470.335373	2545.298742
470.706449	2543.824204
471.077467	2544.900490
471.448425	2547.806716
471.819324	2550.536500
472.190164	2551.653116
472.560945	2549.772766
472.931667	2549.177909
473.302330	2546.236396
473.672934	2547.312682
474.043479	2545.979297
474.413965	2546.407795
474.784393	2539.256919
475.154761	2542.891591
475.525070	2544.441745
475.895321	2544.429143
476.265513	2544.504760
476.635645	2546.533824
477.005719	2545.094575
477.375734	2549.737478
477.745691	2546.939637
478.115588	2550.528939
478.485427	2547.539534
478.855207	2549.140101
479.224928	2552.396686
479.594591	2554.168652
479.964194	2551.547252
480.333739	2553.195709
480.703226	2550.990204
481.072653	2551.406099
481.442022	2552.515153
481.811333	2554.357695
482.180584	2554.123281
482.549777	2552.396686
482.918912	2549.593805
483.287988	2554.748384
483.657005	2550.869217
484.025964	2552.290822
484.394864	2550.874258
484.763706	2551.761501
485.132489	2548.036088
485.501213	2551.937941
485.869879	2550.493651
486.238487	2549.079607
486.607036	2549.835780
486.975527	2550.997766
487.343959	2552.026161
487.712333	2550.728064
488.080648	2551.501881
488.448905	2553.987170
488.817104	2549.117416
489.185244	2552.240410
489.553326	2549.765204
489.921350	2554.685370
490.289315	2555.219732
490.657222	2554.435833
491.025070	2554.766028
491.392861	2558.753581
491.760593	2554.952551
492.128267	2553.732592
492.495883	2552.419371
492.863440	2553.309135
493.230939	2553.092365
493.598380	2554.750905
493.965763	2545.059287
494.333088	2548.308310
494.700354	2548.353681
495.067563	2548.822508
495.434713	2545.825542
495.801805	2551.302756
496.168839	2552.018600
496.535815	2551.408620
496.902733	2549.782848
497.269593	2552.409289
497.636395	2549.601366
498.003139	2552.837787
498.369825	2552.633620
498.736453	2550.533980
499.103023	2550.153373
499.469535	2551.640513
499.835989	2552.681511
500.202385	2550.072714
500.568723	2550.806202
500.935003	2553.485575
501.301226	2549.931562
501.667390	2551.219577
502.033497	2552.615976
502.399546	2550.980122
502.765537	2550.985163
503.131470	2552.570606
503.497345	2552.066491
503.863163	2552.250493
504.228923	2549.820657
504.594625	2553.735113
504.960269	2551.511964
505.325856	2551.648075
505.691385	2550.564227
506.056856	2553.173024
506.422270	2550.367622
506.787625	2551.383414
507.152924	2551.925338
507.518164	2552.855431
507.883347	2551.549772
508.248472	2552.074052
508.613540	2554.617314
508.978550	2553.084804
509.343503	2551.055739
509.708398	2555.295350
510.073236	2554.405586
510.438016	2550.455842
510.802738	2554.758467
511.167403	2555.411296
511.532010	2551.522046
511.896561	2555.880123
512.261053	2555.907850
512.625488	2549.296377
512.989866	2548.174720
513.354186	2551.219577
513.718449	2545.328988
514.082655	2551.637992
514.446803	2552.174875
514.810894	2554.864331
515.174927	2556.638817
515.538904	2553.306614
515.902822	2553.888868
516.266684	2554.274516
516.630488	2553.246121
516.994235	2552.374001
517.357925	2552.684032
517.721558	2555.560010
518.085133	2554.261913
518.448651	2554.876934
518.812112	2550.866696
519.175516	2554.405586
519.538863	2553.029351
519.902152	2552.444577
520.265385	2551.138918
520.628560	2555.091183
520.991678	2552.822664
521.354739	2552.230328
521.717743	2551.892571
522.080690	2553.747715
522.443580	2549.419885
522.806413	2554.975236
523.169189	2552.865513
523.531908	2555.726368
523.894569	2551.295194
524.257174	2552.971378
524.619722	2556.006152
524.982213	2554.037582
525.344647	2553.725030
525.707025	2557.775597
526.069345	2552.792417
526.431608	2552.794937
526.793815	2556.701832
527.155964	2553.472973
527.518057	2552.232849
527.880093	2553.193188
528.242072	2555.118909
528.603995	2552.941131
528.965860	2555.249979
529.327669	2553.901471
529.689421	2556.225443
530.051117	2554.622356
530.412755	2555.786862
530.774337	2552.631100
531.135862	2553.566234
531.497331	2552.563044
531.858743	2547.284956
532.220098	2552.689073
532.581396	2548.411654
532.942638	2550.874258
533.303824	2554.012376
533.664953	2553.409958
534.026025	2553.989691
534.387040	2557.011862
534.747999	2551.932900
535.108902	2554.307283
535.469748	2556.502706
535.830537	2556.601008
536.191270	2553.835936
536.551947	2553.276367
536.912567	2555.023127
537.273131	2552.615976
537.633638	2553.967006
537.994089	2552.520194
538.354483	2554.024979
538.714821	2553.601522
539.075103	2553.346944
539.435328	2551.960626
539.795497	2553.442726
540.155609	2553.102448
540.515665	2554.960113
540.875665	2554.871893
541.235609	2550.564227
541.595496	2553.669578
541.955328	2555.491955
542.315102	2554.942469
542.674821	2553.162942
543.034483	2555.456667
543.394090	2551.292673
543.753640	2556.883313
544.113134	2553.432643
544.472571	2551.892571
544.831953	2556.298539
545.191278	2554.806358
545.550548	2554.907181
545.909761	2553.291491
546.268918	2555.247459
546.628019	2558.302398
546.987064	2554.876934
547.346053	2553.699824
547.704986	2554.551779
548.063863	2553.840977
548.422684	2551.433826
548.781449	2553.614125
549.140158	2554.173693
549.498811	2555.723848
549.857408	2555.234856
550.215949	2552.666388
550.574434	2548.457024
550.932864	2552.638662
551.291237	2550.465924
551.649555	2555.330638
552.007817	2553.609084
552.366022	2557.251317
552.724173	2551.958106
553.082267	2556.013714
553.440305	2552.331151
553.798288	2553.301573
554.156215	2553.462890
554.514086	2554.183775
554.871902	2553.709907
555.229661	2554.463559
555.587365	2553.480534
555.945014	2553.770401
556.302606	2553.104968
556.660143	2555.708724
557.017625	2554.332489
557.375050	2554.947510
557.732421	2553.291491
558.089735	2555.154197
558.446994	2554.450956
558.804197	2554.760987
559.161345	2554.587068
559.518437	2556.003632
559.875474	2552.852911
560.232455	2555.496996
560.589381	2553.167983
560.946251	2555.844835
561.303065	2553.414999
561.659825	2553.573796
562.016528	2554.725699
562.373177	2554.768549
562.729770	2553.979608
563.086307	2555.161759
563.442789	2552.666388
563.799216	2551.635472
564.155587	2552.363919
564.511904	2555.275185
564.868164	2552.742005
565.224370	2554.415668
565.580520	2555.514640
565.936615	2553.052036
566.292654	2552.298384
566.648638	2554.859290
567.004567	2551.890050
567.360441	2553.258723
567.716260	2551.708569
568.072023	2552.374001
568.427732	2551.683363
568.783385	2548.986346
569.138982	2549.608928
569.494525	2550.801161
569.850013	2550.657488
570.205445	2554.486244
570.560823	2552.847869
570.916145	2555.620504
571.271412	2552.195040
571.626625	2555.053374
571.981782	2552.477345
572.336884	2553.024310
572.691931	2553.977088
573.046923	2553.989691
573.401860	2556.240566
573.756743	2551.446429
574.111570	2553.324258
574.466342	2550.163455
574.821059	2552.096737
575.175722	2550.115564
575.530330	2549.825698
575.884882	2553.914073
576.239380	2550.927190
576.593823	2554.065308
576.948211	2551.390976
577.302544	2550.939793
577.656823	2552.847869
578.011047	2553.896429
578.365216	2553.646892
578.719330	2553.856100
579.073389	2551.955585
579.427394	2552.147149
579.781344	2553.588919
580.135239	2552.429454
580.489080	2551.728733
580.842866	2551.070863
581.196597	2552.618497
581.550273	2550.914587
581.903895	2553.591440
582.257463	2553.437684
582.610975	2553.525905
582.964434	2554.909701
583.317837	2552.532797
583.671186	2554.405586
584.024481	2550.365101
584.377721	2553.253682
584.730906	2552.132026
585.084037	2552.247972
585.437113	2554.279557
585.790135	2554.609753
586.143103	2552.724361
586.496016	2552.260575
586.848874	2547.819318
587.201679	2550.186140
587.554428	2547.910059
587.907124	2550.838970
588.259765	2543.746066
588.612352	2551.995914
588.964884	2549.248486
589.317362	2551.315359
589.669786	2551.756460
590.022155	2553.094886
590.374470	2549.850903
590.726731	2553.316697
591.078937	2552.328631
591.431090	2551.234700
591.783188	2551.315359
592.135232	2552.119423
592.487222	2552.704197
592.839157	2553.846018
593.191038	2549.530790
593.542866	2551.491799
593.894639	2549.127498
594.246358	2552.454659
594.598022	2548.993907
594.949633	2551.693445
595.301190	2549.477858
595.652692	2549.845862
596.004141	2550.402910
596.355535	2552.041285
596.706876	2551.179248
597.058162	2549.072045
597.409395	2550.271840
597.760573	2550.546583
598.111698	2547.267312
598.462768	2553.205791
598.813785	2550.450801
599.164748	2550.947354
599.515657	2551.620348
599.866511	2549.656819
600.217312	2552.938610
600.568060	2549.170348
600.918753	2553.205791
601.269392	2549.777807
601.619978	2550.314690
601.970510	2550.440718
602.320988	2551.839639
602.671412	2550.002138
603.021783	2549.888712
603.372100	2548.928372
603.722363	2549.543393
604.072572	2549.021634
604.422728	2548.709082
604.772830	2549.503064
605.122878	2543.594832
605.472872	2546.783361
605.822813	2547.022816
606.172701	2547.103475
606.522534	2549.412323
606.872314	2550.496171
607.222041	2552.051367
607.571714	2550.755791
607.921333	2551.580019
608.270899	2548.701520
608.620411	2551.721172
608.969870	2552.321069
609.319276	2551.322920
609.668627	2555.287788
610.017926	2558.244425
610.367171	2557.463046
610.716362	2555.403734
611.065500	2556.074208
611.414585	2552.547921
611.763616	2554.549259
612.112594	2552.686553
612.461518	2554.382901
612.810389	2553.115051
613.159207	2550.929710
613.507971	2548.958619
613.856682	2554.660164
614.205340	2549.606408
614.553945	2552.467262
614.902496	2549.596325
615.250994	2547.549617
615.599439	2549.316541
615.947830	2550.407951
616.296169	2550.090358
616.644454	2552.552962
616.992686	2550.844011
617.340864	2548.280584
617.688990	2551.827036
618.037063	2552.164793
618.385082	2550.304607
618.733048	2551.365770
619.080961	2549.210677
619.428821	2552.222766
619.776628	2550.753270
620.124382	2549.896274
620.472083	2550.639844
620.819731	2550.962478
621.167326	2549.709751
621.514868	2552.489948
621.862357	2546.546427
622.209793	2551.242262
622.557176	2549.172868
622.904506	2548.585574
623.251783	2546.009544
623.599007	2547.658002
623.946179	2545.127342
624.293297	2548.217570
624.640363	2546.017106
624.987376	2550.269319
625.334336	2547.652960
625.681243	2548.131870
626.028097	2546.536345
626.374899	2549.198074
626.721647	2548.933413
627.068343	2549.878630
627.414987	2548.235214
627.761577	2547.637837
628.108115	2548.898125
628.454600	2549.651778
628.801032	2548.883002
629.147412	2548.202446
629.493739	2545.817980
629.840014	2547.965512
630.186236	2550.284443
630.532405	2546.143135
630.878521	2548.116747
631.224585	2547.534493
631.570597	2548.414175
631.916556	2546.332178
632.262462	2547.887374
632.608316	2545.187836
632.954117	2547.834442
633.299866	2548.940975
633.645562	2546.606921
633.991206	2547.126160
634.336797	2547.537014
634.682336	2548.731767
635.027823	2545.601211
635.373257	2546.730429
635.718639	2543.607434
636.063968	2546.836293
636.409245	2544.300593
636.754470	2547.819318
637.099642	2545.190357
637.444762	2543.756148
637.789829	2545.117260
638.134845	2544.716488
638.479808	2545.142466
638.824719	2542.790768
639.169577	2548.003321
639.514383	2547.647919
639.859137	2544.335881
640.203839	2547.169010
640.548489	2547.174051
640.893086	2540.403781
641.237632	2542.468134
641.582125	2541.817825
641.926566	2539.710623
642.270955	2542.412681
642.615292	2543.098278
642.959576	2545.979297
643.303809	2543.577187
643.647990	2546.992569
643.992118	2546.241437
644.336195	2543.783875
644.680219	2545.628937
645.024192	2544.991231
645.368112	2546.690100
645.711981	2546.438042
646.055797	2545.994421
646.399562	2547.201777
646.743274	2546.997610
647.086935	2544.114070
647.430544	2545.316386
647.774101	2548.386448
648.117606	2544.784544
648.461059	2544.245140
648.804460	2543.088196
649.147810	2546.707744
649.491108	2543.783875
649.834354	2542.566436
650.177548	2546.377548
650.520690	2545.825542
650.863781	2544.976108
651.206820	2547.353012
651.549807	2542.581560
651.892742	2544.038453
652.235626	2540.139121
652.578458	2544.033412
652.921238	2541.560726
653.263967	2542.634492
653.606644	2543.534338
653.949269	2544.252702
654.291843	2541.901004
654.634365	2543.534338
654.976836	2543.635161
655.319255	2547.146324
655.661622	2542.389996
656.003938	2543.567105
656.346203	2542.576518
656.688416	2545.891077
657.030577	2544.918134
657.372687	2542.936961
657.714746	2540.824718
658.056753	2543.725902
658.398708	2539.425797
658.740612	2541.948895
659.082465	2541.747249
659.424266	2542.848741
659.766016	2540.222300
660.107715	2542.647095
660.449362	2543.667928
660.790958	2544.522404
661.132503	2542.838658
661.473996	2544.149358
661.815438	2546.536345
662.156829	2543.146169
662.498168	2544.655994
662.839456	2542.316899
663.180693	2543.413350
663.521879	2540.376055
663.863013	2542.644574
664.204097	2541.893442
664.545129	2544.451828
664.886110	2544.424101
665.227040	2545.540717
665.567918	2542.765562
665.908746	2545.124822
666.249522	2544.471992
666.590248	2543.229348
666.930922	2544.265305
667.271545	2543.970398
667.612118	2544.499719
667.952639	2542.165664
668.293109	2541.825387
668.633528	2544.935778
668.973896	2540.441590
669.314213	2543.420912
669.654480	2546.286808
669.994695	2541.469985
670.334859	2542.233720
670.674973	2541.225489
671.015035	2545.404606
671.355047	2545.409647
671.695008	2543.158772
672.034918	2542.826056
672.374777	2540.514687
672.714585	2545.074410
673.054342	2542.392516
673.394049	2544.915614
673.733705	2546.145655
674.073310	2543.403268
674.412864	2545.548279
674.752368	2541.606096
675.091820	2541.422094
675.431223	2541.898483
675.770574	2543.672969
676.109875	2538.878832
676.449125	2543.282280
676.788324	2538.934285
677.127473	2541.089378
677.466571	2535.604603
677.805619	2543.254554
678.144616	2542.722712
678.483562	2544.696324
678.822458	2540.650798
679.161303	2543.340253
679.500098	2542.942002
679.838842	2543.347815
680.177535	2544.240099
680.516179	2541.926210
680.854771	2541.346477
681.193314	2542.836138
681.531805	2543.748587
681.870247	2542.836138
682.208638	2543.577187
682.546978	2543.307486
682.885268	2542.712630
683.223508	2542.621889
683.561697	2541.424615
683.899836	2543.037784
684.237925	2544.189688
684.575963	2542.896632
684.913951	2543.055428
685.251889	2543.947712
685.589776	2544.245140
685.927614	2543.068031
686.265401	2542.674821
686.603137	2540.214738
686.940824	2542.788247
687.278460	2544.169523
687.616046	2542.180788
687.953582	2541.878319
688.291068	2543.534338
688.628504	2541.621220
688.965889	2543.577187
689.303224	2541.601055
689.640510	2542.269008
689.977745	2543.824204
690.314930	2542.130376
690.652065	2543.355377
690.989150	2542.412681
691.326185	2542.952084
691.663170	2541.825387
692.000105	2542.999975
692.336990	2539.801363
692.673825	2542.999975
693.010610	2540.063503
693.347345	2539.322454
693.684030	2538.188194
694.020665	2538.132741
694.357251	2536.927906
694.693786	2542.024512
695.030272	2539.148534
695.366707	2541.671631
695.703093	2541.336395
696.039429	2542.163144
696.375716	2542.329502
696.711952	2537.633667
697.048139	2540.980993
697.384276	2541.769934
697.720363	2538.946888
698.056400	2539.614841
698.392388	2541.139790
698.728326	2541.860675
699.064214	2539.892104
699.400053	2537.568132
699.735842	2539.713143
700.071581	2540.161806
700.407270	2537.371527
700.742910	2537.253060
701.078501	2540.804553
701.414042	2540.696168
701.749533	2540.106353
702.084974	2541.154913
702.420366	2539.624923
702.755709	2539.919830
703.091002	2540.386137
703.426246	2538.704912
703.761440	2538.253729
704.096584	2538.334387
704.431679	2541.570808
704.766725	2541.275901
705.101721	2540.774306
705.436668	2541.633823
705.771565	2537.984027
706.106413	2539.839172
706.441212	2538.775488
706.775961	2537.134593
707.110661	2540.393699
707.445311	2541.293545
707.779913	2537.787422
708.114465	2542.218597
708.448967	2537.537885
708.783421	2540.562577
709.117825	2538.987217
709.452180	2540.975952
709.786485	2541.026364
710.120742	2541.704399
710.454949	2541.137269
710.789107	2537.547967
711.123216	2536.559901
711.457275	2537.696682
711.791286	2533.555374
712.125247	2538.772968
712.459159	2541.270860
712.793023	2539.312371
713.126837	2539.783719
713.460602	2541.147351
713.794318	2540.615510
714.127985	2540.497042
714.461602	2538.553678
714.795171	2540.703730
715.128691	2539.347659
715.462162	2543.231868
715.795584	2538.402443
716.128957	2542.095088
716.462281	2537.580735
716.795556	2540.368493
717.128782	2538.820859
717.461960	2540.015612
717.795088	2538.765406
718.128167	2538.780530
718.461198	2540.648277
718.794180	2536.615354
719.127113	2537.973945
719.459997	2537.686599
719.792833	2540.025695
720.125619	2535.382792
720.458357	2539.362783
720.791046	2537.069058
721.123686	2538.168029
721.456278	2539.786240
721.788821	2538.354552
722.121315	2540.159285
722.453761	2540.081147
722.786158	2536.093595
723.118506	2537.527803
723.450805	2539.758513
723.783056	2538.755324
724.115259	2535.276928
724.447412	2536.328008
724.779518	2541.139790
725.111574	2537.873122
725.443582	2537.500077
725.775542	2539.367824
726.107453	2535.481094
726.439315	2538.341949
726.771129	2542.669780
727.102895	2538.485622
727.434612	2537.807587
727.766281	2541.903524
728.097901	2534.840868
728.429473	2536.060827
728.760996	2536.219623
729.092471	2531.637215
729.423897	2536.693492
729.755276	2539.821528
730.086606	2539.433359
730.417887	2539.466127
730.749120	2539.627443
731.080305	2537.051414
731.411442	2537.527803
731.742530	2537.467309
732.073570	2537.938657
732.404562	2536.854809
732.735506	2539.453524
733.066401	2539.897145
733.397249	2538.712474
733.728048	2536.849768
734.058798	2539.163657
734.389501	2536.512010
734.720156	2537.616023
735.050762	2537.288348
735.381320	2540.459234
735.711831	2535.249201
736.042293	2537.169881
736.372707	2540.023174
736.703073	2537.452186
737.033391	2538.319264
737.363661	2536.907741
737.693883	2538.467978
738.024056	2539.619882
738.354182	2537.356404
738.684260	2537.527803
739.014290	2537.008564
739.344272	2539.239275
739.674207	2535.329860
740.004093	2539.360262
740.333931	2537.295910
740.663722	2538.052083
740.993464	2537.658873
741.323159	2537.991589
741.652806	2535.380271
741.982405	2536.784233
742.311956	2536.925385
742.641460	2538.493184
742.970915	2537.190046
743.300323	2537.542926
743.629683	2537.754655
743.958996	2537.006043
744.288260	2536.698533
744.617477	2535.831455
744.946647	2533.792308
745.275768	2536.658204
745.604842	2535.710467
745.933869	2534.951773
746.262847	2530.165198
746.591778	2536.005374
746.920662	2535.433203
747.249498	2534.644263
747.578286	2535.123173
747.907027	2535.367668
748.235720	2536.348173
748.564365	2535.090405
748.892963	2536.517052
749.221514	2538.344470
749.550017	2536.454037
749.878473	2537.326157
750.206881	2535.385313
750.535242	2538.062165
750.863555	2536.796836
751.191821	2538.445293
751.520039	2537.643749
751.848210	2537.638708
752.176334	2536.796836
752.504411	2535.347504
752.832440	2536.214582
753.160421	2535.453368
753.488356	2536.259953
753.816243	2537.462268
754.144082	2535.375230
754.471875	2538.132741
754.799620	2537.278266
755.127318	2533.552853
755.454969	2535.735673
755.782572	2536.489325
756.110129	2538.039480
756.437638	2537.147196
756.765100	2537.527803
757.092515	2534.392205
757.419882	2537.832793
757.747203	2538.004192
758.074477	2538.276414
758.401703	2539.067875
758.728882	2536.874973
759.056014	2536.038142
759.383099	2535.019829
759.710138	2536.882535
760.037129	2537.215251
760.364073	2537.185004
760.690970	2536.753986
761.017820	2533.772143
761.344623	2536.423790
761.671379	2540.093750
761.998088	2533.726773
762.324751	2534.225847
762.651366	2536.333049
762.977935	2537.830272
763.304456	2535.700385
763.630931	2542.959646
763.957359	2541.845551
764.283740	2538.515869
764.610074	2539.395550
764.936362	2538.031918
765.262602	2536.428831
765.588796	2538.956970
765.914943	2536.617875
766.241044	2538.654501
766.567097	2535.095446
766.893104	2533.348686
767.219064	2534.034283
767.544978	2533.147040
767.870845	2536.368337
768.196665	2535.574356
768.522438	2533.779705
768.848165	2537.583256
769.173846	2534.223327
769.499479	2534.873635
769.825066	2535.534027
770.150607	2532.968079
770.476101	2533.958666
770.801548	2536.569984
771.126949	2533.338604
771.452303	2536.055786
771.777611	2535.392874
772.102872	2532.884900
772.428087	2535.407998
772.753256	2534.238450
773.078378	2534.629139
773.403453	2535.859181
773.728482	2536.033101
774.053465	2534.387164
774.378401	2534.538399
774.703291	2535.370189
775.028135	2535.685261
775.352932	2534.422452
775.677683	2535.738193
776.002388	2536.769109
776.327046	2536.280117
776.651658	2537.232895
776.976224	2533.404139
777.300743	2532.700898
777.625216	2532.758871
777.949643	2535.586959
778.274024	2535.844058
778.598359	2532.101001
778.922647	2530.132430
779.246889	2532.287523
779.571086	2528.826771
779.895236	2533.008408
780.219339	2533.593182
780.543397	2534.140147
780.867409	2533.981351
781.191374	2534.813142
781.515294	2532.302647
781.839167	2534.755168
782.162995	2535.027391
782.486776	2534.752648
782.810511	2533.467153
783.134201	2534.369520
783.457844	2535.339942
783.781441	2532.370703
784.104993	2538.556198
784.428498	2532.559746
784.751958	2531.836340
785.075372	2534.117462
785.398739	2531.196114
785.722061	2536.716177
786.045337	2530.921371
786.368568	2535.138296
786.691752	2533.378933
787.014891	2533.878008
787.337983	2535.922195
787.661030	2533.845240
787.984031	2534.868594
788.306987	2535.564273
788.629897	2532.663089
788.952760	2532.607637
789.275579	2533.585621
789.598351	2536.688451
789.921078	2535.899510
790.243759	2533.620909
790.566395	2532.965559
790.888984	2532.315250
791.211529	2533.777184
791.534027	2535.294572
791.856480	2534.152750
792.178888	2534.034283
792.501249	2534.210724
792.823566	2533.613347
793.145836	2530.654190
793.468062	2534.803059
793.790241	2533.023532
794.112375	2534.563604
794.434464	2533.630991
794.756507	2534.175436
795.078505	2533.373892
795.400457	2532.968079
795.722364	2529.976154
796.044226	2534.457740
796.366042	2530.082019
796.687812	2531.700229
797.009538	2533.976310
797.331218	2536.335570
797.652852	2535.198790
797.974442	2535.448327
798.295986	2534.868594
798.617484	2532.010260
798.938938	2533.888090
799.260346	2532.791639
799.581709	2532.191742
799.903026	2531.480939
800.224299	2531.856505
800.545526	2534.548481
800.866708	2535.256763
801.187845	2535.985210
801.508936	2532.022863
801.829983	2532.254756
802.150984	2531.521268
802.471940	2535.768440
802.792851	2530.029087
803.113717	2534.268697
803.434538	2534.331711
803.755314	2532.499252
804.076045	2532.189221
804.396731	2531.735517
804.717372	2533.981351
805.037967	2531.561597
805.358518	2535.655014
805.679024	2532.748789
805.999485	2533.757020
806.319901	2531.748120
806.640272	2533.920857
806.960598	2532.501772
807.280879	2533.439427
807.601115	2531.175949
807.921306	2534.969417
808.241453	2535.826413
808.561554	2532.045548
808.881611	2533.918337
809.201623	2533.978831
809.521590	2534.636701
809.841513	2533.015970
810.161390	2533.028573
810.481223	2530.669313
810.801011	2533.925898
811.120755	2534.553522
811.440453	2532.589993
811.760107	2532.761392
812.079716	2527.944569
812.399281	2527.632018
812.718801	2531.049920
813.038276	2527.601771
813.357707	2531.909437
813.677093	2532.441279
813.996434	2533.386495
814.315731	2535.324819
814.634983	2533.469674
814.954191	2531.054961
815.273354	2533.575538
815.592473	2533.610826
815.911547	2532.068233
816.230577	2534.296423
816.549562	2530.976823
816.868502	2531.904396
817.187399	2533.696526
817.506250	2534.893800
817.825058	2533.706608
818.143821	2531.947246
818.462539	2533.895652
818.781213	2531.238963
819.099843	2532.065713
819.418429	2535.924716
819.736970	2535.909593
820.055466	2534.828265
820.373919	2536.166691
820.692327	2536.244829
821.010691	2536.136444
821.329011	2540.244985
821.647286	2546.165820
821.965517	2557.531101
822.283704	2562.443706
822.601847	2562.121072
822.919945	2556.984136
823.237999	2551.242262
823.556010	2551.275029
823.873976	2544.792106
824.191897	2544.245140
824.509775	2543.892260
824.827609	2538.757844
825.145398	2539.869419
825.463144	2539.380427
825.780845	2538.657021
826.098502	2537.628626
826.416116	2541.066693
826.733685	2545.094575
827.051210	2542.516025
827.368692	2543.378062
827.686129	2540.300438
828.003522	2538.606610
828.320872	2532.600075
828.638177	2534.561084
828.955439	2533.174767
829.272656	2532.320291
829.589830	2531.178470
829.906960	2533.051258
830.224046	2532.746268
830.541088	2531.584282
830.858086	2531.745599
831.175041	2536.259953
831.491952	2533.681402
831.808819	2534.777853
832.125642	2531.183511
832.442421	2533.376413
832.759157	2537.540406
833.075849	2535.435724
833.392497	2536.307844
833.709101	2539.571991
834.025662	2538.883873
834.342179	2538.611651
834.658653	2537.071578
834.975083	2534.442617
835.291469	2537.999151
835.607811	2532.542102
835.924110	2534.780374
836.240366	2534.366999
836.556578	2532.448840
836.872746	2533.147040
837.188871	2531.060003
837.504952	2530.233253
837.820990	2530.881042
838.136984	2531.148223
838.452935	2532.761392
838.768842	2534.901362
839.084706	2529.968593
839.400526	2533.202493
839.716303	2535.549150
840.032037	2534.346835
840.347727	2533.787267
840.663373	2536.048224
840.978977	2531.112935
841.294537	2530.019004
841.610054	2533.583100
841.925527	2530.901206
842.240957	2531.528830
842.556344	2531.448171
842.871687	2529.681247
843.186987	2529.789632
843.502244	2530.722245
843.817458	2530.654190
844.132629	2531.339787
844.447756	2531.019673
844.762840	2528.620084
845.077881	2530.450023
845.392879	2525.061029
845.707833	2528.443644
846.022745	2527.145547
846.337613	2529.502286
846.652438	2531.392719
846.967221	2531.412883
847.281960	2530.543284
847.596656	2532.494211
847.911309	2530.182842
848.225919	2533.353728
848.540485	2532.600075
848.855009	2529.116638
849.169490	2528.988088
849.483928	2529.129241
849.798323	2531.425486
850.112675	2530.921371
850.426984	2530.084539
850.741251	2530.598737
851.055474	2532.496731
851.369654	2529.691329
851.683792	2529.194776
851.997887	2528.509179
852.311938	2530.795342
852.625947	2529.076308
852.939914	2530.959179
853.253837	2531.541433
853.567718	2528.259642
853.881555	2531.680064
854.195350	2531.685106
854.509103	2531.039838
854.822812	2528.864580
855.136479	2529.628315
855.450103	2528.572193
855.763685	2528.952800
856.077224	2530.765095
856.390720	2529.759385
856.704173	2530.780218
857.017584	2531.513706
857.330953	2532.194262
857.644278	2528.360465
857.957561	2534.437576
858.270802	2531.254087
858.584000	2528.458767
858.897155	2532.942873
859.210268	2529.711494
859.523339	2531.417924
859.836367	2531.617050
860.149352	2528.088242
860.462295	2531.138140
860.775195	2527.442975
861.088054	2525.721421
861.400869	2526.669158
861.713642	2527.914323
862.026373	2530.739889
862.339062	2530.717204
862.651708	2534.341794
862.964312	2530.424817
863.276873	2532.597554
863.589392	2531.100332
863.901869	2529.361134
864.214303	2528.395753
864.526696	2532.297606
864.839045	2528.370547
865.151353	2529.905578
865.463619	2532.960518
865.775842	2530.061854
866.088023	2530.397091
866.400162	2531.869108
866.712258	2530.523120
867.024313	2527.231246
867.336325	2530.001360
867.648296	2531.249046
867.960224	2529.991278
868.272110	2532.456402
868.583954	2530.646628
868.895755	2532.194262
869.207515	2532.131248
869.519233	2530.518078
869.830909	2532.148892
870.142542	2529.010773
870.454134	2530.876000
870.765684	2529.348531
871.077191	2530.581093
871.388657	2530.268541
871.700081	2530.555887
872.011463	2532.259797
872.322803	2530.505476
872.634101	2531.135620
872.945357	2528.720907
873.256571	2530.722245
873.567744	2530.006401
873.878874	2529.454395
874.189963	2531.180990
874.501010	2529.091432
874.812015	2532.647966
875.122979	2531.647297
875.433900	2531.765764
875.744780	2531.133099
876.055618	2531.911958
876.366415	2533.111752
876.677169	2531.279293
876.987882	2528.577234
877.298554	2524.771163
877.609183	2529.643438
877.919771	2529.240146
878.230317	2528.680578
878.540822	2533.015970
878.851285	2531.440610
879.161707	2532.746268
879.472087	2530.714683
879.782425	2534.636701
880.092722	2533.018491
880.402977	2539.093081
880.713191	2538.772968
881.023363	2543.488967
881.333494	2546.445604
881.643583	2547.635316
881.953631	2546.843855
882.263637	2545.739843
882.573602	2538.969573
882.883526	2541.762372
883.193408	2540.595345
883.503248	2536.990920
883.813048	2537.240457
884.122806	2535.486136
884.432522	2536.514531
884.742197	2533.056299
885.051831	2534.059489
885.361424	2530.321473
885.670975	2534.205683
885.980485	2531.952287
886.289954	2534.054448
886.599382	2534.167874
886.908768	2532.776515
887.218113	2529.489683
887.527417	2531.180990
887.836680	2532.000178
888.145901	2530.727286
888.455082	2529.509848
888.764221	2533.273069
889.073319	2531.077647
889.382376	2530.497914
889.691392	2530.608819
890.000366	2532.627801
890.309300	2530.399611
890.618193	2530.104704
890.927044	2532.889941
891.235855	2532.436237
891.544625	2529.151926
891.853353	2529.600588
892.162041	2533.323481
892.470687	2531.425486
892.779293	2528.375588
893.087858	2529.335928
893.396381	2526.462470
893.704864	2530.329035
894.013306	2526.598581
894.321707	2530.213089
894.630068	2532.479087
894.938387	2537.679038
895.246665	2533.288193
895.554903	2535.828934
895.863100	2535.481094
896.171256	2534.188038
896.479371	2533.187369
896.787446	2532.637884
897.095480	2530.142513
897.403473	2532.489170
897.711425	2530.628984
898.019336	2530.437420
898.327207	2530.543284
898.635038	2528.378109
898.942827	2530.371885
899.250576	2528.935156
899.558284	2531.712832
899.865952	2532.847092
900.173579	2529.663603
900.481165	2529.260311
900.788711	2530.230733
901.096216	2529.530012
901.403681	2531.090249
901.711105	2530.286185
902.018489	2531.485980
902.325832	2528.483973
902.633135	2530.729807
902.940397	2528.952800
903.247619	2530.689478
903.554800	2530.593696
903.861941	2532.108562
904.169041	2535.496218
904.476101	2536.222144
904.783121	2538.520910
905.090100	2533.704088
905.397039	2536.711136
905.703938	2533.890610
906.010796	2533.336083
906.317614	2533.152081
906.624391	2531.480939
906.931129	2533.000847
907.237826	2533.822555
907.544483	2530.533202
907.851099	2531.100332
908.157675	2528.461288
908.464211	2527.957172
908.770707	2524.851822
909.077163	2526.157480
909.383578	2524.075484
909.689954	2526.361647
909.996289	2526.452388
910.302584	2526.722090
910.608839	2530.064375
910.915054	2527.137985
911.221229	2529.230064
911.527363	2528.446164
911.833458	2528.816689
912.139513	2531.354910
912.445527	2529.487163
912.751502	2529.424148
913.057436	2527.689991
913.363331	2529.353572
913.669186	2529.855167
913.975000	2529.414066
914.280775	2530.906247
914.586510	2531.677544
914.892205	2532.738707
915.197859	2533.149561
915.503475	2531.307019
915.809050	2536.794315
916.114585	2534.954294
916.420081	2537.245498
916.725536	2537.910931
917.030952	2535.609644
917.336328	2534.487987
917.641665	2532.524458
917.946961	2530.994468
918.252218	2529.691329
918.557435	2532.252235
918.862612	2533.005888
919.167750	2529.744261
919.472848	2529.446833
919.777906	2528.748633
920.082925	2527.006915
920.387904	2530.596216
920.692843	2530.684437
920.997743	2530.679395
921.302603	2528.110928
921.607423	2528.322656
921.912204	2529.066226
922.216946	2529.285516
922.521647	2529.976154
922.826310	2531.087729
923.130932	2528.657893
923.435516	2528.584796
923.740059	2528.476411
924.044564	2529.363654
924.349028	2526.790145
924.653454	2524.143539
924.957840	2526.870804
925.262186	2521.741430
925.566493	2525.920546
925.870761	2522.293436
926.174989	2528.942718
926.479178	2526.911133
926.783328	2528.839374
927.087438	2526.475073
927.391509	2528.557070
927.695541	2527.753006
927.999533	2530.306350
928.303486	2526.270906
928.607400	2529.177132
928.911275	2526.313756
929.215110	2526.701925
929.518906	2529.419107
929.822663	2528.115969
930.126381	2526.883407
930.430060	2527.150588
930.733699	2529.988757
931.037299	2525.855011
931.340861	2526.079342
931.644383	2529.396422
931.947866	2529.512368
932.251309	2529.895496
932.554714	2526.137316
932.858080	2531.372554
933.161407	2527.566483
933.464694	2527.299302
933.767943	2527.339631
934.071153	2527.364837
934.374323	2525.786956
934.677455	2525.839888
934.980548	2527.914322
935.283602	2528.983047
935.586617	2528.844415
935.889593	2527.032121
936.192530	2527.765608
936.495428	2527.536236
936.798287	2528.017666
937.101108	2527.337110
937.403890	2527.803417
937.706632	2527.775691
938.009336	2528.524302
938.312002	2530.918850
938.614628	2526.432223
938.917216	2527.780732
939.219765	2525.076153
939.522275	2529.766947
939.824747	2527.553880
940.127179	2528.030269
940.429573	2526.777542
940.731929	2524.539270
941.034246	2523.601615
941.336524	2530.046731
941.638763	2528.854498
941.940964	2527.997502
942.243126	2526.243180
942.545250	2527.291740
942.847335	2528.700742
943.149381	2526.694363
943.451389	2528.509179
943.753359	2529.096473
944.055290	2529.499765
944.357182	2528.708304
944.659036	2525.242511
944.960851	2529.192255
945.262628	2527.269055
945.564367	2526.961544
945.866067	2525.975999
946.167729	2531.871628
946.469352	2524.423323
946.770937	2528.642769
947.072484	2528.562111
947.373992	2530.442461
947.675462	2527.027079
947.976893	2526.149919
948.278286	2526.439785
948.579641	2525.804600
948.880958	2527.143026
949.182236	2526.021369
949.483476	2527.198479
949.784678	2528.413397
950.085841	2527.395084
950.386967	2531.639735
950.688054	2527.379960
950.989103	2529.285516
951.290114	2526.205371
951.591087	2526.843077
951.892021	2528.065557
952.192917	2527.165711
952.493776	2526.434744
952.794596	2528.259642
953.095378	2525.192099
953.396122	2529.736700
953.696828	2525.746626
953.997496	2526.792666
954.298126	2529.436751
954.598718	2529.512368
954.899272	2527.957172
955.199788	2527.697553
955.500266	2528.874662
955.800706	2524.786287
956.101108	2522.822757
956.401472	2526.142357
956.701798	2525.615556
957.002087	2524.670340
957.302337	2525.239990
957.602550	2526.757378
957.902724	2526.918695
958.202861	2526.931298
958.502960	2528.027748
958.803022	2526.820392
959.103045	2526.782583
959.403031	2526.129754
959.702979	2526.613705
960.002889	2525.925587
960.302762	2528.342821
960.602596	2526.573376
960.902393	2528.352903
961.202153	2524.579599
961.501875	2526.999353
961.801559	2526.429703
962.101205	2527.203520
962.400814	2528.194107
962.700385	2528.209230
962.999918	2526.540608
963.299414	2527.747964
963.598873	2526.084384
963.898293	2526.394415
964.197677	2526.528005
964.497022	2528.723428
964.796331	2525.187058
965.095601	2525.345855
965.394835	2525.489527
965.694030	2527.248890
965.993189	2527.511030
966.292309	2526.490197
966.591393	2528.864580
966.890439	2525.169414
967.189447	2528.471370
967.488419	2525.368540
967.787353	2525.464322
968.086249	2524.249404
968.385108	2527.027079
968.683930	2525.943231
968.982714	2529.172090
969.281462	2527.069929
969.580172	2526.916174
969.878844	2528.625125
970.177480	2526.427182
970.476078	2526.863242
970.774639	2524.146060
971.073162	2526.084384
971.371649	2524.829136
971.670098	2523.992305
971.968510	2522.842922
972.266885	2522.669002
972.565223	2529.678726
972.863524	2525.010618
973.161788	2528.947759
973.460014	2526.704446
973.758204	2525.683612
974.056356	2526.583458
974.354471	2527.183355
974.652550	2528.161339
974.950591	2526.717048
975.248595	2527.296781
975.546563	2531.261649
975.844493	2528.322656
976.142386	2525.053468
976.440243	2525.978519
976.738062	2527.677388
977.035845	2524.027593
977.333590	2526.991791
977.631299	2524.241842
977.928971	2527.016997
978.226606	2526.346524
978.524204	2524.498941
978.821765	2525.323169
979.119290	2524.816533
979.416777	2524.619928
979.714228	2526.039013
980.011642	2527.044723
980.309020	2528.720907
980.606360	2527.412728
980.903664	2527.760567
981.200931	2526.356606
981.498162	2523.967099
981.795356	2525.923067
982.092513	2527.231246
982.389633	2526.986750
982.686717	2528.420958
982.983764	2523.606657
983.280775	2523.722603
983.577749	2525.217305
983.874686	2526.102028
984.171587	2525.570186
984.468451	2528.410876
984.765279	2525.451719
985.062070	2528.420958
985.358824	2527.009435
985.655543	2526.154960
985.952224	2526.792666
986.248869	2526.631349
986.545478	2522.905936
986.842050	2523.856194
987.138586	2520.347551
987.435086	2524.877027
987.731549	2520.198837
988.027975	2527.349713
988.324366	2525.207223
988.620719	2526.548170
988.917037	2527.387522
989.213318	2526.507841
989.509563	2521.817047
989.805772	2523.951976
990.101944	2524.773684
990.398080	2527.276617
990.694180	2524.456091
990.990244	2525.247552
991.286271	2527.931967
991.582262	2527.369878
991.878217	2526.742254
992.174136	2525.509692
992.470019	2524.272089
992.765865	2525.522295
993.061676	2528.594878
993.357450	2528.312574
993.653188	2526.447347
993.948890	2524.352747
994.244556	2527.072450
994.540186	2524.080525
994.835780	2528.196627
995.131337	2527.032121
995.426859	2525.131606
995.722345	2525.804600
996.017795	2524.229239
996.313208	2526.921215
996.608586	2526.565814
996.903928	2525.093797
997.199234	2525.996163
997.494504	2523.485669
997.789738	2525.058509
998.084936	2527.604292
998.380099	2525.464322
998.675225	2524.042716
998.970316	2525.645803
999.265371	2526.313756
999.560390	2521.988446
999.855373	2526.341483
1000.150320	2525.776873
1000.445232	2527.258973
1000.740108	2526.883407
1001.034948	2526.744775
1001.329752	2524.874507
1001.624521	2524.745957
1001.919254	2521.648168
1002.213951	2521.128929
1002.508613	2522.764784
1002.803239	2522.487520
1003.097829	2522.300998
1003.392384	2524.980371
1003.686903	2526.205371
1003.981386	2526.490197
1004.275834	2528.632687
1004.570246	2526.747295
1004.864623	2528.494055
1005.158964	2526.235618
1005.453270	2525.857532
1005.747540	2522.837881
1006.041775	2527.747964
1006.335974	2522.865607
1006.630138	2522.853004
1006.924266	2527.606812
1007.218359	2524.516585
1007.512416	2523.858714
1007.806438	2524.488858
1008.100425	2528.390712
1008.394376	2526.177645
1008.688292	2524.705628
1008.982172	2526.732172
1009.276017	2524.955165
1009.569827	2528.771319
1009.863602	2524.909795
1010.157341	2523.720082
1010.451045	2525.441637
1010.744714	2525.897861
1011.038347	2523.936852
1011.331945	2524.814013
1011.625508	2526.361647
1011.919036	2525.731503
1012.212528	2526.006246
1012.505986	2524.529188
1012.799408	2525.534898
1013.092795	2524.201513
1013.386147	2526.167563
1013.679464	2523.195802
1013.972745	2522.328724
1014.265992	2525.469363
1014.559204	2528.559590
1014.852380	2524.322500
1015.145521	2524.125895
1015.438628	2523.843591
1015.731699	2525.096317
1016.024736	2525.423992
1016.317737	2525.671009
1016.610703	2526.449867
1016.903635	2519.011645
1017.196531	2519.417458
1017.489393	2522.346368
1017.782219	2519.183044
1018.075011	2528.572193
1018.367768	2524.423323
1018.660490	2527.445495
1018.953177	2527.445495
1019.245829	2527.445495
