Dividing Wavelength (nm)	Counts (n)	Blue Motor Position (mm): 0.000000	Red Motor Position (mm): 5.300000	
326.493990	2127.366923
326.888308	2127.366923
327.282561	2127.366923
327.676750	2074.434808
328.070874	2066.873077
328.464933	2061.831923
328.858929	2064.352500
329.252859	2034.105577
329.646726	2079.475962
330.040528	2016.461538
330.434265	2205.504808
330.827938	2195.422500
331.221547	2114.764038
331.615091	2233.231154
332.008571	2127.366923
332.401986	2210.545962
332.795338	2210.545962
333.188625	2225.669423
333.581847	2301.286731
333.975006	2283.642692
334.368100	2318.930769
334.761129	2379.424615
335.154095	2281.122115
335.546996	2323.971923
335.939833	2371.862885
336.332606	2359.260000
336.725315	2399.589231
337.117960	2334.054231
337.510540	2386.986346
337.903056	2349.177692
338.295508	2470.165385
338.687896	2429.836154
339.080220	2477.727115
339.472480	2412.192115
339.864676	2470.165385
340.256807	2404.630385
340.648875	2550.823846
341.040879	2513.015192
341.432818	2550.823846
341.824694	2439.918462
342.216506	2467.644808
342.608253	2520.576923
342.999937	2419.753846
343.391557	2485.288846
343.783113	2450.000769
344.174605	2523.097500
344.566033	2505.453462
344.957397	2465.124231
345.348697	2422.274423
345.739934	2500.412308
346.131106	2530.659231
346.522215	2477.727115
346.913260	2472.685962
347.304241	2480.247692
347.695159	2470.165385
348.086012	2465.124231
348.476802	2427.315577
348.867528	2485.288846
349.258191	2444.959615
349.648789	2394.548077
350.039324	2432.356731
350.429796	2447.480192
350.820203	2513.015192
351.210548	2447.480192
351.600828	2487.809423
351.991045	2475.206538
352.381198	2427.315577
352.771288	2525.618077
353.161314	2427.315577
353.551276	2381.945192
353.941175	2507.974038
354.331010	2523.097500
354.720782	2371.862885
355.110490	2513.015192
355.500135	2495.371154
355.889717	2437.397885
356.279235	2439.918462
356.668689	2429.836154
357.058080	2399.589231
357.447408	2482.768269
357.836672	2346.657115
358.225873	2485.288846
358.615010	2460.083077
359.004084	2485.288846
359.393095	2439.918462
359.782043	2452.521346
360.170927	2417.233269
360.559748	2450.000769
360.948505	2457.562500
361.337199	2505.453462
361.725830	2404.630385
362.114398	2442.439038
362.502903	2525.618077
362.891344	2452.521346
363.279722	2437.397885
363.668037	2472.685962
364.056289	2389.506923
364.444478	2412.192115
364.832603	2434.877308
365.220665	2513.015192
365.608665	2500.412308
365.996601	2455.041923
366.384474	2490.330000
366.772284	2422.274423
367.160031	2495.371154
367.547715	2455.041923
367.935336	2462.603654
368.322893	2515.535769
368.710388	2525.618077
369.097820	2477.727115
369.485189	2412.192115
369.872495	2515.535769
370.259738	2432.356731
370.646918	2442.439038
371.034035	2477.727115
371.421090	2460.083077
371.808081	2492.850577
372.195010	2409.671538
372.581875	2475.206538
372.968678	2462.603654
373.355418	2389.506923
373.742096	2475.206538
374.128710	2465.124231
374.515262	2427.315577
374.901751	2455.041923
375.288177	2414.712692
375.674540	2457.562500
376.060841	2452.521346
376.447079	2467.644808
376.833254	2407.150962
377.219367	2457.562500
377.605417	2502.932885
377.991404	2429.836154
378.377329	2437.397885
378.763191	2543.262115
379.148991	2497.891731
379.534727	2444.959615
379.920402	2455.041923
380.306013	2477.727115
380.691563	2470.165385
381.077049	2533.179808
381.462474	2457.562500
381.847835	2477.727115
382.233134	2497.891731
382.618371	2439.918462
383.003545	2490.330000
383.388657	2437.397885
383.773706	2487.809423
384.158693	2558.385577
384.543618	2470.165385
384.928480	2455.041923
385.313280	2407.150962
385.698017	2482.768269
386.082692	2533.179808
386.467305	2500.412308
386.851856	2457.562500
387.236344	2457.562500
387.620770	2520.576923
388.005133	2434.877308
388.389435	2409.671538
388.773674	2497.891731
389.157851	2452.521346
389.541965	2460.083077
389.926018	2538.220962
390.310008	2500.412308
390.693936	2392.027500
391.077802	2500.412308
391.461606	2570.988462
391.845348	2477.727115
392.229027	2480.247692
392.612645	2480.247692
392.996200	2460.083077
393.379694	2475.206538
393.763125	2497.891731
394.146494	2525.618077
394.529801	2520.576923
394.913047	2419.753846
395.296230	2482.768269
395.679351	2553.344423
396.062410	2487.809423
396.445408	2424.795000
396.828343	2550.823846
397.211217	2530.659231
397.594028	2510.494615
397.976778	2447.480192
398.359466	2356.739423
398.742092	2525.618077
399.124656	2455.041923
399.507158	2570.988462
399.889598	2447.480192
400.271977	2573.509038
400.654294	2427.315577
401.036549	2477.727115
401.418742	2409.671538
401.800874	2482.768269
402.182944	2470.165385
402.564952	2422.274423
402.946898	2492.850577
403.328783	2450.000769
403.710606	2450.000769
404.092367	2434.877308
404.474067	2520.576923
404.855705	2530.659231
405.237282	2394.548077
405.618797	2480.247692
406.000250	2452.521346
406.381642	2490.330000
406.762972	2429.836154
407.144240	2472.685962
407.525447	2505.453462
407.906593	2460.083077
408.287677	2495.371154
408.668700	2429.836154
409.049661	2470.165385
409.430560	2548.303269
409.811399	2475.206538
410.192176	2452.521346
410.572891	2460.083077
410.953545	2505.453462
411.334138	2457.562500
411.714669	2558.385577
412.095139	2565.947308
412.475547	2550.823846
412.855894	2467.644808
413.236180	2548.303269
413.616405	2467.644808
413.996568	2548.303269
414.376670	2485.288846
414.756711	2462.603654
415.136691	2538.220962
415.516609	2437.397885
415.896466	2492.850577
416.276262	2407.150962
416.655997	2470.165385
417.035670	2462.603654
417.415283	2437.397885
417.794834	2515.535769
418.174324	2492.850577
418.553753	2485.288846
418.933121	2439.918462
419.312428	2518.056346
419.691674	2513.015192
420.070859	2500.412308
420.449983	2507.974038
420.829045	2429.836154
421.208047	2497.891731
421.586988	2404.630385
421.965867	2419.753846
422.344686	2548.303269
422.723444	2505.453462
423.102141	2553.344423
423.480777	2457.562500
423.859352	2475.206538
424.237866	2497.891731
424.616319	2477.727115
424.994712	2460.083077
425.373044	2417.233269
425.751314	2477.727115
426.129524	2513.015192
426.507673	2447.480192
426.885762	2515.535769
427.263789	2412.192115
427.641756	2533.179808
428.019662	2369.342308
428.397508	2568.467885
428.775292	2457.562500
429.153016	2434.877308
429.530679	2419.753846
429.908282	2525.618077
430.285824	2467.644808
430.663305	2487.809423
431.040726	2376.904038
431.418086	2596.194231
431.795385	2477.727115
432.172624	2548.303269
432.549802	2442.439038
432.926920	2457.562500
433.303977	2492.850577
433.680974	2487.809423
434.057910	2538.220962
434.434786	2444.959615
434.811601	2507.974038
435.188355	2475.206538
435.565050	2558.385577
435.941683	2462.603654
436.318257	2472.685962
436.694770	2462.603654
437.071222	2482.768269
437.447614	2432.356731
437.823946	2480.247692
438.200218	2485.288846
438.576429	2525.618077
438.952580	2490.330000
439.328670	2505.453462
439.704700	2465.124231
440.080670	2477.727115
440.456580	2528.138654
440.832429	2510.494615
441.208218	2457.562500
441.583947	2392.027500
441.959616	2523.097500
442.335224	2447.480192
442.710773	2520.576923
443.086261	2477.727115
443.461689	2465.124231
443.837057	2465.124231
444.212365	2442.439038
444.587612	2460.083077
444.962800	2462.603654
445.337927	2528.138654
445.712995	2487.809423
446.088002	2495.371154
446.462949	2490.330000
446.837837	2490.330000
447.212664	2477.727115
447.587431	2558.385577
447.962139	2467.644808
448.336786	2500.412308
448.711374	2505.453462
449.085901	2523.097500
449.460369	2427.315577
449.834776	2432.356731
450.209124	2485.288846
450.583412	2487.809423
450.957640	2545.782692
451.331808	2502.932885
451.705917	2555.865000
452.079965	2563.426731
452.453954	2492.850577
452.827883	2442.439038
453.201752	2530.659231
453.575562	2452.521346
453.949311	2480.247692
454.323001	2500.412308
454.696632	2510.494615
455.070202	2601.235385
455.443713	2394.548077
455.817164	2490.330000
456.190556	2450.000769
456.563888	2450.000769
456.937160	2515.535769
457.310373	2492.850577
457.683526	2450.000769
458.056619	2540.741538
458.429653	2530.659231
458.802628	2518.056346
459.175542	2460.083077
459.548398	2439.918462
459.921194	2545.782692
460.293930	2510.494615
460.666607	2477.727115
461.039224	2570.988462
461.411782	2455.041923
461.784280	2437.397885
462.156719	2485.288846
462.529099	2507.974038
462.901419	2576.029615
463.273680	2497.891731
463.645882	2452.521346
464.018024	2578.550192
464.390106	2467.644808
464.762130	2573.509038
465.134094	2412.192115
465.505999	2465.124231
465.877845	2548.303269
466.249631	2462.603654
466.621358	2515.535769
466.993026	2530.659231
467.364634	2618.879423
467.736184	2538.220962
468.107674	2444.959615
468.479105	2507.974038
468.850477	2490.330000
469.221790	2502.932885
469.593043	2553.344423
469.964238	2528.138654
470.335373	2573.509038
470.706449	2465.124231
471.077467	2535.700385
471.448425	2495.371154
471.819324	2513.015192
472.190164	2434.877308
472.560945	2447.480192
472.931667	2487.809423
473.302330	2452.521346
473.672934	2505.453462
474.043479	2432.356731
474.413965	2528.138654
474.784393	2417.233269
475.154761	2520.576923
475.525070	2553.344423
475.895321	2525.618077
476.265513	2513.015192
476.635645	2558.385577
477.005719	2470.165385
477.375734	2520.576923
477.745691	2533.179808
478.115588	2510.494615
478.485427	2487.809423
478.855207	2530.659231
479.224928	2495.371154
479.594591	2530.659231
479.964194	2520.576923
480.333739	2457.562500
480.703226	2505.453462
481.072653	2543.262115
481.442022	2450.000769
481.811333	2465.124231
482.180584	2492.850577
482.549777	2482.768269
482.918912	2404.630385
483.287988	2444.959615
483.657005	2482.768269
484.025964	2626.441154
484.394864	2485.288846
484.763706	2502.932885
485.132489	2462.603654
485.501213	2535.700385
485.869879	2482.768269
486.238487	2548.303269
486.607036	2470.165385
486.975527	2485.288846
487.343959	2593.673654
487.712333	2530.659231
488.080648	2568.467885
488.448905	2444.959615
488.817104	2513.015192
489.185244	2475.206538
489.553326	2490.330000
489.921350	2518.056346
490.289315	2507.974038
490.657222	2565.947308
491.025070	2447.480192
491.392861	2520.576923
491.760593	2518.056346
492.128267	2467.644808
492.495883	2477.727115
492.863440	2528.138654
493.230939	2581.070769
493.598380	2487.809423
493.965763	2538.220962
494.333088	2452.521346
494.700354	2573.509038
495.067563	2540.741538
495.434713	2432.356731
495.801805	2467.644808
496.168839	2545.782692
496.535815	2520.576923
496.902733	2485.288846
497.269593	2505.453462
497.636395	2513.015192
498.003139	2472.685962
498.369825	2535.700385
498.736453	2472.685962
499.103023	2528.138654
499.469535	2520.576923
499.835989	2545.782692
500.202385	2417.233269
500.568723	2540.741538
500.935003	2528.138654
501.301226	2500.412308
501.667390	2518.056346
502.033497	2538.220962
502.399546	2434.877308
502.765537	2513.015192
503.131470	2500.412308
503.497345	2518.056346
503.863163	2492.850577
504.228923	2502.932885
504.594625	2565.947308
504.960269	2495.371154
505.325856	2487.809423
505.691385	2485.288846
506.056856	2560.906154
506.422270	2518.056346
506.787625	2588.632500
507.152924	2513.015192
507.518164	2603.755962
507.883347	2510.494615
508.248472	2518.056346
508.613540	2467.644808
508.978550	2414.712692
509.343503	2570.988462
509.708398	2460.083077
510.073236	2548.303269
510.438016	2533.179808
510.802738	2523.097500
511.167403	2490.330000
511.532010	2384.465769
511.896561	2518.056346
512.261053	2455.041923
512.625488	2555.865000
512.989866	2429.836154
513.354186	2502.932885
513.718449	2598.714808
514.082655	2502.932885
514.446803	2497.891731
514.810894	2616.358846
515.174927	2576.029615
515.538904	2513.015192
515.902822	2621.400000
516.266684	2533.179808
516.630488	2442.439038
516.994235	2472.685962
517.357925	2530.659231
517.721558	2550.823846
518.085133	2525.618077
518.448651	2475.206538
518.812112	2545.782692
519.175516	2470.165385
519.538863	2530.659231
519.902152	2472.685962
520.265385	2462.603654
520.628560	2487.809423
520.991678	2490.330000
521.354739	2470.165385
521.717743	2586.111923
522.080690	2495.371154
522.443580	2583.591346
522.806413	2495.371154
523.169189	2510.494615
523.531908	2462.603654
523.894569	2452.521346
524.257174	2419.753846
524.619722	2578.550192
524.982213	2485.288846
525.344647	2444.959615
525.707025	2535.700385
526.069345	2540.741538
526.431608	2563.426731
526.793815	2513.015192
527.155964	2513.015192
527.518057	2573.509038
527.880093	2591.153077
528.242072	2525.618077
528.603995	2520.576923
528.965860	2465.124231
529.327669	2434.877308
529.689421	2515.535769
530.051117	2452.521346
530.412755	2404.630385
530.774337	2538.220962
531.135862	2533.179808
531.497331	2507.974038
531.858743	2550.823846
532.220098	2507.974038
532.581396	2553.344423
532.942638	2520.576923
533.303824	2513.015192
533.664953	2455.041923
534.026025	2513.015192
534.387040	2480.247692
534.747999	2530.659231
535.108902	2465.124231
535.469748	2558.385577
535.830537	2424.795000
536.191270	2460.083077
536.551947	2515.535769
536.912567	2442.439038
537.273131	2487.809423
537.633638	2553.344423
537.994089	2480.247692
538.354483	2507.974038
538.714821	2505.453462
539.075103	2497.891731
539.435328	2555.865000
539.795497	2540.741538
540.155609	2492.850577
540.515665	2492.850577
540.875665	2528.138654
541.235609	2482.768269
541.595496	2540.741538
541.955328	2545.782692
542.315102	2444.959615
542.674821	2492.850577
543.034483	2470.165385
543.394090	2570.988462
543.753640	2462.603654
544.113134	2502.932885
544.472571	2525.618077
544.831953	2581.070769
545.191278	2550.823846
545.550548	2530.659231
545.909761	2525.618077
546.268918	2457.562500
546.628019	2480.247692
546.987064	2520.576923
547.346053	2525.618077
547.704986	2513.015192
548.063863	2543.262115
548.422684	2540.741538
548.781449	2470.165385
549.140158	2548.303269
549.498811	2535.700385
549.857408	2465.124231
550.215949	2520.576923
550.574434	2505.453462
550.932864	2543.262115
551.291237	2492.850577
551.649555	2437.397885
552.007817	2535.700385
552.366022	2402.109808
552.724173	2384.465769
553.082267	2525.618077
553.440305	2452.521346
553.798288	2492.850577
554.156215	2490.330000
554.514086	2518.056346
554.871902	2432.356731
555.229661	2525.618077
555.587365	2475.206538
555.945014	2434.877308
556.302606	2523.097500
556.660143	2475.206538
557.017625	2482.768269
557.375050	2583.591346
557.732421	2482.768269
558.089735	2510.494615
558.446994	2528.138654
558.804197	2500.412308
559.161345	2565.947308
559.518437	2485.288846
559.875474	2570.988462
560.232455	2528.138654
560.589381	2424.795000
560.946251	2538.220962
561.303065	2417.233269
561.659825	2450.000769
562.016528	2563.426731
562.373177	2623.920577
562.729770	2558.385577
563.086307	2573.509038
563.442789	2495.371154
563.799216	2520.576923
564.155587	2480.247692
564.511904	2507.974038
564.868164	2500.412308
565.224370	2457.562500
565.580520	2439.918462
565.936615	2505.453462
566.292654	2523.097500
566.648638	2404.630385
567.004567	2573.509038
567.360441	2414.712692
567.716260	2507.974038
568.072023	2515.535769
568.427732	2507.974038
568.783385	2510.494615
569.138982	2538.220962
569.494525	2472.685962
569.850013	2583.591346
570.205445	2502.932885
570.560823	2550.823846
570.916145	2497.891731
571.271412	2540.741538
571.626625	2510.494615
571.981782	2455.041923
572.336884	2525.618077
572.691931	2457.562500
573.046923	2480.247692
573.401860	2570.988462
573.756743	2492.850577
574.111570	2553.344423
574.466342	2452.521346
574.821059	2460.083077
575.175722	2591.153077
575.530330	2515.535769
575.884882	2490.330000
576.239380	2515.535769
576.593823	2500.412308
576.948211	2596.194231
577.302544	2513.015192
577.656823	2485.288846
578.011047	2502.932885
578.365216	2495.371154
578.719330	2412.192115
579.073389	2485.288846
579.427394	2518.056346
579.781344	2565.947308
580.135239	2482.768269
580.489080	2500.412308
580.842866	2492.850577
581.196597	2442.439038
581.550273	2482.768269
581.903895	2475.206538
582.257463	2525.618077
582.610975	2525.618077
582.964434	2505.453462
583.317837	2560.906154
583.671186	2507.974038
584.024481	2462.603654
584.377721	2502.932885
584.730906	2543.262115
585.084037	2510.494615
585.437113	2482.768269
585.790135	2540.741538
586.143103	2500.412308
586.496016	2450.000769
586.848874	2510.494615
587.201679	2485.288846
587.554428	2550.823846
587.907124	2520.576923
588.259765	2439.918462
588.612352	2570.988462
588.964884	2538.220962
589.317362	2434.877308
589.669786	2581.070769
590.022155	2490.330000
590.374470	2490.330000
590.726731	2497.891731
591.078937	2472.685962
591.431090	2485.288846
591.783188	2550.823846
592.135232	2515.535769
592.487222	2452.521346
592.839157	2495.371154
593.191038	2467.644808
593.542866	2535.700385
593.894639	2548.303269
594.246358	2465.124231
594.598022	2558.385577
594.949633	2452.521346
595.301190	2497.891731
595.652692	2538.220962
596.004141	2523.097500
596.355535	2477.727115
596.706876	2540.741538
597.058162	2452.521346
597.409395	2528.138654
597.760573	2520.576923
598.111698	2442.439038
598.462768	2500.412308
598.813785	2475.206538
599.164748	2482.768269
599.515657	2540.741538
599.866511	2520.576923
600.217312	2550.823846
600.568060	2492.850577
600.918753	2535.700385
601.269392	2550.823846
601.619978	2505.453462
601.970510	2505.453462
602.320988	2475.206538
602.671412	2462.603654
603.021783	2545.782692
603.372100	2578.550192
603.722363	2467.644808
604.072572	2548.303269
604.422728	2480.247692
604.772830	2538.220962
605.122878	2427.315577
605.472872	2437.397885
605.822813	2538.220962
606.172701	2591.153077
606.522534	2573.509038
606.872314	2437.397885
607.222041	2497.891731
607.571714	2583.591346
607.921333	2475.206538
608.270899	2555.865000
608.620411	2482.768269
608.969870	2538.220962
609.319276	2450.000769
609.668627	2548.303269
610.017926	2553.344423
610.367171	2450.000769
610.716362	2507.974038
611.065500	2465.124231
611.414585	2563.426731
611.763616	2475.206538
612.112594	2490.330000
612.461518	2467.644808
612.810389	2548.303269
613.159207	2470.165385
613.507971	2507.974038
613.856682	2540.741538
614.205340	2502.932885
614.553945	2477.727115
614.902496	2560.906154
615.250994	2548.303269
615.599439	2525.618077
615.947830	2555.865000
616.296169	2497.891731
616.644454	2515.535769
616.992686	2452.521346
617.340864	2472.685962
617.688990	2513.015192
618.037063	2457.562500
618.385082	2538.220962
618.733048	2530.659231
619.080961	2515.535769
619.428821	2545.782692
619.776628	2482.768269
620.124382	2543.262115
620.472083	2505.453462
620.819731	2497.891731
621.167326	2487.809423
621.514868	2530.659231
621.862357	2576.029615
622.209793	2528.138654
622.557176	2588.632500
622.904506	2452.521346
623.251783	2495.371154
623.599007	2482.768269
623.946179	2528.138654
624.293297	2457.562500
624.640363	2490.330000
624.987376	2603.755962
625.334336	2520.576923
625.681243	2533.179808
626.028097	2513.015192
626.374899	2475.206538
626.721647	2535.700385
627.068343	2485.288846
627.414987	2485.288846
627.761577	2540.741538
628.108115	2417.233269
628.454600	2472.685962
628.801032	2543.262115
629.147412	2482.768269
629.493739	2414.712692
629.840014	2467.644808
630.186236	2550.823846
630.532405	2490.330000
630.878521	2434.877308
631.224585	2442.439038
631.570597	2502.932885
631.916556	2505.453462
632.262462	2525.618077
632.608316	2442.439038
632.954117	2520.576923
633.299866	2465.124231
633.645562	2538.220962
633.991206	2523.097500
634.336797	2439.918462
634.682336	2450.000769
635.027823	2528.138654
635.373257	2523.097500
635.718639	2485.288846
636.063968	2419.753846
636.409245	2555.865000
636.754470	2482.768269
637.099642	2490.330000
637.444762	2462.603654
637.789829	2495.371154
638.134845	2472.685962
638.479808	2515.535769
638.824719	2485.288846
639.169577	2475.206538
639.514383	2507.974038
639.859137	2540.741538
640.203839	2518.056346
640.548489	2452.521346
640.893086	2497.891731
641.237632	2472.685962
641.582125	2535.700385
641.926566	2482.768269
642.270955	2510.494615
642.615292	2472.685962
642.959576	2555.865000
643.303809	2583.591346
643.647990	2470.165385
643.992118	2500.412308
644.336195	2460.083077
644.680219	2427.315577
645.024192	2520.576923
645.368112	2520.576923
645.711981	2475.206538
646.055797	2450.000769
646.399562	2538.220962
646.743274	2530.659231
647.086935	2495.371154
647.430544	2482.768269
647.774101	2515.535769
648.117606	2513.015192
648.461059	2490.330000
648.804460	2533.179808
649.147810	2450.000769
649.491108	2523.097500
649.834354	2505.453462
650.177548	2550.823846
650.520690	2500.412308
650.863781	2576.029615
651.206820	2565.947308
651.549807	2472.685962
651.892742	2505.453462
652.235626	2470.165385
652.578458	2558.385577
652.921238	2497.891731
653.263967	2535.700385
653.606644	2467.644808
653.949269	2470.165385
654.291843	2553.344423
654.634365	2553.344423
654.976836	2482.768269
655.319255	2553.344423
655.661622	2530.659231
656.003938	2485.288846
656.346203	2480.247692
656.688416	2505.453462
657.030577	2565.947308
657.372687	2570.988462
657.714746	2447.480192
658.056753	2505.453462
658.398708	2528.138654
658.740612	2513.015192
659.082465	2576.029615
659.424266	2497.891731
659.766016	2543.262115
660.107715	2513.015192
660.449362	2495.371154
660.790958	2513.015192
661.132503	2518.056346
661.473996	2570.988462
661.815438	2450.000769
662.156829	2513.015192
662.498168	2525.618077
662.839456	2447.480192
663.180693	2505.453462
663.521879	2560.906154
663.863013	2485.288846
664.204097	2422.274423
664.545129	2518.056346
664.886110	2457.562500
665.227040	2495.371154
665.567918	2528.138654
665.908746	2520.576923
666.249522	2563.426731
666.590248	2548.303269
666.930922	2477.727115
667.271545	2518.056346
667.612118	2460.083077
667.952639	2414.712692
668.293109	2467.644808
668.633528	2492.850577
668.973896	2502.932885
669.314213	2465.124231
669.654480	2492.850577
669.994695	2452.521346
670.334859	2500.412308
670.674973	2450.000769
671.015035	2553.344423
671.355047	2525.618077
671.695008	2500.412308
672.034918	2550.823846
672.374777	2515.535769
672.714585	2560.906154
673.054342	2477.727115
673.394049	2540.741538
673.733705	2480.247692
674.073310	2487.809423
674.412864	2500.412308
674.752368	2553.344423
675.091820	2460.083077
675.431223	2565.947308
675.770574	2447.480192
676.109875	2495.371154
676.449125	2490.330000
676.788324	2555.865000
677.127473	2558.385577
677.466571	2487.809423
677.805619	2513.015192
678.144616	2505.453462
678.483562	2548.303269
678.822458	2452.521346
679.161303	2487.809423
679.500098	2434.877308
679.838842	2497.891731
680.177535	2528.138654
680.516179	2399.589231
680.854771	2543.262115
681.193314	2427.315577
681.531805	2528.138654
681.870247	2497.891731
682.208638	2465.124231
682.546978	2581.070769
682.885268	2482.768269
683.223508	2523.097500
683.561697	2553.344423
683.899836	2472.685962
684.237925	2515.535769
684.575963	2414.712692
684.913951	2470.165385
685.251889	2490.330000
685.589776	2414.712692
685.927614	2507.974038
686.265401	2568.467885
686.603137	2576.029615
686.940824	2495.371154
687.278460	2502.932885
687.616046	2477.727115
687.953582	2502.932885
688.291068	2452.521346
688.628504	2528.138654
688.965889	2419.753846
689.303224	2593.673654
689.640510	2434.877308
689.977745	2550.823846
690.314930	2472.685962
690.652065	2480.247692
690.989150	2596.194231
691.326185	2457.562500
691.663170	2450.000769
692.000105	2439.918462
692.336990	2505.453462
692.673825	2482.768269
693.010610	2407.150962
693.347345	2419.753846
693.684030	2450.000769
694.020665	2477.727115
694.357251	2535.700385
694.693786	2482.768269
695.030272	2455.041923
695.366707	2570.988462
695.703093	2497.891731
696.039429	2457.562500
696.375716	2535.700385
696.711952	2487.809423
697.048139	2465.124231
697.384276	2507.974038
697.720363	2568.467885
698.056400	2462.603654
698.392388	2492.850577
698.728326	2432.356731
699.064214	2437.397885
699.400053	2502.932885
699.735842	2485.288846
700.071581	2485.288846
700.407270	2490.330000
700.742910	2553.344423
701.078501	2455.041923
701.414042	2538.220962
701.749533	2472.685962
702.084974	2535.700385
702.420366	2424.795000
702.755709	2523.097500
703.091002	2472.685962
703.426246	2465.124231
703.761440	2482.768269
704.096584	2558.385577
704.431679	2485.288846
704.766725	2505.453462
705.101721	2467.644808
705.436668	2480.247692
705.771565	2543.262115
706.106413	2422.274423
706.441212	2583.591346
706.775961	2528.138654
707.110661	2490.330000
707.445311	2394.548077
707.779913	2535.700385
708.114465	2510.494615
708.448967	2568.467885
708.783421	2470.165385
709.117825	2497.891731
709.452180	2457.562500
709.786485	2505.453462
710.120742	2487.809423
710.454949	2520.576923
710.789107	2588.632500
711.123216	2437.397885
711.457275	2553.344423
711.791286	2467.644808
712.125247	2550.823846
712.459159	2507.974038
712.793023	2533.179808
713.126837	2460.083077
713.460602	2553.344423
713.794318	2545.782692
714.127985	2563.426731
714.461602	2505.453462
714.795171	2570.988462
715.128691	2414.712692
715.462162	2507.974038
715.795584	2455.041923
716.128957	2482.768269
716.462281	2530.659231
716.795556	2588.632500
717.128782	2523.097500
717.461960	2467.644808
717.795088	2470.165385
718.128167	2505.453462
718.461198	2518.056346
718.794180	2465.124231
719.127113	2447.480192
719.459997	2470.165385
719.792833	2452.521346
720.125619	2543.262115
720.458357	2487.809423
720.791046	2442.439038
721.123686	2460.083077
721.456278	2485.288846
721.788821	2480.247692
722.121315	2543.262115
722.453761	2419.753846
722.786158	2475.206538
723.118506	2492.850577
723.450805	2540.741538
723.783056	2500.412308
724.115259	2465.124231
724.447412	2518.056346
724.779518	2530.659231
725.111574	2500.412308
725.443582	2510.494615
725.775542	2568.467885
726.107453	2634.002885
726.439315	2465.124231
726.771129	2429.836154
727.102895	2560.906154
727.434612	2523.097500
727.766281	2530.659231
728.097901	2467.644808
728.429473	2444.959615
728.760996	2455.041923
729.092471	2545.782692
729.423897	2525.618077
729.755276	2502.932885
730.086606	2583.591346
730.417887	2477.727115
730.749120	2588.632500
731.080305	2543.262115
731.411442	2500.412308
731.742530	2530.659231
732.073570	2477.727115
732.404562	2553.344423
732.735506	2450.000769
733.066401	2510.494615
733.397249	2515.535769
733.728048	2513.015192
734.058798	2510.494615
734.389501	2455.041923
734.720156	2540.741538
735.050762	2618.879423
735.381320	2500.412308
735.711831	2439.918462
736.042293	2482.768269
736.372707	2414.712692
736.703073	2497.891731
737.033391	2460.083077
737.363661	2510.494615
737.693883	2525.618077
738.024056	2442.439038
738.354182	2497.891731
738.684260	2490.330000
739.014290	2520.576923
739.344272	2502.932885
739.674207	2485.288846
740.004093	2427.315577
740.333931	2470.165385
740.663722	2470.165385
740.993464	2404.630385
741.323159	2528.138654
741.652806	2538.220962
741.982405	2465.124231
742.311956	2500.412308
742.641460	2513.015192
742.970915	2457.562500
743.300323	2482.768269
743.629683	2533.179808
743.958996	2540.741538
744.288260	2394.548077
744.617477	2442.439038
744.946647	2455.041923
745.275768	2475.206538
745.604842	2460.083077
745.933869	2573.509038
746.262847	2465.124231
746.591778	2523.097500
746.920662	2452.521346
747.249498	2470.165385
747.578286	2545.782692
747.907027	2502.932885
748.235720	2545.782692
748.564365	2470.165385
748.892963	2500.412308
749.221514	2417.233269
749.550017	2510.494615
749.878473	2573.509038
750.206881	2515.535769
750.535242	2475.206538
750.863555	2578.550192
751.191821	2540.741538
751.520039	2439.918462
751.848210	2457.562500
752.176334	2432.356731
752.504411	2477.727115
752.832440	2505.453462
753.160421	2520.576923
753.488356	2568.467885
753.816243	2576.029615
754.144082	2497.891731
754.471875	2573.509038
754.799620	2520.576923
755.127318	2528.138654
755.454969	2533.179808
755.782572	2472.685962
756.110129	2515.535769
756.437638	2424.795000
756.765100	2477.727115
757.092515	2475.206538
757.419882	2455.041923
757.747203	2553.344423
758.074477	2472.685962
758.401703	2563.426731
758.728882	2442.439038
759.056014	2518.056346
759.383099	2596.194231
759.710138	2429.836154
760.037129	2475.206538
760.364073	2465.124231
760.690970	2507.974038
761.017820	2497.891731
761.344623	2500.412308
761.671379	2452.521346
761.998088	2452.521346
762.324751	2477.727115
762.651366	2507.974038
762.977935	2565.947308
763.304456	2525.618077
763.630931	2540.741538
763.957359	2462.603654
764.283740	2578.550192
764.610074	2477.727115
764.936362	2523.097500
765.262602	2530.659231
765.588796	2530.659231
765.914943	2437.397885
766.241044	2452.521346
766.567097	2510.494615
766.893104	2434.877308
767.219064	2495.371154
767.544978	2487.809423
767.870845	2460.083077
768.196665	2525.618077
768.522438	2563.426731
768.848165	2492.850577
769.173846	2573.509038
769.499479	2460.083077
769.825066	2492.850577
770.150607	2550.823846
770.476101	2465.124231
770.801548	2530.659231
771.126949	2450.000769
771.452303	2535.700385
771.777611	2490.330000
772.102872	2477.727115
772.428087	2591.153077
772.753256	2540.741538
773.078378	2422.274423
773.403453	2495.371154
773.728482	2507.974038
774.053465	2465.124231
774.378401	2460.083077
774.703291	2560.906154
775.028135	2392.027500
775.352932	2558.385577
775.677683	2502.932885
776.002388	2475.206538
776.327046	2439.918462
776.651658	2555.865000
776.976224	2487.809423
777.300743	2475.206538
777.625216	2533.179808
777.949643	2455.041923
778.274024	2538.220962
778.598359	2538.220962
778.922647	2497.891731
779.246889	2470.165385
779.571086	2513.015192
779.895236	2497.891731
780.219339	2432.356731
780.543397	2603.755962
780.867409	2490.330000
781.191374	2550.823846
781.515294	2563.426731
781.839167	2550.823846
782.162995	2510.494615
782.486776	2500.412308
782.810511	2485.288846
783.134201	2490.330000
783.457844	2450.000769
783.781441	2450.000769
784.104993	2505.453462
784.428498	2502.932885
784.751958	2520.576923
785.075372	2525.618077
785.398739	2646.605769
785.722061	2452.521346
786.045337	2485.288846
786.368568	2480.247692
786.691752	2543.262115
787.014891	2417.233269
787.337983	2505.453462
787.661030	2487.809423
787.984031	2560.906154
788.306987	2525.618077
788.629897	2467.644808
788.952760	2487.809423
789.275579	2538.220962
789.598351	2444.959615
789.921078	2543.262115
790.243759	2417.233269
790.566395	2497.891731
790.888984	2523.097500
791.211529	2523.097500
791.534027	2424.795000
791.856480	2497.891731
792.178888	2568.467885
792.501249	2480.247692
792.823566	2485.288846
793.145836	2477.727115
793.468062	2452.521346
793.790241	2447.480192
794.112375	2495.371154
794.434464	2402.109808
794.756507	2462.603654
795.078505	2530.659231
795.400457	2558.385577
795.722364	2427.315577
796.044226	2540.741538
796.366042	2455.041923
796.687812	2535.700385
797.009538	2553.344423
797.331218	2548.303269
797.652852	2545.782692
797.974442	2457.562500
798.295986	2482.768269
798.617484	2505.453462
798.938938	2452.521346
799.260346	2462.603654
799.581709	2563.426731
799.903026	2535.700385
800.224299	2518.056346
800.545526	2485.288846
800.866708	2565.947308
801.187845	2485.288846
801.508936	2528.138654
801.829983	2482.768269
802.150984	2533.179808
802.471940	2412.192115
802.792851	2502.932885
803.113717	2467.644808
803.434538	2505.453462
803.755314	2434.877308
804.076045	2565.947308
804.396731	2475.206538
804.717372	2528.138654
805.037967	2583.591346
805.358518	2422.274423
805.679024	2518.056346
805.999485	2533.179808
806.319901	2507.974038
806.640272	2480.247692
806.960598	2520.576923
807.280879	2573.509038
807.601115	2490.330000
807.921306	2487.809423
808.241453	2434.877308
808.561554	2444.959615
808.881611	2439.918462
809.201623	2460.083077
809.521590	2603.755962
809.841513	2507.974038
810.161390	2452.521346
810.481223	2500.412308
810.801011	2450.000769
811.120755	2475.206538
811.440453	2427.315577
811.760107	2565.947308
812.079716	2560.906154
812.399281	2520.576923
812.718801	2447.480192
813.038276	2578.550192
813.357707	2482.768269
813.677093	2530.659231
813.996434	2394.548077
814.315731	2502.932885
814.634983	2497.891731
814.954191	2470.165385
815.273354	2510.494615
815.592473	2513.015192
815.911547	2399.589231
816.230577	2593.673654
816.549562	2439.918462
816.868502	2470.165385
817.187399	2475.206538
817.506250	2545.782692
817.825058	2510.494615
818.143821	2530.659231
818.462539	2450.000769
818.781213	2513.015192
819.099843	2553.344423
819.418429	2480.247692
819.736970	2596.194231
820.055466	2490.330000
820.373919	2505.453462
820.692327	2470.165385
821.010691	2515.535769
821.329011	2518.056346
821.647286	2570.988462
821.965517	2492.850577
822.283704	2455.041923
822.601847	2492.850577
822.919945	2477.727115
823.237999	2444.959615
823.556010	2424.795000
823.873976	2477.727115
824.191897	2530.659231
824.509775	2442.439038
824.827609	2518.056346
825.145398	2492.850577
825.463144	2482.768269
825.780845	2455.041923
826.098502	2535.700385
826.416116	2467.644808
826.733685	2490.330000
827.051210	2475.206538
827.368692	2513.015192
827.686129	2492.850577
828.003522	2502.932885
828.320872	2444.959615
828.638177	2528.138654
828.955439	2490.330000
829.272656	2515.535769
829.589830	2465.124231
829.906960	2573.509038
830.224046	2477.727115
830.541088	2510.494615
830.858086	2507.974038
831.175041	2422.274423
831.491952	2570.988462
831.808819	2528.138654
832.125642	2465.124231
832.442421	2447.480192
832.759157	2434.877308
833.075849	2490.330000
833.392497	2502.932885
833.709101	2472.685962
834.025662	2477.727115
834.342179	2452.521346
834.658653	2515.535769
834.975083	2480.247692
835.291469	2520.576923
835.607811	2533.179808
835.924110	2565.947308
836.240366	2447.480192
836.556578	2515.535769
836.872746	2485.288846
837.188871	2485.288846
837.504952	2502.932885
837.820990	2513.015192
838.136984	2432.356731
838.452935	2477.727115
838.768842	2588.632500
839.084706	2510.494615
839.400526	2490.330000
839.716303	2444.959615
840.032037	2543.262115
840.347727	2492.850577
840.663373	2490.330000
840.978977	2520.576923
841.294537	2477.727115
841.610054	2530.659231
841.925527	2450.000769
842.240957	2374.383462
842.556344	2450.000769
842.871687	2502.932885
843.186987	2500.412308
843.502244	2480.247692
843.817458	2487.809423
844.132629	2475.206538
844.447756	2450.000769
844.762840	2439.918462
845.077881	2520.576923
845.392879	2523.097500
845.707833	2543.262115
846.022745	2465.124231
846.337613	2439.918462
846.652438	2596.194231
846.967221	2505.453462
847.281960	2555.865000
847.596656	2452.521346
847.911309	2545.782692
848.225919	2533.179808
848.540485	2487.809423
848.855009	2477.727115
849.169490	2515.535769
849.483928	2558.385577
849.798323	2535.700385
850.112675	2492.850577
850.426984	2487.809423
850.741251	2432.356731
851.055474	2432.356731
851.369654	2457.562500
851.683792	2480.247692
851.997887	2462.603654
852.311938	2545.782692
852.625947	2586.111923
852.939914	2603.755962
853.253837	2424.795000
853.567718	2621.400000
853.881555	2558.385577
854.195350	2502.932885
854.509103	2500.412308
854.822812	2447.480192
855.136479	2530.659231
855.450103	2492.850577
855.763685	2545.782692
856.077224	2480.247692
856.390720	2477.727115
856.704173	2475.206538
857.017584	2480.247692
857.330953	2477.727115
857.644278	2520.576923
857.957561	2558.385577
858.270802	2477.727115
858.584000	2495.371154
858.897155	2507.974038
859.210268	2465.124231
859.523339	2472.685962
859.836367	2528.138654
860.149352	2497.891731
860.462295	2543.262115
860.775195	2523.097500
861.088054	2510.494615
861.400869	2437.397885
861.713642	2487.809423
862.026373	2586.111923
862.339062	2495.371154
862.651708	2515.535769
862.964312	2467.644808
863.276873	2402.109808
863.589392	2437.397885
863.901869	2538.220962
864.214303	2457.562500
864.526696	2462.603654
864.839045	2540.741538
865.151353	2497.891731
865.463619	2392.027500
865.775842	2538.220962
866.088023	2465.124231
866.400162	2510.494615
866.712258	2628.961731
867.024313	2465.124231
867.336325	2447.480192
867.648296	2472.685962
867.960224	2490.330000
868.272110	2502.932885
868.583954	2462.603654
868.895755	2543.262115
869.207515	2515.535769
869.519233	2485.288846
869.830909	2354.218846
870.142542	2510.494615
870.454134	2515.535769
870.765684	2578.550192
871.077191	2492.850577
871.388657	2523.097500
871.700081	2470.165385
872.011463	2487.809423
872.322803	2417.233269
872.634101	2560.906154
872.945357	2525.618077
873.256571	2515.535769
873.567744	2548.303269
873.878874	2548.303269
874.189963	2591.153077
874.501010	2492.850577
874.812015	2553.344423
875.122979	2543.262115
875.433900	2497.891731
875.744780	2515.535769
876.055618	2450.000769
876.366415	2510.494615
876.677169	2429.836154
876.987882	2472.685962
877.298554	2568.467885
877.609183	2515.535769
877.919771	2414.712692
878.230317	2520.576923
878.540822	2480.247692
878.851285	2543.262115
879.161707	2462.603654
879.472087	2477.727115
879.782425	2505.453462
880.092722	2515.535769
880.402977	2591.153077
880.713191	2535.700385
881.023363	2462.603654
881.333494	2452.521346
881.643583	2462.603654
881.953631	2555.865000
882.263637	2482.768269
882.573602	2540.741538
882.883526	2495.371154
883.193408	2550.823846
883.503248	2432.356731
883.813048	2495.371154
884.122806	2510.494615
884.432522	2573.509038
884.742197	2480.247692
885.051831	2530.659231
885.361424	2432.356731
885.670975	2500.412308
885.980485	2475.206538
886.289954	2490.330000
886.599382	2460.083077
886.908768	2550.823846
887.218113	2480.247692
887.527417	2467.644808
887.836680	2419.753846
888.145901	2555.865000
888.455082	2419.753846
888.764221	2540.741538
889.073319	2518.056346
889.382376	2475.206538
889.691392	2417.233269
890.000366	2485.288846
890.309300	2535.700385
890.618193	2467.644808
890.927044	2467.644808
891.235855	2427.315577
891.544625	2472.685962
891.853353	2477.727115
892.162041	2507.974038
892.470687	2518.056346
892.779293	2482.768269
893.087858	2414.712692
893.396381	2518.056346
893.704864	2553.344423
894.013306	2507.974038
894.321707	2601.235385
894.630068	2518.056346
894.938387	2472.685962
895.246665	2530.659231
895.554903	2457.562500
895.863100	2515.535769
896.171256	2513.015192
896.479371	2540.741538
896.787446	2434.877308
897.095480	2507.974038
897.403473	2477.727115
897.711425	2485.288846
898.019336	2424.795000
898.327207	2523.097500
898.635038	2467.644808
898.942827	2538.220962
899.250576	2583.591346
899.558284	2442.439038
899.865952	2515.535769
900.173579	2467.644808
900.481165	2467.644808
900.788711	2535.700385
901.096216	2480.247692
901.403681	2462.603654
901.711105	2502.932885
902.018489	2457.562500
902.325832	2538.220962
902.633135	2540.741538
902.940397	2515.535769
903.247619	2490.330000
903.554800	2457.562500
903.861941	2452.521346
904.169041	2510.494615
904.476101	2467.644808
904.783121	2535.700385
905.090100	2472.685962
905.397039	2515.535769
905.703938	2455.041923
906.010796	2528.138654
906.317614	2472.685962
906.624391	2505.453462
906.931129	2492.850577
907.237826	2563.426731
907.544483	2447.480192
907.851099	2429.836154
908.157675	2533.179808
908.464211	2490.330000
908.770707	2500.412308
909.077163	2432.356731
909.383578	2515.535769
909.689954	2515.535769
909.996289	2429.836154
910.302584	2439.918462
910.608839	2480.247692
910.915054	2507.974038
911.221229	2518.056346
911.527363	2550.823846
911.833458	2495.371154
912.139513	2515.535769
912.445527	2558.385577
912.751502	2543.262115
913.057436	2510.494615
913.363331	2568.467885
913.669186	2563.426731
913.975000	2397.068654
914.280775	2586.111923
914.586510	2465.124231
914.892205	2518.056346
915.197859	2460.083077
915.503475	2548.303269
915.809050	2497.891731
916.114585	2472.685962
916.420081	2513.015192
916.725536	2364.301154
917.030952	2523.097500
917.336328	2442.439038
917.641665	2470.165385
917.946961	2490.330000
918.252218	2497.891731
918.557435	2515.535769
918.862612	2586.111923
919.167750	2460.083077
919.472848	2500.412308
919.777906	2412.192115
920.082925	2518.056346
920.387904	2477.727115
920.692843	2570.988462
920.997743	2555.865000
921.302603	2460.083077
921.607423	2538.220962
921.912204	2492.850577
922.216946	2485.288846
922.521647	2528.138654
922.826310	2434.877308
923.130932	2482.768269
923.435516	2455.041923
923.740059	2528.138654
924.044564	2497.891731
924.349028	2523.097500
924.653454	2525.618077
924.957840	2402.109808
925.262186	2502.932885
925.566493	2502.932885
925.870761	2581.070769
926.174989	2482.768269
926.479178	2399.589231
926.783328	2520.576923
927.087438	2490.330000
927.391509	2485.288846
927.695541	2414.712692
927.999533	2429.836154
928.303486	2510.494615
928.607400	2480.247692
928.911275	2553.344423
929.215110	2487.809423
929.518906	2540.741538
929.822663	2450.000769
930.126381	2485.288846
930.430060	2525.618077
930.733699	2472.685962
931.037299	2550.823846
931.340861	2465.124231
931.644383	2513.015192
931.947866	2407.150962
932.251309	2510.494615
932.554714	2424.795000
932.858080	2568.467885
933.161407	2576.029615
933.464694	2507.974038
933.767943	2535.700385
934.071153	2492.850577
934.374323	2482.768269
934.677455	2497.891731
934.980548	2492.850577
935.283602	2543.262115
935.586617	2384.465769
935.889593	2550.823846
936.192530	2507.974038
936.495428	2505.453462
936.798287	2434.877308
937.101108	2533.179808
937.403890	2545.782692
937.706632	2402.109808
938.009336	2518.056346
938.312002	2497.891731
938.614628	2490.330000
938.917216	2452.521346
939.219765	2500.412308
939.522275	2548.303269
939.824747	2553.344423
940.127179	2515.535769
940.429573	2485.288846
940.731929	2460.083077
941.034246	2452.521346
941.336524	2465.124231
941.638763	2497.891731
941.940964	2447.480192
942.243126	2384.465769
942.545250	2374.383462
942.847335	2422.274423
943.149381	2477.727115
943.451389	2513.015192
943.753359	2543.262115
944.055290	2467.644808
944.357182	2480.247692
944.659036	2482.768269
944.960851	2465.124231
945.262628	2495.371154
945.564367	2442.439038
945.866067	2470.165385
946.167729	2490.330000
946.469352	2578.550192
946.770937	2513.015192
947.072484	2616.358846
947.373992	2576.029615
947.675462	2439.918462
947.976893	2497.891731
948.278286	2530.659231
948.579641	2472.685962
948.880958	2437.397885
949.182236	2555.865000
949.483476	2543.262115
949.784678	2515.535769
950.085841	2490.330000
950.386967	2457.562500
950.688054	2518.056346
950.989103	2495.371154
951.290114	2608.797115
951.591087	2545.782692
951.892021	2442.439038
952.192917	2437.397885
952.493776	2422.274423
952.794596	2553.344423
953.095378	2472.685962
953.396122	2475.206538
953.696828	2482.768269
953.997496	2455.041923
954.298126	2535.700385
954.598718	2455.041923
954.899272	2412.192115
955.199788	2455.041923
955.500266	2447.480192
955.800706	2462.603654
956.101108	2477.727115
956.401472	2414.712692
956.701798	2482.768269
957.002087	2523.097500
957.302337	2495.371154
957.602550	2523.097500
957.902724	2487.809423
958.202861	2394.548077
958.502960	2490.330000
958.803022	2518.056346
959.103045	2500.412308
959.403031	2417.233269
959.702979	2573.509038
960.002889	2460.083077
960.302762	2437.397885
960.602596	2419.753846
960.902393	2518.056346
961.202153	2429.836154
961.501875	2460.083077
961.801559	2578.550192
962.101205	2525.618077
962.400814	2518.056346
962.700385	2576.029615
962.999918	2495.371154
963.299414	2427.315577
963.598873	2432.356731
963.898293	2497.891731
964.197677	2507.974038
964.497022	2523.097500
964.796331	2518.056346
965.095601	2545.782692
965.394835	2558.385577
965.694030	2502.932885
965.993189	2409.671538
966.292309	2492.850577
966.591393	2477.727115
966.890439	2457.562500
967.189447	2525.618077
967.488419	2510.494615
967.787353	2500.412308
968.086249	2497.891731
968.385108	2427.315577
968.683930	2523.097500
968.982714	2450.000769
969.281462	2545.782692
969.580172	2518.056346
969.878844	2487.809423
970.177480	2530.659231
970.476078	2495.371154
970.774639	2397.068654
971.073162	2507.974038
971.371649	2467.644808
971.670098	2485.288846
971.968510	2422.274423
972.266885	2442.439038
972.565223	2472.685962
972.863524	2523.097500
973.161788	2482.768269
973.460014	2510.494615
973.758204	2520.576923
974.056356	2409.671538
974.354471	2409.671538
974.652550	2555.865000
974.950591	2450.000769
975.248595	2455.041923
975.546563	2540.741538
975.844493	2485.288846
976.142386	2492.850577
976.440243	2520.576923
976.738062	2513.015192
977.035845	2444.959615
977.333590	2457.562500
977.631299	2460.083077
977.928971	2525.618077
978.226606	2515.535769
978.524204	2502.932885
978.821765	2472.685962
979.119290	2500.412308
979.416777	2538.220962
979.714228	2548.303269
980.011642	2485.288846
980.309020	2495.371154
980.606360	2505.453462
980.903664	2477.727115
981.200931	2422.274423
981.498162	2528.138654
981.795356	2422.274423
982.092513	2533.179808
982.389633	2482.768269
982.686717	2470.165385
982.983764	2457.562500
983.280775	2490.330000
983.577749	2530.659231
983.874686	2540.741538
984.171587	2495.371154
984.468451	2427.315577
984.765279	2424.795000
985.062070	2485.288846
985.358824	2490.330000
985.655543	2462.603654
985.952224	2432.356731
986.248869	2533.179808
986.545478	2523.097500
986.842050	2525.618077
987.138586	2434.877308
987.435086	2485.288846
987.731549	2450.000769
988.027975	2444.959615
988.324366	2432.356731
988.620719	2457.562500
988.917037	2361.780577
989.213318	2535.700385
989.509563	2523.097500
989.805772	2465.124231
990.101944	2487.809423
990.398080	2460.083077
990.694180	2442.439038
990.990244	2460.083077
991.286271	2482.768269
991.582262	2447.480192
991.878217	2530.659231
992.174136	2490.330000
992.470019	2490.330000
992.765865	2505.453462
993.061676	2487.809423
993.357450	2490.330000
993.653188	2530.659231
993.948890	2460.083077
994.244556	2523.097500
994.540186	2507.974038
994.835780	2480.247692
995.131337	2470.165385
995.426859	2530.659231
995.722345	2450.000769
996.017795	2442.439038
996.313208	2530.659231
996.608586	2555.865000
996.903928	2455.041923
997.199234	2550.823846
997.494504	2439.918462
997.789738	2465.124231
998.084936	2462.603654
998.380099	2528.138654
998.675225	2485.288846
998.970316	2540.741538
999.265371	2472.685962
999.560390	2369.342308
999.855373	2477.727115
1000.150320	2543.262115
1000.445232	2530.659231
1000.740108	2565.947308
1001.034948	2450.000769
1001.329752	2487.809423
1001.624521	2505.453462
1001.919254	2540.741538
1002.213951	2558.385577
1002.508613	2515.535769
1002.803239	2538.220962
1003.097829	2472.685962
1003.392384	2540.741538
1003.686903	2477.727115
1003.981386	2513.015192
1004.275834	2518.056346
1004.570246	2545.782692
1004.864623	2560.906154
1005.158964	2407.150962
1005.453270	2465.124231
1005.747540	2492.850577
1006.041775	2502.932885
1006.335974	2480.247692
1006.630138	2487.809423
1006.924266	2507.974038
1007.218359	2515.535769
1007.512416	2515.535769
1007.806438	2399.589231
1008.100425	2538.220962
1008.394376	2487.809423
1008.688292	2528.138654
1008.982172	2518.056346
1009.276017	2500.412308
1009.569827	2502.932885
1009.863602	2482.768269
1010.157341	2487.809423
1010.451045	2568.467885
1010.744714	2419.753846
1011.038347	2364.301154
1011.331945	2475.206538
1011.625508	2497.891731
1011.919036	2528.138654
1012.212528	2555.865000
1012.505986	2422.274423
1012.799408	2462.603654
1013.092795	2462.603654
1013.386147	2543.262115
1013.679464	2533.179808
1013.972745	2485.288846
1014.265992	2490.330000
1014.559204	2576.029615
1014.852380	2495.371154
1015.145521	2520.576923
1015.438628	2568.467885
1015.731699	2480.247692
1016.024736	2583.591346
1016.317737	2442.439038
1016.610703	2550.823846
1016.903635	2502.932885
1017.196531	2495.371154
1017.489393	2424.795000
1017.782219	2525.618077
1018.075011	2419.753846
1018.367768	2535.700385
1018.660490	2507.974038
1018.953177	2507.974038
1019.245829	2507.974038
