Dividing Wavelength (nm)	Counts (n)	Blue Motor Position (mm): 0.000000	Red Motor Position (mm): 26.500000	
326.493990	2079.760787
326.888308	2079.760787
327.282561	2079.760787
327.676750	2055.888403
328.070874	2058.532488
328.464933	2063.228323
328.858929	2076.226938
329.252859	2090.173290
329.646726	2103.363469
330.040528	2118.365943
330.434265	2138.845630
330.827938	2157.220636
331.221547	2178.829542
331.615091	2199.130269
332.008571	2219.425954
332.401986	2237.160733
332.795338	2260.304671
333.188625	2278.689759
333.581847	2297.498304
333.975006	2315.023875
334.368100	2331.939467
334.761129	2349.419668
335.154095	2366.536906
335.546996	2388.801162
335.939833	2413.109605
336.332606	2426.561924
336.725315	2437.533996
337.117960	2446.121601
337.510540	2451.878599
337.903056	2463.669858
338.295508	2471.443317
338.687896	2478.649647
339.080220	2482.848928
339.472480	2490.987871
339.864676	2491.408807
340.256807	2496.210506
340.648875	2497.531288
341.040879	2497.296875
341.432818	2498.017760
341.824694	2500.230826
342.216506	2498.189159
342.608253	2498.650424
342.999937	2498.269817
343.391557	2499.638491
343.783113	2497.349807
344.174605	2495.222440
344.566033	2492.417038
344.957397	2490.889568
345.348697	2491.045844
345.739934	2487.227170
346.131106	2485.581233
346.522215	2485.901346
346.913260	2482.596870
347.304241	2483.496716
347.695159	2482.090234
348.086012	2483.146356
348.476802	2479.214256
348.867528	2477.452373
349.258191	2477.994297
349.648789	2477.354070
350.039324	2475.027578
350.429796	2476.348360
350.820203	2470.543471
351.210548	2472.975828
351.600828	2471.874336
351.991045	2473.696713
352.381198	2471.188739
352.771288	2473.122021
353.161314	2469.628502
353.551276	2469.729325
353.941175	2473.162351
354.331010	2472.461630
354.720782	2473.452217
355.110490	2474.841055
355.500135	2471.418111
355.889717	2474.543627
356.279235	2473.255612
356.668689	2474.979687
357.058080	2475.209059
357.447408	2473.709316
357.836672	2474.989769
358.225873	2475.130921
358.615010	2471.692854
359.004084	2479.236941
359.393095	2480.988742
359.782043	2481.245841
360.170927	2480.204842
360.559748	2481.016468
360.948505	2479.267188
361.337199	2483.476551
361.725830	2484.320945
362.114398	2485.568630
362.502903	2486.297077
362.891344	2488.000987
363.279722	2486.067704
363.668037	2486.206336
364.056289	2487.426295
364.444478	2489.636841
364.832603	2490.428303
365.220665	2491.023159
365.608665	2491.302943
365.996601	2491.761688
366.384474	2493.596668
366.772284	2496.311329
367.160031	2494.982985
367.547715	2496.054230
367.935336	2498.405928
368.322893	2497.337204
368.710388	2500.266114
369.097820	2502.864829
369.485189	2501.695281
369.872495	2503.845333
370.259738	2503.560508
370.646918	2505.014881
371.034035	2507.532937
371.421090	2509.975377
371.808081	2513.090810
372.195010	2515.828156
372.581875	2521.660771
372.968678	2524.897192
373.355418	2535.471012
373.742096	2544.020809
374.128710	2553.241079
374.515262	2560.580999
374.901751	2575.346539
375.288177	2589.824733
375.674540	2607.037753
376.060841	2624.366719
376.447079	2645.927734
376.833254	2669.386743
377.219367	2689.266534
377.605417	2721.837429
377.991404	2745.056983
378.377329	2783.901594
378.763191	2814.113229
379.148991	2858.840867
379.534727	2907.145203
379.920402	2953.695218
380.306013	2995.730879
380.691563	3058.238666
381.077049	3108.052828
381.462474	3161.428565
381.847835	3228.155797
382.233134	3296.392856
382.618371	3352.027030
383.003545	3436.741100
383.388657	3511.249353
383.773706	3598.925101
384.158693	3666.080832
384.543618	3754.530397
384.928480	3830.561079
385.313280	3929.821398
385.698017	4027.665153
386.082692	4141.353255
386.467305	4200.811144
386.851856	4321.219104
387.236344	4465.880054
387.620770	4529.895147
388.005133	4644.165501
388.389435	4779.560811
388.773674	4860.093244
389.157851	4989.159385
389.541965	5113.204538
389.926018	5140.348630
390.310008	5308.622346
390.693936	5426.754224
391.077802	5541.682450
391.461606	5667.318086
391.845348	5776.872441
392.229027	5895.868878
392.612645	6109.926353
392.996200	6223.022118
393.379694	6390.085957
393.763125	6605.436488
394.146494	6693.583583
394.529801	6828.499983
394.913047	7062.880870
395.296230	7056.685292
395.679351	7115.863397
396.062410	7362.244750
396.445408	7263.854030
396.828343	7410.349960
397.211217	7549.931949
397.594028	7435.462468
397.976778	7637.524517
398.359466	7799.983262
398.742092	7783.536497
399.124656	7930.042510
399.507158	8116.981098
399.889598	8133.929457
400.271977	8342.136673
400.654294	8371.859316
401.036549	8568.207217
401.418742	8600.251311
401.800874	8895.546980
402.182944	8979.676276
402.564952	9334.361778
402.946898	9174.204321
403.328783	9226.405469
403.710606	9420.003421
404.092367	9665.114403
404.474067	10027.787613
404.855705	9833.746040
405.237282	9783.959605
405.618797	10200.552997
406.000250	10451.015164
406.381642	10799.578185
406.762972	10749.968190
407.144240	10573.731972
407.525447	10822.268418
407.906593	10765.056363
408.287677	11030.924297
408.668700	11168.489823
409.049661	11166.133084
409.430560	11327.313896
409.811399	11301.906481
410.192176	11454.829882
410.572891	11536.584795
410.953545	12011.408555
411.334138	11498.289670
411.714669	12078.166035
412.095139	11428.474730
412.475547	11901.420661
412.855894	11773.483738
413.236180	12086.236922
413.616405	11786.999071
413.996568	12062.417470
414.376670	12035.805219
414.756711	11928.975607
415.136691	12202.808564
415.516609	12369.781662
415.896466	12460.824900
416.276262	12744.399886
416.655997	13208.473386
417.035670	13246.508892
417.415283	13869.663563
417.794834	13953.349237
418.174324	13696.399105
418.553753	13605.822173
418.933121	14096.974231
419.312428	13926.207665
419.691674	13831.675948
420.070859	14295.830106
420.449983	13952.003249
420.829045	14502.487167
421.208047	14269.404377
421.586988	14709.998703
421.965867	14962.076560
422.344686	14958.918277
422.723444	15533.624939
423.102141	14236.059665
423.480777	15419.785603
423.859352	14920.459314
424.237866	16025.402099
424.616319	15745.217289
424.994712	16387.455248
425.373044	16171.935839
425.751314	16867.723454
426.129524	16007.064902
426.507673	17069.485555
426.885762	16798.750388
427.263789	16982.384499
427.641756	17171.175710
428.019662	17229.771562
428.397508	17274.131195
428.775292	17569.283191
429.153016	17544.954583
429.530679	17616.619626
429.908282	17654.143454
430.285824	17383.181435
430.663305	18104.956199
431.040726	17708.734109
431.418086	17540.457873
431.795385	18186.698508
432.172624	18627.360890
432.549802	18182.917643
432.926920	18395.765241
433.303977	18276.264689
433.680974	18529.801960
434.057910	18829.392692
434.434786	18880.240290
434.811601	18802.498136
435.188355	19838.225879
435.565050	19513.673874
435.941683	19479.809923
436.318257	20362.558811
436.694770	20169.243164
437.071222	20754.871486
437.447614	19827.911678
437.823946	19866.680672
438.200218	20034.530930
438.576429	19816.415327
438.952580	20121.498396
439.328670	20078.220090
439.704700	20507.204638
440.080670	20079.021633
440.456580	20688.862617
440.832429	20850.308090
441.208218	19862.206648
441.583947	20302.082609
441.959616	20424.953172
442.335224	20671.737817
442.710773	20807.165895
443.086261	21368.815968
443.461689	20690.279181
443.837057	20857.796724
444.212365	21505.907627
444.587612	21505.247236
444.962800	21104.460381
445.337927	21517.688803
445.712995	20254.340361
446.088002	22140.861118
446.462949	22333.889420
446.837837	22519.169468
447.212664	22524.402185
447.587431	25480.938093
447.962139	28436.317056
448.336786	30732.103888
448.711374	29043.249294
449.085901	25337.592883
449.460369	25340.766290
449.834776	25331.503169
450.209124	27867.717752
450.583412	27320.646695
450.957640	27792.486092
451.331808	26433.559894
451.705917	25060.185749
452.079965	25082.424799
452.453954	25447.434584
452.827883	25339.914335
453.201752	25119.555418
453.575562	25257.456181
453.949311	26375.327005
454.323001	26409.067448
454.696632	26159.381619
455.070202	27693.845835
455.443713	27848.614299
455.817164	28390.903821
456.190556	28889.534431
456.563888	28272.013249
456.937160	28653.747062
457.310373	26939.606041
457.683526	27312.391806
458.056619	27261.652592
458.429653	27183.681066
458.802628	27709.158340
459.175542	27779.164843
459.548398	29042.082267
459.921194	30526.518072
460.293930	31145.919604
460.666607	33032.931873
461.039224	34654.610572
461.411782	34886.178494
461.784280	33552.566450
462.156719	32926.351799
462.529099	32284.053346
462.901419	30932.779619
463.273680	29841.563896
463.645882	29858.169457
464.018024	29722.063344
464.390106	30460.100870
464.762130	32961.647438
465.134094	36746.999449
465.505999	41593.098450
465.877845	45660.671898
466.249631	46455.377034
466.621358	44504.090053
466.993026	42227.096643
467.364634	40083.250188
467.736184	38095.913916
468.107674	36757.674092
468.479105	35858.528851
468.850477	35043.752361
469.221790	33569.242587
469.593043	31843.446418
469.964238	30865.676821
470.335373	30626.128752
470.706449	31983.724085
471.077467	34065.924790
471.448425	37754.688294
471.819324	39903.651520
472.190164	37953.806309
472.560945	34672.352913
472.931667	31832.827227
473.302330	30728.698588
473.672934	29816.017849
474.043479	30005.189668
474.413965	29158.802622
474.784393	28646.959149
475.154761	29121.309040
475.525070	28907.949766
475.895321	28302.189596
476.265513	28530.952116
476.635645	29038.964313
477.005719	28646.543253
477.375734	28756.286652
477.745691	29024.881850
478.115588	29763.640261
478.485427	30978.921301
478.855207	33193.449774
479.224928	34823.920244
479.594591	35673.437847
479.964194	34499.264896
480.333739	34228.801951
480.703226	33926.998152
481.072653	34040.494690
481.442022	34021.890312
481.811333	33804.540963
482.180584	32521.010262
482.549777	31790.443726
482.918912	31077.947206
483.287988	30509.773880
483.657005	29616.294895
484.025964	28827.177878
484.394864	28488.036774
484.763706	27845.549278
485.132489	26958.162528
485.501213	26515.203901
485.869879	26260.749140
486.238487	25703.757093
486.607036	25465.721370
486.975527	24827.614637
487.343959	24623.132834
487.712333	24305.068794
488.080648	23921.570577
488.448905	23832.357277
488.817104	23389.867478
489.185244	23570.434047
489.553326	24107.858855
489.921350	25180.429871
490.289315	26378.381945
490.657222	26308.088095
491.025070	26040.428032
491.392861	25121.246725
491.760593	24059.536875
492.128267	22830.004493
492.495883	21756.619331
492.863440	20778.138931
493.230939	19852.162149
493.598380	19071.887315
493.965763	18621.631618
494.333088	17984.669227
494.700354	17481.189028
495.067563	17075.915547
495.434713	16722.775158
495.801805	16461.063656
496.168839	16044.155192
496.535815	15657.677653
496.902733	15385.278905
497.269593	14978.200690
497.636395	14687.822667
498.003139	14542.181212
498.369825	14124.153612
498.736453	13953.497951
499.103023	13560.217375
499.469535	13266.781892
499.835989	13039.670349
500.202385	12694.134541
500.568723	12443.563989
500.935003	12255.720515
501.301226	11975.339099
501.667390	11888.628733
502.033497	11710.905374
502.399546	11355.730880
502.765537	10962.631786
503.131470	10831.763432
503.497345	10682.489825
503.863163	10199.496875
504.228923	10109.053534
504.594625	9971.561104
504.960269	9637.998036
505.325856	9564.724865
505.691385	9254.451928
506.056856	9086.488244
506.422270	8960.368657
506.787625	8702.589255
507.152924	8549.194505
507.518164	8379.554637
507.883347	8092.702901
508.248472	7940.621372
508.613540	7843.347267
508.978550	7712.481434
509.343503	7508.791092
509.708398	7374.673715
510.073236	7279.307687
510.438016	7122.177442
510.802738	6905.052425
511.167403	6825.117369
511.532010	6707.013217
511.896561	6597.847030
512.261053	6537.716147
512.625488	6349.817220
512.989866	6208.085180
513.354186	6063.918262
513.718449	5938.448984
514.082655	5871.530187
514.446803	5727.862344
514.810894	5652.986086
515.174927	5538.335124
515.538904	5419.857926
515.902822	5364.410275
516.266684	5225.347525
516.630488	5154.993182
516.994235	5051.894024
517.357925	4994.931507
517.721558	4915.429990
518.085133	4848.186039
518.448651	4773.723155
518.812112	4683.940205
519.175516	4612.013022
519.538863	4554.334660
519.902152	4481.033763
520.265385	4435.338224
520.628560	4369.798183
520.991678	4300.341165
521.354739	4246.668000
521.717743	4203.480435
522.080690	4150.807939
522.443580	4111.149182
522.806413	4066.862645
523.169189	4013.428935
523.531908	3973.991988
523.894569	3926.337961
524.257174	3890.845717
524.619722	3860.578630
524.982213	3823.090089
525.344647	3779.630302
525.707025	3751.498143
526.069345	3728.563413
526.431608	3694.729709
526.793815	3671.926050
527.155964	3633.683857
527.518057	3612.851289
527.880093	3580.156885
528.242072	3565.877817
528.603995	3537.614588
528.965860	3513.545599
529.327669	3496.483814
529.689421	3473.324753
530.051117	3456.625931
530.412755	3440.897531
530.774337	3425.073349
531.135862	3403.174577
531.497331	3389.845766
531.858743	3369.227447
532.220098	3362.885675
532.581396	3344.369517
532.942638	3324.968637
533.303824	3320.645847
533.664953	3306.366779
534.026025	3287.664098
534.387040	3286.250054
534.747999	3278.048097
535.108902	3266.501334
535.469748	3250.253695
535.830537	3241.209865
536.191270	3236.322467
536.551947	3219.671536
536.912567	3216.172975
537.273131	3210.547047
537.633638	3193.475180
537.994089	3190.757998
538.354483	3176.912469
538.714821	3177.023374
539.075103	3174.308713
539.435328	3166.086591
539.795497	3154.113850
540.155609	3149.496153
540.515665	3149.909528
540.875665	3136.331180
541.235609	3132.109214
541.595496	3127.216774
541.955328	3128.802217
542.315102	3116.380814
542.674821	3107.687344
543.034483	3100.929677
543.394090	3094.706373
543.753640	3094.298039
544.113134	3099.994543
544.472571	3082.501739
544.831953	3091.318718
545.191278	3078.496543
545.550548	3068.653690
545.909761	3071.990934
546.268918	3069.367013
546.628019	3069.853484
546.987064	3058.236145
547.346053	3045.277859
547.704986	3051.649878
548.063863	3040.168650
548.422684	3040.340049
548.781449	3034.449461
549.140158	3036.286962
549.498811	3035.654297
549.857408	3020.430012
550.215949	3025.140970
550.574434	3019.696524
550.932864	3017.407840
551.291237	3018.342974
551.649555	3016.560927
552.007817	3014.078158
552.366022	3009.236130
552.724173	3008.565657
553.082267	3008.643794
553.440305	3008.696727
553.798288	3002.203720
554.156215	3001.513082
554.514086	3003.398474
554.871902	2993.868173
555.229661	2993.379181
555.587365	2989.777276
555.945014	2988.658140
556.302606	2985.217553
556.660143	2987.604539
557.017625	2986.223263
557.375050	2980.806543
557.732421	2983.516163
558.089735	2980.022643
558.446994	2977.933085
558.804197	2982.752428
559.161345	2978.679176
559.518437	2970.454533
559.875474	2970.431848
560.232455	2970.285655
560.589381	2970.222640
560.946251	2970.691468
561.303065	2970.918320
561.659825	2970.620892
562.016528	2965.728452
562.373177	2958.532205
562.729770	2961.856846
563.086307	2957.128243
563.442789	2960.185703
563.799216	2961.710652
564.155587	2956.092286
564.511904	2956.374591
564.868164	2956.732513
565.224370	2958.254941
565.580520	2954.973150
565.936615	2955.174796
566.292654	2950.632717
566.648638	2953.317131
567.004567	2948.240689
567.360441	2949.228755
567.716260	2946.493929
568.072023	2949.458128
568.427732	2945.929320
568.783385	2942.035029
569.138982	2943.633074
569.494525	2942.491253
569.850013	2939.146448
570.205445	2940.207610
570.560823	2939.549740
570.916145	2938.130655
571.271412	2940.792384
571.626625	2938.307095
571.981782	2936.025973
572.336884	2934.798452
572.691931	2933.318874
573.046923	2930.447937
573.401860	2928.209664
573.756743	2927.483738
574.111570	2926.697318
574.466342	2922.213212
574.821059	2925.656320
575.175722	2920.836977
575.530330	2917.716503
575.884882	2917.111564
576.239380	2915.069897
576.593823	2916.214239
576.948211	2914.233065
577.302544	2910.227868
577.656823	2908.377765
578.011047	2911.067221
578.365216	2906.615882
578.719330	2905.668145
579.073389	2902.676220
579.427394	2903.787794
579.781344	2905.053124
580.135239	2899.570869
580.489080	2900.183369
580.842866	2895.031310
581.196597	2900.624470
581.550273	2897.078019
581.903895	2895.114489
582.257463	2901.186559
582.610975	2891.058881
582.964434	2894.164232
583.317837	2889.881772
583.671186	2888.969323
584.024481	2888.692059
584.377721	2885.566544
584.730906	2885.012017
585.084037	2887.373798
585.437113	2883.199722
585.790135	2885.742984
586.143103	2882.115874
586.496016	2882.504043
586.848874	2876.716798
587.201679	2878.413147
587.554428	2873.366952
587.907124	2874.042466
588.259765	2869.485263
588.612352	2875.771582
588.964884	2870.690099
589.317362	2873.331663
589.669786	2874.478526
590.022155	2871.852085
590.374470	2871.189173
590.726731	2866.649614
591.078937	2864.184490
591.431090	2864.663399
591.783188	2861.870600
592.135232	2856.327852
592.487222	2861.046372
592.839157	2860.882534
593.191038	2857.615866
593.542866	2853.459435
593.894639	2851.473220
594.246358	2852.118488
594.598022	2854.142511
594.949633	2848.718230
595.301190	2847.528517
595.652692	2845.239834
596.004141	2848.776203
596.355535	2842.419308
596.706876	2838.945953
597.058162	2839.409739
597.409395	2839.281190
597.760573	2841.877384
598.111698	2840.730522
598.462768	2837.242043
598.813785	2838.714060
599.164748	2832.294151
599.515657	2834.146775
599.866511	2833.322546
600.217312	2834.693740
600.568060	2826.317863
600.918753	2831.966476
601.269392	2832.195848
601.619978	2827.530260
601.970510	2829.244252
602.320988	2828.926660
602.671412	2831.749706
603.021783	2827.938594
603.372100	2827.946155
603.722363	2828.079746
604.072572	2825.922132
604.422728	2828.467915
604.772830	2820.273519
605.122878	2822.171514
605.472872	2820.119764
605.822813	2822.284940
606.172701	2821.944662
606.522534	2823.083962
606.872314	2824.339210
607.222041	2822.758808
607.571714	2824.858449
607.921333	2821.700166
608.270899	2819.648416
608.620411	2822.123623
608.969870	2823.215032
609.319276	2819.439208
609.668627	2822.103458
610.017926	2821.037254
610.367171	2823.711586
610.716362	2822.380722
611.065500	2822.605053
611.414585	2825.501196
611.763616	2827.855415
612.112594	2823.522543
612.461518	2825.055054
612.810389	2825.102945
613.159207	2824.140084
613.507971	2821.851400
613.856682	2824.508088
614.205340	2825.803665
614.553945	2827.217709
614.902496	2824.056905
615.250994	2823.686380
615.599439	2824.707214
615.947830	2825.481031
616.296169	2826.305260
616.644454	2825.629745
616.992686	2828.669561
617.340864	2830.597802
617.688990	2826.101093
618.037063	2827.137050
618.385082	2825.964982
618.733048	2829.176197
619.080961	2830.093687
619.428821	2827.169818
619.776628	2827.512616
620.124382	2824.303922
620.472083	2824.961792
620.819731	2825.508757
621.167326	2821.420382
621.514868	2823.157059
621.862357	2818.861996
622.209793	2818.199084
622.557176	2813.087354
622.904506	2804.903041
623.251783	2804.550160
623.599007	2803.463792
623.946179	2801.064202
624.293297	2800.411373
624.640363	2798.684778
624.987376	2797.399284
625.334336	2794.666978
625.681243	2794.084725
626.028097	2793.389046
626.374899	2790.147584
626.721647	2792.080866
627.068343	2790.318983
627.414987	2787.627007
627.761577	2782.245575
628.108115	2787.032151
628.454600	2782.880761
628.801032	2781.073507
629.147412	2780.014865
629.493739	2779.876233
629.840014	2776.677621
630.186236	2780.244237
630.532405	2778.114350
630.878521	2777.254833
631.224585	2775.104781
631.570597	2771.523041
631.916556	2773.174019
632.262462	2771.117228
632.608316	2772.896755
632.954117	2770.671086
633.299866	2770.066147
633.645562	2767.681682
633.991206	2764.848553
634.336797	2759.323449
634.682336	2761.539036
635.027823	2755.650968
635.373257	2757.087697
635.718639	2754.224322
636.063968	2750.970257
636.409245	2749.992273
636.754470	2748.487488
637.099642	2746.728126
637.444762	2744.525142
637.789829	2745.036819
638.134845	2742.722929
638.479808	2740.035994
638.824719	2740.091447
639.169577	2734.510889
639.514383	2739.305027
639.859137	2736.842423
640.203839	2735.675396
640.548489	2730.997205
640.893086	2729.252966
641.237632	2726.364385
641.582125	2729.840260
641.926566	2724.123592
642.270955	2727.538974
642.615292	2729.696587
642.959576	2727.881772
643.303809	2728.857235
643.647990	2728.925291
643.992118	2728.451422
644.336195	2727.894375
644.680219	2728.521999
645.024192	2729.323542
645.368112	2729.227760
645.711981	2729.918398
646.055797	2730.578789
646.399562	2732.849829
646.743274	2736.222361
647.086935	2742.549009
647.430544	2738.760582
647.774101	2738.264028
648.117606	2740.114132
648.461059	2739.531879
648.804460	2742.095305
649.147810	2733.048955
649.491108	2730.790518
649.834354	2730.092318
650.177548	2726.445043
650.520690	2722.079404
650.863781	2721.010679
651.206820	2726.407235
651.549807	2717.121429
651.892742	2717.161758
652.235626	2713.809391
652.578458	2713.431305
652.921238	2709.829400
653.263967	2710.401571
653.606644	2707.870912
653.949269	2707.722198
654.291843	2705.418391
654.634365	2709.390820
654.976836	2706.371169
655.319255	2706.489636
655.661622	2704.634491
656.003938	2703.717001
656.346203	2701.503935
656.688416	2702.459233
657.030577	2702.633153
657.372687	2700.052082
657.714746	2699.623584
658.056753	2698.751465
658.398708	2691.610670
658.740612	2694.655527
659.082465	2694.831967
659.424266	2695.477235
659.766016	2695.157122
660.107715	2698.615353
660.449362	2696.752647
660.790958	2698.010415
661.132503	2697.682740
661.473996	2696.760209
661.815438	2698.506969
662.156829	2698.486804
662.498168	2696.326670
662.839456	2697.508820
663.180693	2695.537729
663.521879	2696.551001
663.863013	2696.225847
664.204097	2698.365816
664.545129	2697.597040
664.886110	2694.219467
665.227040	2696.293902
665.567918	2698.973275
665.908746	2700.064685
666.249522	2699.621064
666.590248	2699.827751
666.930922	2698.504448
667.271545	2697.952442
667.612118	2698.406146
667.952639	2694.022862
668.293109	2695.010928
668.633528	2695.121834
668.973896	2692.291226
669.314213	2693.269210
669.654480	2694.761391
669.994695	2694.315249
670.334859	2691.991277
670.674973	2691.018335
671.015035	2691.035979
671.355047	2691.348530
671.695008	2689.949610
672.034918	2691.020855
672.374777	2693.075125
672.714585	2690.413396
673.054342	2688.845597
673.394049	2687.441636
673.733705	2690.862059
674.073310	2689.669826
674.412864	2691.293077
674.752368	2686.380473
675.091820	2685.644465
675.431223	2687.681091
675.770574	2681.472910
676.109875	2679.955522
676.449125	2677.540810
676.788324	2676.971159
677.127473	2675.756241
677.466571	2673.376817
677.805619	2674.974862
678.144616	2677.283711
678.483562	2677.253464
678.822458	2672.857578
679.161303	2673.913700
679.500098	2670.652073
679.838842	2673.523010
680.177535	2670.087464
680.516179	2674.420336
680.854771	2674.274142
681.193314	2678.218845
681.531805	2682.551717
681.870247	2685.089938
682.208638	2689.742923
682.546978	2691.111596
682.885268	2689.785772
683.223508	2688.661595
683.561697	2686.040195
683.899836	2684.174968
684.237925	2682.992818
684.575963	2679.398475
684.913951	2681.243537
685.251889	2681.414937
685.589776	2680.547858
685.927614	2678.788495
686.265401	2679.675738
686.603137	2680.767148
686.940824	2683.605318
687.278460	2682.352591
687.616046	2685.735205
687.953582	2688.580937
688.291068	2686.693025
688.628504	2688.074301
688.965889	2686.693025
689.303224	2687.895340
689.640510	2682.831501
689.977745	2678.692713
690.314930	2678.947292
690.652065	2675.373114
690.989150	2671.841785
691.326185	2666.775426
691.663170	2660.703356
692.000105	2658.409631
692.336990	2655.268992
692.673825	2655.694970
693.010610	2651.495688
693.347345	2645.002682
693.684030	2641.473875
694.020665	2640.674852
694.357251	2639.202835
694.693786	2638.761734
695.030272	2636.767957
695.366707	2636.034470
695.703093	2636.513379
696.039429	2635.565642
696.375716	2632.336783
696.711952	2633.163532
697.048139	2631.825106
697.384276	2632.399798
697.720363	2630.675723
698.056400	2631.444499
698.392388	2630.332925
698.728326	2633.183697
699.064214	2629.647328
699.400053	2628.258490
699.735842	2626.110958
700.071581	2626.801596
700.407270	2623.131636
700.742910	2620.278343
701.078501	2620.890843
701.414042	2617.596449
701.749533	2618.211470
702.084974	2617.195678
702.420366	2619.877572
702.755709	2615.171654
703.091002	2612.583022
703.426246	2611.557147
703.761440	2612.837600
704.096584	2612.071345
704.431679	2610.435490
704.766725	2612.696448
705.101721	2607.680500
705.436668	2609.918772
705.771565	2609.250819
706.106413	2609.283587
706.441212	2608.779471
706.775961	2610.629575
707.110661	2612.038577
707.445311	2613.104781
707.779913	2614.559154
708.114465	2612.709051
708.448967	2615.297683
708.783421	2618.087962
709.117825	2620.976543
709.452180	2620.311111
709.786485	2620.963940
710.120742	2624.596092
710.454949	2625.876545
710.789107	2625.737913
711.123216	2627.550208
711.457275	2630.285034
711.791286	2632.790487
712.125247	2632.898872
712.459159	2635.328708
712.793023	2640.921868
713.126837	2634.045734
713.460602	2634.890128
713.794318	2633.392905
714.127985	2630.209416
714.461602	2625.314456
714.795171	2628.497945
715.128691	2621.553755
715.462162	2620.825308
715.795584	2615.073352
716.128957	2616.651233
716.462281	2607.763679
716.795556	2611.804164
717.128782	2608.945829
717.461960	2604.244953
717.795088	2604.653287
718.128167	2601.759665
718.461198	2603.332505
718.794180	2603.012391
719.127113	2594.954107
719.459997	2597.530137
719.792833	2596.680702
720.125619	2595.811103
720.458357	2593.908067
720.791046	2596.577358
721.123686	2593.887903
721.456278	2595.427975
721.788821	2589.799527
722.121315	2592.297419
722.453761	2592.665423
722.786158	2590.091914
723.118506	2589.434043
723.450805	2590.157449
723.783056	2590.422110
724.115259	2590.596029
724.447412	2590.908581
724.779518	2592.942687
725.111574	2590.414548
725.443582	2592.652820
725.775542	2593.527460
726.107453	2595.460743
726.439315	2595.780856
726.771129	2601.300920
727.102895	2598.392174
727.434612	2603.398040
727.766281	2601.888214
728.097901	2600.113728
728.429473	2598.036772
728.760996	2598.944180
729.092471	2600.335539
729.423897	2602.246136
729.755276	2604.159254
730.086606	2601.880652
730.417887	2604.834768
730.749120	2607.357866
731.080305	2608.845006
731.411442	2609.162599
731.742530	2611.998248
732.073570	2612.986314
732.404562	2615.093517
732.735506	2613.954216
733.066401	2611.005141
733.397249	2609.074379
733.728048	2604.005499
734.058798	2601.184973
734.389501	2594.835640
734.720156	2594.792790
735.050762	2589.648292
735.381320	2589.083683
735.711831	2588.473704
736.042293	2587.478076
736.372707	2582.003383
736.703073	2586.555545
737.033391	2586.426995
737.363661	2586.860534
737.693883	2588.952613
738.024056	2590.661564
738.354182	2587.596543
738.684260	2593.227512
739.014290	2592.118458
739.344272	2591.710124
739.674207	2596.332862
740.004093	2595.286823
740.333931	2595.559045
740.663722	2597.081474
740.993464	2598.359406
741.323159	2592.655341
741.652806	2594.145002
741.982405	2592.310022
742.311956	2590.091914
742.641460	2591.173242
742.970915	2587.213415
743.300323	2587.717531
743.629683	2581.784092
743.958996	2583.402303
744.288260	2580.528845
744.617477	2580.165882
744.946647	2574.792012
745.275768	2575.727146
745.604842	2574.386199
745.933869	2572.102557
746.262847	2573.730849
746.591778	2574.592887
746.920662	2574.063565
747.249498	2577.231931
747.578286	2575.457444
747.907027	2578.179667
748.235720	2580.422981
748.564365	2577.909966
748.892963	2577.700758
749.221514	2578.625810
749.550017	2578.512384
749.878473	2575.830490
750.206881	2576.921900
750.535242	2572.359655
750.863555	2576.974832
751.191821	2575.026426
751.520039	2572.732701
751.848210	2575.268401
752.176334	2573.529203
752.504411	2574.161868
752.832440	2574.182032
753.160421	2573.778740
753.488356	2572.273956
753.816243	2573.967783
754.144082	2572.384861
754.471875	2571.046435
754.799620	2571.192628
755.127318	2568.843451
755.454969	2572.016857
755.782572	2573.501477
756.110129	2571.245560
756.437638	2568.495611
756.765100	2570.496949
757.092515	2571.205231
757.419882	2572.495767
757.747203	2572.140365
758.074477	2569.188770
758.401703	2570.005437
758.728882	2572.989800
759.056014	2570.764130
759.383099	2574.335788
759.710138	2574.247567
760.037129	2576.279153
760.364073	2575.563309
760.690970	2571.989131
761.017820	2574.353432
761.344623	2575.502815
761.671379	2579.278639
761.998088	2579.324009
762.324751	2589.799527
762.651366	2607.539347
762.977935	2632.419962
763.304456	2643.507980
763.630931	2650.026192
763.957359	2644.100316
764.283740	2633.292082
764.610074	2621.946965
764.936362	2608.671087
765.262602	2599.874273
765.588796	2589.408838
765.914943	2582.883064
766.241044	2579.702096
766.567097	2571.139696
766.893104	2566.181721
767.219064	2564.923953
767.544978	2562.768860
767.870845	2562.307595
768.196665	2561.692574
768.522438	2561.354817
768.848165	2558.708211
769.173846	2556.187634
769.499479	2554.085473
769.825066	2552.966337
770.150607	2555.025648
770.476101	2554.529094
770.801548	2553.843497
771.126949	2551.196892
771.452303	2548.603218
771.777611	2551.862324
772.102872	2552.058929
772.428087	2549.911397
772.753256	2548.517518
773.078378	2546.183464
773.403453	2548.220090
773.728482	2545.218083
774.053465	2545.838145
774.378401	2545.518032
774.703291	2543.234389
775.028135	2545.205480
775.352932	2542.657177
775.677683	2542.694986
776.002388	2541.669111
776.327046	2544.582898
776.651658	2541.326312
776.976224	2539.632485
777.300743	2542.271529
777.625216	2541.785057
777.949643	2540.388658
778.274024	2541.142310
778.598359	2536.580066
778.922647	2537.061496
779.246889	2537.893287
779.571086	2536.191897
779.895236	2539.201466
780.219339	2539.312371
780.543397	2539.065355
780.867409	2538.717515
781.191374	2539.337577
781.515294	2539.556867
781.839167	2538.334387
782.162995	2539.766075
782.486776	2540.401261
782.810511	2540.413863
783.134201	2538.178112
783.457844	2540.076106
783.781441	2539.781199
784.104993	2536.401105
784.428498	2540.381096
784.751958	2536.965714
785.075372	2541.497712
785.398739	2537.852957
785.722061	2539.660211
786.045337	2539.148534
786.368568	2540.068544
786.691752	2537.626105
787.014891	2541.560726
787.337983	2543.678011
787.661030	2547.673125
787.984031	2552.043805
788.306987	2552.074052
788.629897	2556.941286
788.952760	2552.789896
789.275579	2551.277550
789.598351	2550.226469
789.921078	2546.682538
790.243759	2544.779503
790.566395	2542.357228
790.888984	2543.572146
791.211529	2541.651467
791.534027	2540.764224
791.856480	2539.025026
792.178888	2540.751621
792.501249	2542.856303
792.823566	2537.749614
793.145836	2534.409849
793.468062	2538.228523
793.790241	2538.067206
794.112375	2537.643749
794.434464	2538.034439
794.756507	2539.168698
795.078505	2540.547454
795.400457	2541.429656
795.722364	2537.749614
796.044226	2543.393185
796.366042	2541.265818
796.687812	2544.411498
797.009538	2544.913093
797.331218	2543.519214
797.652852	2544.174564
797.974442	2544.209852
798.295986	2542.337064
798.617484	2542.349667
798.938938	2538.352032
799.260346	2542.498381
799.581709	2539.929913
799.903026	2541.991745
800.224299	2538.780530
800.545526	2538.674665
800.866708	2535.246681
801.187845	2534.351876
801.508936	2536.585107
801.829983	2536.499408
802.150984	2532.917668
802.471940	2536.711136
802.792851	2531.231402
803.113717	2537.416897
803.434538	2532.758871
803.755314	2536.670807
804.076045	2534.019160
804.396731	2532.842050
804.717372	2534.117462
805.037967	2531.170908
805.358518	2532.103521
805.679024	2537.308513
805.999485	2531.037317
806.319901	2536.234747
806.640272	2532.847092
806.960598	2537.333718
807.280879	2532.017822
807.601115	2538.538554
807.921306	2535.407998
808.241453	2533.993954
808.561554	2534.805580
808.881611	2536.590148
809.201623	2534.911444
809.521590	2537.101825
809.841513	2534.762730
810.161390	2535.193749
810.481223	2535.826413
810.801011	2533.346166
811.120755	2535.211393
811.440453	2534.235929
811.760107	2534.064530
812.079716	2528.894827
812.399281	2530.092101
812.718801	2532.302647
813.038276	2529.996319
813.357707	2532.587472
813.677093	2533.497400
813.996434	2531.123017
814.315731	2534.256094
814.634983	2531.793490
814.954191	2532.111083
815.273354	2534.440096
815.592473	2530.969262
815.911547	2535.153419
816.230577	2537.096784
816.549562	2537.689120
816.868502	2535.334901
817.187399	2541.790098
817.506250	2536.713657
817.825058	2538.362114
818.143821	2540.103832
818.462539	2543.017619
818.781213	2543.859492
819.099843	2550.455842
819.418429	2557.982285
819.736970	2562.708366
820.055466	2569.261866
820.373919	2582.164700
820.692327	2597.182297
821.010691	2626.841926
821.329011	2690.080680
821.647286	2786.820422
821.965517	2886.650392
822.283704	2943.804474
822.601847	2960.132771
822.919945	2915.720206
823.237999	2864.197093
823.556010	2815.464258
823.873976	2768.359717
824.191897	2728.534602
824.509775	2695.744416
824.827609	2670.846157
825.145398	2650.353867
825.463144	2643.976807
825.780845	2646.875471
826.098502	2656.468787
826.416116	2679.169102
826.733685	2704.362269
827.051210	2709.516849
827.368692	2696.240970
827.686129	2672.998730
828.003522	2647.402272
828.320872	2620.502675
828.638177	2603.529110
828.955439	2589.602922
829.272656	2577.201684
829.589830	2566.151474
829.906960	2560.157543
830.224046	2554.960113
830.541088	2551.829556
830.858086	2548.961140
831.175041	2545.898639
831.491952	2546.228834
831.808819	2547.342929
832.125642	2550.982643
832.442421	2556.595967
832.759157	2568.861095
833.075849	2588.103179
833.392497	2611.126128
833.709101	2621.004269
834.025662	2620.255658
834.342179	2608.865171
834.658653	2591.826071
834.975083	2582.479772
835.291469	2571.265725
835.607811	2563.575445
835.924110	2554.193857
836.240366	2552.086655
836.556578	2543.945192
836.872746	2540.640715
837.188871	2536.859850
837.504952	2535.594520
837.820990	2529.242667
838.136984	2529.114117
838.452935	2529.580424
838.768842	2529.222502
839.084706	2534.775333
839.400526	2543.693134
839.716303	2555.025648
840.032037	2561.211144
840.347727	2554.317366
840.663373	2550.574309
840.978977	2543.418391
841.294537	2537.749614
841.610054	2534.102339
841.925527	2530.581093
842.240957	2529.068747
842.556344	2528.395753
842.871687	2527.296781
843.186987	2523.825947
843.502244	2521.822088
843.817458	2519.475431
844.132629	2519.082221
844.447756	2518.205060
844.762840	2514.598115
845.077881	2515.250944
845.392879	2516.987622
845.707833	2513.695748
846.022745	2513.151303
846.337613	2516.758249
846.652438	2517.292611
846.967221	2517.128774
847.281960	2515.492919
847.596656	2516.236490
847.911309	2515.210615
848.225919	2518.038702
848.540485	2514.242713
848.855009	2517.317817
849.169490	2514.114164
849.483928	2512.984945
849.798323	2515.795389
850.112675	2514.920748
850.426984	2515.429905
850.741251	2515.603825
851.055474	2513.342867
851.369654	2514.373783
851.683792	2514.328413
851.997887	2516.438136
852.311938	2513.042919
852.625947	2514.320851
852.939914	2512.967301
853.253837	2515.518125
853.567718	2514.958557
853.881555	2515.550893
854.195350	2512.127949
854.509103	2515.003927
854.822812	2514.116684
855.136479	2515.137518
855.450103	2513.859586
855.763685	2515.611387
856.077224	2513.733557
856.390720	2513.597446
856.704173	2513.463855
857.017584	2516.493588
857.330953	2512.500995
857.644278	2517.048115
857.957561	2517.305214
858.270802	2514.711541
858.584000	2515.152642
858.897155	2517.481655
859.210268	2514.840090
859.523339	2511.858248
859.836367	2514.807322
860.149352	2515.828156
860.462295	2517.191788
860.775195	2512.932013
861.088054	2507.225427
861.400869	2512.198525
861.713642	2510.653412
862.026373	2513.978053
862.339062	2509.733401
862.651708	2512.503515
862.964312	2512.967301
863.276873	2516.720440
863.589392	2515.097189
863.901869	2515.245903
864.214303	2515.558454
864.526696	2518.464680
864.839045	2516.226407
865.151353	2516.128105
865.463619	2516.992663
865.775842	2517.784124
866.088023	2516.506191
866.400162	2515.528208
866.712258	2518.830163
867.024313	2515.495440
867.336325	2516.574247
867.648296	2518.560462
867.960224	2515.891171
868.272110	2516.995183
868.583954	2518.565503
868.895755	2519.082221
869.207515	2518.187416
869.519233	2519.120030
869.830909	2517.968126
870.142542	2520.798734
870.454134	2516.692714
870.765684	2517.390914
871.077191	2519.087262
871.388657	2521.065915
871.700081	2520.176151
872.011463	2521.978364
872.322803	2521.186903
872.634101	2521.091121
872.945357	2519.215812
873.256571	2522.041378
873.567744	2521.920391
873.878874	2522.963909
874.189963	2523.563807
874.501010	2524.294774
874.812015	2521.804444
875.122979	2524.420803
875.433900	2521.207067
875.744780	2525.234949
876.055618	2523.881399
876.366415	2524.221677
876.677169	2524.937521
876.987882	2520.516429
877.298554	2521.330576
877.609183	2523.221008
877.919771	2521.643127
878.230317	2523.755371
878.540822	2532.849612
878.851285	2535.344983
879.161707	2540.156765
879.472087	2545.795295
879.782425	2560.553273
880.092722	2580.584298
880.402977	2616.366408
880.713191	2654.356543
881.023363	2691.940866
881.333494	2710.144472
881.643583	2720.307438
881.953631	2717.176882
882.263637	2706.769420
882.573602	2688.288550
882.883526	2674.609379
883.193408	2660.927687
883.503248	2642.154430
883.813048	2627.956021
884.122806	2615.746346
884.432522	2599.004674
884.742197	2588.473704
885.051831	2578.580439
885.361424	2569.672720
885.670975	2561.495969
885.980485	2557.102603
886.289954	2549.694628
886.599382	2542.347146
886.908768	2540.769265
887.218113	2538.271373
887.527417	2536.827083
887.836680	2530.767616
888.145901	2532.153933
888.455082	2527.329549
888.764221	2527.563962
889.073319	2528.448685
889.382376	2527.304343
889.691392	2525.451719
890.000366	2530.046731
890.309300	2522.903416
890.618193	2523.614218
890.927044	2525.313087
891.235855	2522.691687
891.544625	2524.972809
891.853353	2525.514733
892.162041	2525.474404
892.470687	2529.058664
892.779293	2532.632843
893.087858	2532.786598
893.396381	2536.055786
893.704864	2547.794113
894.013306	2557.604198
894.321707	2571.084243
894.630068	2578.711509
894.938387	2583.387179
895.246665	2575.903587
895.554903	2573.914851
895.863100	2567.666341
896.171256	2560.986812
896.479371	2555.985988
896.787446	2547.668084
897.095480	2546.901828
897.403473	2545.719678
897.711425	2540.474357
898.019336	2538.725077
898.327207	2535.592000
898.635038	2535.060158
898.942827	2532.121165
899.250576	2526.976668
899.558284	2527.543798
899.865952	2526.906092
900.173579	2525.250073
900.481165	2522.051461
900.788711	2523.919208
901.096216	2519.989629
901.403681	2522.679084
901.711105	2519.888806
902.018489	2520.118178
902.325832	2520.846625
902.633135	2523.276461
902.940397	2528.476411
903.247619	2539.151054
903.554800	2554.448436
903.861941	2575.994327
904.169041	2588.221646
904.476101	2593.245156
904.783121	2590.215422
905.090100	2578.827456
905.397039	2575.928792
905.703938	2564.964283
906.010796	2557.836091
906.317614	2553.198230
906.624391	2547.015254
906.931129	2538.838503
907.237826	2536.862371
907.544483	2534.240971
907.851099	2527.132944
908.157675	2525.176976
908.464211	2524.471214
908.770707	2514.030985
909.077163	2514.948475
909.383578	2513.292456
909.689954	2512.894205
909.996289	2510.691220
910.302584	2515.951664
910.608839	2514.572909
910.915054	2513.453773
911.221229	2512.006962
911.527363	2516.720440
911.833458	2512.977384
912.139513	2511.911180
912.445527	2512.808505
912.751502	2513.932682
913.057436	2516.554082
913.363331	2518.220184
913.669186	2519.984588
913.975000	2526.719569
914.280775	2525.844929
914.586510	2535.019829
914.892205	2543.856972
915.197859	2558.078067
915.503475	2569.637432
915.809050	2580.102868
916.114585	2586.038826
916.420081	2592.370516
916.725536	2588.569486
917.030952	2586.356419
917.336328	2579.180337
917.641665	2574.088771
917.946961	2569.186249
918.252218	2561.874055
918.557435	2560.268448
918.862612	2553.092365
919.167750	2550.838970
919.472848	2547.877292
919.777906	2541.291024
920.082925	2537.563091
920.387904	2533.746938
920.692843	2530.964221
920.997743	2524.390556
921.302603	2525.182017
921.607423	2524.778725
921.912204	2521.610360
922.216946	2521.181862
922.521647	2522.139681
922.826310	2519.727489
923.130932	2518.144566
923.435516	2516.077693
923.740059	2517.264885
924.044564	2514.605676
924.349028	2511.979235
924.653454	2507.656446
924.957840	2511.553258
925.262186	2509.287259
925.566493	2506.650736
925.870761	2507.086795
926.174989	2510.378669
926.479178	2507.081754
926.783328	2509.080572
927.087438	2505.922289
927.391509	2507.331291
927.695541	2509.153668
927.999533	2507.968997
928.303486	2507.923627
928.607400	2506.086126
928.911275	2506.045797
929.215110	2506.600324
929.518906	2507.618637
929.822663	2505.859274
930.126381	2505.602176
930.430060	2507.638802
930.733699	2506.779285
931.037299	2506.522186
931.340861	2505.866836
931.644383	2506.751559
931.947866	2507.046466
932.251309	2506.534789
932.554714	2507.333812
932.858080	2508.808349
933.161407	2507.961436
933.464694	2505.718122
933.767943	2508.271467
934.071153	2501.957421
934.374323	2505.743328
934.677455	2507.711898
934.980548	2507.845489
935.283602	2504.977073
935.586617	2507.129645
935.889593	2506.736435
936.192530	2506.522186
936.495428	2509.642660
936.798287	2505.564367
937.101108	2507.268277
937.403890	2505.450941
937.706632	2510.179543
938.009336	2509.791374
938.312002	2508.641991
938.614628	2509.274656
938.917216	2511.757424
939.219765	2512.115346
939.522275	2512.513597
939.824747	2512.082579
940.127179	2510.139214
940.429573	2509.332629
940.731929	2509.531755
941.034246	2507.918586
941.336524	2507.989162
941.638763	2511.059225
941.940964	2509.940088
942.243126	2510.532424
942.545250	2511.104595
942.847335	2510.471930
943.149381	2512.992507
943.451389	2508.067300
943.753359	2507.338853
944.055290	2506.433966
944.357182	2507.381703
944.659036	2508.712567
944.960851	2507.525376
945.262628	2507.971518
945.564367	2506.128976
945.866067	2507.974038
946.167729	2507.638802
946.469352	2507.406909
946.770937	2507.177536
947.072484	2511.916221
947.373992	2507.374141
947.675462	2507.356497
947.976893	2507.270797
948.278286	2507.353977
948.579641	2505.493791
948.880958	2507.245592
949.182236	2505.019922
949.483476	2507.527896
949.784678	2505.090498
950.085841	2507.306086
950.386967	2507.139728
950.688054	2505.791219
950.989103	2507.671569
951.290114	2507.502691
951.591087	2508.016888
951.892021	2506.547392
952.192917	2509.675428
952.493776	2509.688031
952.794596	2507.338853
953.095378	2509.383041
953.396122	2510.086282
953.696828	2510.688700
953.997496	2508.586539
954.298126	2506.489419
954.598718	2509.362876
954.899272	2506.164264
955.199788	2506.277690
955.500266	2506.517145
955.800706	2503.467247
956.101108	2502.824500
956.401472	2501.312154
956.701798	2500.692092
957.002087	2500.724859
957.302337	2503.880622
957.602550	2505.612258
957.902724	2503.588235
958.202861	2505.430776
958.502960	2503.653770
958.803022	2502.776609
959.103045	2502.557319
959.403031	2502.363234
959.702979	2505.428256
960.002889	2504.530930
960.302762	2503.252998
960.602596	2502.695950
960.902393	2498.852071
961.202153	2500.104797
961.501875	2502.915241
961.801559	2502.408605
962.101205	2501.654952
962.400814	2502.136382
962.700385	2502.559839
962.999918	2502.945488
963.299414	2500.440034
963.598873	2503.883142
963.898293	2501.307113
964.197677	2499.998933
964.497022	2499.066320
964.796331	2499.255363
965.095601	2497.042296
965.394835	2502.368275
965.694030	2499.393995
965.993189	2501.657473
966.292309	2499.782163
966.591393	2499.129334
966.890439	2499.446927
967.189447	2501.370127
967.488419	2497.616988
967.787353	2500.545898
968.086249	2501.100425
968.385108	2499.477174
968.683930	2502.254849
968.982714	2499.613285
969.281462	2497.755620
969.580172	2501.627226
969.878844	2500.364417
970.177480	2503.041269
970.476078	2501.284427
970.774639	2502.753924
971.073162	2500.908861
971.371649	2497.856443
971.670098	2498.826865
971.968510	2498.108500
972.266885	2496.790239
972.565223	2501.493635
972.863524	2501.218892
973.161788	2503.222751
973.460014	2502.637977
973.758204	2502.700992
974.056356	2499.146978
974.354471	2500.860970
974.652550	2498.705877
974.950591	2501.208810
975.248595	2500.094715
975.546563	2501.148316
975.844493	2499.184787
976.142386	2501.009684
976.440243	2498.738645
976.738062	2501.438183
977.035845	2498.869715
977.333590	2501.173522
977.631299	2501.581855
977.928971	2503.265601
978.226606	2500.074550
978.524204	2501.412977
978.821765	2502.133862
979.119290	2500.205620
979.416777	2498.622698
979.714228	2502.030518
980.011642	2501.491115
980.309020	2502.610251
980.606360	2501.291989
980.903664	2500.828203
981.200931	2502.965652
981.498162	2500.805518
981.795356	2501.143275
982.092513	2505.400529
982.389633	2505.405571
982.686717	2508.379851
982.983764	2506.053359
983.280775	2510.232475
983.577749	2510.804646
983.874686	2510.418998
984.171587	2508.536127
984.468451	2510.368587
984.765279	2507.338853
985.062070	2507.961436
985.358824	2506.444048
985.655543	2505.196363
985.952224	2504.321722
986.248869	2503.797443
986.545478	2499.393995
986.842050	2499.313336
987.138586	2498.317708
987.435086	2498.322749
987.731549	2494.854436
988.027975	2501.740652
988.324366	2501.478512
988.620719	2499.489777
988.917037	2501.004643
989.213318	2500.450116
989.509563	2499.577997
989.805772	2499.830054
990.101944	2499.000785
990.398080	2497.634632
990.694180	2501.826351
990.990244	2499.885507
991.286271	2499.746875
991.582262	2495.492142
991.878217	2497.238901
992.174136	2499.182266
992.470019	2497.296875
992.765865	2501.949860
993.061676	2497.246463
993.357450	2498.479025
993.653188	2501.435662
993.948890	2500.127483
994.244556	2500.097236
994.540186	2499.802328
994.835780	2500.482884
995.131337	2501.281907
995.426859	2499.237719
995.722345	2501.092863
996.017795	2503.696619
996.313208	2504.107473
996.608586	2506.197032
996.903928	2503.938595
997.199234	2504.525889
997.494504	2507.477485
997.789738	2504.359531
998.084936	2504.427587
998.380099	2503.250477
998.675225	2502.025477
998.970316	2504.354490
999.265371	2505.103101
999.560390	2501.778460
999.855373	2502.259891
1000.150320	2500.331649
1000.445232	2499.754437
1000.740108	2497.972389
1001.034948	2500.830723
1001.329752	2496.013901
1001.624521	2498.652945
1001.919254	2494.594816
1002.213951	2497.009529
1002.508613	2493.395022
1002.803239	2498.491628
1003.097829	2491.814620
1003.392384	2499.651093
1003.686903	2497.659838
1003.981386	2501.203769
1004.275834	2496.719663
1004.570246	2498.660507
1004.864623	2496.281082
1005.158964	2499.973727
1005.453270	2497.470794
1005.747540	2499.235198
1006.041775	2497.548932
1006.335974	2498.579848
1006.630138	2496.230671
1006.924266	2498.045486
1007.218359	2498.327791
1007.512416	2497.286792
1007.806438	2495.547594
1008.100425	2496.999447
1008.394376	2496.515496
1008.688292	2499.830054
1008.982172	2497.291833
1009.276017	2500.704695
1009.569827	2494.002481
1009.863602	2496.949035
1010.157341	2496.999447
1010.451045	2497.415342
1010.744714	2496.573469
1011.038347	2499.547750
1011.331945	2497.415342
1011.625508	2497.848881
1011.919036	2499.288130
1012.212528	2496.520537
1012.505986	2496.651607
1012.799408	2498.310147
1013.092795	2495.230002
1013.386147	2496.271000
1013.679464	2497.604385
1013.972745	2496.487769
1014.265992	2497.884169
1014.559204	2497.995074
1014.852380	2496.747389
1015.145521	2499.971207
1015.438628	2498.194200
1015.731699	2496.777636
1016.024736	2496.117245
1016.317737	2497.901813
1016.610703	2497.695126
1016.903635	2495.477018
1017.196531	2491.673468
1017.489393	2495.787049
1017.782219	2491.444095
1018.075011	2496.137409
1018.367768	2495.973572
1018.660490	2497.964827
1018.953177	2497.964827
1019.245829	2497.964827
