Dividing Wavelength (nm)	Counts (n)	Blue Motor Position (mm): 0.000000	Red Motor Position (mm): 2.500000	
326.493990	2088.335789
326.888308	2088.335789
327.282561	2088.335789
327.676750	2066.074054
328.070874	2066.026163
328.464933	2073.630744
328.858929	2084.227249
329.252859	2095.108580
329.646726	2109.536362
330.040528	2126.041100
330.434265	2144.549696
330.827938	2164.424445
331.221547	2185.849349
331.615091	2205.252750
332.008571	2226.390308
332.401986	2247.908473
332.795338	2264.622419
333.188625	2288.250307
333.581847	2304.886115
333.975006	2321.179124
334.368100	2340.794253
334.761129	2356.467201
335.154095	2373.105529
335.546996	2390.525236
335.939833	2402.485374
336.332606	2414.833680
336.725315	2428.497727
337.117960	2434.592482
337.510540	2443.215376
337.903056	2453.751388
338.295508	2459.773046
338.687896	2467.032308
339.080220	2472.078502
339.472480	2477.832980
339.864676	2481.210553
340.256807	2484.918321
340.648875	2485.374546
341.040879	2489.883858
341.432818	2487.229690
341.824694	2488.757160
342.216506	2487.156594
342.608253	2488.091728
342.999937	2485.687097
343.391557	2488.041316
343.783113	2481.676859
344.174605	2483.852117
344.566033	2480.527476
344.957397	2479.448669
345.348697	2478.011941
345.739934	2477.439770
346.131106	2474.455407
346.522215	2474.483133
346.913260	2472.196970
347.304241	2469.663790
347.695159	2467.475929
348.086012	2466.951649
348.476802	2463.548870
348.867528	2464.675568
349.258191	2462.911164
349.648789	2463.080043
350.039324	2460.998046
350.429796	2461.706328
350.820203	2460.627522
351.210548	2460.662810
351.600828	2458.752212
351.991045	2458.966461
352.381198	2458.240535
352.771288	2456.796245
353.161314	2456.597119
353.551276	2458.006122
353.941175	2455.901440
354.331010	2457.948148
354.720782	2458.905968
355.110490	2459.518468
355.500135	2458.268262
355.889717	2462.419652
356.279235	2457.370936
356.668689	2459.934363
357.058080	2458.111986
357.447408	2455.609053
357.836672	2456.864300
358.225873	2459.160546
358.615010	2456.808847
359.004084	2461.424024
359.393095	2460.972841
359.782043	2461.764302
360.170927	2463.500979
360.559748	2464.511731
360.948505	2464.451237
361.337199	2465.915692
361.725830	2464.463840
362.114398	2468.030456
362.502903	2465.681278
362.891344	2466.465178
363.279722	2466.936526
363.668037	2466.986937
364.056289	2467.440641
364.444478	2469.429376
364.832603	2467.135651
365.220665	2471.065231
365.608665	2469.467185
365.996601	2471.564305
366.384474	2470.387195
366.772284	2466.606330
367.160031	2468.935343
367.547715	2472.980869
367.935336	2470.913996
368.322893	2472.716208
368.710388	2473.064048
369.097820	2473.875674
369.485189	2472.796867
369.872495	2473.679069
370.259738	2473.908441
370.646918	2472.842237
371.034035	2475.158648
371.421090	2477.439770
371.808081	2477.696868
372.195010	2479.637713
372.581875	2483.864720
372.968678	2484.535194
373.355418	2487.776656
373.742096	2490.975268
374.128710	2495.625732
374.515262	2499.729231
374.901751	2503.817607
375.288177	2510.038391
375.674540	2514.247754
376.060841	2523.291584
376.447079	2529.295599
376.833254	2536.552340
377.219367	2541.686755
377.605417	2547.594987
377.991404	2554.382901
378.377329	2561.410269
378.763191	2565.753223
379.148991	2578.247723
379.534727	2587.571337
379.920402	2595.884200
380.306013	2601.825200
380.691563	2613.558485
381.077049	2617.001593
381.462474	2619.814557
381.847835	2631.595734
382.233134	2638.280304
382.618371	2642.598052
383.003545	2650.870585
383.388657	2656.277223
383.773706	2664.965652
384.158693	2668.186949
384.543618	2672.769358
384.928480	2675.345387
385.313280	2682.087931
385.698017	2685.957016
386.082692	2689.611853
386.467305	2689.470700
386.851856	2694.428675
387.236344	2700.944367
387.620770	2701.125848
388.005133	2701.819007
388.389435	2702.870087
388.773674	2698.126362
389.157851	2698.423790
389.541965	2700.924202
389.926018	2691.383818
390.310008	2692.329035
390.693936	2693.155784
391.077802	2688.706966
391.461606	2687.270237
391.845348	2682.685307
392.229027	2677.417302
392.612645	2678.067610
392.996200	2673.376817
393.379694	2668.328101
393.763125	2668.809531
394.146494	2657.146822
394.529801	2652.982829
394.913047	2649.653147
395.296230	2638.920530
395.679351	2626.940228
396.062410	2623.512243
396.445408	2611.176540
396.828343	2600.519541
397.211217	2591.899168
397.594028	2579.540779
397.976778	2574.502146
398.359466	2568.430076
398.742092	2556.464897
399.124656	2557.054712
399.507158	2550.324772
399.889598	2542.508463
400.271977	2538.281455
400.654294	2533.953625
401.036549	2526.976668
401.418742	2525.539939
401.800874	2520.773528
402.182944	2517.111130
402.564952	2515.603825
402.946898	2512.924452
403.328783	2511.906138
403.710606	2509.796416
404.092367	2505.871877
404.474067	2505.904645
404.855705	2502.093532
405.237282	2504.162926
405.618797	2500.926505
406.000250	2502.471619
406.381642	2499.635970
406.762972	2499.174704
407.144240	2499.784684
407.525447	2500.034221
407.906593	2498.423573
408.287677	2499.164622
408.668700	2497.674961
409.049661	2499.063799
409.430560	2497.977430
409.811399	2498.226967
410.192176	2499.275528
410.572891	2499.514982
410.953545	2498.542040
411.334138	2497.231340
411.714669	2498.529437
412.095139	2497.347286
412.475547	2497.740496
412.855894	2498.438696
413.236180	2496.480208
413.616405	2496.843171
413.996568	2498.025321
414.376670	2497.967348
414.756711	2501.460868
415.136691	2498.519354
415.516609	2498.113542
415.896466	2498.673110
416.276262	2496.707060
416.655997	2493.213540
417.035670	2496.107162
417.415283	2496.903665
417.794834	2495.524909
418.174324	2499.058758
418.553753	2499.111690
418.933121	2498.915085
419.312428	2494.773777
419.691674	2500.082112
420.070859	2499.149499
420.449983	2497.180928
420.829045	2498.748727
421.208047	2500.250991
421.586988	2499.893069
421.965867	2503.925992
422.344686	2501.576814
422.723444	2501.743172
423.102141	2500.558501
423.480777	2499.167143
423.859352	2501.723008
424.237866	2501.370127
424.616319	2500.268635
424.994712	2502.741321
425.373044	2501.783502
425.751314	2501.400374
426.129524	2501.876763
426.507673	2501.266783
426.885762	2502.529592
427.263789	2501.105466
427.641756	2500.876094
428.019662	2503.550426
428.397508	2502.572442
428.775292	2504.523369
429.153016	2503.555467
429.530679	2504.417504
429.908282	2502.821979
430.285824	2502.675786
430.663305	2503.074037
431.040726	2503.789881
431.418086	2502.398522
431.795385	2502.827020
432.172624	2506.159223
432.549802	2506.002947
432.926920	2506.131497
433.303977	2505.226610
433.680974	2505.705519
434.057910	2504.261229
434.434786	2504.175529
434.811601	2504.099912
435.188355	2505.665190
435.565050	2507.167454
435.941683	2506.101250
436.318257	2504.427587
436.694770	2502.484222
437.071222	2505.597134
437.447614	2503.699140
437.823946	2500.709736
438.200218	2506.338184
438.576429	2508.102588
438.952580	2506.444048
439.328670	2507.485047
439.704700	2507.303565
440.080670	2510.625685
440.456580	2508.170643
440.832429	2508.140397
441.208218	2508.137876
441.583947	2508.281549
441.959616	2510.928155
442.335224	2511.346570
442.710773	2502.451454
443.086261	2508.914214
443.461689	2509.030160
443.837057	2507.129645
444.212365	2513.357991
444.587612	2510.643329
444.962800	2509.955212
445.337927	2509.526714
445.712995	2510.194667
446.088002	2509.471261
446.462949	2508.871364
446.837837	2511.747342
447.212664	2510.174502
447.587431	2509.735922
447.962139	2511.712054
448.336786	2514.434277
448.711374	2510.792043
449.085901	2513.594925
449.460369	2509.539317
449.834776	2512.450583
450.209124	2509.763648
450.583412	2511.424708
450.957640	2510.910511
451.331808	2510.018226
451.705917	2508.873884
452.079965	2511.664163
452.453954	2511.409585
452.827883	2511.129801
453.201752	2510.905469
453.575562	2512.616941
453.949311	2509.667866
454.323001	2509.879595
454.696632	2510.534945
455.070202	2512.959740
455.443713	2511.207939
455.817164	2512.558968
456.190556	2509.345232
456.563888	2507.928668
456.937160	2506.186949
457.310373	2509.317506
457.683526	2508.397495
458.056619	2512.228772
458.429653	2510.096364
458.802628	2512.460665
459.175542	2512.427898
459.548398	2511.359173
459.921194	2511.316323
460.293930	2512.634585
460.666607	2512.460665
461.039224	2513.355470
461.411782	2511.465038
461.784280	2514.348578
462.156719	2515.001407
462.529099	2513.153824
462.901419	2511.124760
463.273680	2514.174658
463.645882	2514.489730
464.018024	2513.330264
464.390106	2515.636592
464.762130	2515.119874
465.134094	2515.782786
465.505999	2516.995183
465.877845	2517.728671
466.249631	2516.385204
466.621358	2516.990142
466.993026	2519.674557
467.364634	2518.336130
467.736184	2514.993845
468.107674	2518.116840
468.479105	2515.354288
468.850477	2516.405368
469.221790	2516.339833
469.593043	2515.374452
469.964238	2515.049298
470.335373	2515.039216
470.706449	2515.344205
471.077467	2515.865965
471.448425	2518.247910
471.819324	2519.881244
472.190164	2515.931500
472.560945	2514.093999
472.931667	2512.097702
473.302330	2512.306910
473.672934	2514.141890
474.043479	2514.832528
474.413965	2513.148783
474.784393	2511.936385
475.154761	2511.780110
475.525070	2512.480830
475.895321	2510.025788
476.265513	2510.096364
476.635645	2513.163906
477.005719	2516.387724
477.375734	2516.480986
477.745691	2514.623320
478.115588	2515.112312
478.485427	2517.955523
478.855207	2517.259844
479.224928	2514.008300
479.594591	2517.040554
479.964194	2513.342867
480.333739	2519.034330
480.703226	2518.384021
481.072653	2515.409740
481.442022	2518.575585
481.811333	2516.380163
482.180584	2517.741274
482.549777	2517.224556
482.918912	2516.773373
483.287988	2516.687673
483.657005	2516.385204
484.025964	2515.681963
484.394864	2514.638444
484.763706	2517.569875
485.132489	2516.629700
485.501213	2517.645492
485.869879	2516.233969
486.238487	2516.019720
486.607036	2520.216481
486.975527	2516.710358
487.343959	2519.034330
487.712333	2517.448887
488.080648	2515.439987
488.448905	2517.194309
488.817104	2518.477282
489.185244	2519.800585
489.553326	2516.780934
489.921350	2519.641789
490.289315	2517.322858
490.657222	2520.536594
491.025070	2518.142046
491.392861	2517.436284
491.760593	2517.428722
492.128267	2520.029958
492.495883	2514.847652
492.863440	2519.019207
493.230939	2517.325379
493.598380	2516.788496
493.965763	2512.153155
494.333088	2513.962929
494.700354	2514.043588
495.067563	2514.741788
495.434713	2513.705830
495.801805	2517.562313
496.168839	2515.878568
496.535815	2516.589370
496.902733	2514.169617
497.269593	2516.690193
497.636395	2514.456962
498.003139	2515.949144
498.369825	2515.034174
498.736453	2516.952333
499.103023	2517.131294
499.469535	2515.629031
499.835989	2513.441170
500.202385	2516.329751
500.568723	2517.418640
500.935003	2518.411748
501.301226	2517.443846
501.667390	2514.275481
502.033497	2520.072808
502.399546	2517.516943
502.765537	2517.060718
503.131470	2517.242200
503.497345	2515.767662
503.863163	2517.038033
504.228923	2515.533249
504.594625	2516.312107
504.960269	2516.286901
505.325856	2518.288239
505.691385	2516.639782
506.056856	2517.315297
506.422270	2518.492406
506.787625	2515.036695
507.152924	2515.881088
507.518164	2517.955523
507.883347	2517.353105
508.248472	2519.437622
508.613540	2516.791017
508.978550	2516.644823
509.343503	2516.780934
509.708398	2516.501150
510.073236	2518.890657
510.438016	2518.013496
510.802738	2517.085924
511.167403	2513.506705
511.532010	2516.085255
511.896561	2516.390245
512.261053	2516.544000
512.625488	2513.645337
512.989866	2513.962929
513.354186	2512.715244
513.718449	2512.833711
514.082655	2513.478978
514.446803	2518.578106
514.810894	2516.513753
515.174927	2519.319155
515.538904	2518.144566
515.902822	2516.536438
516.266684	2515.180368
516.630488	2517.043074
516.994235	2518.250431
517.357925	2520.506347
517.721558	2519.661954
518.085133	2516.198681
518.448651	2518.003414
518.812112	2516.609535
519.175516	2517.774042
519.538863	2516.460821
519.902152	2519.014165
520.265385	2518.830163
520.628560	2517.174144
520.991678	2518.225225
521.354739	2517.035513
521.717743	2517.199350
522.080690	2517.995852
522.443580	2518.646161
522.806413	2517.295132
523.169189	2515.074504
523.531908	2518.595750
523.894569	2515.664319
524.257174	2516.170955
524.619722	2516.743126
524.982213	2518.691532
525.344647	2518.210101
525.707025	2517.257323
526.069345	2518.847807
526.431608	2516.712879
526.793815	2514.363701
527.155964	2518.043743
527.518057	2519.765297
527.880093	2516.468383
528.242072	2516.400327
528.603995	2518.966274
528.965860	2517.216994
529.327669	2517.274967
529.689421	2514.759432
530.051117	2517.927797
530.412755	2518.537776
530.774337	2517.557272
531.135862	2518.683970
531.497331	2515.137518
531.858743	2514.489730
532.220098	2515.608866
532.581396	2516.158352
532.942638	2516.551562
533.303824	2519.082221
533.664953	2518.767149
534.026025	2517.819412
534.387040	2519.382170
534.747999	2516.836387
535.108902	2518.179854
535.469748	2519.041892
535.830537	2517.106089
536.191270	2516.342354
536.551947	2517.877385
536.912567	2518.542817
537.273131	2518.472241
537.633638	2518.603311
537.994089	2517.829494
538.354483	2520.009793
538.714821	2520.823940
539.075103	2516.211284
539.435328	2516.682632
539.795497	2516.702796
540.155609	2518.777231
540.515665	2517.131294
540.875665	2519.427540
541.235609	2518.525173
541.595496	2516.460821
541.955328	2517.574916
542.315102	2516.929648
542.674821	2520.158507
543.034483	2516.919566
543.394090	2518.441994
543.753640	2518.966274
544.113134	2518.189937
544.472571	2521.131450
544.831953	2515.465193
545.191278	2516.743126
545.550548	2518.757067
545.909761	2520.271933
546.268918	2516.014679
546.628019	2520.438291
546.987064	2518.484844
547.346053	2518.555420
547.704986	2519.293949
548.063863	2517.920235
548.422684	2517.960564
548.781449	2517.408558
549.140158	2514.956037
549.498811	2517.214473
549.857408	2517.055677
550.215949	2516.607014
550.574434	2514.852693
550.932864	2513.852024
551.291237	2514.628362
551.649555	2519.374608
552.007817	2518.162210
552.366022	2518.986439
552.724173	2516.385204
553.082267	2516.498630
553.440305	2522.038858
553.798288	2515.074504
554.156215	2515.422343
554.514086	2518.452077
554.871902	2516.017199
555.229661	2518.263033
555.587365	2516.760770
555.945014	2517.945441
556.302606	2519.367046
556.660143	2516.896881
557.017625	2517.043074
557.375050	2518.530215
557.732421	2518.651202
558.089735	2515.503002
558.446994	2516.198681
558.804197	2517.867303
559.161345	2516.964936
559.518437	2520.304701
559.875474	2517.249762
560.232455	2520.569361
560.589381	2518.363857
560.946251	2519.941738
561.303065	2518.018538
561.659825	2517.955523
562.016528	2517.680780
562.373177	2517.524504
562.729770	2515.505522
563.086307	2517.484175
563.442789	2518.401665
563.799216	2516.622138
564.155587	2518.661285
564.511904	2515.490399
564.868164	2517.436284
565.224370	2517.632889
565.580520	2516.538959
565.936615	2516.904442
566.292654	2517.297653
566.648638	2517.166583
567.004567	2514.588032
567.360441	2519.112468
567.716260	2517.963085
568.072023	2516.831346
568.427732	2514.280522
568.783385	2515.313958
569.138982	2514.320851
569.494525	2514.830008
569.850013	2513.254647
570.205445	2518.953672
570.560823	2515.248423
570.916145	2519.689680
571.271412	2516.216325
571.626625	2517.655574
571.981782	2519.586336
572.336884	2520.997859
572.691931	2517.922756
573.046923	2517.441325
573.401860	2515.621469
573.756743	2518.290760
574.111570	2517.126253
574.466342	2519.561131
574.821059	2515.825636
575.175722	2518.676408
575.530330	2519.367046
575.884882	2518.999042
576.239380	2516.894360
576.593823	2520.488703
576.948211	2516.851510
577.302544	2516.181037
577.656823	2518.275636
578.011047	2518.676408
578.365216	2517.895029
578.719330	2517.978208
579.073389	2514.522497
579.427394	2516.975019
579.781344	2517.322858
580.135239	2517.675739
580.489080	2516.322189
580.842866	2519.419978
581.196597	2520.574403
581.550273	2517.355626
581.903895	2517.610204
582.257463	2519.046933
582.610975	2515.681963
582.964434	2519.384690
583.317837	2516.763290
583.671186	2516.813702
584.024481	2519.621624
584.377721	2517.040554
584.730906	2516.120543
585.084037	2518.562982
585.437113	2517.874865
585.790135	2519.004083
586.143103	2514.008300
586.496016	2518.661285
586.848874	2514.567868
587.201679	2517.973167
587.554428	2511.921262
587.907124	2515.911335
588.259765	2512.533762
588.612352	2520.329907
588.964884	2516.039885
589.317362	2518.363857
589.669786	2517.416120
590.022155	2516.811181
590.374470	2519.306552
590.726731	2518.867972
591.078937	2518.283198
591.431090	2518.794875
591.783188	2515.515605
592.135232	2518.888137
592.487222	2517.862262
592.839157	2517.572395
593.191038	2519.646830
593.542866	2518.515091
593.894639	2520.075328
594.246358	2518.389062
594.598022	2519.220853
594.949633	2515.008969
595.301190	2517.537107
595.652692	2520.352592
596.004141	2517.572395
596.355535	2519.160359
596.706876	2514.817405
597.058162	2518.038702
597.409395	2515.535769
597.760573	2517.219515
598.111698	2517.542148
598.462768	2515.888650
598.813785	2517.280008
599.164748	2517.983249
599.515657	2515.344205
599.866511	2517.985770
600.217312	2514.295645
600.568060	2518.641120
600.918753	2518.905781
601.269392	2517.932838
601.619978	2515.119874
601.970510	2516.753208
602.320988	2517.713548
602.671412	2518.499968
603.021783	2515.923938
603.372100	2517.096006
603.722363	2517.529546
604.072572	2516.659947
604.422728	2519.684639
604.772830	2513.864627
605.122878	2514.925790
605.472872	2513.426046
605.822813	2512.095182
606.172701	2515.530728
606.522534	2518.111799
606.872314	2516.924607
607.222041	2517.421161
607.571714	2516.826305
607.921333	2517.927797
608.270899	2517.567354
608.620411	2518.275636
608.969870	2519.515760
609.319276	2515.971829
609.668627	2516.710358
610.017926	2517.131294
610.367171	2517.227076
610.716362	2517.731192
611.065500	2518.704134
611.414585	2517.469052
611.763616	2517.562313
612.112594	2514.928310
612.461518	2514.714061
612.810389	2515.787827
613.159207	2516.032323
613.507971	2518.515091
613.856682	2516.791017
614.205340	2518.245389
614.553945	2519.724968
614.902496	2518.988960
615.250994	2517.043074
615.599439	2516.700276
615.947830	2516.206243
616.296169	2518.174813
616.644454	2519.941738
616.992686	2516.546521
617.340864	2519.394773
617.688990	2517.713548
618.037063	2518.273116
618.385082	2516.733043
618.733048	2516.256654
619.080961	2517.794206
619.428821	2519.414937
619.776628	2515.243382
620.124382	2516.516274
620.472083	2519.845956
620.819731	2519.664474
621.167326	2518.172293
621.514868	2520.002232
621.862357	2517.804288
622.209793	2518.434433
622.557176	2518.933507
622.904506	2517.080883
623.251783	2513.322703
623.599007	2511.704492
623.946179	2514.187261
624.293297	2513.650378
624.640363	2518.184896
624.987376	2519.730009
625.334336	2518.157169
625.681243	2515.603825
626.028097	2517.627848
626.374899	2514.512415
626.721647	2518.797396
627.068343	2517.179185
627.414987	2517.083403
627.761577	2515.810512
628.108115	2515.936541
628.454600	2516.796058
628.801032	2516.637261
629.147412	2519.745133
629.493739	2514.290604
629.840014	2518.353774
630.186236	2515.359329
630.532405	2518.018537
630.878521	2517.824453
631.224585	2519.195647
631.570597	2516.024761
631.916556	2518.978877
632.262462	2516.269257
632.608316	2517.685821
632.954117	2517.995852
633.299866	2518.227745
633.645562	2517.335461
633.991206	2518.293280
634.336797	2515.306397
634.682336	2517.204391
635.027823	2516.196160
635.373257	2516.430574
635.718639	2513.370594
636.063968	2515.954185
636.409245	2516.670029
636.754470	2516.677591
637.099642	2515.172806
637.444762	2517.171624
637.789829	2514.759432
638.134845	2518.245389
638.479808	2515.404699
638.824719	2515.560975
639.169577	2511.938906
639.514383	2514.935872
639.859137	2519.873682
640.203839	2516.183558
640.548489	2515.661798
640.893086	2514.726664
641.237632	2512.589215
641.582125	2513.731036
641.926566	2512.528721
642.270955	2515.702127
642.615292	2517.007786
642.959576	2514.719102
643.303809	2516.733043
643.647990	2515.379493
643.992118	2515.951664
644.336195	2516.957375
644.680219	2515.807992
645.024192	2517.398476
645.368112	2516.475944
645.711981	2516.168434
646.055797	2518.507529
646.399562	2515.550893
646.743274	2517.421161
647.086935	2517.159021
647.430544	2514.459483
647.774101	2516.271778
648.117606	2515.712210
648.461059	2516.861593
648.804460	2519.795544
649.147810	2516.811181
649.491108	2513.287415
649.834354	2516.995183
650.177548	2514.048629
650.520690	2515.956706
650.863781	2516.213804
651.206820	2518.615914
651.549807	2515.886129
651.892742	2517.080883
652.235626	2515.016530
652.578458	2516.942251
652.921238	2516.859072
653.263967	2515.261026
653.606644	2516.417971
653.949269	2516.012158
654.291843	2514.766993
654.634365	2514.928310
654.976836	2518.522653
655.319255	2520.662623
655.661622	2515.737415
656.003938	2515.608866
656.346203	2515.576098
656.688416	2514.512415
657.030577	2516.130625
657.372687	2515.402179
657.714746	2514.099040
658.056753	2515.326561
658.398708	2513.095851
658.740612	2512.783299
659.082465	2513.660460
659.424266	2510.590397
659.766016	2511.240706
660.107715	2515.462672
660.449362	2516.886798
660.790958	2517.695904
661.132503	2514.482168
661.473996	2515.389576
661.815438	2516.533918
662.156829	2515.830677
662.498168	2515.056860
662.839456	2517.025430
663.180693	2514.363701
663.521879	2515.576098
663.863013	2518.005935
664.204097	2515.807992
664.545129	2516.400327
664.886110	2515.926459
665.227040	2512.047291
665.567918	2516.894360
665.908746	2516.793537
666.249522	2518.157169
666.590248	2512.826149
666.930922	2513.932682
667.271545	2515.999555
667.612118	2514.056191
667.952639	2515.893691
668.293109	2514.580471
668.633528	2514.651047
668.973896	2515.182888
669.314213	2517.030471
669.654480	2516.818743
669.994695	2514.184740
670.334859	2517.343023
670.674973	2517.078362
671.015035	2515.646675
671.355047	2514.509894
671.695008	2516.435615
672.034918	2512.765655
672.374777	2514.136849
672.714585	2515.228259
673.054342	2516.922087
673.394049	2515.102230
673.733705	2516.392765
674.073310	2517.602642
674.412864	2515.286232
674.752368	2515.999555
675.091820	2513.317662
675.431223	2514.845131
675.770574	2517.161541
676.109875	2508.916734
676.449125	2514.547703
676.788324	2512.213649
677.127473	2514.769514
677.466571	2508.856240
677.805619	2515.984432
678.144616	2513.370594
678.483562	2515.611387
678.822458	2514.396468
679.161303	2514.106602
679.500098	2513.854544
679.838842	2515.520646
680.177535	2512.977384
680.516179	2515.402179
680.854771	2514.217508
681.193314	2514.300687
681.531805	2516.302025
681.870247	2513.960409
682.208638	2514.184740
682.546978	2513.363032
682.885268	2514.812364
683.223508	2516.561644
683.561697	2516.181037
683.899836	2515.722292
684.237925	2514.025944
684.575963	2515.162724
684.913951	2514.144411
685.251889	2516.246572
685.589776	2512.750532
685.927614	2514.552744
686.265401	2515.737415
686.603137	2513.932682
686.940824	2515.840759
687.278460	2516.160872
687.616046	2517.945441
687.953582	2515.651716
688.291068	2514.121726
688.628504	2514.968639
688.965889	2511.974194
689.303224	2515.233300
689.640510	2513.640295
689.977745	2515.228259
690.314930	2513.544513
690.652065	2515.286232
690.989150	2514.991325
691.326185	2517.237159
691.663170	2514.114164
692.000105	2513.141221
692.336990	2513.751201
692.673825	2515.750018
693.010610	2515.563496
693.347345	2510.126611
693.684030	2510.993690
694.020665	2514.106602
694.357251	2510.008144
694.693786	2511.346570
695.030272	2513.746160
695.366707	2515.281191
695.703093	2513.915038
696.039429	2514.015861
696.375716	2514.434277
696.711952	2513.799092
697.048139	2515.991994
697.384276	2514.192302
697.720363	2514.139370
698.056400	2514.126767
698.392388	2514.870337
698.728326	2514.066273
699.064214	2513.068124
699.400053	2515.066942
699.735842	2513.032836
700.071581	2513.748680
700.407270	2509.206601
700.742910	2513.489061
701.078501	2514.116684
701.414042	2513.035357
701.749533	2511.802795
702.084974	2513.363032
702.420366	2515.578619
702.755709	2514.709020
703.091002	2512.206087
703.426246	2515.069462
703.761440	2514.789678
704.096584	2513.725995
704.431679	2512.238855
704.766725	2514.487209
705.101721	2515.588701
705.436668	2514.774555
705.771565	2514.177178
706.106413	2512.548886
706.441212	2513.781448
706.775961	2515.490399
707.110661	2510.852537
707.445311	2514.809843
707.779913	2515.371932
708.114465	2513.894874
708.448967	2512.415295
708.783421	2514.358660
709.117825	2515.392096
709.452180	2514.091479
709.786485	2516.112981
710.120742	2517.726151
710.454949	2514.393948
710.789107	2514.895543
711.123216	2510.272805
711.457275	2511.444873
711.791286	2509.352794
712.125247	2510.025788
712.459159	2514.525018
712.793023	2516.367560
713.126837	2512.100223
713.460602	2515.762621
713.794318	2513.398320
714.127985	2513.723474
714.461602	2512.826149
714.795171	2514.683814
715.128691	2513.970491
715.462162	2517.317817
715.795584	2511.598628
716.128957	2514.436798
716.462281	2512.808505
716.795556	2512.180881
717.128782	2514.426715
717.461960	2512.606859
717.795088	2513.211797
718.128167	2511.656601
718.461198	2514.141890
718.794180	2512.369925
719.127113	2510.925634
719.459997	2514.235152
719.792833	2514.240193
720.125619	2513.365553
720.458357	2512.140552
720.791046	2513.637775
721.123686	2513.025275
721.456278	2516.518794
721.788821	2512.916890
722.121315	2512.692558
722.453761	2513.892353
722.786158	2512.657270
723.118506	2512.027126
723.450805	2513.042919
723.783056	2513.168947
724.115259	2514.051149
724.447412	2513.494102
724.779518	2512.445542
725.111574	2513.335306
725.443582	2516.798578
725.775542	2513.995697
726.107453	2511.719616
726.439315	2514.361180
726.771129	2517.479134
727.102895	2513.640295
727.434612	2515.228259
727.766281	2512.669873
728.097901	2510.582836
728.429473	2509.025119
728.760996	2511.253309
729.092471	2511.437311
729.423897	2512.778258
729.755276	2513.121057
730.086606	2511.621313
730.417887	2513.166427
730.749120	2513.637775
731.080305	2513.748680
731.411442	2514.192302
731.742530	2511.954029
732.073570	2514.313289
732.404562	2513.605007
732.735506	2515.855883
733.066401	2514.953516
733.397249	2514.595594
733.728048	2515.276150
734.058798	2513.161386
734.389501	2512.828670
734.720156	2514.290604
735.050762	2512.833711
735.381320	2512.261540
735.711831	2509.725839
736.042293	2511.376817
736.372707	2511.112157
736.703073	2514.242713
737.033391	2511.707013
737.363661	2512.367404
737.693883	2512.632065
738.024056	2513.516787
738.354182	2511.094513
738.684260	2513.395799
739.014290	2512.687517
739.344272	2513.221880
739.674207	2514.721623
740.004093	2513.862106
740.333931	2514.759432
740.663722	2512.755573
740.993464	2511.885974
741.323159	2514.681294
741.652806	2511.848165
741.982405	2514.393948
742.311956	2510.025788
742.641460	2514.025944
742.970915	2511.777589
743.300323	2512.067455
743.629683	2511.548217
743.958996	2512.546365
744.288260	2512.256499
744.617477	2511.034019
744.946647	2510.527383
745.275768	2512.274143
745.604842	2507.023781
745.933869	2507.411950
746.262847	2508.147958
746.591778	2514.043588
746.920662	2512.803464
747.249498	2514.164575
747.578286	2512.652229
747.907027	2512.465707
748.235720	2513.257168
748.564365	2512.196005
748.892963	2511.770027
749.221514	2511.621313
749.550017	2510.028309
749.878473	2513.025275
750.206881	2511.185253
750.535242	2510.459327
750.863555	2512.538803
751.191821	2512.770696
751.520039	2510.038391
751.848210	2513.549555
752.176334	2514.373783
752.504411	2514.489730
752.832440	2512.745491
753.160421	2511.482682
753.488356	2511.056704
753.816243	2513.526869
754.144082	2511.399503
754.471875	2513.945285
754.799620	2511.553258
755.127318	2510.539986
755.454969	2510.166940
755.782572	2511.122239
756.110129	2513.196674
756.437638	2511.848165
756.765100	2510.116529
757.092515	2512.949657
757.419882	2513.199194
757.747203	2513.380676
758.074477	2512.710202
758.401703	2511.974194
758.728882	2510.865140
759.056014	2510.613082
759.383099	2512.949657
759.710138	2511.517970
760.037129	2511.076869
760.364073	2511.611231
760.690970	2513.957888
761.017820	2512.022085
761.344623	2512.216169
761.671379	2510.580315
761.998088	2508.263905
762.324751	2512.503515
762.651366	2507.895901
762.977935	2509.766169
763.304456	2508.316837
763.630931	2512.816067
763.957359	2513.310100
764.283740	2514.719102
764.610074	2509.919924
764.936362	2510.466889
765.262602	2510.653412
765.588796	2512.369925
765.914943	2510.040912
766.241044	2515.344205
766.567097	2513.209277
766.893104	2512.352281
767.219064	2511.669204
767.544978	2511.742301
767.870845	2512.253978
768.196665	2512.800943
768.522438	2511.800274
768.848165	2511.200377
769.173846	2509.529234
769.499479	2512.884122
769.825066	2510.527383
770.150607	2514.305728
770.476101	2510.476971
770.801548	2514.749349
771.126949	2512.495953
771.452303	2510.802126
771.777611	2512.417816
772.102872	2509.869512
772.428087	2508.208452
772.753256	2512.012003
773.078378	2513.375635
773.403453	2512.916890
773.728482	2511.389420
774.053465	2510.174502
774.378401	2512.742970
774.703291	2510.660973
775.028135	2509.473782
775.352932	2510.784482
775.677683	2512.811026
776.002388	2512.793382
776.327046	2510.948319
776.651658	2512.027126
776.976224	2513.068124
777.300743	2514.540141
777.625216	2512.528721
777.949643	2513.078207
778.274024	2514.300687
778.598359	2507.593431
778.922647	2509.347753
779.246889	2510.539986
779.571086	2506.428925
779.895236	2512.579133
780.219339	2511.954029
780.543397	2513.100892
780.867409	2510.986128
781.191374	2510.202228
781.515294	2510.713906
781.839167	2510.597959
782.162995	2510.509739
782.486776	2511.646519
782.810511	2511.349091
783.134201	2511.540655
783.457844	2509.604852
783.781441	2510.199708
784.104993	2510.229955
784.428498	2514.751870
784.751958	2510.063597
785.075372	2512.168278
785.398739	2508.485716
785.722061	2510.817249
786.045337	2512.732888
786.368568	2508.069820
786.691752	2510.600480
787.014891	2512.173320
787.337983	2510.204749
787.661030	2512.311951
787.984031	2511.911180
788.306987	2511.858247
788.629897	2509.927486
788.952760	2511.442352
789.275579	2513.373114
789.598351	2511.104595
789.921078	2509.511590
790.243759	2510.043432
790.566395	2512.304390
790.888984	2509.148627
791.211529	2511.709533
791.534027	2508.689882
791.856480	2511.573422
792.178888	2509.277177
792.501249	2510.978566
792.823566	2507.548061
793.145836	2511.452435
793.468062	2511.969153
793.790241	2510.267763
794.112375	2513.171468
794.434464	2510.809688
794.756507	2510.784482
795.078505	2511.356653
795.400457	2508.417660
795.722364	2509.118380
796.044226	2506.426404
796.366042	2508.253822
796.687812	2504.281393
797.009538	2509.461179
797.331218	2512.972343
797.652852	2513.201715
797.974442	2509.612413
798.295986	2510.955881
798.617484	2510.585356
798.938938	2510.262722
799.260346	2510.159379
799.581709	2510.091323
799.903026	2511.414626
800.224299	2510.718947
800.545526	2512.533762
800.866708	2511.807836
801.187845	2510.736591
801.508936	2511.976715
801.829983	2512.735408
802.150984	2509.728360
802.471940	2509.998062
802.792851	2508.863802
803.113717	2509.960253
803.434538	2510.603000
803.755314	2509.090654
804.076045	2509.748525
804.396731	2511.376817
804.717372	2509.015037
805.037967	2512.304390
805.358518	2509.158710
805.679024	2508.337002
805.999485	2508.720129
806.319901	2512.082579
806.640272	2509.713237
806.960598	2512.306910
807.280879	2510.192146
807.601115	2511.283556
807.921306	2510.787002
808.241453	2510.456807
808.561554	2507.195180
808.881611	2510.676097
809.201623	2510.328257
809.521590	2507.154851
809.841513	2510.998731
810.161390	2509.526714
810.481223	2512.067455
810.801011	2509.627537
811.120755	2510.197187
811.440453	2511.480161
811.760107	2510.746673
812.079716	2509.370438
812.399281	2507.918586
812.718801	2505.607217
813.038276	2507.333812
813.357707	2507.893380
813.677093	2509.516632
813.996434	2512.644668
814.315731	2512.168278
814.634983	2509.866992
814.954191	2509.882115
815.273354	2511.051663
815.592473	2509.743483
815.911547	2511.563340
816.230577	2511.686848
816.549562	2510.484533
816.868502	2509.506549
817.187399	2510.429080
817.506250	2509.856909
817.825058	2510.529903
818.143821	2509.118380
818.462539	2509.866992
818.781213	2507.520335
819.099843	2511.094513
819.418429	2506.610406
819.736970	2510.240037
820.055466	2510.045953
820.373919	2509.289780
820.692327	2509.584687
821.010691	2510.401354
821.329011	2513.781448
821.647286	2515.296314
821.965517	2510.928155
822.283704	2512.891684
822.601847	2509.756086
822.919945	2511.263391
823.237999	2509.788854
823.556010	2512.415295
823.873976	2510.797085
824.191897	2510.708864
824.509775	2508.470592
824.827609	2511.704492
825.145398	2508.578977
825.463144	2511.724657
825.780845	2509.284738
826.098502	2511.356653
826.416116	2510.721467
826.733685	2511.787671
827.051210	2508.750376
827.368692	2511.041581
827.686129	2512.929493
828.003522	2509.171313
828.320872	2507.706857
828.638177	2507.555623
828.955439	2509.584687
829.272656	2507.285921
829.589830	2507.036384
829.906960	2510.275325
830.224046	2509.458658
830.541088	2512.069976
830.858086	2509.302383
831.175041	2510.875223
831.491952	2509.151148
831.808819	2508.604183
832.125642	2509.050325
832.442421	2508.273987
832.759157	2510.771879
833.075849	2507.273318
833.392497	2510.787002
833.709101	2511.041581
834.025662	2511.850686
834.342179	2507.164933
834.658653	2508.037053
834.975083	2511.979235
835.291469	2513.486540
835.607811	2508.831035
835.924110	2509.824142
836.240366	2509.171312
836.556578	2508.110150
836.872746	2510.378669
837.188871	2509.193998
837.504952	2509.554440
837.820990	2510.792043
838.136984	2506.895232
838.452935	2508.145438
838.768842	2511.147445
839.084706	2509.491426
839.400526	2509.244409
839.716303	2511.457476
840.032037	2509.327588
840.347727	2509.110819
840.663373	2507.830366
840.978977	2510.489574
841.294537	2507.331291
841.610054	2508.689882
841.925527	2507.976559
842.240957	2510.585356
842.556344	2510.144255
842.871687	2510.063597
843.186987	2506.481857
843.502244	2511.316323
843.817458	2511.245747
844.132629	2508.500839
844.447756	2510.245078
844.762840	2504.369613
845.077881	2508.160561
845.392879	2507.724501
845.707833	2507.351456
846.022745	2505.897083
846.337613	2510.832373
846.652438	2508.117711
846.967221	2509.257012
847.281960	2507.608555
847.596656	2510.461848
847.911309	2511.999400
848.225919	2509.894718
848.540485	2508.359687
848.855009	2509.433452
849.169490	2506.887670
849.483928	2510.164420
849.798323	2509.814060
850.112675	2508.609224
850.426984	2508.596621
850.741251	2507.301044
851.055474	2509.987979
851.369654	2510.502177
851.683792	2509.385562
851.997887	2507.976559
852.311938	2506.708709
852.625947	2510.865140
852.939914	2505.433297
853.253837	2512.483351
853.567718	2512.158196
853.881555	2510.350942
854.195350	2508.319358
854.509103	2509.249450
854.822812	2509.229286
855.136479	2509.045284
855.450103	2510.343381
855.763685	2511.155007
856.077224	2508.505880
856.390720	2508.745335
856.704173	2509.569564
857.017584	2509.065448
857.330953	2507.656446
857.644278	2510.255161
857.957561	2512.019564
858.270802	2509.370438
858.584000	2509.433452
858.897155	2509.889677
859.210268	2511.782630
859.523339	2508.788185
859.836367	2510.169461
860.149352	2510.164420
860.462295	2509.191477
860.775195	2504.467916
861.088054	2505.423215
861.400869	2504.712412
861.713642	2504.029336
862.026373	2507.217865
862.339062	2507.817763
862.651708	2509.612413
862.964312	2508.120232
863.276873	2510.847496
863.589392	2507.583349
863.901869	2509.320027
864.214303	2508.180726
864.526696	2508.447907
864.839045	2510.434122
865.151353	2507.716940
865.463619	2507.041425
865.775842	2507.084275
866.088023	2508.994872
866.400162	2508.216014
866.712258	2507.865654
867.024313	2508.846158
867.336325	2508.150479
867.648296	2510.575274
867.960224	2508.284069
868.272110	2508.667197
868.583954	2507.449758
868.895755	2506.779285
869.207515	2507.968997
869.519233	2511.313803
869.830909	2506.955725
870.142542	2510.862620
870.454134	2508.823473
870.765684	2509.486385
871.077191	2506.098729
871.388657	2511.157527
871.700081	2506.930520
872.011463	2509.042763
872.322803	2509.476302
872.634101	2509.685510
872.945357	2509.811539
873.256571	2512.012003
873.567744	2506.970849
873.878874	2508.919255
874.189963	2510.156858
874.501010	2509.297341
874.812015	2508.667197
875.122979	2506.827176
875.433900	2508.523524
875.744780	2509.493946
876.055618	2510.507218
876.366415	2506.761641
876.677169	2508.074862
876.987882	2506.053359
877.298554	2503.628564
877.609183	2506.007988
877.919771	2500.518172
878.230317	2506.572598
878.540822	2508.316837
878.851285	2508.397495
879.161707	2506.585201
879.472087	2508.364728
879.782425	2507.754748
880.092722	2508.740294
880.402977	2510.592918
880.713191	2509.904800
881.023363	2509.224245
881.333494	2511.641478
881.643583	2509.718278
881.953631	2510.739111
882.263637	2509.922444
882.573602	2510.852537
882.883526	2509.123422
883.193408	2510.698782
883.503248	2509.267094
883.813048	2510.093844
884.122806	2508.092506
884.432522	2509.970335
884.742197	2508.427742
885.051831	2509.965294
885.361424	2507.112001
885.670975	2507.212824
885.980485	2508.521004
886.289954	2508.793226
886.599382	2505.929851
886.908768	2506.081085
887.218113	2506.733915
887.527417	2509.609893
887.836680	2507.106960
888.145901	2506.522186
888.455082	2506.814573
888.764221	2510.134173
889.073319	2508.352125
889.382376	2506.436487
889.691392	2506.691065
890.000366	2507.343894
890.309300	2504.568739
890.618193	2509.438494
890.927044	2509.320027
891.235855	2507.260715
891.544625	2508.858761
891.853353	2509.267094
892.162041	2505.841630
892.470687	2508.831035
892.779293	2507.764831
893.087858	2503.777278
893.396381	2502.637977
893.704864	2504.193173
894.013306	2501.675117
894.321707	2506.053359
894.630068	2509.473782
894.938387	2509.214162
895.246665	2508.702485
895.554903	2507.351456
895.863100	2505.468585
896.171256	2508.684841
896.479371	2508.059738
896.787446	2507.732063
897.095480	2506.842299
897.403473	2509.577125
897.711425	2506.446569
898.019336	2508.503360
898.327207	2503.169819
898.635038	2507.739625
898.942827	2506.433966
899.250576	2507.416991
899.558284	2508.457989
899.865952	2505.839110
900.173579	2507.905983
900.481165	2508.405057
900.788711	2508.997393
901.096216	2505.032525
901.403681	2507.159892
901.711105	2506.686024
902.018489	2505.163595
902.325832	2510.192146
902.633135	2506.703668
902.940397	2509.352794
903.247619	2505.365241
903.554800	2507.848010
903.861941	2508.263905
904.169041	2510.237517
904.476101	2506.517145
904.783121	2506.812052
905.090100	2506.612927
905.397039	2507.462361
905.703938	2508.183246
906.010796	2510.512259
906.317614	2507.860612
906.624391	2509.088133
906.931129	2509.627537
907.237826	2508.127794
907.544483	2506.590242
907.851099	2510.091323
908.157675	2503.421877
908.464211	2507.805160
908.770707	2503.593276
909.077163	2507.386744
909.383578	2503.510097
909.689954	2504.757782
909.996289	2502.653101
910.302584	2507.227948
910.608839	2507.404388
910.915054	2508.077382
911.221229	2506.118894
911.527363	2507.822804
911.833458	2507.046466
912.139513	2509.972856
912.445527	2507.439676
912.751502	2509.307424
913.057436	2505.176198
913.363331	2506.877588
913.669186	2509.025119
913.975000	2506.648215
914.280775	2506.388596
914.586510	2508.851199
914.892205	2506.277690
915.197859	2507.802639
915.503475	2507.253153
915.809050	2506.827176
916.114585	2507.984121
916.420081	2509.380520
916.725536	2508.982269
917.030952	2508.112670
917.336328	2505.181239
917.641665	2507.096878
917.946961	2510.267763
918.252218	2503.976403
918.557435	2505.783657
918.862612	2507.306086
919.167750	2507.036384
919.472848	2506.141579
919.777906	2506.191991
920.082925	2509.045284
920.387904	2504.757782
920.692843	2507.409429
920.997743	2507.686693
921.302603	2508.641991
921.607423	2507.568226
921.912204	2508.369769
922.216946	2506.461692
922.521647	2507.021260
922.826310	2506.738956
923.130932	2511.149965
923.435516	2506.741476
923.740059	2508.480674
924.044564	2506.617968
924.349028	2509.183915
924.653454	2503.106804
924.957840	2505.014881
925.262186	2499.275528
925.566493	2504.528410
925.870761	2502.862308
926.174989	2508.140397
926.479178	2506.733915
926.783328	2508.762979
927.087438	2505.491270
927.391509	2507.260715
927.695541	2504.518327
927.999533	2508.979749
928.303486	2506.287773
928.607400	2505.461023
928.911275	2507.729543
929.215110	2508.959584
929.518906	2505.829027
929.822663	2506.441528
930.126381	2508.586539
930.430060	2505.375324
930.733699	2508.916734
931.037299	2505.219048
931.340861	2506.920437
931.644383	2505.009840
931.947866	2505.748369
932.251309	2506.996055
932.554714	2507.056548
932.858080	2507.200221
933.161407	2505.037566
933.464694	2506.852382
933.767943	2505.057731
934.071153	2507.074193
934.374323	2505.755931
934.677455	2504.959428
934.980548	2506.073523
935.283602	2504.072185
935.586617	2505.014881
935.889593	2506.118894
936.192530	2505.070334
936.495428	2504.563698
936.798287	2506.063441
937.101108	2504.142762
937.403890	2504.984634
937.706632	2507.671569
938.009336	2508.944461
938.312002	2505.952536
938.614628	2508.442866
938.917216	2508.442866
939.219765	2504.999758
939.522275	2504.495642
939.824747	2507.931189
940.127179	2505.587052
940.429573	2502.534633
940.731929	2502.731238
941.034246	2500.349293
941.336524	2502.764006
941.638763	2505.042607
941.940964	2506.925478
942.243126	2506.844820
942.545250	2509.995541
942.847335	2507.006137
943.149381	2507.321209
943.451389	2506.007988
943.753359	2507.963956
944.055290	2505.869357
944.357182	2507.737104
944.659036	2506.030674
944.960851	2506.698627
945.262628	2505.871877
945.564367	2505.929851
945.866067	2505.589573
946.167729	2506.007988
946.469352	2505.355159
946.770937	2509.322547
947.072484	2506.340705
947.373992	2505.385406
947.675462	2506.007988
947.976893	2504.563698
948.278286	2505.844151
948.579641	2503.530261
948.880958	2506.665859
949.182236	2507.230468
949.483476	2507.827845
949.784678	2506.892711
950.085841	2504.546054
950.386967	2507.515293
950.688054	2506.486898
950.989103	2505.468585
951.290114	2507.386744
951.591087	2507.971518
951.892021	2505.513955
952.192917	2505.912207
952.493776	2505.892042
952.794596	2503.961280
953.095378	2509.199039
953.396122	2505.592093
953.696828	2506.436487
953.997496	2504.878770
954.298126	2506.217196
954.598718	2509.146107
954.899272	2504.515807
955.199788	2506.963287
955.500266	2508.594100
955.800706	2504.435148
956.101108	2500.757627
956.401472	2503.482370
956.701798	2503.162257
957.002087	2502.847185
957.302337	2504.820797
957.602550	2506.325581
957.902724	2504.684686
958.202861	2506.428925
958.502960	2505.473626
958.803022	2504.372134
959.103045	2502.360714
959.403031	2507.535458
959.702979	2506.920437
960.002889	2506.771723
960.302762	2507.026302
960.602596	2505.645025
960.902393	2508.306755
961.202153	2503.908348
961.501875	2503.568070
961.801559	2504.062103
962.101205	2507.664008
962.400814	2504.722494
962.700385	2504.460354
962.999918	2505.115704
963.299414	2505.476147
963.598873	2505.496311
963.898293	2508.067300
964.197677	2506.403719
964.497022	2506.398678
964.796331	2504.399860
965.095601	2504.198214
965.394835	2507.026302
965.694030	2504.399860
965.993189	2505.760972
966.292309	2505.733246
966.591393	2505.750890
966.890439	2502.509428
967.189447	2508.064779
967.488419	2505.193842
967.787353	2506.020591
968.086249	2506.007988
968.385108	2508.034532
968.683930	2507.817763
968.982714	2506.527227
969.281462	2503.925992
969.580172	2505.506394
969.878844	2504.689727
970.177480	2506.202073
970.476078	2506.126456
970.774639	2507.192660
971.073162	2506.118894
971.371649	2502.844664
971.670098	2502.330467
971.968510	2502.542195
972.266885	2502.136382
972.565223	2505.060252
972.863524	2508.687362
973.161788	2506.053359
973.460014	2505.856754
973.758204	2506.076044
974.056356	2504.029336
974.354471	2502.305261
974.652550	2503.784840
974.950591	2502.451454
975.248595	2507.452279
975.546563	2504.959428
975.844493	2506.542351
976.142386	2507.371621
976.440243	2503.580673
976.738062	2506.686024
977.035845	2506.436487
977.333590	2506.459172
977.631299	2503.842813
977.928971	2505.256857
978.226606	2504.276352
978.524204	2507.734584
978.821765	2503.308451
979.119290	2506.065962
979.416777	2504.757782
979.714228	2504.248626
980.011642	2502.857267
980.309020	2509.884636
980.606360	2504.472957
980.903664	2505.788698
981.200931	2504.236023
981.498162	2506.139058
981.795356	2504.742659
982.092513	2504.843482
982.389633	2504.770385
982.686717	2505.851713
982.983764	2504.367093
983.280775	2506.544871
983.577749	2505.143431
983.874686	2505.720643
984.171587	2504.772906
984.468451	2506.870026
984.765279	2504.067144
985.062070	2505.241733
985.358824	2504.351969
985.655543	2504.954387
985.952224	2503.666372
986.248869	2505.642505
986.545478	2501.322236
986.842050	2502.937926
987.138586	2501.145796
987.435086	2501.861639
987.731549	2503.212669
988.027975	2505.420694
988.324366	2504.009171
988.620719	2506.872546
988.917037	2504.714933
989.213318	2506.305417
989.509563	2504.533451
989.805772	2505.448420
990.101944	2505.657628
990.398080	2505.536641
990.694180	2505.138389
990.990244	2505.899604
991.286271	2503.946157
991.582262	2507.021260
991.878217	2505.234171
992.174136	2503.472288
992.470019	2504.069665
992.765865	2504.692247
993.061676	2505.486229
993.357450	2505.047649
993.653188	2502.948008
993.948890	2504.364572
994.244556	2502.627895
994.540186	2504.178050
994.835780	2506.663338
995.131337	2505.110663
995.426859	2503.981445
995.722345	2502.456496
996.017795	2503.830210
996.313208	2505.657628
996.608586	2507.084275
996.903928	2503.265601
997.199234	2507.154851
997.494504	2504.435148
997.789738	2503.706702
998.084936	2507.205263
998.380099	2506.935561
998.675225	2506.789367
998.970316	2505.435818
999.265371	2506.575118
999.560390	2503.807525
999.855373	2504.238543
1000.150320	2504.601507
1000.445232	2506.665859
1000.740108	2503.689058
1001.034948	2506.789367
1001.329752	2505.564367
1001.624521	2504.563698
1001.919254	2498.395846
1002.213951	2503.132010
1002.508613	2501.425580
1002.803239	2501.695281
1003.097829	2500.235867
1003.392384	2504.914058
1003.686903	2504.898935
1003.981386	2504.362052
1004.275834	2504.306599
1004.570246	2506.481857
1004.864623	2506.804491
1005.158964	2503.389109
1005.453270	2503.865498
1005.747540	2505.486229
1006.041775	2505.995386
1006.335974	2506.161744
1006.630138	2502.632936
1006.924266	2505.982783
1007.218359	2503.855416
1007.512416	2503.638646
1007.806438	2504.382216
1008.100425	2503.479850
1008.394376	2504.939264
1008.688292	2504.573780
1008.982172	2503.696619
1009.276017	2506.000427
1009.569827	2503.747031
1009.863602	2505.019922
1010.157341	2503.721825
1010.451045	2504.614109
1010.744714	2506.287773
1011.038347	2503.416835
1011.331945	2504.472957
1011.625508	2505.518997
1011.919036	2502.968173
1012.212528	2503.525220
1012.505986	2502.171670
1012.799408	2503.968842
1013.092795	2501.425580
1013.386147	2502.849706
1013.679464	2504.084788
1013.972745	2504.800632
1014.265992	2505.017402
1014.559204	2505.163595
1014.852380	2504.485560
1015.145521	2505.518997
1015.438628	2505.287103
1015.731699	2504.684686
1016.024736	2503.668893
1016.317737	2505.284583
1016.610703	2502.766527
1016.903635	2500.024139
1017.196531	2499.149499
1017.489393	2502.890035
1017.782219	2500.790394
1018.075011	2502.854747
1018.367768	2505.251815
1018.660490	2502.827020
1018.953177	2502.827020
1019.245829	2502.827020
