Dividing Wavelength (nm)	Counts (n)	Blue Motor Position (mm): 0.000000	Red Motor Position (mm): 31.600000	
326.493990	2128.150823
326.888308	2128.150823
327.282561	2128.150823
327.676750	2094.072623
328.070874	2094.624629
328.464933	2097.064547
328.858929	2105.059817
329.252859	2113.813781
329.646726	2124.344751
330.040528	2138.891001
330.434265	2155.083187
330.827938	2171.892914
331.221547	2188.122909
331.615091	2209.194932
332.008571	2228.038765
332.401986	2246.809502
332.795338	2265.590320
333.188625	2286.710234
333.581847	2305.493574
333.975006	2323.102324
334.368100	2343.120746
334.761129	2359.559949
335.154095	2376.495705
335.546996	2394.104455
335.939833	2411.446025
336.332606	2427.587799
336.725315	2439.936106
337.117960	2451.558486
337.510540	2457.544856
337.903056	2470.157823
338.295508	2476.539924
338.687896	2486.458394
339.080220	2493.760505
339.472480	2501.349962
339.864676	2502.363234
340.256807	2511.023937
340.648875	2512.916890
341.040879	2514.837569
341.432818	2515.006448
341.824694	2517.529546
342.216506	2516.937210
342.608253	2519.183044
342.999937	2515.676922
343.391557	2518.943589
343.783113	2515.901253
344.174605	2517.650533
344.566033	2515.739936
344.957397	2512.843793
345.348697	2512.614421
345.739934	2509.430932
346.131106	2505.556805
346.522215	2506.688544
346.913260	2502.718636
347.304241	2504.916579
347.695159	2500.140085
348.086012	2498.781494
348.476802	2498.804180
348.867528	2493.735299
349.258191	2495.030876
349.648789	2492.303612
350.039324	2492.921153
350.429796	2493.667244
350.820203	2488.311018
351.210548	2486.607108
351.600828	2486.102993
351.991045	2489.457880
352.381198	2487.638024
352.771288	2484.772128
353.161314	2486.687766
353.551276	2483.950420
353.941175	2488.681543
354.331010	2489.344454
354.720782	2485.099803
355.110490	2489.147849
355.500135	2488.079125
355.889717	2487.073415
356.279235	2486.085348
356.668689	2489.195740
357.058080	2487.751450
357.447408	2484.570482
357.836672	2484.653661
358.225873	2487.963178
358.615010	2486.118116
359.004084	2490.680360
359.393095	2489.382263
359.782043	2492.883344
360.170927	2490.755977
360.559748	2494.793942
360.948505	2490.836636
361.337199	2498.138747
361.725830	2494.914929
362.114398	2494.859477
362.502903	2493.765546
362.891344	2497.911895
363.279722	2495.209837
363.668037	2498.710918
364.056289	2498.365599
364.444478	2498.776453
364.832603	2500.450116
365.220665	2499.774602
365.608665	2500.167812
365.996601	2502.088491
366.384474	2502.736280
366.772284	2504.132679
367.160031	2506.093688
367.547715	2507.462361
367.935336	2507.674090
368.322893	2513.060563
368.710388	2517.280008
369.097820	2523.205885
369.485189	2524.579599
369.872495	2532.108563
370.259738	2536.164171
370.646918	2544.431663
371.034035	2551.607746
371.421090	2566.337997
371.808081	2574.000551
372.195010	2581.015317
372.581875	2596.416042
372.968678	2606.384923
373.355418	2617.987139
373.742096	2638.996148
374.128710	2649.912766
374.515262	2668.141578
374.901751	2682.854186
375.288177	2693.294416
375.674540	2718.984136
376.060841	2735.992989
376.447079	2754.932604
376.833254	2776.460851
377.219367	2787.311935
377.605417	2826.514468
377.991404	2834.212310
378.377329	2855.347347
378.763191	2873.137579
379.148991	2911.457910
379.534727	2934.959769
379.920402	2967.487814
380.306013	2979.016933
380.691563	3028.642052
381.077049	3049.865309
381.462474	3067.945408
381.847835	3105.784308
382.233134	3126.989922
382.618371	3124.333234
383.003545	3198.546580
383.388657	3206.642673
383.773706	3237.764237
384.158693	3253.180085
384.543618	3276.876029
384.928480	3312.385917
385.313280	3357.355529
385.698017	3358.961137
386.082692	3412.515835
386.467305	3414.953233
386.851856	3451.163841
387.236344	3470.272334
387.620770	3504.484125
388.005133	3529.359699
388.389435	3557.804409
388.773674	3568.428641
389.157851	3610.497070
389.541965	3625.209677
389.926018	3590.997887
390.310008	3661.170748
390.693936	3676.720187
391.077802	3722.597208
391.461606	3707.687995
391.845348	3772.262656
392.229027	3772.623098
392.612645	3786.408133
392.996200	3865.823950
393.379694	3904.603026
393.763125	3969.641473
394.146494	3934.151750
394.529801	3995.963857
394.913047	4043.063358
395.296230	4011.210827
395.679351	4066.250145
396.062410	4087.952312
396.445408	4069.852049
396.828343	4105.508131
397.211217	4127.311121
397.594028	4046.629974
397.976778	4116.495325
398.359466	4142.159840
398.742092	4168.020959
399.124656	4088.385852
399.507158	4172.094211
399.889598	4197.141184
400.271977	4259.167541
400.654294	4229.031523
401.036549	4242.093153
401.418742	4206.794994
401.800874	4306.665293
402.182944	4333.317873
402.564952	4394.948499
402.946898	4383.706726
403.328783	4376.581055
403.710606	4295.148777
404.092367	4487.914938
404.474067	4451.033856
404.855705	4458.635916
405.237282	4388.664701
405.618797	4496.137060
406.000250	4528.329868
406.381642	4609.300881
406.762972	4571.562804
407.144240	4579.651335
407.525447	4583.674176
407.906593	4644.420080
408.287677	4685.089588
408.668700	4614.987303
409.049661	4664.441022
409.430560	4706.345613
409.811399	4633.581599
410.192176	4795.392555
410.572891	4731.233790
410.953545	4834.292619
411.334138	4716.430442
411.714669	4781.973003
412.095139	4675.493752
412.475547	4819.532120
412.855894	4800.463956
413.236180	4810.765554
413.616405	4761.032050
413.996568	4850.366338
414.376670	4789.564981
414.756711	4751.075772
415.136691	4782.467037
415.516609	4860.516701
415.896466	4893.480806
416.276262	4926.969191
416.655997	4907.590996
417.035670	5096.367084
417.415283	5186.165157
417.794834	5126.246003
418.174324	5081.505762
418.553753	4989.484540
418.933121	5173.932797
419.312428	5239.067026
419.691674	5178.583262
420.070859	5304.246624
420.449983	5219.885435
420.829045	5330.228731
421.208047	5238.479731
421.586988	5312.441020
421.965867	5319.554088
422.344686	5451.534016
422.723444	5305.655627
423.102141	5128.743894
423.480777	5422.638122
423.859352	5194.714954
424.237866	5452.968224
424.616319	5447.019663
424.994712	5557.221807
425.373044	5431.555923
425.751314	5574.361730
426.129524	5378.351586
426.507673	5570.001132
426.885762	5657.565974
427.263789	5586.457978
427.641756	5467.736285
428.019662	5590.211117
428.397508	5596.804947
428.775292	5542.552049
429.153016	5643.710362
429.530679	5567.334361
429.908282	5659.612682
430.285824	5528.444380
430.663305	5797.241223
431.040726	5529.545872
431.418086	5534.070307
431.795385	5639.100227
432.172624	5653.028935
432.549802	5641.552749
432.926920	5657.134955
433.303977	5666.017468
433.680974	5709.068922
434.057910	5724.706581
434.434786	5733.087500
434.811601	5701.015679
435.188355	5928.512870
435.565050	5805.738088
435.941683	5782.490807
436.318257	6001.997769
436.694770	5984.678885
437.071222	6016.380181
437.447614	5945.131033
437.823946	5868.407192
438.200218	6017.438823
438.576429	5883.903699
438.952580	5980.804758
439.328670	6025.076172
439.704700	5934.683242
440.080670	5920.502476
440.456580	6192.235792
440.832429	6071.096865
441.208218	5920.303351
441.583947	6080.370067
441.959616	6075.734727
442.335224	6003.958778
442.710773	6140.107741
443.086261	6165.903325
443.461689	5965.814888
443.837057	6109.896106
444.212365	6272.748060
444.587612	6156.539382
444.962800	6315.073588
445.337927	6294.566174
445.712995	5905.799951
446.088002	6482.099617
446.462949	6316.404452
446.837837	6240.915694
447.212664	6413.189565
447.587431	6554.679630
447.962139	7097.737928
448.336786	8018.928135
448.711374	7767.545957
449.085901	6834.937537
449.460369	6764.807525
449.834776	6690.732811
450.209124	7084.741833
450.583412	7243.313848
450.957640	7387.125365
451.331808	7150.052502
451.705917	6703.234872
452.079965	6626.677389
452.453954	6833.982238
452.827883	6711.431788
453.201752	6804.733464
453.575562	6603.185612
453.949311	6806.109699
454.323001	6696.182298
454.696632	6773.143073
455.070202	6912.732623
455.443713	7064.665438
455.817164	7167.668814
456.190556	7244.251503
456.563888	7326.318967
456.937160	7360.669389
457.310373	7023.517020
457.683526	7047.031482
458.056619	6938.944103
458.429653	6928.274500
458.802628	6857.012750
459.175542	6969.014585
459.548398	7329.457085
459.921194	7486.728482
460.293930	7488.719738
460.666607	8016.150459
461.039224	8322.677819
461.411782	8453.770504
461.784280	8466.822051
462.156719	8358.177624
462.529099	8241.147238
462.901419	7823.522930
463.273680	7718.049388
463.645882	7730.498518
464.018024	7594.261335
464.390106	7766.570494
464.762130	8153.988208
465.134094	8619.505998
465.505999	9637.630032
465.877845	10860.800478
466.249631	11508.901299
466.621358	11126.502053
466.993026	10498.714562
467.364634	10240.776363
467.736184	9877.800684
468.107674	9544.920692
468.479105	9577.050486
468.850477	9348.091361
469.221790	9114.411195
469.593043	8785.443139
469.964238	8643.993403
470.335373	8659.623501
470.706449	8714.872026
471.077467	8694.465436
471.448425	10000.537656
471.819324	11072.002139
472.190164	11096.219842
472.560945	9847.672228
472.931667	9054.933141
473.302330	8920.271319
473.672934	8568.055982
474.043479	8920.992204
474.413965	8860.687401
474.784393	8739.054441
475.154761	8889.197647
475.525070	8975.701326
475.895321	8793.695508
476.265513	8969.420049
476.635645	9134.749730
477.005719	9126.005849
477.375734	9232.575841
477.745691	9462.250810
478.115588	9592.584802
478.485427	9825.148352
478.855207	10351.192756
479.224928	11140.944959
479.594591	11754.818866
479.964194	11558.002137
480.333739	11493.485450
480.703226	11397.920297
481.072653	11475.896864
481.442022	11695.996162
481.811333	11873.908563
482.180584	11667.334682
482.549777	11369.841070
482.918912	11183.464571
483.287988	11189.067813
483.657005	11187.439521
484.025964	10852.928716
484.394864	10969.558331
484.763706	10929.357650
485.132489	10677.393219
485.501213	10626.371701
485.869879	10680.468323
486.238487	10499.226239
486.607036	10592.411968
486.975527	10358.734322
487.343959	10519.486636
487.712333	10541.972703
488.080648	10452.865267
488.448905	10471.820006
488.817104	10383.294824
489.185244	10606.582651
489.553326	10719.315454
489.921350	11180.535661
490.289315	12080.565624
490.657222	12362.857637
491.025070	12237.801733
491.392861	12091.341091
491.760593	11731.488406
492.128267	11390.504759
492.495883	11059.926055
492.863440	10722.967770
493.230939	10374.929029
493.598380	10280.561150
493.965763	10112.547054
494.333088	9990.677159
494.700354	9870.702739
495.067563	9894.275174
495.434713	9695.000883
495.801805	9759.510009
496.168839	9647.258636
496.535815	9539.267038
496.902733	9504.961986
497.269593	9392.060305
497.636395	9434.272407
498.003139	9360.033854
498.369825	9207.622130
498.736453	9278.087378
499.103023	9170.463785
499.469535	9135.117734
499.835989	9072.292355
500.202385	8989.183892
500.568723	8810.732087
500.935003	8937.570039
501.301226	8698.334521
501.667390	8861.549439
502.033497	8867.034214
502.399546	8703.864667
502.765537	8575.287517
503.131470	8561.961227
503.497345	8621.232594
503.863163	8287.692211
504.228923	8439.708205
504.594625	8423.543746
504.960269	8180.179523
505.325856	8265.939632
505.691385	8051.370481
506.056856	8092.987726
506.422270	8035.112759
506.787625	7904.887153
507.152924	7905.126607
507.518164	7836.667738
507.883347	7704.939868
508.248472	7587.909481
508.613540	7663.604927
508.978550	7513.892740
509.343503	7435.318795
509.708398	7429.221520
510.073236	7422.504182
510.438016	7350.728234
510.802738	7248.791062
511.167403	7209.538117
511.532010	7076.572644
511.896561	7142.515977
512.261053	7103.137004
512.625488	6956.116793
512.989866	6871.909359
513.354186	6792.364993
513.718449	6666.623492
514.082655	6704.507763
514.446803	6578.526808
514.810894	6559.778757
515.174927	6426.470485
515.538904	6366.765579
515.902822	6354.505493
516.266684	6246.047589
516.630488	6136.157997
516.994235	6109.780159
517.357925	6053.946860
517.721558	6023.049628
518.085133	5956.266942
518.448651	5899.294342
518.812112	5789.727384
519.175516	5715.592175
519.538863	5694.893197
519.902152	5605.080001
520.265385	5582.903965
520.628560	5503.339434
520.991678	5415.018418
521.354739	5380.065578
521.717743	5295.001148
522.080690	5230.756683
522.443580	5202.342220
522.806413	5123.574191
523.169189	5075.612653
523.531908	5031.250499
523.894569	4927.155714
524.257174	4860.453687
524.619722	4829.117874
524.982213	4773.355151
525.344647	4713.289803
525.707025	4655.964322
526.069345	4623.196822
526.431608	4545.396695
526.793815	4518.237478
527.155964	4419.559412
527.518057	4383.936099
527.880093	4320.979649
528.242072	4289.744660
528.603995	4218.109863
528.965860	4159.894619
529.327669	4119.013382
529.689421	4070.502358
530.051117	4022.051829
530.412755	3986.436077
530.774337	3935.399435
531.135862	3883.576374
531.497331	3850.055221
531.858743	3783.209521
532.220098	3778.367493
532.581396	3718.806260
532.942638	3683.601362
533.303824	3643.990496
533.664953	3609.808952
534.026025	3564.451171
534.387040	3545.224210
534.747999	3515.234386
535.108902	3487.651712
535.469748	3433.275306
535.830537	3414.532296
536.191270	3380.038201
536.551947	3357.214377
536.912567	3327.519460
537.273131	3299.115079
537.633638	3268.782456
537.994089	3242.094588
538.354483	3214.673232
538.714821	3205.125286
539.075103	3177.409022
539.435328	3155.996721
539.795497	3124.983543
540.155609	3113.209928
540.515665	3098.850201
540.875665	3062.566497
541.235609	3047.942109
541.595496	3032.276724
541.955328	3022.209539
542.315102	3000.293123
542.674821	2984.083293
543.034483	2964.150571
543.394090	2951.020885
543.753640	2931.143616
544.113134	2927.826537
544.472571	2909.360790
544.831953	2902.139337
545.191278	2882.342726
545.550548	2866.248842
545.909761	2861.416896
546.268918	2850.119671
546.628019	2842.961232
546.987064	2829.168635
547.346053	2816.485092
547.704986	2808.762044
548.063863	2801.782567
548.422684	2791.987605
548.781449	2780.224072
549.140158	2774.620830
549.498811	2769.030190
549.857408	2753.495875
550.215949	2749.843559
550.574434	2740.235120
550.932864	2738.344687
551.291237	2731.650035
551.649555	2728.043089
552.007817	2724.418499
552.366022	2716.657643
552.724173	2709.652960
553.082267	2708.881663
553.440305	2704.952084
553.798288	2700.606609
554.156215	2697.032431
554.514086	2693.838860
554.871902	2687.217305
555.229661	2684.570699
555.587365	2683.401151
555.945014	2679.456448
556.302606	2677.127435
556.660143	2672.552588
557.017625	2672.154337
557.375050	2670.465550
557.732421	2668.837258
558.089735	2665.288285
558.446994	2664.189314
558.804197	2659.886689
559.161345	2660.242090
559.518437	2656.519198
559.875474	2655.112716
560.232455	2654.671615
560.589381	2652.851759
560.946251	2652.640030
561.303065	2650.779845
561.659825	2650.837818
562.016528	2646.436891
562.373177	2645.751294
562.729770	2645.501757
563.086307	2641.670480
563.442789	2641.980511
563.799216	2639.555716
564.155587	2639.475057
564.511904	2638.988586
564.868164	2638.013122
565.224370	2638.613020
565.580520	2634.517082
565.936615	2636.866260
566.292654	2630.852163
566.648638	2634.166722
567.004567	2634.451547
567.360441	2631.172277
567.716260	2629.213788
568.072023	2630.479118
568.427732	2624.926287
568.783385	2627.537605
569.138982	2625.775722
569.494525	2623.892851
569.850013	2619.638117
570.205445	2625.707666
570.560823	2624.875876
570.916145	2624.482666
571.271412	2622.191461
571.626625	2621.644496
571.981782	2622.698097
572.336884	2620.863117
572.691931	2619.968312
573.046923	2615.708537
573.401860	2616.767180
573.756743	2616.815071
574.111570	2617.888836
574.466342	2618.982767
574.821059	2618.617283
575.175722	2617.112499
575.530330	2613.175357
575.884882	2618.642489
576.239380	2611.030347
576.593823	2616.764659
576.948211	2612.976232
577.302544	2615.839607
577.656823	2613.490430
578.011047	2614.954885
578.365216	2611.126128
578.719330	2610.959770
579.073389	2610.518669
579.427394	2611.872219
579.781344	2607.148658
580.135239	2613.261057
580.489080	2608.930706
580.842866	2609.213011
581.196597	2609.676797
581.550273	2607.433483
581.903895	2609.822990
582.257463	2610.710233
582.610975	2607.161261
582.964434	2609.971704
583.317837	2608.222424
583.671186	2607.975407
584.024481	2607.136055
584.377721	2608.590428
584.730906	2605.026332
585.084037	2605.525407
585.437113	2604.464244
585.790135	2604.907865
586.143103	2605.091867
586.496016	2606.412650
586.848874	2600.373347
587.201679	2603.564398
587.554428	2595.155753
587.907124	2602.435179
588.259765	2601.389140
588.612352	2602.714963
588.964884	2602.717484
589.317362	2603.403081
589.669786	2601.542895
590.022155	2600.121290
590.374470	2602.551126
590.726731	2602.977103
591.078937	2601.253029
591.431090	2600.733790
591.783188	2598.918974
592.135232	2600.423759
592.487222	2600.872422
592.839157	2600.370827
593.191038	2602.241095
593.542866	2598.500559
593.894639	2599.102977
594.246358	2597.552822
594.598022	2599.211361
594.949633	2597.267997
595.301190	2599.092894
595.652692	2599.284458
596.004141	2600.930395
596.355535	2599.382761
596.706876	2595.750609
597.058162	2598.112390
597.409395	2596.761361
597.760573	2598.533326
598.111698	2593.698860
598.462768	2594.795311
598.813785	2595.712801
599.164748	2595.027204
599.515657	2597.983840
599.866511	2595.556525
600.217312	2594.765064
600.568060	2593.250197
600.918753	2597.472163
601.269392	2595.022162
601.619978	2594.487800
601.970510	2597.096597
602.320988	2594.026535
602.671412	2593.285485
603.021783	2594.114755
603.372100	2596.252204
603.722363	2594.502924
604.072572	2597.295723
604.422728	2594.344127
604.772830	2591.818509
605.122878	2588.612335
605.472872	2592.665423
605.822813	2591.185844
606.172701	2593.003180
606.522534	2592.723396
606.872314	2594.124837
607.222041	2593.550146
607.571714	2594.772625
607.921333	2595.427975
608.270899	2592.927563
608.620411	2594.757502
608.969870	2594.485280
609.319276	2597.174735
609.668627	2599.286979
610.017926	2600.330497
610.367171	2601.973914
610.716362	2603.546754
611.065500	2600.779160
611.414585	2597.078953
611.763616	2597.802359
612.112594	2596.252204
612.461518	2592.688108
612.810389	2597.865373
613.159207	2596.264807
613.507971	2596.458891
613.856682	2595.942173
614.205340	2595.959817
614.553945	2593.577872
614.902496	2593.625763
615.250994	2596.433686
615.599439	2596.615167
615.947830	2593.963520
616.296169	2595.599375
616.644454	2591.904209
616.992686	2592.753643
617.340864	2596.040476
617.688990	2598.107349
618.037063	2595.952255
618.385082	2595.644745
618.733048	2597.131885
619.080961	2595.019642
619.428821	2595.642224
619.776628	2594.369333
620.124382	2597.807400
620.472083	2594.760022
620.819731	2596.766402
621.167326	2592.151225
621.514868	2595.622060
621.862357	2593.933273
622.209793	2592.985536
622.557176	2592.788931
622.904506	2589.494537
623.251783	2586.779876
623.599007	2589.418920
623.946179	2585.081007
624.293297	2588.695514
624.640363	2590.220463
624.987376	2590.969075
625.334336	2590.021338
625.681243	2591.447984
626.028097	2586.432036
626.374899	2590.389342
626.721647	2587.992273
627.068343	2588.932449
627.414987	2587.301635
627.761577	2588.914805
628.108115	2587.578899
628.454600	2583.896336
628.801032	2585.890112
629.147412	2587.478076
629.493739	2585.759042
629.840014	2588.191399
630.186236	2586.792479
630.532405	2584.072776
630.878521	2586.001018
631.224585	2587.026892
631.570597	2586.240472
631.916556	2587.503282
632.262462	2585.748960
632.608316	2585.380956
632.954117	2583.949268
633.299866	2582.772159
633.645562	2583.782910
633.991206	2583.480441
634.336797	2583.735019
634.682336	2582.830132
635.027823	2581.406006
635.373257	2581.680749
635.718639	2579.656726
636.063968	2581.683269
636.409245	2580.259143
636.754470	2580.591860
637.099642	2578.199832
637.444762	2580.357446
637.789829	2579.306365
638.134845	2580.488516
638.479808	2577.998186
638.824719	2576.747980
639.169577	2578.696386
639.514383	2576.332085
639.859137	2578.270408
640.203839	2577.226889
640.548489	2579.230748
640.893086	2577.983063
641.237632	2574.628175
641.582125	2573.589697
641.926566	2572.767989
642.270955	2575.641447
642.615292	2576.294276
642.959576	2581.133784
643.303809	2576.138000
643.647990	2579.024061
643.992118	2574.885273
644.336195	2577.070614
644.680219	2573.448545
645.024192	2576.556416
645.368112	2576.790830
645.711981	2575.525500
646.055797	2576.997517
646.399562	2576.329564
646.743274	2578.013309
647.086935	2579.898701
647.430544	2579.245872
647.774101	2580.649833
648.117606	2580.112950
648.461059	2579.316448
648.804460	2580.201170
649.147810	2578.772003
649.491108	2580.039853
649.834354	2579.513053
650.177548	2576.364852
650.520690	2574.575243
650.863781	2578.330902
651.206820	2580.417940
651.549807	2576.218659
651.892742	2574.144224
652.235626	2577.239492
652.578458	2572.916703
652.921238	2574.570201
653.263967	2575.016343
653.606644	2569.700447
653.949269	2573.924934
654.291843	2572.094995
654.634365	2572.881415
654.976836	2573.476271
655.319255	2575.646488
655.661622	2574.242526
656.003938	2572.894018
656.346203	2575.026426
656.688416	2571.795046
657.030577	2573.703123
657.372687	2572.604151
657.714746	2572.155489
658.056753	2574.023236
658.398708	2565.869170
658.740612	2570.953173
659.082465	2570.544840
659.424266	2569.574418
659.766016	2566.489232
660.107715	2572.455437
660.449362	2570.436455
660.790958	2572.848647
661.132503	2575.258319
661.473996	2573.251940
661.815438	2570.849830
662.156829	2574.063565
662.498168	2573.342680
662.839456	2570.532237
663.180693	2572.440314
663.521879	2572.861250
663.863013	2571.976528
664.204097	2573.259501
664.545129	2571.611044
664.886110	2572.286559
665.227040	2572.745304
665.567918	2574.015674
665.908746	2574.860068
666.249522	2575.795202
666.590248	2573.589697
666.930922	2573.383010
667.271545	2571.212793
667.612118	2574.103895
667.952639	2572.697413
668.293109	2576.253947
668.633528	2573.312433
668.973896	2570.265056
669.314213	2571.041394
669.654480	2571.225396
669.994695	2571.966445
670.334859	2572.420149
670.674973	2573.705643
671.015035	2572.437793
671.355047	2571.827814
671.695008	2573.551888
672.034918	2571.275807
672.374777	2574.766806
672.714585	2572.258832
673.054342	2573.030129
673.394049	2571.837896
673.733705	2573.357804
674.073310	2573.148596
674.412864	2574.411405
674.752368	2573.559450
675.091820	2573.801425
675.431223	2571.532906
675.770574	2571.996692
676.109875	2565.740620
676.449125	2568.389747
676.788324	2567.862946
677.127473	2567.449572
677.466571	2566.448903
677.805619	2570.244891
678.144616	2570.232288
678.483562	2572.226065
678.822458	2569.150961
679.161303	2569.886969
679.500098	2569.725652
679.838842	2569.274469
680.177535	2568.914027
680.516179	2569.249263
680.854771	2570.388564
681.193314	2568.387226
681.531805	2571.772361
681.870247	2572.478122
682.208638	2574.214800
682.546978	2573.511559
682.885268	2576.327043
683.223508	2572.924265
683.561697	2569.440827
683.899836	2572.241188
684.237925	2572.722618
684.575963	2570.499470
684.913951	2572.006775
685.251889	2572.331929
685.589776	2570.282700
685.927614	2574.804615
686.265401	2569.743297
686.603137	2573.561971
686.940824	2573.524162
687.278460	2571.429562
687.616046	2575.596076
687.953582	2574.136662
688.291068	2575.021385
688.628504	2575.154975
688.965889	2574.978535
689.303224	2573.274625
689.640510	2570.731363
689.977745	2570.776733
690.314930	2568.677093
690.652065	2572.914182
690.989150	2569.478636
691.326185	2567.845302
691.663170	2569.249263
692.000105	2570.408729
692.336990	2565.722976
692.673825	2566.680796
693.010610	2564.883624
693.347345	2562.685681
693.684030	2562.693243
694.020665	2560.157542
694.357251	2558.315001
694.693786	2564.220712
695.030272	2562.547049
695.366707	2560.701987
695.703093	2565.697771
696.039429	2561.392625
696.375716	2562.574776
696.711952	2562.884807
697.048139	2560.374312
697.384276	2563.862791
697.720363	2564.470250
698.056400	2561.763150
698.392388	2559.310629
698.728326	2563.003274
699.064214	2561.062430
699.400053	2560.520506
699.735842	2559.928170
700.071581	2562.209292
700.407270	2561.138047
700.742910	2559.038406
701.078501	2559.726524
701.414042	2563.792214
701.749533	2560.129816
702.084974	2559.953376
702.420366	2558.123437
702.755709	2558.861966
703.091002	2558.819116
703.426246	2562.484035
703.761440	2556.845504
704.096584	2560.230639
704.431679	2557.412634
704.766725	2558.115875
705.101721	2556.936245
705.436668	2557.974723
705.771565	2558.874569
706.106413	2556.353992
706.441212	2558.037737
706.775961	2558.188972
707.110661	2557.982285
707.445311	2559.935732
707.779913	2559.421534
708.114465	2559.613098
708.448967	2562.032852
708.783421	2560.081925
709.117825	2560.959086
709.452180	2562.907492
709.786485	2560.666699
710.120742	2561.755588
710.454949	2561.662327
710.789107	2562.050496
711.123216	2556.873231
711.457275	2562.902451
711.791286	2561.208623
712.125247	2560.885989
712.459159	2559.623180
712.793023	2566.509396
713.126837	2561.558983
713.460602	2565.178532
713.794318	2565.143244
714.127985	2564.092163
714.461602	2562.201730
714.795171	2565.339849
715.128691	2561.125444
715.462162	2561.437996
715.795584	2558.269630
716.128957	2562.539488
716.462281	2560.805331
716.795556	2564.230795
717.128782	2557.614280
717.461960	2558.501523
717.795088	2558.471277
718.128167	2554.778631
718.461198	2555.428940
718.794180	2560.356668
719.127113	2557.488252
719.459997	2555.905329
719.792833	2557.692418
720.125619	2557.783159
720.458357	2554.455997
720.791046	2557.649568
721.123686	2555.985988
721.456278	2558.519167
721.788821	2554.506409
722.121315	2553.309135
722.453761	2554.264434
722.786158	2554.022458
723.118506	2553.190668
723.450805	2556.669064
723.783056	2555.197047
724.115259	2554.672767
724.447412	2553.964485
724.779518	2556.258210
725.111574	2554.516491
725.443582	2556.563200
725.775542	2555.116389
726.107453	2556.101934
726.439315	2551.093548
726.771129	2560.273489
727.102895	2554.481203
727.434612	2558.826678
727.766281	2556.875751
728.097901	2556.648899
728.429473	2553.180586
728.760996	2555.859959
729.092471	2553.563713
729.423897	2559.056050
729.755276	2555.234856
730.086606	2556.550597
730.417887	2559.900444
730.749120	2560.013870
731.080305	2560.265927
731.411442	2562.816751
731.742530	2557.526060
732.073570	2561.427913
732.404562	2560.850701
732.735506	2561.125444
733.066401	2559.335834
733.397249	2557.984805
733.728048	2559.408931
734.058798	2555.592778
734.389501	2557.258879
734.720156	2558.562017
735.050762	2553.662016
735.381320	2555.098745
735.711831	2553.682180
736.042293	2551.310318
736.372707	2553.752757
736.703073	2554.425751
737.033391	2554.161090
737.363661	2553.009186
737.693883	2555.161759
738.024056	2556.359033
738.354182	2554.584547
738.684260	2556.235525
739.014290	2554.481203
739.344272	2556.815257
739.674207	2553.566234
740.004093	2555.698642
740.333931	2556.374157
740.663722	2556.885834
740.993464	2555.993549
741.323159	2557.299208
741.652806	2555.643189
741.982405	2558.834240
742.311956	2557.427758
742.641460	2552.278219
742.970915	2554.120761
743.300323	2553.120092
743.629683	2553.082283
743.958996	2554.077911
744.288260	2551.622869
744.617477	2551.950544
744.946647	2547.184133
745.275768	2552.729402
745.604842	2547.897456
745.933869	2548.046170
746.262847	2547.665563
746.591778	2552.011038
746.920662	2548.704041
747.249498	2551.295194
747.578286	2551.562375
747.907027	2551.572457
748.235720	2551.637993
748.564365	2552.696635
748.892963	2549.586243
749.221514	2551.668239
749.550017	2554.324927
749.878473	2548.235214
750.206881	2549.669422
750.535242	2552.772252
750.863555	2547.282436
751.191821	2553.896429
751.520039	2552.260575
751.848210	2554.314845
752.176334	2548.865358
752.504411	2550.584391
752.832440	2550.445760
753.160421	2550.228990
753.488356	2548.220090
753.816243	2550.153373
754.144082	2548.835111
754.471875	2551.504402
754.799620	2548.630944
755.127318	2548.116747
755.454969	2551.106151
755.782572	2551.146480
756.110129	2549.538352
756.437638	2551.322920
756.765100	2548.832590
757.092515	2550.849052
757.419882	2551.698486
757.747203	2549.689587
758.074477	2549.830739
758.401703	2552.711758
758.728882	2548.613300
759.056014	2552.013558
759.383099	2549.442570
759.710138	2552.787376
760.037129	2549.999618
760.364073	2551.320400
760.690970	2551.615307
761.017820	2552.411810
761.344623	2551.300235
761.671379	2554.198899
761.998088	2548.338557
762.324751	2553.639331
762.651366	2555.895247
762.977935	2566.264900
763.304456	2568.886300
763.630931	2575.071796
763.957359	2570.247412
764.283740	2567.212637
764.610074	2561.064950
764.936362	2559.171997
765.262602	2556.590926
765.588796	2551.267468
765.914943	2552.933569
766.241044	2551.862324
766.567097	2549.142621
766.893104	2551.660678
767.219064	2548.900646
767.544978	2547.675646
767.870845	2547.458876
768.196665	2546.722868
768.522438	2543.877136
768.848165	2547.327806
769.173846	2549.059442
769.499479	2546.559030
769.825066	2546.617003
770.150607	2547.058104
770.476101	2545.371838
770.801548	2548.141952
771.126949	2548.908208
771.452303	2545.742363
771.777611	2545.220604
772.102872	2548.308310
772.428087	2544.557692
772.753256	2546.919473
773.078378	2542.074924
773.403453	2545.117260
773.728482	2543.148689
774.053465	2545.255892
774.378401	2541.843031
774.703291	2542.662218
775.028135	2545.134904
775.352932	2542.586601
775.677683	2545.719678
776.002388	2545.081972
776.327046	2544.766900
776.651658	2544.633309
776.976224	2544.109029
777.300743	2544.471992
777.625216	2543.320089
777.949643	2541.565767
778.274024	2545.460058
778.598359	2541.606096
778.922647	2539.181301
779.246889	2540.660880
779.571086	2538.982176
779.895236	2540.081147
780.219339	2543.657846
780.543397	2541.054090
780.867409	2541.689275
781.191374	2543.877136
781.515294	2543.672969
781.839167	2544.963505
782.162995	2541.921168
782.486776	2543.335212
782.810511	2542.750438
783.134201	2544.610624
783.457844	2540.799512
783.781441	2542.195911
784.104993	2542.475695
784.428498	2544.000644
784.751958	2542.936961
785.075372	2541.278421
785.398739	2543.867054
785.722061	2542.934440
786.045337	2541.699358
786.368568	2542.904193
786.691752	2542.735315
787.014891	2542.437887
787.337983	2543.128525
787.661030	2546.483413
787.984031	2543.715819
788.306987	2545.744884
788.629897	2547.589946
788.952760	2545.376879
789.275579	2545.999462
789.598351	2546.422919
789.921078	2543.589790
790.243759	2542.942002
790.566395	2542.924358
790.888984	2540.615510
791.211529	2542.165664
791.534027	2542.379913
791.856480	2541.144831
792.178888	2540.567619
792.501249	2540.618030
792.823566	2544.429142
793.145836	2542.140459
793.468062	2542.354708
793.790241	2540.471837
794.112375	2544.293031
794.434464	2541.419574
794.756507	2542.740356
795.078505	2541.742208
795.400457	2538.180632
795.722364	2537.260622
796.044226	2544.323278
796.366042	2541.868236
796.687812	2542.558874
797.009538	2545.397044
797.331218	2543.642722
797.652852	2544.376210
797.974442	2543.841848
798.295986	2540.897814
798.617484	2541.296065
798.938938	2541.013761
799.260346	2543.322609
799.581709	2543.360418
799.903026	2541.485109
800.224299	2541.311189
800.545526	2542.689944
800.866708	2540.146682
801.187845	2543.221786
801.508936	2540.895294
801.829983	2540.832279
802.150984	2540.207176
802.471940	2542.316899
802.792851	2542.773123
803.113717	2541.769934
803.434538	2539.786240
803.755314	2540.751621
804.076045	2542.994934
804.396731	2541.956457
804.717372	2537.810107
805.037967	2539.332536
805.358518	2539.655170
805.679024	2542.808412
805.999485	2543.776313
806.319901	2540.484440
806.640272	2539.166178
806.960598	2541.454862
807.280879	2539.703061
807.601115	2540.580222
807.921306	2541.691796
808.241453	2541.225489
808.561554	2539.975283
808.881611	2541.961498
809.201623	2541.119625
809.521590	2540.902855
809.841513	2540.081147
810.161390	2541.921168
810.481223	2540.615510
810.801011	2541.346477
811.120755	2538.266332
811.440453	2541.802701
811.760107	2539.660211
812.079716	2538.702392
812.399281	2535.839016
812.718801	2535.223996
813.038276	2534.593851
813.357707	2542.009389
813.677093	2540.502084
813.996434	2539.367824
814.315731	2540.640715
814.634983	2542.200952
814.954191	2541.971580
815.273354	2540.988555
815.592473	2538.926723
815.911547	2542.105171
816.230577	2540.847403
816.549562	2540.060983
816.868502	2540.343287
817.187399	2540.791950
817.506250	2540.121477
817.825058	2540.993596
818.143821	2544.295552
818.462539	2543.476364
818.781213	2542.866385
819.099843	2544.172044
819.418429	2546.090203
819.736970	2547.748742
820.055466	2549.901315
820.373919	2554.398024
820.692327	2558.930022
821.010691	2566.809345
821.329011	2579.283680
821.647286	2612.885491
821.965517	2648.549134
822.283704	2666.997237
822.601847	2673.497804
822.919945	2658.732265
823.237999	2637.879532
823.556010	2619.585185
823.873976	2605.376693
824.191897	2590.084352
824.509775	2580.813670
824.827609	2574.033318
825.145398	2567.721794
825.463144	2566.010322
825.780845	2571.122052
826.098502	2572.089954
826.416116	2584.667632
826.733685	2592.526791
827.051210	2597.371340
827.368692	2593.698860
827.686129	2579.502970
828.003522	2571.704305
828.320872	2559.018242
828.638177	2557.200906
828.955439	2551.310318
829.272656	2547.670604
829.589830	2546.611962
829.906960	2548.691438
830.224046	2545.202960
830.541088	2546.007024
830.858086	2543.650284
831.175041	2546.826211
831.491952	2543.786395
831.808819	2545.054246
832.125642	2543.483926
832.442421	2545.901159
832.759157	2549.384597
833.075849	2557.132850
833.392497	2560.331462
833.709101	2571.613565
834.025662	2568.926630
834.342179	2566.947977
834.658653	2558.584702
834.975083	2552.898281
835.291469	2557.742830
835.607811	2549.881150
835.924110	2544.156920
836.240366	2544.814791
836.556578	2542.619368
836.872746	2543.113401
837.188871	2541.263298
837.504952	2542.389996
837.820990	2539.743390
838.136984	2537.202648
838.452935	2540.083668
838.768842	2539.423277
839.084706	2538.397402
839.400526	2542.619368
839.716303	2545.913762
840.032037	2550.675132
840.347727	2550.881819
840.663373	2546.485933
840.978977	2545.245809
841.294537	2543.446118
841.610054	2542.155582
841.925527	2539.519059
842.240957	2537.495035
842.556344	2537.300951
842.871687	2535.221475
843.186987	2537.154757
843.502244	2537.537885
843.817458	2534.324150
844.132629	2535.012267
844.447756	2538.636857
844.762840	2530.712163
845.077881	2535.037473
845.392879	2533.459592
845.707833	2530.586134
846.022745	2529.938346
846.337613	2535.458409
846.652438	2537.104346
846.967221	2537.114428
847.281960	2533.603265
847.596656	2533.515044
847.911309	2536.653163
848.225919	2535.952442
848.540485	2535.539068
848.855009	2535.070240
849.169490	2535.823893
849.483928	2535.443286
849.798323	2534.982020
850.112675	2536.126362
850.426984	2536.426311
850.741251	2534.798018
851.055474	2532.383305
851.369654	2534.319108
851.683792	2536.101156
851.997887	2531.022194
852.311938	2532.595034
852.625947	2533.774664
852.939914	2533.152081
853.253837	2534.926567
853.567718	2532.116124
853.881555	2536.625436
854.195350	2535.095446
854.509103	2531.465815
854.822812	2532.834489
855.136479	2533.305837
855.450103	2531.911958
855.763685	2537.081661
856.077224	2534.230888
856.390720	2533.996475
856.704173	2531.876669
857.017584	2534.752648
857.330953	2533.547812
857.644278	2537.406815
857.957561	2537.794984
858.270802	2536.527134
858.584000	2534.104859
858.897155	2536.874973
859.210268	2533.769623
859.523339	2534.180477
859.836367	2533.207534
860.149352	2537.295910
860.462295	2535.614685
860.775195	2531.380116
861.088054	2528.816689
861.400869	2534.303985
861.713642	2529.207378
862.026373	2535.317257
862.339062	2534.392205
862.651708	2534.835827
862.964312	2534.563604
863.276873	2533.177287
863.589392	2533.701567
863.901869	2535.949922
864.214303	2534.621578
864.526696	2533.159643
864.839045	2536.640560
865.151353	2537.142155
865.463619	2536.522093
865.775842	2534.296423
866.088023	2533.941022
866.400162	2539.677855
866.712258	2536.091074
867.024313	2538.016795
867.336325	2534.921526
867.648296	2539.297248
867.960224	2537.444624
868.272110	2538.528472
868.583954	2535.705426
868.895755	2535.768440
869.207515	2537.668955
869.519233	2534.835827
869.830909	2535.339942
870.142542	2537.646270
870.454134	2536.759027
870.765684	2536.174253
871.077191	2535.244160
871.388657	2539.100643
871.700081	2537.177443
872.011463	2538.931764
872.322803	2536.890097
872.634101	2537.802546
872.945357	2536.597710
873.256571	2537.076620
873.567744	2538.135262
873.878874	2537.013605
874.189963	2538.979655
874.501010	2538.352032
874.812015	2537.679038
875.122979	2538.208359
875.433900	2538.944367
875.744780	2538.873791
876.055618	2537.416897
876.366415	2537.689120
876.677169	2537.011085
876.987882	2536.181815
877.298554	2536.317926
877.609183	2537.825231
877.919771	2534.951773
878.230317	2537.815149
878.540822	2540.907897
878.851285	2542.266488
879.161707	2542.634492
879.472087	2543.524255
879.782425	2547.658002
880.092722	2553.888868
880.402977	2564.611402
880.713191	2579.576067
881.023363	2596.836978
881.333494	2611.655450
881.643583	2615.552262
881.953631	2613.233331
882.263637	2608.955912
882.573602	2603.498863
882.883526	2595.024683
883.193408	2586.701738
883.503248	2576.107753
883.813048	2572.888977
884.122806	2565.201217
884.432522	2560.359189
884.742197	2554.584547
885.051831	2551.247303
885.361424	2550.034906
885.670975	2549.266130
885.980485	2546.674977
886.289954	2547.647919
886.599382	2542.710109
886.908768	2543.884698
887.218113	2542.899152
887.527417	2543.824204
887.836680	2540.507125
888.145901	2539.985365
888.455082	2540.330684
888.764221	2540.905376
889.073319	2541.752290
889.382376	2542.263967
889.691392	2537.046373
890.000366	2538.465458
890.309300	2538.344470
890.618193	2537.550488
890.927044	2539.360262
891.235855	2538.442772
891.544625	2539.541744
891.853353	2539.395550
892.162041	2538.467978
892.470687	2539.289686
892.779293	2541.699358
893.087858	2541.469985
893.396381	2541.379244
893.704864	2544.706406
894.013306	2543.756148
894.321707	2558.567058
894.630068	2562.574776
894.938387	2566.597617
895.246665	2562.796587
895.554903	2560.996895
895.863100	2555.272664
896.171256	2553.644372
896.479371	2552.338713
896.787446	2550.062632
897.095480	2545.074410
897.403473	2541.457382
897.711425	2541.711961
898.019336	2541.807743
898.327207	2541.694317
898.635038	2542.329502
898.942827	2540.297917
899.250576	2541.618699
899.558284	2541.895963
899.865952	2539.135931
900.173579	2539.362783
900.481165	2538.808256
900.788711	2538.162988
901.096216	2539.065355
901.403681	2537.507638
901.711105	2537.202648
902.018489	2537.434542
902.325832	2537.908410
902.633135	2537.432021
902.940397	2540.718853
903.247619	2542.710109
903.554800	2546.783361
903.861941	2554.221584
904.169041	2568.087278
904.476101	2574.383679
904.783121	2573.221693
905.090100	2566.824468
905.397039	2561.558983
905.703938	2553.750236
906.010796	2553.223435
906.317614	2549.089689
906.624391	2547.468958
906.931129	2542.261446
907.237826	2539.115766
907.544483	2538.533513
907.851099	2536.950591
908.157675	2536.925385
908.464211	2535.642411
908.770707	2532.441279
909.077163	2533.071423
909.383578	2530.949097
909.689954	2533.757020
909.996289	2531.261649
910.302584	2532.811803
910.608839	2532.910106
910.915054	2535.186187
911.221229	2533.078985
911.527363	2537.132072
911.833458	2533.620909
912.139513	2535.836496
912.445527	2532.496731
912.751502	2536.486805
913.057436	2533.595703
913.363331	2539.294727
913.669186	2538.541075
913.975000	2539.367824
914.280775	2540.557536
914.586510	2546.556509
914.892205	2545.457538
915.197859	2552.414330
915.503475	2557.183262
915.809050	2566.398491
916.114585	2567.348748
916.420081	2571.598441
916.725536	2573.297310
917.030952	2565.380178
917.336328	2561.682492
917.641665	2555.590257
917.946961	2554.236707
918.252218	2552.494989
918.557435	2551.259906
918.862612	2545.097095
919.167750	2542.367311
919.472848	2541.036446
919.777906	2541.454862
920.082925	2540.431508
920.387904	2537.865560
920.692843	2538.200797
920.997743	2539.382947
921.302603	2537.893287
921.607423	2536.471681
921.912204	2537.031249
922.216946	2534.868594
922.521647	2537.358924
922.826310	2535.571835
923.130932	2533.046217
923.435516	2535.506300
923.740059	2533.000847
924.044564	2531.869108
924.349028	2532.678213
924.653454	2528.665454
924.957840	2530.666793
925.262186	2530.497914
925.566493	2528.990609
925.870761	2526.369209
926.174989	2532.448840
926.479178	2530.102183
926.783328	2533.643594
927.087438	2533.189890
927.391509	2532.421114
927.695541	2530.205527
927.999533	2533.434386
928.303486	2530.351720
928.607400	2534.059489
928.911275	2528.501617
929.215110	2531.551515
929.518906	2530.767616
929.822663	2530.450023
930.126381	2534.119983
930.430060	2532.842050
930.733699	2531.049920
931.037299	2531.526309
931.340861	2531.420445
931.644383	2529.925743
931.947866	2528.418438
932.251309	2530.828109
932.554714	2528.932636
932.858080	2530.961700
933.161407	2531.957328
933.464694	2531.798532
933.767943	2532.408511
934.071153	2527.800897
934.374323	2530.533202
934.677455	2531.105373
934.980548	2526.684281
935.283602	2530.404652
935.586617	2532.547143
935.889593	2531.879190
936.192530	2530.094622
936.495428	2531.992616
936.798287	2533.867925
937.101108	2530.802904
937.403890	2531.470857
937.706632	2534.654345
938.009336	2533.255425
938.312002	2535.942360
938.614628	2532.632843
938.917216	2533.046217
939.219765	2533.522606
939.522275	2533.273069
939.824747	2532.010260
940.127179	2534.366999
940.429573	2529.353572
940.731929	2531.881711
941.034246	2529.847605
941.336524	2531.115455
941.638763	2534.130065
941.940964	2532.723583
942.243126	2533.220137
942.545250	2531.992616
942.847335	2534.230888
943.149381	2530.477749
943.451389	2532.411032
943.753359	2529.613191
944.055290	2530.021525
944.357182	2532.665610
944.659036	2533.535209
944.960851	2532.358100
945.262628	2530.467667
945.564367	2530.873480
945.866067	2532.988244
946.167729	2532.075795
946.469352	2531.821217
946.770937	2530.323994
947.072484	2529.431710
947.373992	2529.477080
947.675462	2530.369364
947.976893	2530.354241
948.278286	2531.107893
948.579641	2529.391381
948.880958	2531.513706
949.182236	2528.834333
949.483476	2530.235774
949.784678	2531.264169
950.085841	2529.620753
950.386967	2533.724252
950.688054	2530.939015
950.989103	2532.269879
951.290114	2528.042872
951.591087	2530.455064
951.892021	2532.383305
952.192917	2530.699560
952.493776	2531.173428
952.794596	2532.176618
953.095378	2531.173428
953.396122	2532.673172
953.696828	2530.419776
953.997496	2528.723428
954.298126	2531.198634
954.598718	2530.946577
954.899272	2531.574200
955.199788	2531.738038
955.500266	2528.824251
955.800706	2526.948942
956.101108	2527.198479
956.401472	2530.329035
956.701798	2525.149250
957.002087	2525.844929
957.302337	2527.722759
957.602550	2529.557739
957.902724	2527.513551
958.202861	2532.252235
958.502960	2528.292409
958.803022	2528.592358
959.103045	2529.214940
959.403031	2529.162008
959.702979	2530.931453
960.002889	2529.411545
960.302762	2528.060516
960.602596	2528.975485
960.902393	2528.136133
961.202153	2528.544467
961.501875	2527.722759
961.801559	2527.780732
962.101205	2527.614374
962.400814	2528.564631
962.700385	2526.850639
962.999918	2529.305681
963.299414	2525.471883
963.598873	2528.620084
963.898293	2528.204189
964.197677	2529.285516
964.497022	2526.742254
964.796331	2528.751154
965.095601	2526.409538
965.394835	2528.244518
965.694030	2527.314425
965.993189	2528.736031
966.292309	2528.486493
966.591393	2529.882893
966.890439	2528.937677
967.189447	2529.187214
967.488419	2529.207378
967.787353	2526.979188
968.086249	2527.989940
968.385108	2530.581093
968.683930	2526.906092
968.982714	2529.615712
969.281462	2527.601771
969.580172	2526.820392
969.878844	2528.231915
970.177480	2527.407687
970.476078	2528.529343
970.774639	2530.545805
971.073162	2527.077491
971.371649	2524.778725
971.670098	2525.318128
971.968510	2526.540608
972.266885	2520.884433
972.565223	2527.657224
972.863524	2527.064888
973.161788	2529.950949
973.460014	2527.604292
973.758204	2526.616225
974.056356	2529.852646
974.354471	2528.499096
974.652550	2528.206709
974.950591	2528.917512
975.248595	2527.586647
975.546563	2527.727800
975.844493	2527.276617
976.142386	2526.349044
976.440243	2525.015659
976.738062	2529.734179
977.035845	2527.503468
977.333590	2528.592358
977.631299	2526.018849
977.928971	2527.705115
978.226606	2525.925587
978.524204	2530.903727
978.821765	2526.835516
979.119290	2526.727131
979.416777	2525.960875
979.714228	2529.139323
980.011642	2525.580268
980.309020	2531.511186
980.606360	2527.662265
980.903664	2526.265865
981.200931	2526.936339
981.498162	2527.798376
981.795356	2530.195445
982.092513	2528.925074
982.389633	2528.388191
982.686717	2530.767616
982.983764	2531.617050
983.280775	2530.127389
983.577749	2529.711494
983.874686	2531.367513
984.171587	2530.452543
984.468451	2525.789476
984.765279	2530.059333
985.062070	2527.422810
985.358824	2528.433561
985.655543	2525.728982
985.952224	2525.459281
986.248869	2526.001205
986.545478	2524.501461
986.842050	2525.466842
987.138586	2524.902233
987.435086	2523.137829
987.731549	2520.750843
988.027975	2525.764270
988.324366	2526.054137
988.620719	2528.156298
988.917037	2527.352234
989.213318	2528.998171
989.509563	2527.261493
989.805772	2527.609333
990.101944	2526.401976
990.398080	2525.121523
990.694180	2529.003212
990.990244	2527.009435
991.286271	2525.877696
991.582262	2525.028262
991.878217	2527.455577
992.174136	2528.284847
992.470019	2529.240146
992.765865	2526.351565
993.061676	2528.962883
993.357450	2528.247039
993.653188	2527.624456
993.948890	2527.420289
994.244556	2527.611853
994.540186	2528.914992
994.835780	2524.632531
995.131337	2528.471370
995.426859	2527.846267
995.722345	2526.490197
996.017795	2528.378109
996.313208	2527.059847
996.608586	2527.684950
996.903928	2529.134282
997.199234	2526.613705
997.494504	2527.556401
997.789738	2525.376102
998.084936	2525.398787
998.380099	2526.845598
998.675225	2527.233767
998.970316	2525.222346
999.265371	2525.774353
999.560390	2527.526154
999.855373	2527.453057
1000.150320	2524.561955
1000.445232	2525.522295
1000.740108	2526.782583
1001.034948	2527.155629
1001.329752	2526.959024
1001.624521	2522.207736
1001.919254	2521.827129
1002.213951	2524.410721
1002.508613	2524.193951
1002.803239	2524.050278
1003.097829	2521.963240
1003.392384	2528.476411
1003.686903	2526.270906
1003.981386	2527.753006
1004.275834	2523.750329
1004.570246	2525.633200
1004.864623	2526.253262
1005.158964	2525.101359
1005.453270	2525.577748
1005.747540	2525.227388
1006.041775	2525.199661
1006.335974	2525.988602
1006.630138	2526.351565
1006.924266	2525.862573
1007.218359	2526.656555
1007.512416	2526.890968
1007.806438	2528.194107
1008.100425	2526.543129
1008.394376	2527.518592
1008.688292	2527.773170
1008.982172	2522.916018
1009.276017	2527.044723
1009.569827	2527.107738
1009.863602	2528.418438
1010.157341	2522.626152
1010.451045	2523.140350
1010.744714	2525.247552
1011.038347	2525.086235
1011.331945	2523.800741
1011.625508	2524.912315
1011.919036	2523.934332
1012.212528	2525.671009
1012.505986	2524.783766
1012.799408	2527.223684
1013.092795	2525.900382
1013.386147	2523.941893
1013.679464	2525.711338
1013.972745	2526.984230
1014.265992	2527.213602
1014.559204	2526.301153
1014.852380	2527.253931
1015.145521	2525.872655
1015.438628	2523.896523
1015.731699	2525.260155
1016.024736	2525.113962
1016.317737	2523.710000
1016.610703	2527.531195
1016.903635	2521.872500
1017.196531	2522.174969
1017.489393	2524.942562
1017.782219	2521.363343
1018.075011	2526.563293
1018.367768	2524.965248
1018.660490	2525.426513
1018.953177	2525.426513
1019.245829	2525.426513
