Dividing Wavelength (nm)	Counts (n)	Blue Motor Position (mm): 0.000000	Red Motor Position (mm): 25.000000	
326.493990	2079.770869
326.888308	2079.770869
327.282561	2079.770869
327.676750	2057.269679
328.070874	2058.282951
328.464933	2065.453992
328.858929	2076.673080
329.252859	2086.389904
329.646726	2102.241812
330.040528	2117.360233
330.434265	2139.563995
330.827938	2158.677530
331.221547	2175.809891
331.615091	2196.854188
332.008571	2219.950234
332.401986	2237.942112
332.795338	2256.460791
333.188625	2274.656836
333.581847	2296.885803
333.975006	2313.693010
334.368100	2330.769919
334.761129	2350.495954
335.154095	2364.270907
335.546996	2385.461397
335.939833	2408.386044
336.332606	2423.476738
336.725315	2432.777667
337.117960	2441.640016
337.510540	2449.990687
337.903056	2460.539301
338.295508	2465.656073
338.687896	2474.672176
339.080220	2480.111581
339.472480	2485.626603
339.864676	2486.632314
340.256807	2494.657831
340.648875	2494.607419
341.040879	2497.710249
341.432818	2496.737307
341.824694	2497.191010
342.216506	2497.586741
342.608253	2497.422903
342.999937	2495.356030
343.391557	2493.407624
343.783113	2491.378560
344.174605	2489.523415
344.566033	2487.186841
344.957397	2490.730772
345.348697	2487.017962
345.739934	2483.733650
346.131106	2483.027889
346.522215	2485.031747
346.913260	2481.815491
347.304241	2477.747280
347.695159	2478.163175
348.086012	2477.356591
348.476802	2473.883236
348.867528	2473.474902
349.258191	2472.627988
349.648789	2472.073461
350.039324	2471.322329
350.429796	2473.842906
350.820203	2469.396609
351.210548	2469.575570
351.600828	2468.012812
351.991045	2468.537092
352.381198	2469.429376
352.771288	2470.619088
353.161314	2467.181022
353.551276	2471.100519
353.941175	2468.748820
354.331010	2468.587503
354.720782	2468.511886
355.110490	2467.266721
355.500135	2467.879221
355.889717	2469.346197
356.279235	2471.090436
356.668689	2470.087247
357.058080	2471.523976
357.447408	2469.499952
357.836672	2468.285034
358.225873	2469.424335
358.615010	2469.111783
359.004084	2474.828452
359.393095	2473.502628
359.782043	2476.338278
360.170927	2479.070583
360.559748	2479.388176
360.948505	2476.618062
361.337199	2481.901191
361.725830	2481.386993
362.114398	2481.192909
362.502903	2484.976295
362.891344	2482.264154
363.279722	2481.913794
363.668037	2485.792962
364.056289	2487.862355
364.444478	2485.896305
364.832603	2486.506285
365.220665	2486.413023
365.608665	2486.791110
365.996601	2491.149188
366.384474	2490.640031
366.772284	2491.829743
367.160031	2492.013745
367.547715	2493.863849
367.935336	2491.529795
368.322893	2492.449805
368.710388	2494.410814
369.097820	2498.801659
369.485189	2491.920484
369.872495	2498.136227
370.259738	2500.147647
370.646918	2499.714108
371.034035	2501.980107
371.421090	2506.567557
371.808081	2507.389265
372.195010	2513.594925
372.581875	2514.535100
372.968678	2520.667664
373.355418	2529.693850
373.742096	2534.911444
374.128710	2543.874616
374.515262	2556.414486
374.901751	2569.302196
375.288177	2582.817529
375.674540	2600.330498
376.060841	2617.873713
376.447079	2640.836169
376.833254	2667.135868
377.219367	2683.751511
377.605417	2716.821481
377.991404	2742.816190
378.377329	2779.319185
378.763191	2809.102322
379.148991	2853.051102
379.534727	2902.265366
379.920402	2945.200873
380.306013	2992.552431
380.691563	3048.022768
381.077049	3102.116869
381.462474	3156.810868
381.847835	3224.495920
382.233134	3290.371198
382.618371	3347.989066
383.003545	3427.412444
383.388657	3503.521265
383.773706	3594.993001
384.158693	3662.022703
384.543618	3752.403030
384.928480	3825.671160
385.313280	3924.553393
385.698017	4024.302704
386.082692	4135.092142
386.467305	4195.346533
386.851856	4318.743897
387.236344	4462.467193
387.620770	4528.065208
388.005133	4635.514881
388.389435	4776.510913
388.773674	4859.725240
389.157851	4983.324250
389.541965	5113.312922
389.926018	5136.323269
390.310008	5307.425072
390.693936	5423.331281
391.077802	5535.254979
391.461606	5664.230379
391.845348	5770.739878
392.229027	5890.565584
392.612645	6101.474858
392.996200	6223.188477
393.379694	6382.151181
393.763125	6594.592966
394.146494	6687.791297
394.529801	6817.958931
394.913047	7052.738068
395.296230	7051.447533
395.679351	7105.438291
396.062410	7349.873758
396.445408	7253.353306
396.828343	7398.755307
397.211217	7532.771861
397.594028	7421.591733
397.976778	7617.962320
398.359466	7784.932897
398.742092	7762.313240
399.124656	7906.865806
399.507158	8098.860670
399.889598	8118.453115
400.271977	8332.666865
400.654294	8360.209209
401.036549	8557.222543
401.418742	8584.923683
401.800874	8873.950677
402.182944	8958.823543
402.564952	9305.601996
402.946898	9146.659456
403.328783	9203.901758
403.710606	9397.232529
404.092367	9652.365325
404.474067	10001.382050
404.855705	9810.002206
405.237282	9763.976471
405.618797	10191.000010
406.000250	10425.756463
406.381642	10779.930288
406.762972	10729.125539
407.144240	10547.278517
407.525447	10790.221803
407.906593	10748.158416
408.287677	11007.639207
408.668700	11150.810497
409.049661	11139.659465
409.430560	11294.874071
409.811399	11274.870773
410.192176	11434.650144
410.572891	11511.089159
410.953545	11982.167342
411.334138	11471.848818
411.714669	12049.842312
412.095139	11410.230794
412.475547	11874.016948
412.855894	11736.506874
413.236180	12067.897205
413.616405	11762.146183
413.996568	12038.043492
414.376670	12010.309584
414.756711	11907.865776
415.136691	12175.977022
415.516609	12344.273423
415.896466	12423.512800
416.276262	12718.470711
416.655997	13178.622193
417.035670	13219.478225
417.415283	13830.435824
417.794834	13916.674843
418.174324	13661.005164
418.553753	13576.525507
418.933121	14063.937029
419.312428	13885.034041
419.691674	13800.824086
420.070859	14264.257359
420.449983	13922.968723
420.829045	14468.227485
421.208047	14229.213778
421.586988	14685.241596
421.965867	14924.862762
422.344686	14929.850984
422.723444	15489.562734
423.102141	14197.346124
423.480777	15391.003135
423.859352	14881.105547
424.237866	15978.166488
424.616319	15699.055443
424.994712	16342.536047
425.373044	16140.617671
425.751314	16826.169223
426.129524	15957.815350
426.507673	17032.503650
426.885762	16764.586488
427.263789	16946.640197
427.641756	17126.286756
428.019662	17178.868511
428.397508	17229.050677
428.775292	17512.852515
429.153016	17498.742325
429.530679	17572.703614
429.908282	17606.310466
430.285824	17329.125143
430.663305	18044.147281
431.040726	17654.554308
431.418086	17493.673445
431.795385	18121.342469
432.172624	18566.932578
432.549802	18127.280949
432.926920	18335.767948
433.303977	18211.077528
433.680974	18464.214028
434.057910	18763.857692
434.434786	18806.392427
434.811601	18738.956912
435.188355	19775.574419
435.565050	19441.857596
435.941683	19401.558612
436.318257	20287.901843
436.694770	20089.915567
437.071222	20680.809374
437.447614	19747.260778
437.823946	19776.741446
438.200218	19945.829308
438.576429	19725.246059
438.952580	20027.269148
439.328670	19983.068311
439.704700	20401.458875
440.080670	19968.363265
440.456580	20570.241747
440.832429	20729.481714
441.208218	19740.876157
441.583947	20169.822897
441.959616	20277.822056
442.335224	20522.764160
442.710773	20648.450207
443.086261	21176.294303
443.461689	20520.155363
443.837057	20651.326186
444.212365	21281.243564
444.587612	21261.147005
444.962800	20852.069973
445.337927	21255.750449
445.712995	19959.074939
446.088002	21803.033234
446.462949	21955.278601
446.837837	22113.374227
447.212664	22100.758739
447.587431	24944.012358
447.962139	27791.298901
448.336786	29984.208385
448.711374	28301.435943
449.085901	24642.823581
449.460369	24599.767086
449.834776	24527.502145
450.209124	26895.808496
450.583412	26333.944173
450.957640	26720.520015
451.331808	25357.495359
451.705917	23963.601197
452.079965	23920.287603
452.453954	24199.396127
452.827883	24013.039793
453.201752	23728.822059
453.575562	23771.485344
453.949311	24718.488779
454.323001	24685.764129
454.696632	24352.425393
455.070202	25681.777662
455.443713	25707.711878
455.817164	26090.501813
456.190556	26435.667096
456.563888	25770.532217
456.937160	26004.802198
457.310373	24358.555436
457.683526	24585.803090
458.056619	24416.843777
458.429653	24243.934721
458.802628	24595.996303
459.175542	24527.033318
459.548398	25494.516441
459.921194	26629.691026
460.293930	27041.896093
460.666607	28521.462144
461.039224	29763.446176
461.411782	29807.256324
461.784280	28528.663433
462.156719	27851.865843
462.529099	27158.888671
462.901419	25873.820418
463.273680	24823.891745
463.645882	24677.889847
464.018024	24433.517394
464.390106	24882.308635
464.762130	26744.221000
465.134094	29637.714758
465.505999	33371.011815
465.877845	36480.181258
466.249631	36912.734943
466.621358	35094.587356
466.993026	33044.808832
467.364634	31124.698867
467.736184	29394.012778
468.107674	28142.551377
468.479105	27267.296164
468.850477	26443.427953
469.221790	25174.284704
469.593043	23742.281940
469.964238	22845.715249
470.335373	22504.119103
470.706449	23296.722078
471.077467	24611.618838
471.448425	27047.373307
471.819324	28400.061077
472.190164	26818.656157
472.560945	24362.167423
472.931667	22234.833267
473.302330	21302.381122
473.672934	20523.903460
474.043479	20480.574743
474.413965	19766.954046
474.784393	19284.878586
475.154761	19433.413663
475.525070	19150.612494
475.895321	18623.758985
476.265513	18620.396536
476.635645	18769.685266
477.005719	18392.158295
477.375734	18308.800296
477.745691	18320.180701
478.115588	18607.143342
478.485427	19202.856492
478.855207	20370.155830
479.224928	21190.497754
479.594591	21481.581539
479.964194	20621.976588
480.333739	20285.219949
480.703226	19934.209448
481.072653	19833.293110
481.442022	19666.748510
481.811333	19392.129134
482.180584	18532.493936
482.549777	17966.926886
482.918912	17436.741174
483.287988	16990.415057
483.657005	16368.611415
484.025964	15837.049468
484.394864	15514.992834
484.763706	15068.817951
485.132489	14512.433363
485.501213	14172.339481
485.869879	13929.217233
486.238487	13542.101988
486.607036	13328.213393
486.975527	12911.100762
487.343959	12694.507587
487.712333	12451.556739
488.080648	12171.744974
488.448905	12029.672656
488.817104	11740.625497
489.185244	11715.167670
489.553326	11858.686799
489.921350	12228.367214
490.289315	12652.545022
490.657222	12515.319773
491.025070	12310.578351
491.392861	11824.480050
491.760593	11281.449478
492.128267	10700.451456
492.495883	10167.273820
492.863440	9703.895999
493.230939	9271.042366
493.598380	8906.491325
493.965763	8663.321187
494.333088	8357.219805
494.700354	8108.645550
495.067563	7900.597131
495.434713	7712.103347
495.801805	7558.070892
496.168839	7351.534818
496.535815	7161.576580
496.902733	7016.421596
497.269593	6822.339693
497.636395	6679.780904
498.003139	6577.052271
498.369825	6394.265073
498.736453	6292.400998
499.103023	6128.465196
499.469535	5990.801367
499.835989	5880.846239
500.202385	5739.497327
500.568723	5626.262929
500.935003	5538.095669
501.301226	5421.917237
501.667390	5364.130491
502.033497	5275.809475
502.399546	5147.186956
502.765537	5008.645966
503.131470	4939.824133
503.497345	4875.138568
503.863163	4719.432449
504.228923	4671.511240
504.594625	4615.002426
504.960269	4507.565356
505.325856	4468.463646
505.691385	4375.033421
506.056856	4313.899348
506.422270	4271.294037
506.787625	4195.739743
507.152924	4143.415087
507.518164	4092.731326
507.883347	4008.206300
508.248472	3969.563335
508.613540	3932.838529
508.978550	3903.559508
509.343503	3853.652084
509.708398	3811.039211
510.073236	3787.882671
510.438016	3748.826331
510.802738	3696.216850
511.167403	3680.105322
511.532010	3650.382679
511.896561	3626.517857
512.261053	3620.654995
512.625488	3573.631112
512.989866	3542.733880
513.354186	3513.185157
513.718449	3487.893688
514.082655	3479.101915
514.446803	3448.789457
514.810894	3439.896862
515.174927	3416.387441
515.538904	3391.980695
515.902822	3387.405848
516.266684	3359.603884
516.630488	3347.726926
516.994235	3329.966941
517.357925	3326.092814
517.721558	3313.802481
518.085133	3303.899134
518.448651	3291.686939
518.812112	3274.194135
519.175516	3261.205602
519.538863	3257.664192
519.902152	3243.120463
520.265385	3239.813466
520.628560	3227.976837
520.991678	3215.631051
521.354739	3209.241388
521.717743	3202.612271
522.080690	3189.585929
522.443580	3189.941331
522.806413	3183.952440
523.169189	3176.418436
523.531908	3167.387208
523.894569	3157.549397
524.257174	3154.350785
524.619722	3149.614621
524.982213	3145.538848
525.344647	3134.682723
525.707025	3127.292391
526.069345	3123.443470
526.431608	3119.506329
526.793815	3115.841410
527.155964	3103.389760
527.518057	3098.464553
527.880093	3093.050354
528.242072	3092.473142
528.603995	3082.741194
528.965860	3078.173909
529.327669	3079.250195
529.689421	3068.290727
530.051117	3061.490210
530.412755	3060.285374
530.774337	3054.891340
531.135862	3048.940258
531.497331	3043.904145
531.858743	3038.926006
532.220098	3040.408105
532.581396	3029.488966
532.942638	3023.580733
533.303824	3029.277237
533.664953	3023.618542
534.026025	3016.465145
534.387040	3018.322810
534.747999	3014.415916
535.108902	3010.874505
535.469748	3002.102897
535.830537	3001.170284
536.191270	3001.087105
536.551947	2995.105776
536.912567	2994.783142
537.273131	2993.437154
537.633638	2985.056236
537.994089	2984.723519
538.354483	2978.903507
538.714821	2981.892912
539.075103	2982.767552
539.435328	2977.378558
539.795497	2977.129021
540.155609	2975.039463
540.515665	2975.200780
540.875665	2967.223154
541.235609	2967.959162
541.595496	2967.296251
541.955328	2970.426807
542.315102	2964.001857
542.674821	2956.311576
543.034483	2955.588171
543.394090	2953.992646
543.753640	2953.554065
544.113134	2960.339458
544.472571	2949.816050
544.831953	2956.782924
545.191278	2952.177830
545.550548	2945.160544
545.909761	2946.229269
546.268918	2948.449897
546.628019	2949.188426
546.987064	2944.270780
547.346053	2933.686878
547.704986	2938.387754
548.063863	2936.094029
548.422684	2936.275510
548.781449	2933.780139
549.140158	2935.814245
549.498811	2933.835592
549.857408	2925.863007
550.215949	2932.393822
550.574434	2926.087338
550.932864	2924.300249
551.291237	2926.513316
551.649555	2928.789397
552.007817	2925.641196
552.366022	2923.090373
552.724173	2923.458377
553.082267	2925.714293
553.440305	2927.471135
553.798288	2922.989549
554.156215	2923.019796
554.514086	2923.712955
554.871902	2919.748088
555.229661	2918.361770
555.587365	2916.521749
555.945014	2915.198446
556.302606	2913.678538
556.660143	2915.178282
557.017625	2913.819691
557.375050	2911.079823
557.732421	2916.249527
558.089735	2914.621234
558.446994	2911.155441
558.804197	2916.337747
559.161345	2913.093764
559.518437	2910.051428
559.875474	2909.622930
560.232455	2908.841551
560.589381	2908.395409
560.946251	2911.536048
561.303065	2907.903897
561.659825	2911.004206
562.016528	2906.313413
562.373177	2905.063206
562.729770	2906.699061
563.086307	2904.445665
563.442789	2908.728125
563.799216	2906.631005
564.155587	2900.574059
564.511904	2905.859709
564.868164	2902.799728
565.224370	2907.170409
565.580520	2902.396436
565.936615	2903.311405
566.292654	2899.132289
566.648638	2902.083884
567.004567	2901.365520
567.360441	2901.536919
567.716260	2900.720252
568.072023	2901.378123
568.427732	2895.449726
568.783385	2891.583161
569.138982	2894.590209
569.494525	2895.031310
569.850013	2893.148439
570.205445	2895.863101
570.560823	2895.416958
570.916145	2893.972668
571.271412	2892.588871
571.626625	2891.643655
571.981782	2891.893192
572.336884	2888.263561
572.691931	2886.967985
573.046923	2884.666698
573.401860	2883.005638
573.756743	2882.130998
574.111570	2883.587891
574.466342	2882.546893
574.821059	2881.195863
575.175722	2878.796274
575.530330	2878.445914
575.884882	2876.646222
576.239380	2874.695296
576.593823	2879.086141
576.948211	2876.414329
577.302544	2869.142465
577.656823	2865.883359
578.011047	2870.138092
578.365216	2865.596013
578.719330	2865.016280
579.073389	2861.769777
579.427394	2865.369161
579.781344	2863.735827
580.135239	2858.359437
580.489080	2859.773480
580.842866	2855.392717
581.196597	2857.719210
581.550273	2855.458252
581.903895	2858.954293
582.257463	2859.735672
582.610975	2852.887264
582.964434	2855.634693
583.317837	2852.529342
583.671186	2852.105885
584.024481	2850.633868
584.377721	2851.231245
584.730906	2852.083200
585.084037	2850.457428
585.437113	2847.833507
585.790135	2846.250585
586.143103	2843.621623
586.496016	2846.119515
586.848874	2841.078361
587.201679	2840.816221
587.554428	2836.223730
587.907124	2837.002588
588.259765	2833.723318
588.612352	2838.714060
588.964884	2835.790191
589.317362	2837.141220
589.669786	2835.172649
590.022155	2832.911692
590.374470	2835.684327
590.726731	2831.048986
591.078937	2827.076556
591.431090	2828.672082
591.783188	2824.866010
592.135232	2825.407934
592.487222	2821.909374
592.839157	2826.827019
593.191038	2823.323417
593.542866	2820.732264
593.894639	2814.713127
594.246358	2816.996769
594.598022	2816.926193
594.949633	2814.140956
595.301190	2812.152220
595.652692	2811.615337
596.004141	2814.077941
596.355535	2808.537713
596.706876	2803.670479
597.058162	2805.210552
597.409395	2806.508649
597.760573	2805.613844
598.111698	2801.273410
598.462768	2802.170736
598.813785	2803.272228
599.164748	2797.900878
599.515657	2801.255766
599.866511	2797.235446
600.217312	2799.405663
600.568060	2795.183697
600.918753	2802.016981
601.269392	2794.293933
601.619978	2793.424334
601.970510	2795.032462
602.320988	2795.405507
602.671412	2799.813996
603.021783	2795.082873
603.372100	2791.511216
603.722363	2794.409879
604.072572	2791.473407
604.422728	2795.476083
604.772830	2785.786986
605.122878	2786.500309
605.472872	2786.666667
605.822813	2785.434105
606.172701	2788.436112
606.522534	2787.634569
606.872314	2791.493572
607.222041	2790.059364
607.571714	2790.482821
607.921333	2786.338992
608.270899	2785.179527
608.620411	2787.443005
608.969870	2785.998714
609.319276	2788.458797
609.668627	2787.468211
610.017926	2789.887964
610.367171	2788.184054
610.716362	2788.030299
611.065500	2788.274795
611.414585	2786.684311
611.763616	2789.527522
612.112594	2787.629527
612.461518	2789.272944
612.810389	2786.197840
613.159207	2789.222532
613.507971	2786.618776
613.856682	2789.835032
614.205340	2786.860752
614.553945	2790.792852
614.902496	2785.721451
615.250994	2788.957872
615.599439	2786.228087
615.947830	2790.268572
616.296169	2789.456946
616.644454	2788.506688
616.992686	2787.201029
617.340864	2791.604477
617.688990	2786.661626
618.037063	2789.691359
618.385082	2787.584157
618.733048	2791.175979
619.080961	2787.800927
619.428821	2787.415278
619.776628	2786.467542
620.124382	2782.351439
620.472083	2785.587860
620.819731	2787.460649
621.167326	2781.343209
621.514868	2781.615431
621.862357	2777.068310
622.209793	2778.648712
622.557176	2775.034205
622.904506	2772.004471
623.251783	2765.453492
623.599007	2767.709408
623.946179	2763.605909
624.293297	2765.077926
624.640363	2759.625918
624.987376	2760.767739
625.334336	2756.563417
625.681243	2754.516708
626.028097	2754.746081
626.374899	2752.134763
626.721647	2752.575864
627.068343	2750.047726
627.414987	2748.537900
627.761577	2748.442118
628.108115	2750.183837
628.454600	2745.699730
628.801032	2744.197467
629.147412	2743.461458
629.493739	2742.491036
629.840014	2740.459451
630.186236	2741.835686
630.532405	2740.313257
630.878521	2740.056159
631.224585	2739.776375
631.570597	2733.802607
631.916556	2736.608009
632.262462	2732.812021
632.608316	2735.027608
632.954117	2732.345714
633.299866	2731.289592
633.645562	2731.597102
633.991206	2726.278685
634.336797	2724.058057
634.682336	2725.252810
635.027823	2721.660988
635.373257	2719.369784
635.718639	2719.561348
636.063968	2719.258878
636.409245	2714.747046
636.754470	2711.961808
637.099642	2710.388968
637.444762	2709.547096
637.789829	2708.044832
638.134845	2705.960315
638.479808	2708.077599
638.824719	2705.675489
639.169577	2704.263966
639.514383	2702.905375
639.859137	2702.363451
640.203839	2704.553833
640.548489	2699.449664
640.893086	2695.096628
641.237632	2693.480938
641.582125	2694.484128
641.926566	2690.899867
642.270955	2693.727955
642.615292	2691.235104
642.959576	2693.362471
643.303809	2694.143850
643.647990	2692.760053
643.992118	2693.725434
644.336195	2692.074456
644.680219	2692.820547
645.024192	2694.589992
645.368112	2695.323480
645.711981	2694.393387
646.055797	2695.063861
646.399562	2695.000846
646.743274	2700.483101
647.086935	2702.769264
647.430544	2700.662062
647.774101	2698.965714
648.117606	2702.171887
648.461059	2701.249356
648.804460	2702.171887
649.147810	2695.262986
649.491108	2693.687626
649.834354	2693.710311
650.177548	2689.226204
650.520690	2687.119002
650.863781	2687.224866
651.206820	2686.332582
651.549807	2683.512057
651.892742	2681.402334
652.235626	2678.763290
652.578458	2677.535769
652.921238	2673.205417
653.263967	2678.480985
653.606644	2675.163906
653.949269	2674.609379
654.291843	2669.593431
654.634365	2672.605520
654.976836	2673.903617
655.319255	2672.250119
655.661622	2671.758606
656.003938	2669.232988
656.346203	2667.829027
656.688416	2667.156033
657.030577	2666.014212
657.372687	2667.599654
657.714746	2666.520847
658.056753	2665.666372
658.398708	2660.068171
658.740612	2663.463388
659.082465	2659.569096
659.424266	2663.513799
659.766016	2661.444406
660.107715	2662.911381
660.449362	2662.525733
660.790958	2661.966165
661.132503	2662.205620
661.473996	2664.569921
661.815438	2664.970693
662.156829	2662.382060
662.498168	2661.754437
662.839456	2663.508758
663.180693	2661.971206
663.521879	2664.141423
663.863013	2661.688902
664.204097	2661.255362
664.545129	2663.153357
664.886110	2663.309632
665.227040	2663.544046
665.567918	2663.317194
665.908746	2664.925322
666.249522	2663.687719
666.590248	2661.489776
666.930922	2661.620846
667.271545	2664.141423
667.612118	2660.620177
667.952639	2660.731082
668.293109	2660.990702
668.633528	2659.470794
668.973896	2660.748726
669.314213	2660.680671
669.654480	2656.728406
669.994695	2658.026503
670.334859	2658.482728
670.674973	2654.396873
671.015035	2656.272182
671.355047	2654.459887
671.695008	2655.276554
672.034918	2653.668426
672.374777	2654.432161
672.714585	2654.616163
673.054342	2654.931235
673.394049	2654.890906
673.733705	2656.080618
674.073310	2653.857469
674.412864	2654.906029
674.752368	2651.969557
675.091820	2653.217242
675.431223	2649.068373
675.770574	2649.116264
676.109875	2645.889925
676.449125	2645.126191
676.788324	2643.029071
677.127473	2644.821201
677.466571	2638.746610
677.805619	2641.705768
678.144616	2640.180819
678.483562	2642.043525
678.822458	2640.868936
679.161303	2642.817342
679.500098	2639.480098
679.838842	2640.044707
680.177535	2639.215438
680.516179	2641.294914
680.854771	2640.420273
681.193314	2643.946561
681.531805	2650.759680
681.870247	2653.189516
682.208638	2655.314362
682.546978	2652.781183
682.885268	2653.159269
683.223508	2653.426450
683.561697	2651.503250
683.899836	2650.694145
684.237925	2646.315903
684.575963	2645.905049
684.913951	2645.831952
685.251889	2648.009731
685.589776	2647.712302
685.927614	2646.525111
686.265401	2646.686428
686.603137	2648.712972
686.940824	2649.703558
687.278460	2649.320431
687.616046	2649.759011
687.953582	2652.609783
688.291068	2652.617345
688.628504	2653.741522
688.965889	2651.392345
689.303224	2653.426450
689.640510	2650.865544
689.977745	2649.000317
690.314930	2644.170892
690.652065	2642.464461
690.989150	2639.560757
691.326185	2634.446506
691.663170	2632.165384
692.000105	2629.453243
692.336990	2623.978550
692.673825	2625.619446
693.010610	2623.686163
693.347345	2616.986470
693.684030	2612.812394
694.020665	2612.031016
694.357251	2608.537496
694.693786	2611.350460
695.030272	2610.740480
695.366707	2610.261571
695.703093	2605.807711
696.039429	2608.232506
696.375716	2607.136055
696.711952	2605.013729
697.048139	2603.299737
697.384276	2605.875767
697.720363	2609.139914
698.056400	2606.465582
698.392388	2605.038935
698.728326	2601.618512
699.064214	2604.617999
699.400053	2602.460385
699.735842	2604.313009
700.071581	2600.481732
700.407270	2598.170363
700.742910	2598.392174
701.078501	2595.959817
701.414042	2596.713470
701.749533	2591.374888
702.084974	2593.083839
702.420366	2596.179107
702.755709	2592.640217
703.091002	2589.219794
703.426246	2592.567121
703.761440	2588.733323
704.096584	2591.357244
704.431679	2590.832964
704.766725	2588.319948
705.101721	2588.912284
705.436668	2586.293405
705.771565	2585.068404
706.106413	2588.783735
706.441212	2587.006728
706.775961	2589.179465
707.110661	2588.786255
707.445311	2591.029569
707.779913	2592.262131
708.114465	2592.819178
708.448967	2594.505444
708.783421	2597.923347
709.117825	2596.058120
709.452180	2600.360744
709.786485	2597.787235
710.120742	2601.482401
710.454949	2602.387288
710.789107	2601.071547
711.123216	2603.524068
711.457275	2604.401229
711.791286	2607.183946
712.125247	2610.435490
712.459159	2608.101436
712.793023	2611.940275
713.126837	2609.023967
713.460602	2609.994389
713.794318	2607.776282
714.127985	2604.877618
714.461602	2604.060951
714.795171	2602.142792
715.128691	2593.943356
715.462162	2594.767584
715.795584	2594.225660
716.128957	2592.327666
716.462281	2589.492017
716.795556	2589.527305
717.128782	2587.019331
717.461960	2586.782397
717.795088	2586.979002
718.128167	2585.005390
718.461198	2581.156469
718.794180	2579.732343
719.127113	2578.819894
719.459997	2580.743094
719.792833	2577.788978
720.125619	2577.771334
720.458357	2576.856365
720.791046	2574.328226
721.123686	2577.562126
721.456278	2574.731518
721.788821	2574.532393
722.121315	2574.025757
722.453761	2572.727660
722.786158	2572.362176
723.118506	2573.854358
723.450805	2570.421332
723.783056	2574.862588
724.115259	2572.470561
724.447412	2569.592062
724.779518	2573.859399
725.111574	2574.040880
725.443582	2574.000551
725.775542	2577.249575
726.107453	2574.953329
726.439315	2577.078175
726.771129	2584.155955
727.102895	2578.759400
727.434612	2582.830132
727.766281	2580.042374
728.097901	2577.912486
728.429473	2577.494071
728.760996	2579.394586
729.092471	2579.308886
729.423897	2586.553024
729.755276	2581.703434
730.086606	2583.467838
730.417887	2584.841552
730.749120	2589.749116
731.080305	2588.410689
731.411442	2589.376070
731.742530	2587.858683
732.073570	2592.100814
732.404562	2592.824219
732.735506	2590.918663
733.066401	2590.248190
733.397249	2587.503282
733.728048	2582.343661
734.058798	2581.348033
734.389501	2578.071283
734.720156	2576.064903
735.050762	2574.360993
735.381320	2572.888977
735.711831	2568.969479
736.042293	2571.051476
736.372707	2570.176836
736.703073	2569.072823
737.033391	2573.075499
737.363661	2573.877043
737.693883	2571.686661
738.024056	2574.018195
738.354182	2574.560119
738.684260	2574.655901
739.014290	2574.487022
739.344272	2574.673545
739.674207	2578.514904
740.004093	2578.353587
740.333931	2578.290573
740.663722	2578.265367
740.993464	2576.790830
741.323159	2577.544482
741.652806	2576.362332
741.982405	2575.996848
742.311956	2570.837227
742.641460	2574.466858
742.970915	2573.723287
743.300323	2571.807649
743.629683	2566.249777
743.958996	2567.840261
744.288260	2567.144582
744.617477	2565.362534
744.946647	2560.278530
745.275768	2557.165618
745.604842	2559.673592
745.933869	2559.605536
746.262847	2555.683518
746.591778	2562.184086
746.920662	2559.421534
747.249498	2560.709549
747.578286	2562.753737
747.907027	2563.832544
748.235720	2560.775084
748.564365	2566.779098
748.892963	2562.289951
749.221514	2566.433779
749.550017	2562.058057
749.878473	2563.376319
750.206881	2564.006463
750.535242	2561.876576
750.863555	2559.378684
751.191821	2561.455640
751.520039	2561.329611
751.848210	2561.858932
752.176334	2562.952862
752.504411	2560.898592
752.832440	2556.210319
753.160421	2561.029662
753.488356	2559.706359
753.816243	2559.887841
754.144082	2559.885320
754.471875	2559.731565
754.799620	2556.253169
755.127318	2557.795762
755.454969	2557.059753
755.782572	2555.943138
756.110129	2557.740309
756.437638	2555.872562
756.765100	2554.471121
757.092515	2557.737789
757.419882	2555.176883
757.747203	2559.393808
758.074477	2554.705535
758.401703	2559.550083
758.728882	2564.437482
759.056014	2560.830537
759.383099	2558.798952
759.710138	2559.955896
760.037129	2559.844991
760.364073	2561.564024
760.690970	2561.337172
761.017820	2562.955383
761.344623	2563.124262
761.671379	2566.501835
761.998088	2566.285065
762.324751	2574.983576
762.651366	2586.651327
762.977935	2607.201590
763.304456	2616.726850
763.630931	2622.819085
763.957359	2616.918414
764.283740	2607.776282
764.610074	2598.709767
764.936362	2588.957654
765.262602	2582.106726
765.588796	2572.468040
765.914943	2567.255487
766.241044	2563.809858
766.567097	2558.748540
766.893104	2557.720145
767.219064	2553.200750
767.544978	2552.706717
767.870845	2551.625390
768.196665	2551.181768
768.522438	2546.813608
768.848165	2544.121632
769.173846	2547.282436
769.499479	2545.099616
769.825066	2546.160779
770.150607	2543.153731
770.476101	2542.730274
770.801548	2544.141797
771.126949	2542.478216
771.452303	2544.358566
771.777611	2543.612476
772.102872	2537.351363
772.428087	2538.830941
772.753256	2542.155582
773.078378	2537.227854
773.403453	2540.678524
773.728482	2536.968235
774.053465	2536.282638
774.378401	2538.692309
774.703291	2538.772968
775.028135	2534.062010
775.352932	2537.351363
775.677683	2532.786598
776.002388	2537.013605
776.327046	2538.273894
776.651658	2534.671989
776.976224	2532.849612
777.300743	2537.177443
777.625216	2532.106042
777.949643	2532.153933
778.274024	2531.798532
778.598359	2533.472195
778.922647	2528.899868
779.246889	2531.601927
779.571086	2528.050434
779.895236	2531.324663
780.219339	2533.237781
780.543397	2533.555374
780.867409	2530.654190
781.191374	2534.533358
781.515294	2533.688964
781.839167	2533.920857
782.162995	2532.380785
782.486776	2533.850281
782.810511	2533.368851
783.134201	2531.533871
783.457844	2536.401105
783.781441	2533.210055
784.104993	2532.862215
784.428498	2533.595703
784.751958	2530.412214
785.075372	2531.354910
785.398739	2532.010260
785.722061	2533.260466
786.045337	2531.054961
786.368568	2534.208203
786.691752	2531.211237
787.014891	2535.181146
787.337983	2535.783564
787.661030	2540.076106
787.984031	2542.969728
788.306987	2543.181457
788.629897	2543.496529
788.952760	2544.824873
789.275579	2545.565923
789.598351	2542.163144
789.921078	2537.406815
790.243759	2537.742052
790.566395	2537.258101
790.888984	2535.324819
791.211529	2531.392719
791.534027	2537.391692
791.856480	2531.758202
792.178888	2531.380116
792.501249	2529.401463
792.823566	2530.704601
793.145836	2531.780887
793.468062	2531.244005
793.790241	2529.683767
794.112375	2531.271731
794.434464	2532.254756
794.756507	2531.906916
795.078505	2530.810465
795.400457	2530.878521
795.722364	2530.681916
796.044226	2536.270035
796.366042	2530.412214
796.687812	2535.647453
797.009538	2541.545602
797.331218	2536.804397
797.652852	2537.600900
797.974442	2534.798018
798.295986	2536.217103
798.617484	2535.481094
798.938938	2532.607637
799.260346	2532.063192
799.581709	2531.652338
799.903026	2532.716022
800.224299	2530.591175
800.545526	2532.446320
800.866708	2530.495393
801.187845	2529.741741
801.508936	2531.256607
801.829983	2530.235774
802.150984	2529.522451
802.471940	2531.017153
802.792851	2527.821061
803.113717	2528.819210
803.434538	2528.241998
803.755314	2526.999353
804.076045	2526.648993
804.396731	2528.088242
804.717372	2527.788294
805.037967	2529.255269
805.358518	2526.039013
805.679024	2530.424817
805.999485	2525.640762
806.319901	2531.939684
806.640272	2530.399611
806.960598	2530.046731
807.280879	2525.965917
807.601115	2533.474715
807.921306	2529.673685
808.241453	2527.253931
808.561554	2529.998840
808.881611	2530.117307
809.201623	2528.670496
809.521590	2530.288706
809.841513	2528.360465
810.161390	2530.203006
810.481223	2527.369878
810.801011	2530.104704
811.120755	2529.325846
811.440453	2528.867101
811.760107	2528.468849
812.079716	2524.095648
812.399281	2524.506502
812.718801	2526.520443
813.038276	2522.729496
813.357707	2525.933149
813.677093	2527.271575
813.996434	2526.212933
814.315731	2527.700073
814.634983	2526.056657
814.954191	2523.828467
815.273354	2525.005577
815.592473	2528.967924
815.911547	2527.639580
816.230577	2531.354910
816.549562	2530.374406
816.868502	2531.861546
817.187399	2530.220650
817.506250	2531.334745
817.825058	2534.303985
818.143821	2531.390198
818.462539	2535.765920
818.781213	2538.067206
819.099843	2542.654656
819.418429	2547.758825
819.736970	2555.378529
820.055466	2559.272820
820.373919	2568.432597
820.692327	2581.564802
821.010691	2604.451641
821.329011	2658.802841
821.647286	2740.507342
821.965517	2822.375680
822.283704	2869.633977
822.601847	2880.134701
822.919945	2846.905935
823.237999	2803.262146
823.556010	2762.597678
823.873976	2724.095866
824.191897	2690.635207
824.509775	2667.110662
824.827609	2642.978659
825.145398	2626.652882
825.463144	2619.070987
825.780845	2621.170627
826.098502	2631.071454
826.416116	2652.549290
826.733685	2669.492608
827.051210	2676.093999
827.368692	2663.589417
827.686129	2645.509318
828.003522	2622.312449
828.320872	2600.708584
828.638177	2587.669640
828.955439	2572.762948
829.272656	2562.695763
829.589830	2553.714948
829.906960	2553.167983
830.224046	2548.454504
830.541088	2543.047866
830.858086	2539.604758
831.175041	2538.087371
831.491952	2538.394881
831.808819	2540.116435
832.125642	2537.958822
832.442421	2546.596839
832.759157	2557.639486
833.075849	2572.825962
833.392497	2588.592171
833.709101	2604.428956
834.025662	2598.906372
834.342179	2590.749785
834.658653	2577.741087
834.975083	2565.546536
835.291469	2562.476473
835.607811	2550.544062
835.924110	2547.279915
836.240366	2541.152392
836.556578	2535.758358
836.872746	2533.699047
837.188871	2531.682585
837.504952	2525.406348
837.820990	2526.502799
838.136984	2525.297964
838.452935	2524.337624
838.768842	2526.618746
839.084706	2527.284178
839.400526	2534.742565
839.716303	2543.856972
840.032037	2549.258568
840.347727	2548.033567
840.663373	2543.158772
840.978977	2533.333563
841.294537	2534.576207
841.610054	2528.526823
841.925527	2527.228726
842.240957	2524.017511
842.556344	2523.253776
842.871687	2521.123888
843.186987	2520.304701
843.502244	2516.730523
843.817458	2515.071983
844.132629	2515.820594
844.447756	2513.789009
844.762840	2512.291787
845.077881	2514.630882
845.392879	2513.347908
845.707833	2512.248937
846.022745	2511.437311
846.337613	2514.366222
846.652438	2513.652898
846.967221	2511.507887
847.281960	2515.240862
847.596656	2516.455780
847.911309	2512.838752
848.225919	2512.805984
848.540485	2511.681807
848.855009	2513.917559
849.169490	2511.399503
849.483928	2513.715913
849.798323	2509.748525
850.112675	2511.555778
850.426984	2510.539986
850.741251	2510.673576
851.055474	2512.503515
851.369654	2512.130470
851.683792	2511.465038
851.997887	2511.573422
852.311938	2509.100736
852.625947	2513.456293
852.939914	2510.976046
853.253837	2515.132477
853.567718	2510.890346
853.881555	2511.906138
854.195350	2513.244565
854.509103	2514.305728
854.822812	2511.316323
855.136479	2512.742970
855.450103	2511.391941
855.763685	2509.647702
856.077224	2510.429080
856.390720	2515.245903
856.704173	2511.008813
857.017584	2512.692558
857.330953	2514.905625
857.644278	2512.059894
857.957561	2513.070645
858.270802	2513.123577
858.584000	2512.390089
858.897155	2513.209277
859.210268	2514.068793
859.523339	2510.449245
859.836367	2510.562671
860.149352	2513.824298
860.462295	2513.731036
860.775195	2509.877074
861.088054	2508.647033
861.400869	2510.265243
861.713642	2508.851199
862.026373	2510.159379
862.339062	2506.980931
862.651708	2510.050994
862.964312	2513.257168
863.276873	2512.412774
863.589392	2510.166940
863.901869	2511.275994
864.214303	2512.987466
864.526696	2512.014523
864.839045	2514.577950
865.151353	2513.789009
865.463619	2514.429236
865.775842	2511.056704
866.088023	2514.303207
866.400162	2515.692045
866.712258	2511.170130
867.024313	2513.637775
867.336325	2515.303876
867.648296	2513.746160
867.960224	2512.621982
868.272110	2515.462673
868.583954	2513.531911
868.895755	2513.615090
869.207515	2513.032836
869.519233	2514.588032
869.830909	2515.462673
870.142542	2512.967301
870.454134	2513.297497
870.765684	2515.046777
871.077191	2515.596263
871.388657	2519.369567
871.700081	2517.048115
872.011463	2514.895543
872.322803	2516.826305
872.634101	2515.518125
872.945357	2516.780934
873.256571	2520.488703
873.567744	2518.447036
873.878874	2518.757067
874.189963	2518.802437
874.501010	2517.869823
874.812015	2517.867303
875.122979	2520.584485
875.433900	2518.678929
875.744780	2520.319824
876.055618	2518.071470
876.366415	2519.999711
876.677169	2518.265554
876.987882	2517.814371
877.298554	2519.891326
877.609183	2519.914011
877.919771	2518.406706
878.230317	2519.979546
878.540822	2527.952131
878.851285	2526.656555
879.161707	2533.782226
879.472087	2540.754141
879.782425	2548.484751
880.092722	2568.414953
880.402977	2597.600713
880.713191	2629.329735
881.023363	2662.185455
881.333494	2679.693382
881.643583	2686.151101
881.953631	2680.157169
882.263637	2672.398833
882.573602	2660.360557
882.883526	2645.973104
883.193408	2633.710498
883.503248	2619.834722
883.813048	2607.698144
884.122806	2597.285641
884.432522	2584.231573
884.742197	2575.064234
885.051831	2566.539643
885.361424	2559.376164
885.670975	2549.419885
885.980485	2542.793288
886.289954	2539.498894
886.599382	2538.709953
886.908768	2533.754499
887.218113	2529.235105
887.527417	2530.341638
887.836680	2524.685463
888.145901	2523.720083
888.455082	2524.325021
888.764221	2521.116327
889.073319	2521.353261
889.382376	2520.339989
889.691392	2519.074659
890.000366	2518.678929
890.309300	2519.901408
890.618193	2521.708662
890.927044	2522.439629
891.235855	2522.772346
891.544625	2518.875534
891.853353	2522.164887
892.162041	2522.565658
892.470687	2523.863755
892.779293	2526.407018
893.087858	2528.052954
893.396381	2530.717204
893.704864	2540.030736
894.013306	2548.333516
894.321707	2559.222408
894.630068	2563.497307
894.938387	2567.862946
895.246665	2567.089129
895.554903	2561.092677
895.863100	2552.066491
896.171256	2551.295194
896.479371	2544.330840
896.787446	2540.910417
897.095480	2538.830941
897.403473	2535.052596
897.711425	2535.140817
898.019336	2531.942204
898.327207	2528.582275
898.635038	2527.753006
898.942827	2527.553880
899.250576	2524.456091
899.558284	2522.177489
899.865952	2520.856707
900.173579	2521.285205
900.481165	2520.166069
900.788711	2518.913342
901.096216	2517.287570
901.403681	2517.043074
901.711105	2519.215812
902.018489	2517.761439
902.325832	2516.780934
902.633135	2518.250431
902.940397	2524.851822
903.247619	2530.427338
903.554800	2543.796478
903.861941	2562.869683
904.169041	2574.061045
904.476101	2576.490881
904.783121	2573.325036
905.090100	2566.978224
905.397039	2562.017728
905.703938	2554.652602
906.010796	2548.784699
906.317614	2543.030222
906.624391	2537.532844
906.931129	2534.056968
907.237826	2531.576721
907.544483	2525.655886
907.851099	2526.974147
908.157675	2521.854856
908.464211	2519.810668
908.770707	2509.577125
909.077163	2512.556447
909.383578	2511.031498
909.689954	2511.172651
909.996289	2508.468072
910.302584	2511.152486
910.608839	2510.083761
910.915054	2511.449914
911.221229	2513.128618
911.527363	2513.468896
911.833458	2509.249450
912.139513	2511.649040
912.445527	2509.960253
912.751502	2514.073835
913.057436	2514.454442
913.363331	2517.259844
913.669186	2515.694566
913.975000	2517.748836
914.280775	2520.339989
914.586510	2528.713345
914.892205	2535.259284
915.197859	2545.729760
915.503475	2558.945145
915.809050	2569.609706
916.114585	2576.062383
916.420081	2573.904769
916.725536	2574.613051
917.030952	2571.517783
917.336328	2565.957390
917.641665	2563.479663
917.946961	2559.424055
918.252218	2554.461039
918.557435	2548.739329
918.862612	2546.712785
919.167750	2539.501415
919.472848	2535.912113
919.777906	2532.264838
920.082925	2528.753675
920.387904	2527.072450
920.692843	2524.566996
920.997743	2522.421985
921.302603	2519.732530
921.607423	2520.408044
921.912204	2519.581295
922.216946	2515.566016
922.521647	2513.816736
922.826310	2513.731036
923.130932	2513.657939
923.435516	2512.100223
923.740059	2513.229441
924.044564	2509.478823
924.349028	2508.621827
924.653454	2505.100581
924.957840	2506.691065
925.262186	2506.481857
925.566493	2507.578308
925.870761	2504.609068
926.174989	2508.566374
926.479178	2508.135355
926.783328	2506.996055
927.087438	2505.687875
927.391509	2507.928668
927.695541	2505.932371
927.999533	2508.246261
928.303486	2503.941115
928.607400	2505.450941
928.911275	2504.230982
929.215110	2505.082937
929.518906	2508.500839
929.822663	2504.790550
930.126381	2504.805673
930.430060	2504.931702
930.733699	2504.167967
931.037299	2503.426918
931.340861	2506.741476
931.644383	2505.851713
931.947866	2504.079747
932.251309	2504.281393
932.554714	2506.013030
932.858080	2505.849192
933.161407	2504.891373
933.464694	2503.726866
933.767943	2505.695437
934.071153	2503.608399
934.374323	2504.324243
934.677455	2504.795591
934.980548	2505.261898
935.283602	2504.084788
935.586617	2504.664521
935.889593	2502.486743
936.192530	2502.937926
936.495428	2502.045642
936.798287	2503.563029
937.101108	2504.909017
937.403890	2508.147958
937.706632	2506.287772
938.009336	2506.935561
938.312002	2508.316837
938.614628	2506.721312
938.917216	2511.028978
939.219765	2505.987824
939.522275	2510.035870
939.824747	2509.340191
940.127179	2507.795078
940.429573	2504.800632
940.731929	2506.282731
941.034246	2503.621002
941.336524	2510.119049
941.638763	2510.040912
941.940964	2507.860612
942.243126	2508.145438
942.545250	2508.410098
942.847335	2509.408247
943.149381	2505.516476
943.451389	2508.158041
943.753359	2505.821466
944.055290	2506.504542
944.357182	2506.968328
944.659036	2507.353977
944.960851	2504.578821
945.262628	2506.743997
945.564367	2505.246774
945.866067	2505.952536
946.167729	2503.837772
946.469352	2504.228461
946.770937	2504.367093
947.072484	2505.516476
947.373992	2505.526558
947.675462	2507.374141
947.976893	2504.520848
948.278286	2504.775426
948.579641	2503.779798
948.880958	2504.120076
949.182236	2506.660818
949.483476	2506.653256
949.784678	2504.528410
950.085841	2503.129490
950.386967	2507.255674
950.688054	2506.779285
950.989103	2505.529079
951.290114	2506.118894
951.591087	2506.612927
951.892021	2506.312978
952.192917	2505.352638
952.493776	2509.251971
952.794596	2506.721312
953.095378	2508.135355
953.396122	2510.648371
953.696828	2509.204080
953.997496	2505.244254
954.298126	2507.064110
954.598718	2503.888183
954.899272	2506.134017
955.199788	2506.164264
955.500266	2507.351456
955.800706	2504.924140
956.101108	2499.257883
956.401472	2500.397184
956.701798	2500.964314
957.002087	2500.601351
957.302337	2502.138903
957.602550	2500.790394
957.902724	2505.128307
958.202861	2502.469098
958.502960	2501.443224
958.803022	2503.920951
959.103045	2501.690240
959.403031	2502.932885
959.702979	2502.630415
960.002889	2501.435662
960.302762	2498.221926
960.602596	2500.480363
960.902393	2500.114880
961.202153	2500.243429
961.501875	2500.273676
961.801559	2497.400218
962.101205	2500.432472
962.400814	2499.782163
962.700385	2502.680827
962.999918	2498.257214
963.299414	2499.804849
963.598873	2498.942811
963.898293	2497.702688
964.197677	2499.003305
964.497022	2498.360558
964.796331	2500.702174
965.095601	2502.148985
965.394835	2499.910713
965.694030	2500.777791
965.993189	2502.547236
966.292309	2500.200579
966.591393	2499.361227
966.890439	2500.218223
967.189447	2498.473984
967.488419	2499.172184
967.787353	2500.099756
968.086249	2498.955414
968.385108	2501.881804
968.683930	2500.177894
968.982714	2500.656804
969.281462	2499.618326
969.580172	2499.240239
969.878844	2500.112359
970.177480	2497.944663
970.476078	2500.608913
970.774639	2500.603872
971.073162	2500.424911
971.371649	2497.059940
971.670098	2496.893582
971.968510	2501.236536
972.266885	2496.263438
972.565223	2499.731752
972.863524	2502.461537
973.161788	2500.452637
973.460014	2499.641011
973.758204	2499.991371
974.056356	2501.659993
974.354471	2503.323574
974.652550	2502.431290
974.950591	2501.463388
975.248595	2500.097236
975.546563	2498.973058
975.844493	2498.163953
976.142386	2497.992554
976.440243	2497.881648
976.738062	2501.213851
977.035845	2499.446927
977.333590	2497.218737
977.631299	2498.663027
977.928971	2500.341732
978.226606	2501.405415
978.524204	2500.341732
978.821765	2500.709736
979.119290	2499.278048
979.416777	2499.252842
979.714228	2499.535147
980.011642	2500.745024
980.309020	2501.934736
980.606360	2500.198059
980.903664	2499.300733
981.200931	2498.219406
981.498162	2502.549757
981.795356	2500.669407
982.092513	2502.332987
982.389633	2504.805673
982.686717	2506.045797
982.983764	2507.512773
983.280775	2510.116529
983.577749	2506.852382
983.874686	2507.774913
984.171587	2505.508914
984.468451	2505.713081
984.765279	2505.839110
985.062070	2505.307268
985.358824	2503.996568
985.655543	2501.607061
985.952224	2504.752741
986.248869	2501.677637
986.545478	2498.814262
986.842050	2498.552122
987.138586	2496.129848
987.435086	2496.119765
987.731549	2496.066833
988.027975	2501.579335
988.324366	2497.909375
988.620719	2498.320229
988.917037	2498.600013
989.213318	2498.216885
989.509563	2496.991885
989.805772	2497.934581
990.101944	2498.935250
990.398080	2496.691936
990.694180	2497.720332
990.990244	2496.510455
991.286271	2498.491628
991.582262	2496.979282
991.878217	2500.692092
992.174136	2496.013901
992.470019	2497.916937
992.765865	2499.782163
993.061676	2496.878459
993.357450	2500.608913
993.653188	2498.983141
993.948890	2499.058758
994.244556	2496.202944
994.540186	2498.375682
994.835780	2498.642863
995.131337	2499.182266
995.426859	2501.158398
995.722345	2499.363748
996.017795	2500.198059
996.313208	2500.961793
996.608586	2502.148985
996.903928	2501.891886
997.199234	2499.547750
997.494504	2503.421877
997.789738	2498.980620
998.084936	2504.954387
998.380099	2500.349293
998.675225	2501.569252
998.970316	2502.085971
999.265371	2501.528923
999.560390	2498.211844
999.855373	2499.192348
1000.150320	2499.255363
1000.445232	2499.542709
1000.740108	2498.466422
1001.034948	2499.487256
1001.329752	2497.763181
1001.624521	2500.114880
1001.919254	2492.845536
1002.213951	2496.177738
1002.508613	2495.035917
1002.803239	2494.771257
1003.097829	2493.256390
1003.392384	2499.550270
1003.686903	2499.406598
1003.981386	2496.104642
1004.275834	2497.007008
1004.570246	2498.116062
1004.864623	2497.939622
1005.158964	2498.685713
1005.453270	2498.466422
1005.747540	2495.542553
1006.041775	2495.219919
1006.335974	2498.834427
1006.630138	2497.317039
1006.924266	2497.932060
1007.218359	2497.846360
1007.512416	2496.601195
1007.806438	2496.434837
1008.100425	2497.614467
1008.394376	2497.133037
1008.688292	2497.475836
1008.982172	2493.382419
1009.276017	2497.836278
1009.569827	2495.620691
1009.863602	2496.966679
1010.157341	2495.066164
1010.451045	2494.907368
1010.744714	2496.079436
1011.038347	2497.518685
1011.331945	2499.227637
1011.625508	2496.122286
1011.919036	2497.818634
1012.212528	2498.847029
1012.505986	2497.037255
1012.799408	2496.868377
1013.092795	2493.793273
1013.386147	2495.139261
1013.679464	2496.434837
1013.972745	2500.059427
1014.265992	2497.811072
1014.559204	2499.555312
1014.852380	2496.518016
1015.145521	2501.160919
1015.438628	2495.464415
1015.731699	2497.803511
1016.024736	2497.427945
1016.317737	2497.241422
1016.610703	2496.482728
1016.903635	2491.859990
1017.196531	2494.272182
1017.489393	2494.158756
1017.782219	2492.447285
1018.075011	2495.272851
1018.367768	2494.249497
1018.660490	2495.509786
1018.953177	2495.509786
1019.245829	2495.509786
