Dividing Wavelength (nm)	Counts (n)	Blue Motor Position (mm): 34.400000	Red Motor Position (mm): 0.000000	
326.493990	2228.318549
326.888308	2228.318549
327.282561	2228.318549
327.676750	2187.737261
328.070874	2183.215346
328.464933	2186.945800
328.858929	2186.330779
329.252859	2195.225895
329.646726	2203.833665
330.040528	2215.367825
330.434265	2226.680174
330.827938	2245.828997
331.221547	2262.003539
331.615091	2279.675304
332.008571	2297.639456
332.401986	2317.194092
332.795338	2335.750579
333.188625	2355.524505
333.581847	2373.770961
333.975006	2392.246790
334.368100	2413.961560
334.761129	2432.863367
335.154095	2449.015224
335.546996	2473.961373
335.939833	2512.886643
336.332606	2526.732172
336.725315	2538.266332
337.117960	2554.065308
337.510540	2563.714077
337.903056	2577.065572
338.295508	2584.639906
338.687896	2591.747933
339.080220	2597.739344
339.472480	2608.930706
339.864676	2612.336005
340.256807	2620.606018
340.648875	2622.783797
341.040879	2624.182717
341.432818	2628.954169
341.824694	2631.973820
342.216506	2631.436937
342.608253	2632.737555
342.999937	2631.779736
343.391557	2633.241670
343.783113	2631.028604
344.174605	2629.687657
344.566033	2628.286216
344.957397	2630.975672
345.348697	2626.899899
345.739934	2624.558283
346.131106	2625.397635
346.522215	2623.101389
346.913260	2622.463683
347.304241	2619.086110
347.695159	2619.297839
348.086012	2617.581326
348.476802	2614.564195
348.867528	2608.025819
349.258191	2609.638988
349.648789	2607.047835
350.039324	2602.662031
350.429796	2606.649584
350.820203	2605.585900
351.210548	2603.229161
351.600828	2603.093050
351.991045	2600.837133
352.381198	2601.028697
352.771288	2600.806887
353.161314	2599.697833
353.551276	2599.095415
353.941175	2598.492997
354.331010	2598.051896
354.720782	2596.479056
355.110490	2600.990889
355.500135	2600.864860
355.889717	2597.298243
356.279235	2597.386464
356.668689	2596.887389
357.058080	2597.555342
357.447408	2600.312853
357.836672	2598.964345
358.225873	2594.757502
358.615010	2598.069540
359.004084	2604.683534
359.393095	2602.863677
359.782043	2600.592637
360.170927	2605.371651
360.559748	2598.790425
360.948505	2605.427104
361.337199	2604.817124
361.725830	2603.498863
362.114398	2604.877618
362.502903	2604.290324
362.891344	2605.311157
363.279722	2604.249995
363.668037	2606.541199
364.056289	2605.802670
364.444478	2608.154368
364.832603	2608.958432
365.220665	2607.315016
365.608665	2611.373145
365.996601	2609.686879
366.384474	2610.480861
366.772284	2608.741663
367.160031	2609.744852
367.547715	2610.392641
367.935336	2610.546396
368.322893	2608.048504
368.710388	2604.928030
369.097820	2609.356683
369.485189	2608.474482
369.872495	2613.722323
370.259738	2613.727364
370.646918	2615.264916
371.034035	2616.129474
371.421090	2614.107971
371.808081	2614.168465
372.195010	2614.501181
372.581875	2614.783486
372.968678	2614.980091
373.355418	2614.607045
373.742096	2618.098044
374.128710	2617.293980
374.515262	2618.150976
374.901751	2617.019237
375.288177	2619.907818
375.674540	2619.139042
376.060841	2619.668364
376.447079	2620.149794
376.833254	2620.711883
377.219367	2619.655761
377.605417	2621.263889
377.991404	2619.980915
378.377329	2620.076697
378.763191	2623.270268
379.148991	2620.900926
379.534727	2621.422685
379.920402	2620.197685
380.306013	2620.888323
380.691563	2625.800927
381.077049	2623.507202
381.462474	2622.841770
381.847835	2623.960906
382.233134	2624.482666
382.618371	2623.814713
383.003545	2623.149280
383.388657	2625.059878
383.773706	2623.489558
384.158693	2625.785804
384.543618	2625.768160
384.928480	2629.612040
385.313280	2626.496607
385.698017	2628.934004
386.082692	2628.402163
386.467305	2627.308232
386.851856	2633.133286
387.236344	2631.411732
387.620770	2629.170939
388.005133	2629.112965
388.389435	2629.070116
388.773674	2627.724127
389.157851	2631.792339
389.541965	2634.837196
389.926018	2633.879376
390.310008	2635.293420
390.693936	2634.514562
391.077802	2634.663276
391.461606	2635.903400
391.845348	2638.562608
392.229027	2636.717546
392.612645	2639.643936
392.996200	2639.575880
393.379694	2640.926909
393.763125	2640.868936
394.146494	2641.962867
394.529801	2641.877167
394.913047	2643.525624
395.296230	2644.755666
395.679351	2642.996303
396.062410	2646.154586
396.445408	2649.098620
396.828343	2644.924544
397.211217	2645.325316
397.594028	2644.939668
397.976778	2649.307828
398.359466	2648.566778
398.742092	2647.258599
399.124656	2647.669453
399.507158	2648.907056
399.889598	2652.685401
400.271977	2653.441574
400.654294	2654.225473
401.036549	2655.609270
401.418742	2653.275216
401.800874	2655.972233
402.182944	2656.521719
402.564952	2656.680515
402.946898	2655.606749
403.328783	2660.695794
403.710606	2659.243942
404.092367	2664.829540
404.474067	2665.648728
404.855705	2668.320539
405.237282	2671.879594
405.618797	2675.499142
406.000250	2682.715554
406.381642	2690.027748
406.762972	2694.506813
407.144240	2706.182125
407.525447	2718.769887
407.906593	2729.626011
408.287677	2752.432191
408.668700	2772.281735
409.049661	2797.517751
409.430560	2826.585044
409.811399	2851.906760
410.192176	2900.984913
410.572891	2944.003599
410.953545	3003.874863
411.334138	3023.792462
411.714669	3093.509099
412.095139	3127.015128
412.475547	3215.169785
412.855894	3288.488327
413.236180	3390.485993
413.616405	3404.394536
413.996568	3521.261085
414.376670	3600.374433
414.756711	3656.283350
415.136691	3755.238679
415.516609	3891.039802
415.896466	3975.451402
416.276262	4115.706385
416.655997	4197.403324
417.035670	4354.342005
417.415283	4573.675047
417.794834	4690.624775
418.174324	4742.112600
418.553753	4813.649094
418.933121	5059.700251
419.312428	5202.347261
419.691674	5201.336510
420.070859	5539.492068
420.449983	5495.230738
420.829045	5786.478360
421.208047	5771.765752
421.586988	6060.293672
421.965867	6169.873233
422.344686	6342.741961
422.723444	6482.046685
423.102141	6170.722668
423.480777	6756.287975
423.859352	6536.312186
424.237866	7069.232724
424.616319	7064.315078
424.994712	7447.672143
425.373044	7246.484734
425.751314	7684.377001
426.129524	7667.413518
426.507673	7873.475723
426.885762	8079.069100
427.263789	8084.793331
427.641756	8090.106707
428.019662	8267.404088
428.397508	8530.161629
428.775292	8339.331271
429.153016	8745.696162
429.530679	8657.191144
429.908282	8764.822299
430.285824	8558.971823
430.663305	9225.850942
431.040726	8782.002552
431.418086	8815.982449
431.795385	9153.313779
432.172624	9273.699054
432.549802	9234.531809
432.926920	9352.295683
433.303977	9272.799208
433.680974	9489.190737
434.057910	9596.098486
434.434786	9681.417494
434.811601	9565.491121
435.188355	10129.941555
435.565050	9880.669100
435.941683	9835.152522
436.318257	10339.802269
436.694770	10465.589140
437.071222	10551.634074
437.447614	10423.903839
437.823946	10312.479215
438.200218	10483.016409
438.576429	10293.426174
438.952580	10534.209326
439.328670	10609.758578
439.704700	10392.658767
440.080670	10391.738757
440.456580	10964.471807
440.832429	10707.231808
441.208218	10319.793929
441.583947	10660.868316
441.959616	10794.773965
442.335224	10603.071487
442.710773	10760.481516
443.086261	10953.199787
443.461689	10251.272046
443.837057	10879.833354
444.212365	11174.075422
444.587612	10809.824330
444.962800	11057.065200
445.337927	10833.674029
445.712995	10400.001208
446.088002	11500.772438
446.462949	11144.929991
446.837837	11117.682554
447.212664	11128.710078
447.587431	11622.337342
447.962139	12328.971001
448.336786	14579.528600
448.711374	15154.749460
449.085901	13015.891227
449.460369	12614.209568
449.834776	12069.535580
450.209124	12926.408225
450.583412	13332.173219
450.957640	14293.344817
451.331808	13460.982261
451.705917	12428.523707
452.079965	11753.084709
452.453954	12648.121409
452.827883	12276.416972
453.201752	12562.343656
453.575562	12077.251066
453.949311	12495.873522
454.323001	12446.669340
454.696632	12673.990090
455.070202	12962.039101
455.443713	13218.258265
455.817164	13661.078260
456.190556	13669.381041
456.563888	14026.342624
456.937160	14204.116394
457.310373	13539.805743
457.683526	13620.592754
458.056619	13179.721165
458.429653	13311.713696
458.802628	12759.682144
459.175542	13113.583747
459.548398	14065.177153
459.921194	14407.000151
460.293930	14463.088029
460.666607	15353.292783
461.039224	16376.929319
461.411782	17083.767144
461.784280	16974.336297
462.156719	17026.955860
462.529099	16707.387036
462.901419	15633.815351
463.273680	15430.664413
463.645882	15289.738957
464.018024	15023.944120
464.390106	15247.511732
464.762130	15975.847557
465.134094	16720.705764
465.505999	18699.865285
465.877845	21948.011778
466.249631	24799.122035
466.621358	24520.394118
466.993026	23057.242064
467.364634	22508.956090
467.736184	21055.369625
468.107674	20230.417566
468.479105	20367.781446
468.850477	19833.678758
469.221790	19418.562424
469.593043	18747.940248
469.964238	18180.134926
470.335373	17845.482969
470.706449	18278.268548
471.077467	17820.718301
471.448425	19646.384769
471.819324	23657.358662
472.190164	25727.379940
472.560945	22199.111651
472.931667	19804.906372
473.302330	19158.275048
473.672934	18667.871602
474.043479	19017.410086
474.413965	18826.801539
474.784393	18448.962017
475.154761	19137.712182
475.525070	19133.457448
475.895321	18794.144944
476.265513	19387.019924
476.635645	19954.283323
477.005719	19750.008207
477.375734	19927.033366
477.745691	20422.291443
478.115588	20924.191240
478.485427	21460.083538
478.855207	22513.750227
479.224928	24264.275777
479.594591	26484.896484
479.964194	26534.579576
480.333739	26761.595337
480.703226	26316.090927
481.072653	25985.290412
481.442022	26551.966516
481.811333	27464.737996
482.180584	27377.455458
482.549777	26446.908869
482.918912	26089.037358
483.287988	26210.350205
483.657005	25882.884413
484.025964	25618.080163
484.394864	25552.860235
484.763706	25228.772016
485.132489	24650.561752
485.501213	24845.488048
485.869879	24757.310705
486.238487	24558.623709
486.607036	24720.346445
486.975527	24418.078860
487.343959	24734.736418
487.712333	24672.362222
488.080648	24333.367311
488.448905	24814.134591
488.817104	24568.554782
489.185244	25248.271199
489.553326	25214.543359
489.921350	26210.330040
490.289315	28476.817686
490.657222	30267.889236
491.025070	30778.563162
491.392861	30552.848019
491.760593	29707.948113
492.128267	28815.127000
492.495883	27772.434903
492.863440	26895.163228
493.230939	26023.177203
493.598380	25865.260539
493.965763	25465.759179
494.333088	25002.547716
494.700354	24944.471103
495.067563	24828.764020
495.434713	24579.763787
495.801805	24725.148144
496.168839	24515.726010
496.535815	24366.810325
496.902733	24579.552059
497.269593	24247.682819
497.636395	24437.633496
498.003139	24404.959257
498.369825	24158.933305
498.736453	24354.215003
499.103023	24232.256888
499.469535	24240.637806
499.835989	24465.642147
500.202385	24486.086546
500.568723	23996.139324
500.935003	24234.684204
501.301226	23841.257434
501.667390	24684.912174
502.033497	24921.407825
502.399546	24648.305836
502.765537	24209.130595
503.131470	24589.684778
503.497345	24734.736418
503.863163	23951.018477
504.228923	24548.380084
504.594625	24756.390695
504.960269	24279.605926
505.325856	24774.644713
505.691385	24184.738972
506.056856	24783.807010
506.422270	24754.298616
506.787625	24323.766433
507.152924	24739.651543
507.518164	24765.190029
507.883347	24584.091618
508.248472	24261.452731
508.613540	25050.080756
508.978550	24832.096223
509.343503	24833.197715
509.708398	25087.644914
510.073236	25233.674538
510.438016	25441.700272
510.802738	25120.248576
511.167403	25384.145418
511.532010	25082.291208
511.896561	25846.479720
512.261053	25820.439640
512.625488	25663.498438
512.989866	25543.415633
513.354186	25389.138681
513.718449	25506.176630
514.082655	25881.450204
514.446803	25623.847243
514.810894	26086.400834
515.174927	25561.488170
515.538904	25607.702948
515.902822	26098.522289
516.266684	25856.284764
516.630488	25751.912715
516.994235	25731.859005
517.357925	26039.134976
517.721558	26213.483282
518.085133	26305.648177
518.448651	26207.355759
518.812112	25963.164787
519.175516	26160.556207
519.538863	26306.313609
519.902152	26084.132315
520.265385	26372.395574
520.628560	26171.576170
520.991678	26179.715113
521.354739	26247.407727
521.717743	26317.769631
522.080690	26108.080317
522.443580	26445.915762
522.806413	26435.253722
523.169189	26533.982199
523.531908	26564.518989
523.894569	26179.243765
524.257174	26263.942711
524.619722	26438.011233
524.982213	26133.225592
525.344647	26196.232453
525.707025	26325.255745
526.069345	26308.602293
526.431608	26269.636694
526.793815	26454.533615
527.155964	25919.946976
527.518057	26091.484838
527.880093	26005.875963
528.242072	26236.145789
528.603995	25951.897809
528.965860	25745.094554
529.327669	25789.673478
529.689421	25773.675376
530.051117	25611.309893
530.412755	25787.319259
530.774337	25588.397849
531.135862	25470.656660
531.497331	25657.935525
531.858743	25214.389604
532.220098	25697.236360
532.581396	25375.772062
532.942638	25315.618494
533.303824	25410.830766
533.664953	25435.298007
534.026025	25093.235553
534.387040	25321.211654
534.747999	25388.957200
535.108902	25547.642641
535.469748	25030.425297
535.830537	25212.786517
536.191270	25337.078686
536.551947	25208.357863
536.912567	24848.570713
537.273131	25213.716610
537.633638	24915.759212
537.994089	25130.396419
538.354483	24655.854963
538.714821	25158.422714
539.075103	25199.694640
539.435328	24985.075077
539.795497	24550.590630
540.155609	24936.581698
540.515665	25245.548976
540.875665	24464.344049
541.235609	24780.247955
541.595496	24732.480502
541.955328	25081.623256
542.315102	25016.642782
542.674821	24557.615478
543.034483	24432.131076
543.394090	24593.357259
543.753640	24387.279931
544.113134	25022.442630
544.472571	24616.544046
544.831953	24907.486678
545.191278	24537.377766
545.550548	24448.295536
545.909761	24653.495703
546.268918	24885.507248
546.628019	24849.221022
546.987064	24545.733478
547.346053	24305.472086
547.704986	24430.832979
548.063863	24584.910805
548.422684	24589.193266
548.781449	24115.294557
549.140158	24528.875860
549.498811	24091.119704
549.857408	23840.685263
550.215949	24266.975315
550.574434	23957.047697
550.932864	24167.785572
551.291237	24332.485109
551.649555	24190.904303
552.007817	24246.535956
552.366022	24106.921201
552.724173	24147.550380
553.082267	24108.189051
553.440305	24575.574588
553.798288	23818.713394
554.156215	24330.496374
554.514086	24427.543626
554.871902	23819.071316
555.229661	24096.438121
555.587365	23958.297903
555.945014	23829.093130
556.302606	24057.580907
556.660143	24017.798642
557.017625	24258.508697
557.375050	23795.297234
557.732421	24187.312481
558.089735	23990.626822
558.446994	24070.685387
558.804197	24090.303037
559.161345	24022.096225
559.518437	23792.514518
559.875474	23990.425176
560.232455	24167.924203
560.589381	23984.746317
560.946251	23975.452949
561.303065	24293.191835
561.659825	24395.824686
562.016528	23977.857580
562.373177	23725.270566
562.729770	24075.703855
563.086307	23935.123719
563.442789	24098.489871
563.799216	23941.836015
564.155587	23947.446819
564.511904	23931.647843
564.868164	23861.298541
565.224370	23833.625127
565.580520	23761.241720
565.936615	23870.569223
566.292654	23575.233225
566.648638	23856.753941
567.004567	23698.522204
567.360441	23638.746722
567.716260	23369.642368
568.072023	23697.191339
568.427732	23448.168422
568.783385	23226.995358
569.138982	23473.240600
569.494525	23510.638400
569.850013	23248.445468
570.205445	23346.294264
570.560823	23157.838289
570.916145	22907.940732
571.271412	23103.812244
571.626625	22854.227237
571.981782	22956.640798
572.336884	22763.385645
572.691931	22909.624477
573.046923	22635.559627
573.401860	22506.695132
573.756743	22525.307072
574.111570	22429.804933
574.466342	22356.708202
574.821059	22451.391154
575.175722	22152.044918
575.530330	22134.068163
575.884882	22148.440493
576.239380	22072.634142
576.593823	21964.491310
576.948211	21937.440478
577.302544	21783.652518
577.656823	21650.475316
578.011047	21753.304772
578.365216	21622.426336
578.719330	21489.007158
579.073389	21389.709031
579.427394	21531.622552
579.781344	21302.456740
580.135239	21196.905061
580.489080	21165.783497
580.842866	20926.817682
581.196597	21127.228753
581.550273	21091.915470
581.903895	20984.130560
582.257463	21299.658899
582.610975	20823.128709
582.964434	21138.684775
583.317837	20837.243939
583.671186	20929.996129
584.024481	20903.111656
584.377721	20665.466622
584.730906	20737.741645
585.084037	20756.277967
585.437113	20674.681851
585.790135	20862.414421
586.143103	20322.529529
586.496016	20353.255362
586.848874	20584.672049
587.201679	20515.336019
587.554428	20186.027686
587.907124	20518.055722
588.259765	20290.132554
588.612352	20375.953157
588.964884	19940.236148
589.317362	20110.246540
589.669786	20169.711991
590.022155	20201.735921
590.374470	20396.652134
590.726731	20186.854435
591.078937	19960.247008
591.431090	20047.937879
591.783188	19799.172060
592.135232	19768.153840
592.487222	19865.422904
592.839157	19888.304701
593.191038	19769.469582
593.542866	19647.211518
593.894639	19381.953565
594.246358	19591.267314
594.598022	19488.531119
594.949633	19243.402493
595.301190	19210.604746
595.652692	19379.881651
596.004141	19614.277660
596.355535	18940.734136
596.706876	18957.856415
597.058162	18850.958748
597.409395	19083.229911
597.760573	19152.422268
598.111698	18928.879863
598.462768	18866.354432
598.813785	18834.423763
599.164748	18649.332759
599.515657	18693.024439
599.866511	18482.367223
600.217312	18842.940793
600.568060	18361.868522
600.918753	18666.339091
601.269392	18575.507581
601.619978	18355.821658
601.970510	18558.465961
602.320988	18508.566099
602.671412	18713.690649
603.021783	18635.265419
603.372100	18344.055605
603.722363	18486.291761
604.072572	18427.335467
604.422728	18581.183920
604.772830	18340.304987
605.122878	18278.399618
605.472872	18278.772663
605.822813	18260.410260
606.172701	18241.027023
606.522534	18424.462009
606.872314	18455.059292
607.222041	18285.051420
607.571714	18505.296911
607.921333	18341.550152
608.270899	18404.206653
608.620411	18585.599971
608.969870	18351.962655
609.319276	18349.585751
609.668627	18381.284526
610.017926	18523.966824
610.367171	18632.893556
610.716362	18680.043468
611.065500	18488.429210
611.414585	18625.780488
611.763616	18605.817519
612.112594	18555.179128
612.461518	18517.740999
612.810389	18715.248366
613.159207	18580.193334
613.507971	18486.538777
613.856682	18763.202342
614.205340	18688.762143
614.553945	18834.259926
614.902496	18591.160364
615.250994	18815.345517
615.599439	18758.120859
615.947830	18735.778465
616.296169	18791.886507
616.644454	18756.169932
616.992686	18728.718329
617.340864	18947.930383
617.688990	18695.013174
618.037063	18862.571046
618.385082	18709.219146
618.733048	18995.760851
619.080961	18866.170430
619.428821	18903.832890
619.776628	18793.139234
620.124382	18719.545949
620.472083	18762.098329
620.819731	18782.759498
621.167326	18477.862952
621.514868	18523.918933
621.862357	18281.973796
622.209793	18292.691289
622.557176	18127.553171
622.904506	17946.921067
623.251783	17865.544241
623.599007	17629.204866
623.946179	17579.499089
624.293297	17510.941918
624.640363	17257.036642
624.987376	17286.177032
625.334336	17078.347903
625.681243	16914.603665
626.028097	16930.904236
626.374899	16854.737442
626.721647	16723.649798
627.068343	16555.139148
627.414987	16489.304200
627.761577	16464.360571
628.108115	16508.803383
628.454600	16224.585650
628.801032	16310.668393
629.147412	16253.844507
629.493739	16266.278513
629.840014	16080.348156
630.186236	16175.464647
630.532405	15935.044458
630.878521	16135.624408
631.224585	16029.336720
631.570597	15855.293404
631.916556	15890.863786
632.262462	15863.412182
632.608316	15782.327743
632.954117	15724.576285
633.299866	15708.636156
633.645562	15626.762777
633.991206	15389.352157
634.336797	15265.470842
634.682336	15232.216871
635.027823	15109.532830
635.373257	14999.996119
635.718639	14898.215223
636.063968	14842.500391
636.409245	14596.028297
636.754470	14625.599705
637.099642	14471.617661
637.444762	14229.508686
637.789829	14275.660449
638.134845	14123.130257
638.479808	14154.193847
638.824719	14091.154218
639.169577	13948.066108
639.514383	13996.594775
639.859137	13817.747240
640.203839	13897.841092
640.548489	13737.789498
640.893086	13728.657448
641.237632	13593.294906
641.582125	13752.305501
641.926566	13579.908122
642.270955	13581.362495
642.615292	13552.214543
642.959576	13559.103280
643.303809	13589.272065
643.647990	13513.183409
643.992118	13586.121344
644.336195	13350.926311
644.680219	13564.267942
645.024192	13482.951610
645.368112	13731.203231
645.711981	13783.308597
646.055797	13964.843068
646.399562	13931.173201
646.743274	14201.822669
647.086935	14481.896574
647.430544	14441.695892
647.774101	14473.056910
648.117606	14620.583757
648.461059	14588.148973
648.804460	14572.624740
649.147810	14307.291169
649.491108	14211.889853
649.834354	14218.004773
650.177548	13909.060180
650.520690	13721.990522
650.863781	13640.636382
651.206820	13693.369371
651.549807	13517.614584
651.892742	13316.596053
652.235626	13257.596909
652.578458	13257.097835
652.921238	12946.300618
653.263967	13143.661791
653.606644	12977.994352
653.949269	12960.602372
654.291843	12757.373296
654.634365	12913.845670
654.976836	12764.942588
655.319255	12769.474585
655.661622	12723.544633
656.003938	12643.125626
656.346203	12573.615676
656.688416	12647.513950
657.030577	12607.499792
657.372687	12518.747758
657.714746	12498.925941
658.056753	12685.821678
658.398708	12501.512053
658.740612	12503.704955
659.082465	12610.776542
659.424266	12570.611148
659.766016	12603.877723
660.107715	12509.522446
660.449362	12592.386413
660.790958	12545.314638
661.132503	12491.086947
661.473996	12555.875856
661.815438	12569.244996
662.156829	12592.262904
662.498168	12574.223135
662.839456	12562.633522
663.180693	12580.307808
663.521879	12677.017303
663.863013	12650.145433
664.204097	12624.309519
664.545129	12751.270979
664.886110	12720.731669
665.227040	12812.067294
665.567918	12809.342551
665.908746	12842.838497
666.249522	12833.068741
666.590248	12880.190927
666.930922	12999.835152
667.271545	12973.515287
667.612118	13060.447465
667.952639	12958.752268
668.293109	12977.618787
668.633528	12926.945108
668.973896	12904.897622
669.314213	12980.083911
669.654480	12716.270248
669.994695	12791.083491
670.334859	12820.942246
670.674973	12763.468051
671.015035	12801.375007
671.355047	12741.498702
671.695008	12709.457128
672.034918	12719.816699
672.374777	12756.856577
672.714585	12673.687621
673.054342	12709.225235
673.394049	12666.589677
673.733705	12754.739293
674.073310	12664.593380
674.412864	12677.130729
674.752368	12543.887992
675.091820	12572.793968
675.431223	12561.519427
675.770574	12419.300916
676.109875	12331.224396
676.449125	12296.412708
676.788324	12248.617529
677.127473	12075.484141
677.466571	12067.836711
677.805619	11960.755041
678.144616	11887.900286
678.483562	11848.170953
678.822458	11729.469423
679.161303	11701.914477
679.500098	11689.934174
679.838842	11652.105356
680.177535	11670.354333
680.516179	11732.594939
680.854771	11684.462002
681.193314	11892.449927
681.531805	12057.368755
681.870247	12473.019451
682.208638	12892.811455
682.546978	13197.221530
682.885268	13242.992687
683.223508	12935.641098
683.561697	12781.666616
683.899836	12692.423069
684.237925	12475.822333
684.575963	12399.844583
684.913951	12322.173005
685.251889	12271.365736
685.589776	12368.720499
685.927614	12285.581789
686.265401	12251.816141
686.603137	12309.839822
686.940824	12456.786936
687.278460	12586.024476
687.616046	12628.526444
687.953582	12797.178246
688.291068	12726.143348
688.628504	12957.738996
688.965889	12965.593114
689.303224	12927.822269
689.640510	12826.545488
689.977745	12507.770645
690.314930	12284.392077
690.652065	12194.944364
690.989150	11893.944629
691.326185	11674.722493
691.663170	11467.858745
692.000105	11226.064842
692.336990	11117.208686
692.673825	10860.261074
693.010610	10741.579710
693.347345	10532.772597
693.684030	10329.898922
694.020665	10276.618967
694.357251	10073.836033
694.693786	10012.139872
695.030272	9856.252272
695.366707	9736.829857
695.703093	9671.196555
696.039429	9663.579372
696.375716	9582.008461
696.711952	9452.660015
697.048139	9497.249021
697.384276	9456.524060
697.720363	9469.603333
698.056400	9403.652438
698.392388	9357.026806
698.728326	9312.611720
699.064214	9257.771528
699.400053	9300.049165
699.735842	9104.860729
700.071581	9066.114421
700.407270	8994.068770
700.742910	8918.995907
701.078501	8825.217843
701.414042	8697.124644
701.749533	8635.809090
702.084974	8494.429930
702.420366	8608.319678
702.755709	8490.074373
703.091002	8353.040688
703.426246	8386.166110
703.761440	8338.519645
704.096584	8295.301833
704.431679	8228.067964
704.766725	8212.064821
705.101721	8165.585383
705.436668	8210.928041
705.771565	8101.174560
706.106413	8178.410078
706.441212	8221.915236
706.775961	8178.523504
707.110661	8220.337355
707.445311	8363.206175
707.779913	8261.808407
708.114465	8387.297849
708.448967	8423.516019
708.783421	8575.920182
709.117825	8757.537832
709.452180	8792.057133
709.786485	8869.723670
710.120742	9157.311414
710.454949	9160.568000
710.789107	9263.009287
711.123216	9476.247574
711.457275	9651.180654
711.791286	9803.751175
712.125247	9796.824629
712.459159	9791.803640
712.793023	10033.176607
713.126837	9604.970917
713.460602	9764.271378
713.794318	9592.254606
714.127985	9618.100602
714.461602	9289.475345
714.795171	9237.523734
715.128691	8989.168769
715.462162	8743.430163
715.795584	8693.729427
716.128957	8536.964666
716.462281	8368.998461
716.795556	8421.239938
717.128782	8210.325623
717.461960	7946.607742
717.795088	8019.782611
718.128167	7923.478928
718.461198	7761.241994
718.794180	7698.625823
719.127113	7688.629214
719.459997	7534.216152
719.792833	7302.091182
720.125619	7366.030656
720.458357	7225.195941
720.791046	7218.718059
721.123686	7208.776903
721.456278	7052.193624
721.788821	7065.035963
722.121315	6969.682538
722.453761	7031.842486
722.786158	6975.361398
723.118506	6988.233984
723.450805	6956.104190
723.783056	7019.887389
724.115259	6932.075530
724.447412	6926.880621
724.779518	6971.388969
725.111574	6974.244782
725.443582	7055.200672
725.775542	7035.945985
726.107453	7230.960501
726.439315	7137.288301
726.771129	7201.532765
727.102895	7372.437963
727.434612	7479.408727
727.766281	7514.759818
728.097901	7585.421672
728.429473	7583.896723
728.760996	7565.395688
729.092471	7535.302520
729.423897	7484.260838
729.755276	7499.250708
730.086606	7420.802793
730.417887	7524.123762
730.749120	7727.327632
731.080305	7917.820233
731.411442	8031.460443
731.742530	8030.865587
732.073570	8143.255592
732.404562	8222.968837
732.735506	8073.445693
733.066401	8222.116882
733.397249	8141.498750
733.728048	7899.828355
734.058798	7569.221924
734.389501	7336.035791
734.720156	7160.649007
735.050762	6923.994561
735.381320	6836.676735
735.711831	6782.958200
736.042293	6672.110788
736.372707	6689.560742
736.703073	6552.947994
737.033391	6593.093222
737.363661	6607.662157
737.693883	6638.667774
738.024056	6719.495114
738.354182	6761.563543
738.684260	6796.539068
739.014290	6913.181286
739.344272	7021.495517
739.674207	7049.000053
740.004093	7122.583255
740.333931	7138.412478
740.663722	7144.091338
740.993464	7220.661423
741.323159	7210.377470
741.652806	6953.886082
741.982405	6978.020607
742.311956	7030.922475
742.641460	6858.991402
742.970915	6669.630541
743.300323	6663.077041
743.629683	6611.211129
743.958996	6475.001673
744.288260	6385.959772
744.617477	6335.303738
744.946647	6336.029664
745.275768	6169.157390
745.604842	6121.150482
745.933869	6106.916784
746.262847	6063.283077
746.591778	6056.931223
746.920662	6011.888513
747.249498	6005.846690
747.578286	6057.896604
747.907027	6132.109950
748.235720	6189.964752
748.564365	6159.465771
748.892963	6194.360638
749.221514	6340.107958
749.550017	6172.797103
749.878473	6048.880500
750.206881	6101.865547
750.535242	6043.221805
750.863555	5976.844932
751.191821	5991.330688
751.520039	5996.739846
751.848210	5899.531276
752.176334	5927.623106
752.504411	5976.028265
752.832440	5897.484568
753.160421	5830.167520
753.488356	5880.833637
753.816243	5911.297329
754.144082	5759.535913
754.471875	5732.575822
754.799620	5777.220281
755.127318	5785.707063
755.454969	5741.975054
755.782572	5705.588005
756.110129	5745.592082
756.437638	5731.774279
756.765100	5674.456360
757.092515	5673.216236
757.419882	5727.771603
757.747203	5705.892995
758.074477	5768.025216
758.401703	5751.344038
758.728882	5704.219332
759.056014	5766.502788
759.383099	5893.423918
759.710138	5902.815588
760.037129	5891.601541
760.364073	5891.636829
760.690970	5975.992977
761.017820	5952.695285
761.344623	5908.670888
761.671379	6015.762640
761.998088	6134.996011
762.324751	6385.420369
762.651366	6994.185066
762.977935	8324.217891
763.304456	9957.037540
763.630931	10852.482574
763.957359	10446.306726
764.283740	9494.317590
764.610074	8648.033888
764.936362	7649.023389
765.262602	7055.805610
765.588796	6518.942890
765.914943	6181.785480
766.241044	6018.563001
766.567097	5806.799251
766.893104	5552.548657
767.219064	5373.948138
767.544978	5309.975896
767.870845	5233.514195
768.196665	5127.342453
768.522438	5056.806629
768.848165	5023.887894
769.173846	4956.908604
769.499479	4915.142644
769.825066	4858.996793
770.150607	4799.203667
770.476101	4774.890182
770.801548	4766.950365
771.126949	4690.894477
771.452303	4635.620746
771.777611	4600.544397
772.102872	4617.568374
772.428087	4575.815017
772.753256	4538.187845
773.078378	4489.167665
773.403453	4420.204680
773.728482	4406.951487
774.053465	4363.698387
774.378401	4352.010471
774.703291	4350.301520
775.028135	4276.904841
775.352932	4227.937593
775.677683	4217.003330
776.002388	4234.261720
776.327046	4244.729676
776.651658	4169.964324
776.976224	4111.066003
777.300743	4117.566571
777.625216	4134.756905
777.949643	4129.098210
778.274024	4086.999534
778.598359	4041.515724
778.922647	4066.020772
779.246889	4057.223959
779.571086	4052.439904
779.895236	4034.427861
780.219339	4023.720451
780.543397	4017.693751
780.867409	4069.380702
781.191374	4080.022577
781.515294	4018.835572
781.839167	4007.755116
782.162995	4030.931821
782.486776	4015.279038
782.810511	4029.812685
783.134201	4024.630379
783.457844	3977.999706
783.781441	3926.222015
784.104993	3928.843415
784.428498	3950.691775
784.751958	3946.492494
785.075372	3924.634051
785.398739	3884.115777
785.722061	3898.253693
786.045337	3943.757668
786.368568	3975.264880
786.691752	3884.934965
787.014891	3942.121814
787.337983	4069.617636
787.661030	4228.960947
787.984031	4388.972211
788.306987	4557.911359
788.629897	4638.080829
788.952760	4598.532977
789.275579	4529.950599
789.598351	4465.446515
789.921078	4317.347498
790.243759	4123.225266
790.566395	4104.371350
790.888984	4097.036472
791.211529	3990.663084
791.534027	3928.682098
791.856480	3918.009975
792.178888	3859.648537
792.501249	3810.625836
792.823566	3819.389882
793.145836	3847.582535
793.468062	3790.836787
793.790241	3749.504367
794.112375	3779.446300
794.434464	3842.904344
794.756507	3867.757233
795.078505	3845.586238
795.400457	3882.921024
795.722364	4021.887991
796.044226	4128.089979
796.366042	4199.238304
796.687812	4178.647711
797.009538	4182.287424
797.331218	4141.685971
797.652852	4114.884677
797.974442	4095.511523
798.295986	4091.481120
798.617484	4011.901465
798.938938	3927.542797
799.260346	3970.932008
799.581709	3964.718786
799.903026	3890.152559
800.224299	3855.411447
800.545526	3847.723688
800.866708	3808.712718
801.187845	3747.936568
801.508936	3780.313378
801.829983	3779.940333
802.150984	3701.205072
802.471940	3694.107127
802.792851	3701.278168
803.113717	3702.840926
803.434538	3703.524002
803.755314	3645.853202
804.076045	3621.665746
804.396731	3640.436483
804.717372	3668.515709
805.037967	3650.720436
805.358518	3642.667193
805.679024	3670.753982
805.999485	3682.474664
806.319901	3686.656302
806.640272	3700.345555
806.960598	3715.274932
807.280879	3687.672094
807.601115	3699.959907
807.921306	3717.296435
808.241453	3754.391765
808.561554	3732.495513
808.881611	3664.008918
809.201623	3706.316802
809.521590	3714.491033
809.841513	3688.214018
810.161390	3716.694017
810.481223	3694.328938
810.801011	3639.745844
811.120755	3636.050679
811.440453	3669.186183
811.760107	3669.503776
812.079716	3623.967033
812.399281	3598.791511
812.718801	3617.889922
813.038276	3592.900922
813.357707	3590.581992
813.677093	3608.720063
813.996434	3553.310221
814.315731	3565.161973
814.634983	3568.534505
814.954191	3584.396496
815.273354	3612.027060
815.592473	3607.863067
815.911547	3610.386164
816.230577	3657.490706
816.549562	3708.260166
816.868502	3749.607710
817.187399	3771.133437
817.506250	3770.215947
817.825058	3742.943305
818.143821	3837.517872
818.462539	3941.453861
818.781213	3985.269050
819.099843	4041.306516
819.418429	4293.883447
819.736970	4533.209705
820.055466	4783.165236
820.373919	5154.335312
820.692327	5558.224996
821.010691	6018.318505
821.329011	7432.135307
821.647286	10212.457682
821.965517	14822.688656
822.283704	18846.603191
822.601847	20954.894388
822.919945	19104.070041
823.237999	16514.479722
823.556010	14013.477599
823.873976	11897.566698
824.191897	9802.281678
824.509775	8456.228067
824.827609	7325.295613
825.145398	6789.564632
825.463144	6676.811664
825.780845	6783.716893
826.098502	6988.586865
826.416116	7885.012404
826.733685	9215.448521
827.051210	10326.750722
827.368692	10344.238484
827.686129	9060.604439
828.003522	7544.394241
828.320872	6534.358739
828.638177	5824.924720
828.955439	5266.372435
829.272656	4765.831229
829.589830	4483.667766
829.906960	4307.434068
830.224046	4124.959423
830.541088	3998.179445
830.858086	3946.489974
831.175041	3874.698902
831.491952	3857.891695
831.808819	3873.753685
832.125642	3946.268163
832.442421	4092.932972
832.759157	4372.220457
833.075849	4933.321045
833.392497	5809.801258
833.709101	6585.042500
834.025662	6916.072388
834.342179	6533.879829
834.658653	5871.709148
834.975083	5218.105908
835.291469	4630.776197
835.607811	4232.280547
835.924110	4091.415585
836.240366	3891.463259
836.556578	3687.288966
836.872746	3576.587748
837.188871	3535.482180
837.504952	3468.908702
837.820990	3385.757390
838.136984	3343.048735
838.452935	3363.969523
838.768842	3363.808206
839.084706	3386.480796
839.400526	3546.479457
839.716303	3893.714134
840.032037	4426.692645
840.347727	4679.519113
840.663373	4392.939599
840.978977	4005.473994
841.294537	3699.357489
841.610054	3474.030515
841.925527	3365.600337
842.240957	3296.796148
842.556344	3242.076944
842.871687	3183.077800
843.186987	3134.612147
843.502244	3095.704521
843.817458	3062.727813
844.132629	3031.220602
844.447756	3039.097405
844.762840	3023.444622
845.077881	2992.174345
845.392879	2975.588949
845.707833	2974.079123
846.022745	2970.562918
846.337613	2970.686427
846.652438	2957.856690
846.967221	2956.929118
847.281960	2940.752055
847.596656	2939.416149
847.911309	2937.545881
848.225919	2932.172011
848.540485	2925.565579
848.855009	2926.314190
849.169490	2917.139290
849.483928	2907.964390
849.798323	2904.780902
850.112675	2902.615726
850.426984	2917.393869
850.741251	2911.979669
851.055474	2900.470715
851.369654	2893.350085
851.683792	2900.848802
851.997887	2908.733166
852.311938	2910.847930
852.625947	2899.437279
852.939914	2903.210582
853.253837	2908.728125
853.567718	2895.069119
853.881555	2893.372771
854.195350	2908.574370
854.509103	2901.975500
854.822812	2896.042062
855.136479	2892.573748
855.450103	2891.608367
855.763685	2886.171482
856.077224	2884.986811
856.390720	2896.699932
856.704173	2908.158475
857.017584	2897.614902
857.330953	2897.078019
857.644278	2905.141344
857.957561	2917.414033
858.270802	2918.200453
858.584000	2916.529311
858.897155	2903.024060
859.210268	2906.381468
859.523339	2902.146899
859.836367	2903.097156
860.149352	2893.881927
860.462295	2889.077708
860.775195	2896.115158
861.088054	2898.020714
861.400869	2882.325082
861.713642	2879.060935
862.026373	2893.012328
862.339062	2898.267731
862.651708	2900.755540
862.964312	2905.801735
863.276873	2899.671692
863.589392	2912.236768
863.901869	2919.090217
864.214303	2945.591563
864.526696	2957.844087
864.839045	2952.460135
865.151353	2951.484672
865.463619	2949.604321
865.775842	2952.923921
866.088023	2971.767754
866.400162	2980.355360
866.712258	2949.112809
867.024313	2939.040583
867.336325	2947.227417
867.648296	2969.708443
867.960224	2963.588482
868.272110	2952.187913
868.583954	2952.497943
868.895755	2965.178966
869.207515	2954.138839
869.519233	2962.602936
869.830909	2966.860191
870.142542	2977.978456
870.454134	2977.796974
870.765684	2979.725215
871.077191	2978.747232
871.388657	2989.439519
871.700081	3004.741941
872.011463	3013.717716
872.322803	3013.332068
872.634101	3013.294259
872.945357	3031.545756
873.256571	3055.604663
873.567744	3049.091492
873.878874	3042.870708
874.189963	3065.109759
874.501010	3066.047413
874.812015	3057.381670
875.122979	3054.656926
875.433900	3052.675753
875.744780	3060.713873
876.055618	3066.478432
876.366415	3063.426013
876.677169	3076.235585
876.987882	3071.081005
877.298554	3066.357444
877.609183	3087.444591
877.919771	3112.138683
878.230317	3140.081799
878.540822	3190.069880
878.851285	3229.448853
879.161707	3273.027108
879.472087	3376.552243
879.782425	3609.166205
880.092722	4051.673649
880.402977	4586.623251
880.713191	5226.887598
881.023363	6397.645167
881.333494	7687.535284
881.643583	8222.744506
881.953631	7920.981036
882.263637	7277.205526
882.573602	6685.260638
882.883526	6103.093068
883.193408	5536.248086
883.503248	5075.801697
883.813048	4764.984315
884.122806	4456.599290
884.432522	4137.443840
884.742197	3899.224115
885.051831	3704.817058
885.361424	3574.785536
885.670975	3499.626973
885.980485	3413.743356
886.289954	3335.555060
886.599382	3292.995118
886.908768	3251.695465
887.218113	3208.580997
887.527417	3151.487409
887.836680	3099.336673
888.145901	3096.995057
888.455082	3081.324630
888.764221	3032.067516
889.073319	3003.726149
889.382376	3001.853360
889.691392	3005.382168
890.000366	3008.172447
890.309300	2992.146618
890.618193	3004.305882
890.927044	3022.111237
891.235855	3020.893798
891.544625	3008.089268
891.853353	3022.212060
892.162041	3036.125645
892.470687	3077.200966
892.779293	3128.976137
893.087858	3176.786440
893.396381	3250.324272
893.704864	3373.267932
894.013306	3618.073924
894.321707	3925.029782
894.630068	4126.179382
894.938387	4122.227117
895.246665	4077.133996
895.554903	3954.467600
895.863100	3751.709871
896.171256	3583.975559
896.479371	3437.893003
896.787446	3317.507729
897.095480	3218.305383
897.403473	3149.201246
897.711425	3115.604476
898.019336	3107.092488
898.327207	3075.837334
898.635038	3040.279555
898.942827	3023.268182
899.250576	3013.841224
899.558284	2981.391317
899.865952	2959.966413
900.173579	2940.898248
900.481165	2932.845005
900.788711	2919.896802
901.096216	2897.128430
901.403681	2885.818602
901.711105	2891.477297
902.018489	2889.975033
902.325832	2889.397821
902.633135	2904.317116
902.940397	2933.011363
903.247619	3018.716020
903.554800	3213.354970
903.861941	3566.313877
904.169041	3996.445288
904.476101	4297.770177
904.783121	4243.602978
905.090100	3997.776152
905.397039	3721.072259
905.703938	3466.201603
906.010796	3287.139818
906.317614	3169.144051
906.624391	3073.667117
906.931129	3004.545336
907.237826	2940.197528
907.544483	2891.547873
907.851099	2861.759695
908.157675	2841.600121
908.464211	2822.408448
908.770707	2811.925368
909.077163	2792.073305
909.383578	2779.934206
909.689954	2770.214862
909.996289	2770.343411
910.302584	2767.628750
910.608839	2769.511621
910.915054	2764.883841
911.221229	2755.981164
911.527363	2756.845722
911.833458	2763.590785
912.139513	2768.274017
912.445527	2773.647887
912.751502	2783.261368
913.057436	2792.343006
913.363331	2804.837506
913.669186	2827.530260
913.975000	2863.604757
914.280775	2926.009201
914.586510	2995.574603
914.892205	3072.762230
915.197859	3207.303065
915.503475	3401.732807
915.809050	3618.643574
916.114585	3762.865945
916.420081	3781.757669
916.725536	3719.945561
917.030952	3600.850822
917.336328	3470.418528
917.641665	3336.422138
917.946961	3238.958990
918.252218	3167.702281
918.557435	3090.794437
918.862612	3027.250693
919.167750	2979.266470
919.472848	2938.821293
919.777906	2910.653846
920.082925	2885.616955
920.387904	2852.972964
920.692843	2837.655418
920.997743	2826.360712
921.302603	2810.985193
921.607423	2801.071764
921.912204	2787.669857
922.216946	2778.515121
922.521647	2770.431631
922.826310	2761.234046
923.130932	2757.387646
923.435516	2744.066397
923.740059	2736.688668
924.044564	2731.415621
924.349028	2722.296174
924.653454	2717.577654
924.957840	2712.881819
925.262186	2708.317054
925.566493	2703.590972
925.870761	2698.209541
926.174989	2698.259952
926.479178	2692.248376
926.783328	2683.869978
927.087438	2684.381656
927.391509	2682.385359
927.695541	2680.333609
927.999533	2678.239010
928.303486	2673.938905
928.607400	2675.526869
928.911275	2671.987979
929.215110	2673.031498
929.518906	2669.366579
929.822663	2670.228616
930.126381	2667.758451
930.430060	2671.015036
930.733699	2672.038390
931.037299	2673.270953
931.340861	2674.432938
931.644383	2675.368072
931.947866	2672.355983
932.251309	2669.782474
932.554714	2671.249450
932.858080	2668.529747
933.161407	2668.030673
933.464694	2663.788542
933.767943	2662.445075
934.071153	2667.332473
934.374323	2664.292657
934.677455	2662.598830
934.980548	2663.959941
935.283602	2657.739157
935.586617	2658.165135
935.889593	2663.332318
936.192530	2664.416166
936.495428	2662.934067
936.798287	2664.698470
937.101108	2666.765343
937.403890	2672.063596
937.706632	2675.690706
938.009336	2685.367201
938.312002	2692.049251
938.614628	2700.432689
938.917216	2707.737321
939.219765	2707.538196
939.522275	2706.933257
939.824747	2704.616847
940.127179	2702.290355
940.429573	2701.176260
940.731929	2697.508820
941.034246	2692.540763
941.336524	2689.407686
941.638763	2687.061029
941.940964	2685.604135
942.243126	2685.157993
942.545250	2684.663960
942.847335	2678.750687
943.149381	2676.938392
943.451389	2672.260201
943.753359	2671.196518
944.055290	2669.487567
944.357182	2667.942453
944.659036	2668.847340
944.960851	2664.973213
945.262628	2662.984478
945.564367	2665.321053
945.866067	2663.092863
946.167729	2665.805004
946.469352	2664.164108
946.770937	2666.851043
947.072484	2663.297030
947.373992	2664.789211
947.675462	2664.612771
947.976893	2658.833088
948.278286	2658.086997
948.579641	2657.948365
948.880958	2653.854948
949.182236	2657.214877
949.483476	2655.909219
949.784678	2655.873931
950.085841	2655.510967
950.386967	2657.235042
950.688054	2655.594147
950.989103	2656.851914
951.290114	2657.837460
951.591087	2658.923829
951.892021	2663.072698
952.192917	2665.966321
952.493776	2667.138389
952.794596	2668.512103
953.095378	2667.024963
953.396122	2666.621671
953.696828	2665.618481
953.997496	2664.068326
954.298126	2662.702173
954.598718	2660.915084
954.899272	2656.408293
955.199788	2654.071718
955.500266	2650.903353
955.800706	2651.833446
956.101108	2650.424443
956.401472	2646.320944
956.701798	2644.548978
957.002087	2641.191570
957.302337	2642.212404
957.602550	2639.064203
957.902724	2636.445324
958.202861	2635.845426
958.502960	2635.182515
958.803022	2634.706126
959.103045	2634.388533
959.403031	2637.077988
959.702979	2634.078502
960.002889	2633.486166
960.302762	2633.110600
960.602596	2632.099849
960.902393	2630.496762
961.202153	2630.418624
961.501875	2632.961886
961.801559	2631.467184
962.101205	2632.566156
962.400814	2631.494911
962.700385	2631.782256
962.999918	2626.683129
963.299414	2626.325207
963.598873	2628.757564
963.898293	2625.251442
964.197677	2630.176649
964.497022	2625.732872
964.796331	2626.940228
965.095601	2628.074488
965.394835	2629.536422
965.694030	2625.105248
965.993189	2628.175311
966.292309	2625.586678
966.591393	2625.085083
966.890439	2624.525515
967.189447	2628.107255
967.488419	2629.244035
967.787353	2625.997532
968.086249	2624.676750
968.385108	2628.540794
968.683930	2627.076339
968.982714	2627.504837
969.281462	2626.494086
969.580172	2629.919550
969.878844	2628.228243
970.177480	2628.462657
970.476078	2627.368726
970.774639	2628.200517
971.073162	2627.938377
971.371649	2629.964920
971.670098	2628.901237
971.968510	2628.344189
972.266885	2628.724797
972.565223	2628.785290
972.863524	2628.399642
973.161788	2627.373767
973.460014	2629.788480
973.758204	2630.030455
974.056356	2626.915022
974.354471	2627.000722
974.652550	2626.907461
974.950591	2627.487193
975.248595	2627.530043
975.546563	2631.275620
975.844493	2629.148253
976.142386	2627.661113
976.440243	2626.932666
976.738062	2627.482152
977.035845	2626.567183
977.333590	2626.988119
977.631299	2625.599281
977.928971	2624.591050
978.226606	2623.497120
978.524204	2622.869496
978.821765	2622.604836
979.119290	2624.434775
979.416777	2623.295474
979.714228	2625.629528
980.011642	2625.251442
980.309020	2624.623818
980.606360	2627.777060
980.903664	2627.822430
981.200931	2625.359826
981.498162	2626.897378
981.795356	2627.671195
982.092513	2629.927112
982.389633	2629.629684
982.686717	2637.254429
982.983764	2638.285345
983.280775	2640.563946
983.577749	2640.248874
983.874686	2646.147024
984.171587	2639.777526
984.468451	2636.674696
984.765279	2636.919192
985.062070	2632.361989
985.358824	2632.510703
985.655543	2629.813686
985.952224	2628.142543
986.248869	2626.819240
986.545478	2625.498458
986.842050	2626.741102
987.138586	2625.886627
987.435086	2625.075001
987.731549	2621.168107
988.027975	2623.665999
988.324366	2623.260186
988.620719	2622.972840
988.917037	2622.519136
989.213318	2621.742798
989.509563	2619.388580
989.805772	2622.932511
990.101944	2620.250617
990.398080	2622.239352
990.694180	2623.098869
990.990244	2621.606687
991.286271	2622.899743
991.582262	2621.490741
991.878217	2622.085597
992.174136	2623.741616
992.470019	2620.679115
992.765865	2619.978395
993.061676	2616.162241
993.357450	2618.849176
993.653188	2618.072838
993.948890	2623.018210
994.244556	2625.904271
994.540186	2622.607356
994.835780	2623.290433
995.131337	2623.850001
995.426859	2623.610546
995.722345	2625.952162
996.017795	2624.535598
996.313208	2626.310084
996.608586	2629.022225
996.903928	2623.000566
997.199234	2626.864611
997.494504	2625.533746
997.789738	2627.222533
998.084936	2625.760598
998.380099	2623.930659
998.675225	2625.518623
998.970316	2624.737244
999.265371	2624.011318
999.560390	2626.816720
999.855373	2620.447222
1000.150320	2623.229939
1000.445232	2620.759773
1000.740108	2619.880092
1001.034948	2621.755401
1001.329752	2619.761625
1001.624521	2620.343878
1001.919254	2618.753394
1002.213951	2619.585185
1002.508613	2619.136522
1002.803239	2621.311780
1003.097829	2621.137860
1003.392384	2618.700462
1003.686903	2619.101234
1003.981386	2618.571913
1004.275834	2618.982767
1004.570246	2623.018210
1004.864623	2618.249279
1005.158964	2618.370267
1005.453270	2622.942593
1005.747540	2620.744650
1006.041775	2619.365894
1006.335974	2617.664505
1006.630138	2619.998559
1006.924266	2620.600977
1007.218359	2619.043261
1007.512416	2616.376490
1007.806438	2615.854731
1008.100425	2618.546707
1008.394376	2615.302724
1008.688292	2618.566872
1008.982172	2619.537294
1009.276017	2620.374125
1009.569827	2616.999073
1009.863602	2620.631224
1010.157341	2618.614762
1010.451045	2618.980246
1010.744714	2618.012345
1011.038347	2619.892695
1011.331945	2615.219545
1011.625508	2619.280195
1011.919036	2620.543004
1012.212528	2616.873044
1012.505986	2618.740791
1012.799408	2617.987139
1013.092795	2617.972015
1013.386147	2620.149794
1013.679464	2621.029475
1013.972745	2619.673405
1014.265992	2618.584516
1014.559204	2618.594598
1014.852380	2618.934876
1015.145521	2619.191975
1015.438628	2618.428240
1015.731699	2619.570061
1016.024736	2617.457818
1016.317737	2616.832715
1016.610703	2615.819443
1016.903635	2619.504526
1017.196531	2617.445215
1017.489393	2616.542848
1017.782219	2617.246089
1018.075011	2618.801285
1018.367768	2618.561830
1018.660490	2615.743825
1018.953177	2615.743825
1019.245829	2615.743825
