Dividing Wavelength (nm)	Counts (n)	Blue Motor Position (mm): 0.000000	Red Motor Position (mm): 9.300000	
326.493990	2129.151492
326.888308	2129.151492
327.282561	2129.151492
327.676750	2094.828796
328.070874	2096.242839
328.464933	2098.002202
328.858929	2103.393716
329.252859	2115.404265
329.646726	2126.608229
330.040528	2138.875877
330.434265	2156.663589
330.827938	2171.615651
331.221547	2190.023424
331.615091	2208.625282
332.008571	2227.832078
332.401986	2246.726323
332.795338	2267.538726
333.188625	2285.865841
333.581847	2304.959211
333.975006	2325.277582
334.368100	2341.684017
334.761129	2361.659589
335.154095	2380.006869
335.546996	2394.096894
335.939833	2409.714388
336.332606	2422.871800
336.725315	2436.107349
337.117960	2444.591611
337.510540	2452.627210
337.903056	2463.798407
338.295508	2473.863071
338.687896	2483.093424
339.080220	2489.389825
339.472480	2496.908706
339.864676	2501.743172
340.256807	2502.577483
340.648875	2505.687875
341.040879	2506.890190
341.432818	2510.487054
341.824694	2517.310255
342.216506	2512.871519
342.608253	2515.513084
342.999937	2516.480986
343.391557	2513.728516
343.783113	2511.701972
344.174605	2510.318175
344.566033	2507.210304
344.957397	2511.064266
345.348697	2505.950015
345.739934	2502.572442
346.131106	2502.895076
346.522215	2504.803153
346.913260	2497.405259
347.304241	2497.027173
347.695159	2496.840650
348.086012	2495.933242
348.476802	2492.454846
348.867528	2492.099445
349.258191	2489.162973
349.648789	2491.444095
350.039324	2488.076604
350.429796	2488.346306
350.820203	2484.721716
351.210548	2485.429998
351.600828	2482.206181
351.991045	2483.156438
352.381198	2481.134935
352.771288	2480.139308
353.161314	2479.294914
353.551276	2483.481593
353.941175	2480.623258
354.331010	2482.475882
354.720782	2481.989411
355.110490	2481.510501
355.500135	2483.428660
355.889717	2479.320120
356.279235	2479.826756
356.668689	2481.170223
357.058080	2484.331027
357.447408	2478.541262
357.836672	2480.121663
358.225873	2481.586119
358.615010	2477.767445
359.004084	2484.129381
359.393095	2486.229021
359.782043	2485.258599
360.170927	2486.725575
360.559748	2485.543424
360.948505	2489.049547
361.337199	2488.333703
361.725830	2488.111892
362.114398	2486.904536
362.502903	2489.372181
362.891344	2487.078456
363.279722	2488.878148
363.668037	2491.489465
364.056289	2490.244300
364.444478	2490.372850
364.832603	2491.761688
365.220665	2492.598519
365.608665	2494.756133
365.996601	2494.292347
366.384474	2491.449136
366.772284	2495.081287
367.160031	2495.126658
367.547715	2499.111690
367.935336	2500.074550
368.322893	2502.776609
368.710388	2507.132166
369.097820	2513.655419
369.485189	2515.419823
369.872495	2522.769825
370.259738	2527.067409
370.646918	2535.934798
371.034035	2540.318082
371.421090	2553.903991
371.808081	2563.630897
372.195010	2571.376630
372.581875	2585.754001
372.968678	2599.125662
373.355418	2606.871395
373.742096	2626.647841
374.128710	2640.695016
374.515262	2656.713283
374.901751	2672.179543
375.288177	2683.575071
375.674540	2706.603062
376.060841	2724.103427
376.447079	2743.211921
376.833254	2759.474683
377.219367	2770.270314
377.605417	2807.932775
377.991404	2812.273208
378.377329	2831.706856
378.763191	2848.022551
379.148991	2877.714947
379.534727	2893.587020
379.920402	2916.153745
380.306013	2919.518715
380.691563	2957.161011
381.077049	2967.812969
381.462474	2974.724391
381.847835	3002.042403
382.233134	3011.328209
382.618371	2999.496621
383.003545	3040.511448
383.388657	3036.251673
383.773706	3045.008158
384.158693	3042.979093
384.543618	3046.026471
384.928480	3057.106927
385.313280	3070.067733
385.698017	3051.980073
386.082692	3070.332394
386.467305	3052.617779
386.851856	3051.556617
387.236344	3045.010678
387.620770	3038.205121
388.005133	3026.683563
388.389435	3021.012265
388.773674	3002.407887
389.157851	2996.945797
389.541965	2981.250164
389.926018	2943.892694
390.310008	2943.519648
390.693936	2930.064809
391.077802	2920.058118
391.461606	2890.975702
391.845348	2886.988149
392.229027	2861.434540
392.612645	2846.495081
392.996200	2839.485357
393.379694	2826.060764
393.763125	2817.589105
394.146494	2787.369908
394.529801	2777.481685
394.913047	2762.252359
395.296230	2738.269070
395.679351	2725.923284
396.062410	2707.361755
396.445408	2687.005576
396.828343	2674.455624
397.211217	2654.797644
397.594028	2635.016157
397.976778	2625.208592
398.359466	2616.038733
398.742092	2602.530961
399.124656	2591.568972
399.507158	2588.163673
399.889598	2578.005748
400.271977	2570.454099
400.654294	2563.945970
401.036549	2556.734599
401.418742	2552.865513
401.800874	2548.706562
402.182944	2545.334030
402.564952	2539.657690
402.946898	2535.526465
403.328783	2532.111083
403.710606	2528.486493
404.092367	2529.436751
404.474067	2527.747964
404.855705	2527.437933
405.237282	2524.163704
405.618797	2524.317459
406.000250	2523.974661
406.381642	2520.506347
406.762972	2522.293436
407.144240	2521.938035
407.525447	2523.324352
407.906593	2521.582633
408.287677	2520.057684
408.668700	2521.895185
409.049661	2517.058198
409.430560	2519.530884
409.811399	2522.139681
410.192176	2520.713034
410.572891	2520.917201
410.953545	2518.257992
411.334138	2521.098682
411.714669	2521.050792
412.095139	2523.601615
412.475547	2521.459125
412.855894	2522.026255
413.236180	2517.995852
413.616405	2521.141532
413.996568	2521.945596
414.376670	2522.336286
414.756711	2522.933662
415.136691	2523.992305
415.516609	2521.736388
415.896466	2521.756553
416.276262	2521.927952
416.655997	2516.967457
417.035670	2518.618435
417.415283	2522.646317
417.794834	2515.931500
418.174324	2520.075328
418.553753	2522.280833
418.933121	2523.304187
419.312428	2519.266223
419.691674	2522.888292
420.070859	2521.320493
420.449983	2523.258817
420.829045	2522.853004
421.208047	2524.824095
421.586988	2524.640093
421.965867	2522.432068
422.344686	2524.196472
422.723444	2521.353261
423.102141	2522.676564
423.480777	2525.789476
423.859352	2522.764784
424.237866	2523.054650
424.616319	2524.642614
424.994712	2524.665299
425.373044	2525.338293
425.751314	2524.496420
426.129524	2522.081708
426.507673	2524.171266
426.885762	2523.775535
427.263789	2525.232429
427.641756	2524.143539
428.019662	2524.768643
428.397508	2525.655886
428.775292	2526.727131
429.153016	2526.273427
429.530679	2527.105217
429.908282	2523.566327
430.285824	2525.529857
430.663305	2527.087573
431.040726	2525.169414
431.418086	2526.210412
431.795385	2527.745444
432.172624	2528.491535
432.549802	2525.960875
432.926920	2527.944569
433.303977	2527.085053
433.680974	2525.935670
434.057910	2528.274765
434.434786	2525.176976
434.811601	2528.952800
435.188355	2527.790814
435.565050	2525.940711
435.941683	2527.526154
436.318257	2526.061698
436.694770	2524.272089
437.071222	2525.882738
437.447614	2523.064733
437.823946	2524.647655
438.200218	2527.589168
438.576429	2528.478932
438.952580	2529.124199
439.328670	2529.550177
439.704700	2530.084539
440.080670	2527.183355
440.456580	2526.530526
440.832429	2527.586647
441.208218	2529.164529
441.583947	2530.886083
441.959616	2528.925074
442.335224	2528.645290
442.710773	2530.132430
443.086261	2528.110928
443.461689	2528.990609
443.837057	2531.806093
444.212365	2528.753675
444.587612	2528.637728
444.962800	2532.716022
445.337927	2529.812317
445.712995	2530.535722
446.088002	2529.582944
446.462949	2531.019673
446.837837	2528.688140
447.212664	2529.555218
447.587431	2531.662420
447.962139	2531.821217
448.336786	2533.371372
448.711374	2535.075282
449.085901	2533.202493
449.460369	2531.077647
449.834776	2533.391536
450.209124	2532.169056
450.583412	2531.364992
450.957640	2533.479756
451.331808	2531.664941
451.705917	2530.434899
452.079965	2532.368182
452.453954	2530.702081
452.827883	2533.840199
453.201752	2532.874818
453.575562	2533.452030
453.949311	2537.810107
454.323001	2533.525127
454.696632	2534.049407
455.070202	2533.333563
455.443713	2535.889428
455.817164	2531.004550
456.190556	2530.238294
456.563888	2530.598737
456.937160	2530.089580
457.310373	2535.160981
457.683526	2530.049251
458.056619	2536.335570
458.429653	2531.455733
458.802628	2537.500077
459.175542	2530.959179
459.548398	2537.323636
459.921194	2535.375230
460.293930	2535.571835
460.666607	2536.305323
461.039224	2537.159799
461.411782	2536.630477
461.784280	2539.574511
462.156719	2537.311033
462.529099	2535.947401
462.901419	2537.487474
463.273680	2536.350693
463.645882	2537.111908
464.018024	2537.807587
464.390106	2537.026208
464.762130	2539.876981
465.134094	2536.045704
465.505999	2538.329346
465.877845	2539.219110
466.249631	2541.139790
466.621358	2539.587114
466.993026	2542.415202
467.364634	2542.170706
467.736184	2541.578370
468.107674	2539.382947
468.479105	2539.052752
468.850477	2537.258101
469.221790	2541.759852
469.593043	2538.588966
469.964238	2541.520397
470.335373	2538.962011
470.706449	2539.614841
471.077467	2539.526620
471.448425	2540.088709
471.819324	2540.081147
472.190164	2541.958977
472.560945	2539.965201
472.931667	2539.226672
473.302330	2538.077289
473.672934	2538.127700
474.043479	2535.682741
474.413965	2535.657535
474.784393	2534.311547
475.154761	2538.861188
475.525070	2535.561753
475.895321	2535.317257
476.265513	2535.032432
476.635645	2539.624923
477.005719	2538.447813
477.375734	2539.514018
477.745691	2541.321271
478.115588	2539.256919
478.485427	2540.434028
478.855207	2543.567105
479.224928	2541.076775
479.594591	2540.693648
479.964194	2540.814635
480.333739	2544.968546
480.703226	2541.651467
481.072653	2540.209697
481.442022	2540.842362
481.811333	2541.812784
482.180584	2545.530635
482.549777	2543.524255
482.918912	2543.846889
483.287988	2539.342618
483.657005	2539.980324
484.025964	2542.074924
484.394864	2539.508976
484.763706	2542.067362
485.132489	2539.884542
485.501213	2543.373021
485.869879	2542.326981
486.238487	2541.419574
486.607036	2540.829759
486.975527	2540.451672
487.343959	2540.822197
487.712333	2541.560726
488.080648	2542.591642
488.448905	2543.277239
488.817104	2540.605427
489.185244	2541.079296
489.553326	2540.865047
489.921350	2541.951415
490.289315	2547.322765
490.657222	2545.661705
491.025070	2543.788916
491.392861	2544.590459
491.760593	2544.245140
492.128267	2542.926879
492.495883	2543.166333
492.863440	2542.616848
493.230939	2541.853113
493.598380	2542.689944
493.965763	2537.149716
494.333088	2541.858154
494.700354	2541.318751
495.067563	2540.827238
495.434713	2535.637370
495.801805	2543.897301
496.168839	2543.632640
496.535815	2540.736497
496.902733	2541.621220
497.269593	2540.978473
497.636395	2544.182126
498.003139	2541.331353
498.369825	2539.811446
498.736453	2542.740356
499.103023	2542.775644
499.469535	2542.339584
499.835989	2541.054090
500.202385	2543.322609
500.568723	2542.725233
500.935003	2542.591642
501.301226	2541.976621
501.667390	2544.494677
502.033497	2546.334699
502.399546	2539.758513
502.765537	2543.594832
503.131470	2543.279759
503.497345	2543.120963
503.863163	2543.869574
504.228923	2541.001158
504.594625	2545.880995
504.960269	2545.351674
505.325856	2541.752290
505.691385	2542.765562
506.056856	2543.299924
506.422270	2543.017619
506.787625	2545.712116
507.152924	2543.582229
507.518164	2542.558874
507.883347	2544.766900
508.248472	2544.368649
508.613540	2542.846220
508.978550	2545.117260
509.343503	2544.834955
509.708398	2545.439894
510.073236	2545.351674
510.438016	2548.197405
510.802738	2543.869574
511.167403	2542.914276
511.532010	2543.060469
511.896561	2545.442414
512.261053	2547.537014
512.625488	2542.447969
512.989866	2540.499563
513.354186	2541.507794
513.718449	2538.745242
514.082655	2541.941333
514.446803	2543.226827
514.810894	2543.562064
515.174927	2548.439380
515.538904	2545.848227
515.902822	2541.464944
516.266684	2544.214893
516.630488	2545.979297
516.994235	2545.820501
517.357925	2543.612476
517.721558	2545.760007
518.085133	2543.410829
518.448651	2545.001313
518.812112	2544.630789
519.175516	2544.635830
519.538863	2544.411498
519.902152	2547.567261
520.265385	2544.305634
520.628560	2542.735315
520.991678	2547.085831
521.354739	2545.570964
521.717743	2544.459389
522.080690	2544.421581
522.443580	2546.760676
522.806413	2547.781510
523.169189	2545.747404
523.531908	2544.769420
523.894569	2545.056766
524.257174	2546.952240
524.619722	2544.658515
524.982213	2549.099772
525.344647	2543.118443
525.707025	2544.242620
526.069345	2543.554502
526.431608	2546.995090
526.793815	2544.003165
527.155964	2546.070038
527.518057	2545.792775
527.880093	2545.467620
528.242072	2547.922662
528.603995	2546.526262
528.965860	2547.710934
529.327669	2545.162630
529.689421	2545.570964
530.051117	2545.780172
530.412755	2545.157589
530.774337	2545.429812
531.135862	2545.792775
531.497331	2543.786395
531.858743	2544.822352
532.220098	2543.373021
532.581396	2540.842362
532.942638	2543.776313
533.303824	2545.205480
533.664953	2547.257230
534.026025	2547.274874
534.387040	2545.586087
534.747999	2546.047353
535.108902	2543.882177
535.469748	2547.766386
535.830537	2544.756817
536.191270	2544.373690
536.551947	2549.908877
536.912567	2545.369318
537.273131	2546.193546
537.633638	2545.351674
537.994089	2548.656150
538.354483	2545.722198
538.714821	2548.031047
539.075103	2545.155069
539.435328	2548.247817
539.795497	2545.502908
540.155609	2546.911911
540.515665	2547.491643
540.875665	2548.956099
541.235609	2546.385110
541.595496	2546.702703
541.955328	2544.945861
542.315102	2547.191695
542.674821	2545.379400
543.034483	2547.007693
543.394090	2546.959802
543.753640	2547.521890
544.113134	2548.245296
544.472571	2548.293187
544.831953	2548.376366
545.191278	2546.574153
545.550548	2545.525593
545.909761	2549.649257
546.268918	2545.397044
546.628019	2545.961653
546.987064	2547.912580
547.346053	2545.949050
547.704986	2546.647250
548.063863	2547.912580
548.422684	2544.976108
548.781449	2549.074566
549.140158	2546.385110
549.498811	2549.314021
549.857408	2545.119781
550.215949	2544.204811
550.574434	2543.703216
550.932864	2546.553989
551.291237	2542.778165
551.649555	2546.150697
552.007817	2546.677497
552.366022	2546.737991
552.724173	2547.534493
553.082267	2545.790254
553.440305	2547.239586
553.798288	2547.085831
554.156215	2548.194884
554.514086	2546.284287
554.871902	2546.299411
555.229661	2544.903011
555.587365	2547.431150
555.945014	2548.842673
556.302606	2547.673125
556.660143	2546.354863
557.017625	2545.157589
557.375050	2547.322765
557.732421	2546.848896
558.089735	2546.647250
558.446994	2548.086500
558.804197	2546.188505
559.161345	2547.300080
559.518437	2546.304452
559.875474	2544.847558
560.232455	2548.376366
560.589381	2546.248999
560.946251	2546.806047
561.303065	2545.397044
561.659825	2546.402754
562.016528	2546.130532
562.373177	2546.864020
562.729770	2547.839483
563.086307	2547.058104
563.442789	2547.615152
563.799216	2548.119267
564.155587	2548.613300
564.511904	2547.700851
564.868164	2545.419729
565.224370	2549.435008
565.580520	2545.218083
565.936615	2547.731098
566.292654	2548.638506
566.648638	2547.844524
567.004567	2547.322765
567.360441	2543.415871
567.716260	2548.303269
568.072023	2545.240768
568.427732	2541.593493
568.783385	2546.299411
569.138982	2543.040305
569.494525	2544.988711
569.850013	2543.090716
570.205445	2546.382590
570.560823	2547.421067
570.916145	2547.854607
571.271412	2546.795964
571.626625	2546.672456
571.981782	2545.084492
572.336884	2547.234545
572.691931	2546.480892
573.046923	2546.569112
573.401860	2545.402085
573.756743	2548.446942
574.111570	2544.431663
574.466342	2548.076417
574.821059	2544.335881
575.175722	2547.279915
575.530330	2547.864689
575.884882	2543.040305
576.239380	2547.237065
576.593823	2548.946016
576.948211	2546.622044
577.302544	2547.942827
577.656823	2548.250337
578.011047	2548.242775
578.365216	2548.734288
578.719330	2545.868392
579.073389	2548.378887
579.427394	2545.593649
579.781344	2546.682538
580.135239	2548.056253
580.489080	2546.301931
580.842866	2547.862168
581.196597	2551.209494
581.550273	2549.936603
581.903895	2546.518701
582.257463	2547.645399
582.610975	2544.403937
582.964434	2546.856458
583.317837	2547.058104
583.671186	2547.390820
584.024481	2547.998279
584.377721	2550.423074
584.730906	2547.141283
585.084037	2547.274874
585.437113	2547.496685
585.790135	2548.386448
586.143103	2545.581046
586.496016	2547.277394
586.848874	2543.191539
587.201679	2544.613145
587.554428	2541.464944
587.907124	2545.833104
588.259765	2541.717002
588.612352	2545.797816
588.964884	2545.447456
589.317362	2545.636499
589.669786	2547.605069
590.022155	2545.197918
590.374470	2548.204967
590.726731	2545.102137
591.078937	2548.794782
591.431090	2549.429967
591.783188	2549.661860
592.135232	2544.877805
592.487222	2543.562064
592.839157	2546.485933
593.191038	2544.161961
593.542866	2547.128680
593.894639	2547.663043
594.246358	2547.105995
594.598022	2544.499719
594.949633	2546.342260
595.301190	2543.932589
595.652692	2543.897301
596.004141	2544.903011
596.355535	2549.530790
596.706876	2546.531304
597.058162	2544.958464
597.409395	2543.990562
597.760573	2545.916283
598.111698	2545.573484
598.462768	2549.051881
598.813785	2543.461241
599.164748	2548.787220
599.515657	2543.894780
599.866511	2546.185985
600.217312	2544.401416
600.568060	2544.275387
600.918753	2547.118598
601.269392	2545.412168
601.619978	2542.896632
601.970510	2546.306972
602.320988	2546.732950
602.671412	2542.858823
603.021783	2546.470810
603.372100	2547.201777
603.722363	2546.990049
604.072572	2544.570295
604.422728	2548.588094
604.772830	2541.517876
605.122878	2542.889070
605.472872	2541.432177
605.822813	2538.306661
606.172701	2544.340922
606.522534	2544.078782
606.872314	2546.677497
607.222041	2545.908721
607.571714	2544.207332
607.921333	2545.223124
608.270899	2544.434184
608.620411	2545.817980
608.969870	2546.496016
609.319276	2547.670604
609.668627	2547.738660
610.017926	2553.888868
610.367171	2555.353323
610.716362	2551.169165
611.065500	2552.164793
611.414585	2550.846531
611.763616	2550.097920
612.112594	2545.611293
612.461518	2545.734801
612.810389	2547.201777
613.159207	2548.769576
613.507971	2546.458207
613.856682	2545.127342
614.205340	2544.920655
614.553945	2547.055584
614.902496	2547.476520
615.250994	2549.918959
615.599439	2543.990562
615.947830	2546.697662
616.296169	2544.489636
616.644454	2548.835111
616.992686	2544.774462
617.340864	2542.682383
617.688990	2546.228834
618.037063	2545.898639
618.385082	2545.341591
618.733048	2545.555840
619.080961	2546.402754
619.428821	2543.844369
619.776628	2546.780841
620.124382	2547.012734
620.472083	2546.208670
620.819731	2545.210521
621.167326	2544.388813
621.514868	2545.124822
621.862357	2545.326468
622.209793	2543.441076
622.557176	2546.296890
622.904506	2544.101468
623.251783	2541.533000
623.599007	2541.137269
623.946179	2540.585263
624.293297	2541.059131
624.640363	2544.298072
624.987376	2544.509801
625.334336	2544.764379
625.681243	2545.646581
626.028097	2545.049204
626.374899	2543.965356
626.721647	2546.382590
627.068343	2546.009544
627.414987	2547.148845
627.761577	2543.534338
628.108115	2543.075593
628.454600	2543.531817
628.801032	2544.101467
629.147412	2543.952753
629.493739	2546.296890
629.840014	2543.201622
630.186236	2546.803526
630.532405	2543.730943
630.878521	2542.024512
631.224585	2541.671631
631.570597	2543.773792
631.916556	2544.300593
632.262462	2544.870243
632.608316	2541.424615
632.954117	2541.840510
633.299866	2542.301776
633.645562	2540.050900
633.991206	2543.632640
634.336797	2540.741538
634.682336	2545.472661
635.027823	2541.863195
635.373257	2544.149358
635.718639	2542.218597
636.063968	2542.200952
636.409245	2542.301776
636.754470	2542.858823
637.099642	2542.221117
637.444762	2543.501570
637.789829	2541.762372
638.134845	2545.192877
638.479808	2543.783875
638.824719	2542.102650
639.169577	2541.863195
639.514383	2543.879657
639.859137	2540.350849
640.203839	2541.527958
640.548489	2542.369831
640.893086	2541.918648
641.237632	2536.176774
641.582125	2539.231713
641.926566	2537.673996
642.270955	2540.038298
642.615292	2542.334543
642.959576	2542.032074
643.303809	2544.787064
643.647990	2542.127856
643.992118	2541.228010
644.336195	2543.473844
644.680219	2544.653474
645.024192	2543.408309
645.368112	2543.163813
645.711981	2546.057435
646.055797	2541.275901
646.399562	2541.807743
646.743274	2542.079965
647.086935	2542.117773
647.430544	2540.774306
647.774101	2542.145500
648.117606	2539.105684
648.461059	2544.351005
648.804460	2546.682538
649.147810	2539.524100
649.491108	2541.033925
649.834354	2543.176416
650.177548	2542.785726
650.520690	2540.638195
650.863781	2541.235572
651.206820	2546.054915
651.549807	2540.970911
651.892742	2544.262784
652.235626	2541.507794
652.578458	2541.449821
652.921238	2539.750952
653.263967	2545.200439
653.606644	2543.877136
653.949269	2541.618699
654.291843	2542.526107
654.634365	2543.796478
654.976836	2539.819007
655.319255	2543.413350
655.661622	2542.377393
656.003938	2539.927392
656.346203	2541.482588
656.688416	2538.967052
657.030577	2542.586601
657.372687	2539.710622
657.714746	2542.596683
658.056753	2539.766075
658.398708	2535.236598
658.740612	2538.651980
659.082465	2535.075282
659.424266	2538.914120
659.766016	2537.837834
660.107715	2543.055428
660.449362	2542.369831
660.790958	2541.096940
661.132503	2541.117104
661.473996	2541.187681
661.815438	2542.085006
662.156829	2541.386806
662.498168	2540.081147
662.839456	2541.880839
663.180693	2539.549306
663.521879	2542.382434
663.863013	2540.267670
664.204097	2540.612989
664.545129	2538.687268
664.886110	2541.903524
665.227040	2543.352856
665.567918	2540.350849
665.908746	2539.503935
666.249522	2541.777496
666.590248	2541.006199
666.930922	2541.051569
667.271545	2542.105171
667.612118	2541.623740
667.952639	2542.684903
668.293109	2542.382434
668.633528	2538.379758
668.973896	2539.811446
669.314213	2539.758513
669.654480	2539.362783
669.994695	2538.193235
670.334859	2538.475540
670.674973	2537.366486
671.015035	2540.265149
671.355047	2539.753472
671.695008	2539.934954
672.034918	2540.489481
672.374777	2539.902186
672.714585	2543.572146
673.054342	2539.985365
673.394049	2541.296065
673.733705	2541.701878
674.073310	2539.849254
674.412864	2542.475695
674.752368	2540.484440
675.091820	2539.206507
675.431223	2539.939995
675.770574	2543.594832
676.109875	2536.650642
676.449125	2536.678368
676.788324	2536.847247
677.127473	2539.324974
677.466571	2536.093595
677.805619	2541.359080
678.144616	2539.980324
678.483562	2540.101312
678.822458	2539.302289
679.161303	2542.795809
679.500098	2540.991076
679.838842	2541.696837
680.177535	2542.463093
680.516179	2541.527958
680.854771	2540.275232
681.193314	2538.457896
681.531805	2541.376724
681.870247	2541.598535
682.208638	2542.871426
682.546978	2541.666590
682.885268	2544.275387
683.223508	2542.546272
683.561697	2540.081147
683.899836	2538.538554
684.237925	2540.008051
684.575963	2538.001671
684.913951	2538.115097
685.251889	2541.109543
685.589776	2538.982176
685.927614	2540.368493
686.265401	2536.945550
686.603137	2540.860006
686.940824	2540.633154
687.278460	2538.800694
687.616046	2537.343801
687.953582	2540.930582
688.291068	2540.297917
688.628504	2541.878319
688.965889	2540.872608
689.303224	2540.607948
689.640510	2539.811446
689.977745	2541.006199
690.314930	2540.060983
690.652065	2542.014430
690.989150	2540.562577
691.326185	2539.975283
691.663170	2538.294058
692.000105	2540.542413
692.336990	2538.483102
692.673825	2541.883360
693.010610	2542.362269
693.347345	2534.082174
693.684030	2538.714995
694.020665	2537.376568
694.357251	2537.487474
694.693786	2538.286497
695.030272	2540.446631
695.366707	2537.610982
695.703093	2540.862526
696.039429	2538.712474
696.375716	2542.332023
696.711952	2538.707433
697.048139	2538.064686
697.384276	2539.423277
697.720363	2540.461754
698.056400	2540.232382
698.392388	2537.868081
698.728326	2538.815818
699.064214	2537.651311
699.400053	2537.147196
699.735842	2539.289686
700.071581	2538.135262
700.407270	2537.777340
700.742910	2539.798843
701.078501	2538.203317
701.414042	2540.192053
701.749533	2541.096940
702.084974	2540.544933
702.420366	2536.839685
702.755709	2538.354552
703.091002	2537.298430
703.426246	2539.108205
703.761440	2538.717515
704.096584	2538.213400
704.431679	2537.638708
704.766725	2538.543595
705.101721	2539.471168
705.436668	2539.995448
705.771565	2536.111239
706.106413	2537.880684
706.441212	2538.039480
706.775961	2536.219623
707.110661	2537.454706
707.445311	2537.938657
707.779913	2539.496373
708.114465	2539.723225
708.448967	2540.451672
708.783421	2538.563760
709.117825	2537.477391
709.452180	2539.055273
709.786485	2537.454706
710.120742	2538.790612
710.454949	2540.887732
710.789107	2538.064686
711.123216	2534.878677
711.457275	2537.996630
711.791286	2534.775333
712.125247	2535.551671
712.459159	2540.058462
712.793023	2538.732639
713.126837	2541.434697
713.460602	2538.369676
713.794318	2539.002340
714.127985	2540.935623
714.461602	2541.117104
714.795171	2538.629295
715.128691	2539.456044
715.462162	2540.378575
715.795584	2539.564429
716.128957	2538.956970
716.462281	2540.265149
716.795556	2538.543595
717.128782	2537.479912
717.461960	2537.779861
717.795088	2538.727597
718.128167	2534.772812
718.461198	2535.922195
718.794180	2537.099305
719.127113	2539.120808
719.459997	2538.389840
719.792833	2535.418080
720.125619	2538.397402
720.458357	2535.786084
720.791046	2537.036290
721.123686	2535.279448
721.456278	2536.355735
721.788821	2537.439583
722.121315	2537.575694
722.453761	2538.651980
722.786158	2540.360931
723.118506	2537.018646
723.450805	2537.812628
723.783056	2537.739531
724.115259	2537.033770
724.447412	2540.282793
724.779518	2538.583925
725.111574	2536.524613
725.443582	2540.595345
725.775542	2538.732639
726.107453	2538.296579
726.439315	2536.126362
726.771129	2539.700540
727.102895	2537.285828
727.434612	2535.526465
727.766281	2539.090561
728.097901	2537.177443
728.429473	2534.366999
728.760996	2535.513862
729.092471	2533.567977
729.423897	2536.559901
729.755276	2539.030067
730.086606	2536.882535
730.417887	2538.480581
730.749120	2537.502597
731.080305	2537.918492
731.411442	2537.807587
731.742530	2540.348328
732.073570	2535.511341
732.404562	2536.622916
732.735506	2538.422608
733.066401	2537.810107
733.397249	2539.952598
733.728048	2539.211548
734.058798	2536.421270
734.389501	2538.863709
734.720156	2538.352032
735.050762	2539.365303
735.381320	2536.892618
735.711831	2538.205838
736.042293	2537.401774
736.372707	2536.093595
736.703073	2536.638039
737.033391	2538.142824
737.363661	2538.162988
737.693883	2536.406146
738.024056	2539.733308
738.354182	2537.275745
738.684260	2538.742721
739.014290	2535.859181
739.344272	2538.248688
739.674207	2536.254912
740.004093	2540.156765
740.333931	2536.814480
740.663722	2535.234078
740.993464	2534.578728
741.323159	2538.858668
741.652806	2537.737011
741.982405	2540.194573
742.311956	2538.014274
742.641460	2537.888245
742.970915	2541.205325
743.300323	2538.888914
743.629683	2538.117618
743.958996	2536.471681
744.288260	2536.627957
744.617477	2536.232226
744.946647	2530.523120
745.275768	2535.652494
745.604842	2534.087215
745.933869	2532.965559
746.262847	2530.727286
746.591778	2537.232895
746.920662	2534.644263
747.249498	2537.008564
747.578286	2536.141486
747.907027	2537.401774
748.235720	2534.664427
748.564365	2536.781712
748.892963	2535.602082
749.221514	2536.179294
749.550017	2535.309695
749.878473	2535.186187
750.206881	2536.131403
750.535242	2536.887576
750.863555	2535.168543
751.191821	2536.275076
751.520039	2535.864222
751.848210	2538.856147
752.176334	2534.364479
752.504411	2537.870601
752.832440	2537.295910
753.160421	2534.407329
753.488356	2538.815818
753.816243	2535.816331
754.144082	2536.491846
754.471875	2538.059645
754.799620	2536.050745
755.127318	2534.435055
755.454969	2535.453368
755.782572	2535.554191
756.110129	2535.302133
756.437638	2536.953111
756.765100	2534.394726
757.092515	2538.258770
757.419882	2536.605272
757.747203	2536.431352
758.074477	2536.136444
758.401703	2537.179963
758.728882	2535.776002
759.056014	2534.387164
759.383099	2536.184335
759.710138	2538.125180
760.037129	2536.806918
760.364073	2535.072761
760.690970	2535.017308
761.017820	2535.813811
761.344623	2535.254242
761.671379	2535.997813
761.998088	2531.821217
762.324751	2536.905220
762.651366	2533.295754
762.977935	2536.736342
763.304456	2533.295754
763.630931	2539.120808
763.957359	2535.836496
764.283740	2538.878832
764.610074	2535.574356
764.936362	2539.728267
765.262602	2533.729293
765.588796	2535.599562
765.914943	2536.254912
766.241044	2536.300282
766.567097	2535.869263
766.893104	2537.968904
767.219064	2535.614685
767.544978	2536.958152
767.870845	2536.201979
768.196665	2537.157278
768.522438	2534.893800
768.848165	2533.998995
769.173846	2536.461599
769.499479	2534.185518
769.825066	2533.799870
770.150607	2534.505631
770.476101	2534.581248
770.801548	2536.338091
771.126949	2533.479756
771.452303	2540.093750
771.777611	2534.568646
772.102872	2535.211393
772.428087	2532.884900
772.753256	2534.722401
773.078378	2537.011085
773.403453	2532.544622
773.728482	2534.629139
774.053465	2536.275076
774.378401	2532.721063
774.703291	2536.406146
775.028135	2532.773995
775.352932	2537.913451
775.677683	2537.507638
776.002388	2534.772812
776.327046	2535.745755
776.651658	2533.494880
776.976224	2534.709798
777.300743	2536.174253
777.625216	2537.734490
777.949643	2534.740045
778.274024	2535.128214
778.598359	2527.773170
778.922647	2531.697708
779.246889	2532.350538
779.571086	2532.474046
779.895236	2532.799201
780.219339	2535.281969
780.543397	2535.193749
780.867409	2534.820703
781.191374	2536.234747
781.515294	2534.979500
781.839167	2532.910106
782.162995	2534.750127
782.486776	2536.023018
782.810511	2533.086546
783.134201	2535.818852
783.457844	2533.426824
783.781441	2536.501928
784.104993	2534.780374
784.428498	2534.188038
784.751958	2534.157792
785.075372	2537.923533
785.398739	2532.698378
785.722061	2532.559746
786.045337	2535.844057
786.368568	2533.492359
786.691752	2537.885725
787.014891	2534.971938
787.337983	2536.161650
787.661030	2538.011754
787.984031	2535.029911
788.306987	2535.891948
788.629897	2534.921526
788.952760	2534.490508
789.275579	2531.397760
789.598351	2535.397915
789.921078	2536.017977
790.243759	2535.977648
790.566395	2534.838347
790.888984	2532.642925
791.211529	2535.367668
791.534027	2535.619726
791.856480	2533.129396
792.178888	2535.012267
792.501249	2535.471012
792.823566	2535.710467
793.145836	2537.573173
793.468062	2534.503111
793.790241	2534.921526
794.112375	2535.902031
794.434464	2534.225847
794.756507	2532.912627
795.078505	2533.963707
795.400457	2533.157123
795.722364	2528.400794
796.044226	2532.428676
796.366042	2530.470188
796.687812	2531.977493
797.009538	2534.828265
797.331218	2533.913296
797.652852	2533.336083
797.974442	2534.200641
798.295986	2535.297092
798.617484	2532.635363
798.938938	2535.652494
799.260346	2535.743234
799.581709	2535.435724
799.903026	2534.430014
800.224299	2536.688451
800.545526	2532.247194
800.866708	2533.721732
801.187845	2532.320291
801.508936	2535.569315
801.829983	2534.518234
802.150984	2531.276772
802.471940	2537.545447
802.792851	2531.284334
803.113717	2535.783564
803.434538	2532.474046
803.755314	2535.576876
804.076045	2531.637215
804.396731	2533.694005
804.717372	2534.921526
805.037967	2533.666279
805.358518	2535.546629
805.679024	2530.644107
805.999485	2533.482277
806.319901	2535.667617
806.640272	2533.993954
806.960598	2532.844571
807.280879	2533.061341
807.601115	2533.998995
807.921306	2533.641073
808.241453	2534.220806
808.561554	2532.781557
808.881611	2532.897503
809.201623	2531.475898
809.521590	2535.080323
809.841513	2534.034283
810.161390	2531.874149
810.481223	2534.964376
810.801011	2536.292720
811.120755	2532.027904
811.440453	2535.085364
811.760107	2535.947401
812.079716	2532.849612
812.399281	2529.351051
812.718801	2531.387678
813.038276	2529.305681
813.357707	2537.016126
813.677093	2533.832637
813.996434	2533.878008
814.315731	2533.280631
814.634983	2533.971269
814.954191	2532.595034
815.273354	2533.376413
815.592473	2531.301978
815.911547	2536.176774
816.230577	2533.837678
816.549562	2533.507483
816.868502	2532.733666
817.187399	2533.991433
817.506250	2533.673841
817.825058	2535.266845
818.143821	2533.308357
818.462539	2532.191742
818.781213	2533.600744
819.099843	2535.166022
819.418429	2533.646114
819.736970	2535.712987
820.055466	2536.632998
820.373919	2535.960004
820.692327	2535.039993
821.010691	2537.903369
821.329011	2535.770961
821.647286	2544.388813
821.965517	2543.461241
822.283704	2546.211190
822.601847	2546.748073
822.919945	2540.819676
823.237999	2541.354039
823.556010	2542.347146
823.873976	2539.798843
824.191897	2538.132741
824.509775	2539.304810
824.827609	2534.664428
825.145398	2535.919675
825.463144	2535.680220
825.780845	2536.050745
826.098502	2536.988399
826.416116	2538.394881
826.733685	2539.289686
827.051210	2539.743390
827.368692	2538.946888
827.686129	2536.963194
828.003522	2536.708615
828.320872	2532.990764
828.638177	2531.745599
828.955439	2533.298275
829.272656	2530.397091
829.589830	2526.016328
829.906960	2534.697195
830.224046	2531.125538
830.541088	2536.144006
830.858086	2533.358769
831.175041	2535.503780
831.491952	2531.004550
831.808819	2534.966897
832.125642	2531.470857
832.442421	2533.719211
832.759157	2536.748945
833.075849	2535.463450
833.392497	2535.350024
833.709101	2534.624098
834.025662	2536.317926
834.342179	2535.914634
834.658653	2535.602082
834.975083	2533.593182
835.291469	2537.910931
835.607811	2535.549150
835.924110	2534.104859
836.240366	2531.322142
836.556578	2534.689633
836.872746	2534.109901
837.188871	2532.587472
837.504952	2533.446989
837.820990	2535.980169
838.136984	2534.185518
838.452935	2533.883049
838.768842	2533.729293
839.084706	2532.015301
839.400526	2531.352389
839.716303	2532.708460
840.032037	2534.097298
840.347727	2531.664941
840.663373	2533.368851
840.978977	2530.802904
841.294537	2532.166536
841.610054	2528.652852
841.925527	2533.802390
842.240957	2530.664272
842.556344	2535.546629
842.871687	2530.611340
843.186987	2532.615198
843.502244	2534.094777
843.817458	2533.205013
844.132629	2530.679395
844.447756	2529.986237
844.762840	2531.848943
845.077881	2527.518592
845.392879	2527.697553
845.707833	2531.150743
846.022745	2527.385001
846.337613	2532.685775
846.652438	2531.806093
846.967221	2532.211906
847.281960	2532.201824
847.596656	2534.067051
847.911309	2531.422966
848.225919	2534.069571
848.540485	2532.315250
848.855009	2532.731145
849.169490	2532.403470
849.483928	2533.217616
849.798323	2531.682585
850.112675	2529.711494
850.426984	2531.990095
850.741251	2533.802390
851.055474	2535.055117
851.369654	2536.653163
851.683792	2531.596885
851.997887	2531.198634
852.311938	2531.022194
852.625947	2533.288193
852.939914	2532.521937
853.253837	2532.763912
853.567718	2532.947915
853.881555	2533.363810
854.195350	2532.705939
854.509103	2530.782739
854.822812	2531.251566
855.136479	2532.426155
855.450103	2533.303316
855.763685	2532.385826
856.077224	2530.621422
856.390720	2532.872297
856.704173	2534.072092
857.017584	2531.531350
857.330953	2529.769467
857.644278	2528.030269
857.957561	2535.060158
858.270802	2532.040507
858.584000	2532.607637
858.897155	2531.929602
859.210268	2529.474560
859.523339	2530.394570
859.836367	2531.896834
860.149352	2533.615868
860.462295	2531.337266
860.775195	2526.883407
861.088054	2526.341482
861.400869	2529.124199
861.713642	2527.901720
862.026373	2531.604447
862.339062	2533.754499
862.651708	2532.428676
862.964312	2530.749972
863.276873	2532.441279
863.589392	2531.085208
863.901869	2531.024714
864.214303	2533.636032
864.526696	2531.296937
864.839045	2531.546474
865.151353	2531.312060
865.463619	2530.684437
865.775842	2531.455733
866.088023	2531.425486
866.400162	2530.008922
866.712258	2532.310209
867.024313	2532.612678
867.336325	2530.482790
867.648296	2531.417924
867.960224	2532.554705
868.272110	2532.917668
868.583954	2530.044210
868.895755	2533.678882
869.207515	2533.651156
869.519233	2531.501103
869.830909	2529.502286
870.142542	2531.352389
870.454134	2530.389529
870.765684	2531.518748
871.077191	2531.546474
871.388657	2531.541433
871.700081	2529.658562
872.011463	2532.761392
872.322803	2530.903727
872.634101	2530.931453
872.945357	2531.478418
873.256571	2534.107380
873.567744	2531.312060
873.878874	2533.358769
874.189963	2532.005219
874.501010	2533.799870
874.812015	2532.068233
875.122979	2532.927750
875.433900	2530.152595
875.744780	2532.358100
876.055618	2527.541277
876.366415	2531.279293
876.677169	2532.295085
876.987882	2529.131761
877.298554	2528.090763
877.609183	2530.200486
877.919771	2528.761236
878.230317	2526.376771
878.540822	2532.060672
878.851285	2533.210055
879.161707	2530.752492
879.472087	2533.499921
879.782425	2530.374406
880.092722	2534.417411
880.402977	2535.965045
880.713191	2532.620240
881.023363	2536.794315
881.333494	2538.788091
881.643583	2536.759027
881.953631	2539.158616
882.263637	2537.502597
882.573602	2536.509490
882.883526	2533.958666
883.193408	2536.867412
883.503248	2534.069571
883.813048	2535.329860
884.122806	2533.762061
884.432522	2534.992102
884.742197	2532.365661
885.051831	2530.150074
885.361424	2530.639066
885.670975	2532.723583
885.980485	2532.605116
886.289954	2533.782226
886.599382	2530.903727
886.908768	2530.699560
887.218113	2530.392050
887.527417	2533.041176
887.836680	2528.746113
888.145901	2531.218799
888.455082	2534.208203
888.764221	2529.847605
889.073319	2532.272400
889.382376	2533.212575
889.691392	2531.296937
890.000366	2530.618902
890.309300	2532.242153
890.618193	2528.990609
890.927044	2533.593182
891.235855	2532.630322
891.544625	2531.566638
891.853353	2532.773995
892.162041	2532.799201
892.470687	2533.038655
892.779293	2530.966741
893.087858	2529.260311
893.396381	2527.493386
893.704864	2530.487832
894.013306	2528.559590
894.321707	2530.896165
894.630068	2531.609488
894.938387	2533.794828
895.246665	2533.308357
895.554903	2530.833151
895.863100	2531.410363
896.171256	2531.075126
896.479371	2533.207534
896.787446	2532.826927
897.095480	2531.191072
897.403473	2532.365661
897.711425	2532.065713
898.019336	2532.297606
898.327207	2529.298119
898.635038	2532.224509
898.942827	2529.300640
899.250576	2533.452030
899.558284	2532.305168
899.865952	2531.354910
900.173579	2530.739889
900.481165	2533.532688
900.788711	2531.657379
901.096216	2529.439272
901.403681	2532.874818
901.711105	2530.409694
902.018489	2528.458767
902.325832	2533.411701
902.633135	2532.080836
902.940397	2529.499765
903.247619	2528.647810
903.554800	2533.840199
903.861941	2530.195445
904.169041	2533.804911
904.476101	2532.791639
904.783121	2535.355066
905.090100	2533.343645
905.397039	2533.121834
905.703938	2534.230888
906.010796	2530.089580
906.317614	2530.482790
906.624391	2532.930271
906.931129	2531.435568
907.237826	2532.471526
907.544483	2530.729807
907.851099	2529.444313
908.157675	2529.139323
908.464211	2528.882224
908.770707	2523.896523
909.077163	2529.885414
909.383578	2525.973478
909.689954	2528.277286
909.996289	2525.441637
910.302584	2530.906247
910.608839	2531.491021
910.915054	2532.882380
911.221229	2531.677544
911.527363	2528.529343
911.833458	2531.528830
912.139513	2531.433048
912.445527	2530.765095
912.751502	2529.971113
913.057436	2527.032121
913.363331	2533.613347
913.669186	2532.267359
913.975000	2529.562780
914.280775	2529.885414
914.586510	2530.684437
914.892205	2531.092770
915.197859	2531.806093
915.503475	2532.844571
915.809050	2533.245343
916.114585	2531.390198
916.420081	2534.394726
916.725536	2533.449509
917.030952	2534.140147
917.336328	2531.412883
917.641665	2534.878677
917.946961	2532.070754
918.252218	2532.441279
918.557435	2532.113604
918.862612	2529.078829
919.167750	2531.604447
919.472848	2528.859539
919.777906	2530.190403
920.082925	2529.983716
920.387904	2530.147554
920.692843	2531.117976
920.997743	2530.419776
921.302603	2530.024045
921.607423	2527.747964
921.912204	2527.518592
922.216946	2528.630166
922.521647	2534.016639
922.826310	2529.078829
923.130932	2528.766278
923.435516	2530.394570
923.740059	2532.158974
924.044564	2529.804755
924.349028	2529.225022
924.653454	2528.161339
924.957840	2526.147398
925.262186	2526.870804
925.566493	2527.420289
925.870761	2525.250073
926.174989	2527.732841
926.479178	2528.090763
926.783328	2531.024714
927.087438	2528.463808
927.391509	2531.102852
927.695541	2529.093953
927.999533	2531.478418
928.303486	2530.949097
928.607400	2528.025228
928.911275	2529.895496
929.215110	2527.697553
929.518906	2529.633356
929.822663	2530.175280
930.126381	2529.305681
930.430060	2533.164684
930.733699	2528.582275
931.037299	2529.066226
931.340861	2526.752337
931.644383	2529.966072
931.947866	2529.489683
932.251309	2527.009435
932.554714	2529.802235
932.858080	2529.489683
933.161407	2527.332069
933.464694	2531.690147
933.767943	2527.377440
934.071153	2528.660413
934.374323	2529.081350
934.677455	2531.148223
934.980548	2528.594878
935.283602	2527.226205
935.586617	2529.318284
935.889593	2527.563962
936.192530	2530.618902
936.495428	2528.236956
936.798287	2527.362316
937.101108	2527.707635
937.403890	2528.960362
937.706632	2530.308871
938.009336	2529.167049
938.312002	2529.416586
938.614628	2530.069416
938.917216	2528.718387
939.219765	2529.320804
939.522275	2528.446164
939.824747	2529.640918
940.127179	2525.897861
940.429573	2527.100176
940.731929	2525.514733
941.034246	2523.594054
941.336524	2528.007584
941.638763	2532.221988
941.940964	2531.359951
942.243126	2526.611184
942.545250	2533.116793
942.847335	2528.315094
943.149381	2528.725948
943.451389	2530.477749
943.753359	2531.402801
944.055290	2529.280475
944.357182	2530.631504
944.659036	2526.951462
944.960851	2530.056813
945.262628	2528.398273
945.564367	2530.008922
945.866067	2528.511699
946.167729	2531.939684
946.469352	2529.570342
946.770937	2529.499765
947.072484	2528.163860
947.373992	2530.223171
947.675462	2530.543284
947.976893	2530.366844
948.278286	2526.528005
948.579641	2528.257121
948.880958	2527.458098
949.182236	2527.863911
949.483476	2526.742254
949.784678	2529.759385
950.085841	2528.700742
950.386967	2530.278624
950.688054	2528.375588
950.989103	2529.129241
951.290114	2528.345341
951.591087	2527.644621
951.892021	2530.437420
952.192917	2528.564631
952.493776	2530.087060
952.794596	2530.838192
953.095378	2527.382481
953.396122	2529.676206
953.696828	2528.436082
953.997496	2529.159488
954.298126	2528.178983
954.598718	2529.671165
954.899272	2529.958510
955.199788	2528.100845
955.500266	2527.710156
955.800706	2524.871986
956.101108	2525.605474
956.401472	2526.734693
956.701798	2524.337624
957.002087	2525.146729
957.302337	2528.236956
957.602550	2527.246370
957.902724	2528.489014
958.202861	2531.980013
958.502960	2529.401463
958.803022	2529.225023
959.103045	2526.825433
959.403031	2528.998171
959.702979	2528.373068
960.002889	2530.495393
960.302762	2531.312060
960.602596	2529.986237
960.902393	2526.691843
961.202153	2528.733510
961.501875	2527.848787
961.801559	2531.755682
962.101205	2527.412728
962.400814	2527.342152
962.700385	2525.088756
962.999918	2529.194776
963.299414	2527.745444
963.598873	2529.353572
963.898293	2527.200999
964.197677	2529.671165
964.497022	2526.903571
964.796331	2529.517409
965.095601	2526.936339
965.394835	2528.778880
965.694030	2527.213602
965.993189	2529.565300
966.292309	2527.952131
966.591393	2531.208717
966.890439	2527.715197
967.189447	2530.185362
967.488419	2528.332738
967.787353	2529.885414
968.086249	2527.664785
968.385108	2527.178314
968.683930	2528.995650
968.982714	2528.206709
969.281462	2528.574714
969.580172	2528.186545
969.878844	2525.502130
970.177480	2528.088242
970.476078	2529.482121
970.774639	2529.615712
971.073162	2528.652852
971.371649	2527.692512
971.670098	2524.738396
971.968510	2526.959024
972.266885	2525.451719
972.565223	2528.171421
972.863524	2529.676206
973.161788	2527.218643
973.460014	2525.759229
973.758204	2529.146885
974.056356	2528.040351
974.354471	2527.889117
974.652550	2528.894827
974.950591	2529.126720
975.248595	2527.753006
975.546563	2530.228212
975.844493	2528.365506
976.142386	2528.398273
976.440243	2526.916174
976.738062	2528.090763
977.035845	2529.363654
977.333590	2531.173428
977.631299	2528.592358
977.928971	2529.464477
978.226606	2528.428520
978.524204	2527.861390
978.821765	2529.169570
979.119290	2528.945238
979.416777	2528.466329
979.714228	2530.066895
980.011642	2528.322656
980.309020	2531.949766
980.606360	2525.315608
980.903664	2527.984899
981.200931	2530.457585
981.498162	2524.864424
981.795356	2529.807276
982.092513	2529.038500
982.389633	2528.325177
982.686717	2528.607481
982.983764	2526.056657
983.280775	2530.641587
983.577749	2525.640762
983.874686	2530.434899
984.171587	2526.830474
984.468451	2527.352234
984.765279	2529.325846
985.062070	2529.333407
985.358824	2526.769981
985.655543	2525.111441
985.952224	2527.463139
986.248869	2526.132275
986.545478	2525.146729
986.842050	2525.325690
987.138586	2523.926770
987.435086	2525.754188
987.731549	2522.795031
988.027975	2530.107224
988.324366	2525.459281
988.620719	2527.894158
988.917037	2525.615556
989.213318	2528.824251
989.509563	2527.586647
989.805772	2526.512882
990.101944	2527.521113
990.398080	2527.566483
990.694180	2525.592871
990.990244	2526.714528
991.286271	2528.975485
991.582262	2526.099507
991.878217	2526.467511
992.174136	2528.184024
992.470019	2527.382481
992.765865	2529.320804
993.061676	2527.790814
993.357450	2526.601102
993.653188	2528.282327
993.948890	2529.436751
994.244556	2526.248221
994.540186	2529.958510
994.835780	2526.165042
995.131337	2527.198479
995.426859	2527.266534
995.722345	2525.267717
996.017795	2528.194107
996.313208	2528.889786
996.608586	2528.206709
996.903928	2525.376102
997.199234	2528.131092
997.494504	2526.238139
997.789738	2525.227387
998.084936	2528.630166
998.380099	2528.481452
998.675225	2529.051103
998.970316	2528.277286
999.265371	2528.546987
999.560390	2527.599250
999.855373	2528.335259
1000.150320	2528.914992
1000.445232	2526.986750
1000.740108	2526.585978
1001.034948	2526.462470
1001.329752	2525.824764
1001.624521	2529.603109
1001.919254	2523.026924
1002.213951	2522.910977
1002.508613	2525.050947
1002.803239	2525.209743
1003.097829	2524.030113
1003.392384	2527.750485
1003.686903	2527.652182
1003.981386	2524.899713
1004.275834	2528.216792
1004.570246	2528.995650
1004.864623	2527.276617
1005.158964	2527.430372
1005.453270	2530.044210
1005.747540	2528.778880
1006.041775	2526.424662
1006.335974	2527.420289
1006.630138	2525.683612
1006.924266	2527.047244
1007.218359	2525.849970
1007.512416	2526.719569
1007.806438	2526.734693
1008.100425	2527.163191
1008.394376	2525.998684
1008.688292	2529.076308
1008.982172	2525.492048
1009.276017	2522.729496
1009.569827	2524.478776
1009.863602	2527.642100
1010.157341	2528.297450
1010.451045	2529.961031
1010.744714	2527.168232
1011.038347	2527.808458
1011.331945	2527.304343
1011.625508	2526.510361
1011.919036	2526.787625
1012.212528	2525.411390
1012.505986	2526.195289
1012.799408	2528.166380
1013.092795	2526.056657
1013.386147	2528.655372
1013.679464	2527.616894
1013.972745	2527.919364
1014.265992	2528.158818
1014.559204	2523.629342
1014.852380	2527.039682
1015.145521	2526.689322
1015.438628	2527.566483
1015.731699	2527.702594
1016.024736	2524.458612
1016.317737	2530.646628
1016.610703	2526.961544
1016.903635	2522.812675
1017.196531	2522.215298
1017.489393	2524.942562
1017.782219	2524.695546
1018.075011	2526.754857
1018.367768	2526.074301
1018.660490	2525.741585
1018.953177	2525.741585
1019.245829	2525.741585
