Dividing Wavelength (nm)	Counts (n)	Blue Motor Position (mm): 0.000000	Red Motor Position (mm): 34.000000	
326.493990	2129.113683
326.888308	2129.113683
327.282561	2129.113683
327.676750	2094.564135
328.070874	2094.112952
328.464933	2094.430544
328.858929	2102.934971
329.252859	2113.322268
329.646726	2125.415997
330.040528	2137.981073
330.434265	2153.855666
330.827938	2171.257729
331.221547	2187.429751
331.615091	2208.496733
332.008571	2225.863508
332.401986	2249.556931
332.795338	2268.519231
333.188625	2284.035902
333.581847	2306.174129
333.975006	2324.924701
334.368100	2340.922803
334.761129	2357.946779
335.154095	2375.769779
335.546996	2394.210320
335.939833	2411.980387
336.332606	2427.353386
336.725315	2443.051539
337.117960	2448.226283
337.510540	2461.260186
337.903056	2470.893831
338.295508	2477.956488
338.687896	2487.738847
339.080220	2496.422234
339.472480	2499.956083
339.864676	2503.381547
340.256807	2510.434122
340.648875	2513.801612
341.040879	2514.719102
341.432818	2515.825636
341.824694	2516.975019
342.216506	2518.373939
342.608253	2521.847294
342.999937	2518.260513
343.391557	2519.246058
343.783113	2517.925276
344.174605	2518.784793
344.566033	2512.765655
344.957397	2515.145080
345.348697	2512.236334
345.739934	2511.013854
346.131106	2508.599142
346.522215	2509.325068
346.913260	2504.276352
347.304241	2501.130672
347.695159	2501.475991
348.086012	2499.081443
348.476802	2499.716628
348.867528	2500.964314
349.258191	2492.762357
349.648789	2494.972903
350.039324	2493.155567
350.429796	2492.278406
350.820203	2494.514158
351.210548	2491.673467
351.600828	2488.999135
351.991045	2490.249342
352.381198	2488.837818
352.771288	2489.281440
353.161314	2487.756491
353.551276	2490.927377
353.941175	2488.187510
354.331010	2487.292705
354.720782	2488.663899
355.110490	2489.238590
355.500135	2488.406800
355.889717	2486.677684
356.279235	2489.604074
356.668689	2488.789927
357.058080	2490.312356
357.447408	2488.623569
357.836672	2488.300936
358.225873	2487.975781
358.615010	2483.821870
359.004084	2492.291009
359.393095	2491.272696
359.782043	2493.334528
360.170927	2490.917294
360.559748	2492.124651
360.948505	2493.952069
361.337199	2497.589262
361.725830	2496.860815
362.114398	2496.165136
362.502903	2497.397698
362.891344	2498.859632
363.279722	2496.475167
363.668037	2501.075219
364.056289	2500.457678
364.444478	2499.706546
364.832603	2499.951042
365.220665	2500.956752
365.608665	2501.516320
365.996601	2506.282731
366.384474	2504.677124
366.772284	2504.246105
367.160031	2507.795078
367.547715	2507.578308
367.935336	2510.731550
368.322893	2516.266737
368.710388	2515.916376
369.097820	2526.127233
369.485189	2524.531708
369.872495	2534.997144
370.259738	2539.811446
370.646918	2548.298228
371.034035	2556.626214
371.421090	2565.818758
371.808081	2577.347877
372.195010	2583.704772
372.581875	2597.595672
372.968678	2610.511108
373.355418	2617.246089
373.742096	2639.679224
374.128710	2654.142294
374.515262	2668.998575
374.901751	2680.482323
375.288177	2696.525795
375.674540	2720.740978
376.060841	2739.673031
376.447079	2759.010897
376.833254	2777.038063
377.219367	2788.589867
377.605417	2828.833398
377.991404	2836.916889
378.377329	2859.549149
378.763191	2874.982641
379.148991	2913.910431
379.534727	2936.822476
379.920402	2964.576548
380.306013	2981.119094
380.691563	3029.337731
381.077049	3049.104095
381.462474	3066.939698
381.847835	3109.466871
382.233134	3130.813637
382.618371	3129.815489
383.003545	3197.825695
383.388657	3205.543702
383.773706	3238.394381
384.158693	3253.036412
384.543618	3281.491205
384.928480	3314.160403
385.313280	3362.023638
385.698017	3360.738144
386.082692	3415.429622
386.467305	3422.066301
386.851856	3452.807257
387.236344	3473.695278
387.620770	3507.574352
388.005133	3528.885830
388.389435	3557.262485
388.773674	3570.190524
389.157851	3610.308027
389.541965	3625.514667
389.926018	3589.886312
390.310008	3666.204340
390.693936	3684.561702
391.077802	3724.285994
391.461606	3707.579611
391.845348	3775.486473
392.229027	3773.749796
392.612645	3789.016930
392.996200	3866.875031
393.379694	3908.993871
393.763125	3970.087615
394.146494	3938.587965
394.529801	4000.309332
394.913047	4047.686096
395.296230	4018.270963
395.679351	4067.061771
396.062410	4091.884412
396.445408	4078.422011
396.828343	4108.187504
397.211217	4135.560969
397.594028	4052.490316
397.976778	4119.343577
398.359466	4148.239471
398.742092	4174.619829
399.124656	4095.761060
399.507158	4174.425745
399.889598	4199.192934
400.271977	4262.101493
400.654294	4233.515630
401.036549	4240.807659
401.418742	4214.739852
401.800874	4318.116273
402.182944	4336.599664
402.564952	4401.983429
402.946898	4388.722674
403.328783	4384.210842
403.710606	4297.939055
404.092367	4489.215556
404.474067	4455.071821
404.855705	4464.254282
405.237282	4387.679155
405.618797	4500.490096
406.000250	4535.909243
406.381642	4613.275831
406.762972	4574.418617
407.144240	4587.452521
407.525447	4585.841872
407.906593	4644.044514
408.287677	4693.619221
408.668700	4618.117859
409.049661	4669.824974
409.430560	4709.405594
409.811399	4639.378926
410.192176	4801.275582
410.572891	4738.805603
410.953545	4841.624977
411.334138	4723.299014
411.714669	4787.046925
412.095139	4682.894166
412.475547	4826.993028
412.855894	4807.302281
413.236180	4817.359383
413.616405	4770.048154
413.996568	4856.806412
414.376670	4796.844407
414.756711	4748.141820
415.136691	4785.148930
415.516609	4865.774624
415.896466	4897.864089
416.276262	4937.197692
416.655997	4916.657511
417.035670	5095.968833
417.415283	5187.518707
417.794834	5132.466786
418.174324	5086.970373
418.553753	4992.806660
418.933121	5181.892779
419.312428	5241.761522
419.691674	5184.362945
420.070859	5311.442871
420.449983	5221.309561
420.829045	5340.026214
421.208047	5243.334362
421.586988	5315.969828
421.965867	5329.477599
422.344686	5460.174554
422.723444	5314.633922
423.102141	5134.568948
423.480777	5431.442497
423.859352	5199.695614
424.237866	5464.333506
424.616319	5452.600220
424.994712	5561.307662
425.373044	5437.557417
425.751314	5578.533284
426.129524	5386.233430
426.507673	5580.179221
426.885762	5664.792468
427.263789	5592.386375
427.641756	5475.587882
428.019662	5598.153455
428.397508	5604.167552
428.775292	5550.885076
429.153016	5650.289068
429.530679	5578.613943
429.908282	5660.084030
430.285824	5529.190471
430.663305	5809.213964
431.040726	5539.779414
431.418086	5540.270927
431.795385	5647.289582
432.172624	5657.107229
432.549802	5647.269417
432.926920	5669.987377
433.303977	5672.392007
433.680974	5713.353903
434.057910	5727.612807
434.434786	5736.344085
434.811601	5704.103386
435.188355	5942.083656
435.565050	5813.735879
435.941683	5793.987159
436.318257	6011.228122
436.694770	5991.381099
437.071222	6021.459144
437.447614	5958.820287
437.823946	5871.326020
438.200218	6029.918200
438.576429	5892.614813
438.952580	5989.856150
439.328670	6031.037336
439.704700	5939.633655
440.080670	5927.739053
440.456580	6202.207194
440.832429	6086.558084
441.208218	5927.088744
441.583947	6085.307878
441.959616	6084.813845
442.335224	6018.023597
442.710773	6153.983517
443.086261	6181.911509
443.461689	5974.795703
443.837057	6124.457478
444.212365	6274.618328
444.587612	6165.563047
444.962800	6322.252191
445.337927	6304.467000
445.712995	5916.030973
446.088002	6492.819631
446.462949	6324.530792
446.837837	6253.173260
447.212664	6425.089209
447.587431	6567.005251
447.962139	7107.084227
448.336786	8036.935137
448.711374	7777.852596
449.085901	6851.875814
449.460369	6771.923114
449.834776	6707.280398
450.209124	7097.052331
450.583412	7250.971361
450.957640	7394.510655
451.331808	7160.591034
451.705917	6710.930193
452.079965	6640.883361
452.453954	6850.585278
452.827883	6726.537606
453.201752	6818.901627
453.575562	6613.605677
453.949311	6821.341545
454.323001	6707.935748
454.696632	6781.612212
455.070202	6919.714621
455.443713	7077.510298
455.817164	7177.272212
456.190556	7252.768532
456.563888	7337.764907
456.937160	7381.305353
457.310373	7033.438011
457.683526	7059.525982
458.056619	6949.772501
458.429653	6933.870181
458.802628	6872.506736
459.175542	6979.754763
459.548398	7334.561253
459.921194	7497.508990
460.293930	7497.143506
460.666607	8028.521451
461.039224	8336.717432
461.411782	8465.544119
461.784280	8486.817788
462.156719	8375.710757
462.529099	8254.793641
462.901419	7848.118719
463.273680	7733.356852
463.645882	7751.396621
464.018024	7616.785210
464.390106	7778.933924
464.762130	8166.301227
465.134094	8635.983010
465.505999	9662.999639
465.877845	10874.714063
466.249631	11533.625638
466.621358	11147.700105
466.993026	10520.230206
467.364634	10264.744529
467.736184	9901.501668
468.107674	9572.954549
468.479105	9601.094270
468.850477	9361.296663
469.221790	9135.979772
469.593043	8809.562540
469.964238	8671.949122
470.335373	8681.522273
470.706449	8736.662414
471.077467	8720.767656
471.448425	10028.669815
471.819324	11099.811664
472.190164	11123.976435
472.560945	9884.371828
472.931667	9089.560827
473.302330	8953.757184
473.672934	8599.583358
474.043479	8952.905229
474.413965	8894.750478
474.784393	8778.488867
475.154761	8935.319163
475.525070	9018.581381
475.895321	8842.234258
476.265513	9026.818626
476.635645	9199.755409
477.005719	9196.183752
477.375734	9305.987644
477.745691	9547.950426
478.115588	9676.782153
478.485427	9924.280122
478.855207	10463.227359
479.224928	11271.662078
479.594591	11896.548385
479.964194	11719.218237
480.333739	11659.427632
480.703226	11572.361864
481.072653	11665.335864
481.442022	11904.062225
481.811333	12086.025194
482.180584	11892.817932
482.549777	11606.530805
482.918912	11431.532190
483.287988	11453.045314
483.657005	11465.055863
484.025964	11139.195678
484.394864	11269.295256
484.763706	11245.034703
485.132489	10998.567651
485.501213	10965.069183
485.869879	11042.876873
486.238487	10874.414114
486.607036	10990.300158
486.975527	10769.588361
487.343959	10960.340581
487.712333	11006.247849
488.080648	10928.704820
488.448905	10976.452109
488.817104	10913.709908
489.185244	11177.107676
489.553326	11335.657006
489.921350	11876.232535
490.289315	12922.045107
490.657222	13274.550310
491.025070	13180.535311
491.392861	13043.685628
491.760593	12676.601408
492.128267	12315.498517
492.495883	11996.206956
492.863440	11651.805407
493.230939	11325.239461
493.598380	11251.696588
493.965763	11117.410332
494.333088	11010.530309
494.700354	10931.192630
495.067563	10981.223561
495.434713	10818.497635
495.801805	10947.851123
496.168839	10860.467762
496.535815	10787.020671
496.902733	10785.883891
497.269593	10721.843593
497.636395	10812.763323
498.003139	10799.270675
498.369825	10661.624489
498.736453	10807.593620
499.103023	10733.292053
499.469535	10751.251164
499.835989	10743.205482
500.202385	10686.182470
500.568723	10536.689574
500.935003	10748.692778
501.301226	10543.280882
501.667390	10798.063318
502.033497	10883.863757
502.399546	10734.638041
502.765537	10640.229832
503.131470	10701.714265
503.497345	10865.274502
503.863163	10475.187497
504.228923	10761.562844
504.594625	10816.839096
504.960269	10565.209902
505.325856	10764.947979
505.691385	10551.928982
506.056856	10681.819352
506.422270	10692.783861
506.787625	10576.534854
507.152924	10671.164873
507.518164	10640.741510
507.883347	10546.575276
508.248472	10445.573238
508.613540	10659.192133
508.978550	10528.013748
509.343503	10477.024997
509.708398	10580.343445
510.073236	10666.504326
510.438016	10651.358180
510.802738	10577.343959
511.167403	10604.856056
511.532010	10484.047325
511.896561	10681.458909
512.261053	10721.646988
512.625488	10573.452188
512.989866	10534.678153
513.354186	10497.348409
513.718449	10377.600841
514.082655	10525.972081
514.446803	10405.168390
514.810894	10491.094858
515.174927	10325.092182
515.538904	10324.693931
515.902822	10426.926010
516.266684	10290.915680
516.630488	10209.228823
516.994235	10224.543848
517.357925	10240.312577
517.721558	10286.464341
518.085133	10268.064129
518.448651	10235.432740
518.812112	10096.448129
519.175516	10065.102234
519.538863	10130.637234
519.902152	10025.388024
520.265385	10105.454150
520.628560	9999.607563
520.991678	9927.083004
521.354739	9940.719325
521.717743	9843.530920
522.080690	9783.896590
522.443580	9842.210137
522.806413	9761.481100
523.169189	9733.898427
523.531908	9738.947142
523.894569	9544.587976
524.257174	9499.462088
524.619722	9534.997181
524.982213	9457.360891
525.344647	9431.207385
525.707025	9347.715795
526.069345	9359.612918
526.431608	9245.929858
526.793815	9270.460112
527.155964	9058.766939
527.518057	9057.138646
527.880093	8960.509809
528.242072	8952.391031
528.603995	8827.322525
528.965860	8715.149290
529.327669	8693.530302
529.689421	8612.718085
530.051117	8534.726394
530.412755	8534.476857
530.774337	8416.493692
531.135862	8332.291299
531.497331	8307.559398
531.858743	8140.240982
532.220098	8194.256945
532.581396	8045.439563
532.942638	7985.807754
533.303824	7908.095847
533.664953	7839.818459
534.026025	7735.393478
534.387040	7741.483192
534.747999	7683.363729
535.108902	7662.594175
535.469748	7457.787218
535.830537	7461.653783
536.191270	7384.748461
536.551947	7339.168868
536.912567	7283.360774
537.273131	7188.682864
537.633638	7124.609799
537.994089	7055.205713
538.354483	6968.568443
538.714821	6992.798749
539.075103	6943.778569
539.435328	6861.645570
539.795497	6727.674386
540.155609	6739.405151
540.515665	6734.663946
540.875665	6551.692746
541.235609	6519.542788
541.595496	6471.830787
541.955328	6473.602753
542.315102	6375.252362
542.674821	6294.367048
543.034483	6246.317290
543.394090	6185.031983
543.753640	6098.833293
544.113134	6137.506505
544.472571	6025.489546
544.831953	6022.795049
545.191278	5885.738679
545.550548	5852.136868
545.909761	5853.981931
546.268918	5784.645901
546.628019	5768.859527
546.987064	5658.606972
547.346053	5587.211631
547.704986	5564.470986
548.063863	5512.552142
548.422684	5467.388445
548.781449	5380.055496
549.140158	5365.121078
549.498811	5272.484834
549.857408	5191.544068
550.215949	5194.523390
550.574434	5111.815700
550.932864	5087.734108
551.291237	5067.773659
551.649555	4991.329602
552.007817	4957.281649
552.366022	4905.733330
552.724173	4859.750446
553.082267	4815.519362
553.440305	4796.977998
553.798288	4719.840782
554.156215	4702.521898
554.514086	4657.111184
554.871902	4580.730142
555.229661	4548.318043
555.587365	4502.425899
555.945014	4447.555460
556.302606	4420.839865
556.660143	4374.355386
557.017625	4354.435266
557.375050	4303.267555
557.732421	4287.771048
558.089735	4232.502358
558.446994	4198.335938
558.804197	4169.848377
559.161345	4129.859424
559.518437	4072.256680
559.875474	4045.417577
560.232455	4020.317672
560.589381	3981.830983
560.946251	3936.374898
561.303065	3935.686781
561.659825	3882.966394
562.016528	3842.296885
562.373177	3799.300884
562.729770	3781.167854
563.086307	3738.615474
563.442789	3729.382601
563.799216	3672.785567
564.155587	3657.072290
564.511904	3621.393524
564.868164	3597.977364
565.224370	3571.791091
565.580520	3531.466901
565.936615	3516.857637
566.292654	3470.728559
566.648638	3465.838640
567.004567	3435.087601
567.360441	3417.151176
567.716260	3380.819580
568.072023	3367.992364
568.427732	3337.689988
568.783385	3316.779282
569.138982	3297.050727
569.494525	3280.074641
569.850013	3249.825197
570.205445	3237.759196
570.560823	3218.290259
570.916145	3187.788758
571.271412	3174.331398
571.626625	3155.260713
571.981782	3139.144144
572.336884	3116.000207
572.691931	3103.190635
573.046923	3082.645412
573.401860	3066.707804
573.756743	3046.270967
574.111570	3034.096580
574.466342	3022.199457
574.821059	3007.191942
575.175722	2990.654437
575.530330	2976.755976
575.884882	2965.748616
576.239380	2949.511060
576.593823	2939.731221
576.948211	2924.446443
577.302544	2913.595359
577.656823	2901.877197
578.011047	2892.233470
578.365216	2882.057901
578.719330	2866.747917
579.073389	2857.371370
579.427394	2850.177644
579.781344	2838.736745
580.135239	2831.837926
580.489080	2821.503561
580.842866	2813.117601
581.196597	2805.195428
581.550273	2797.875673
581.903895	2791.012142
582.257463	2788.710855
582.610975	2776.884308
582.964434	2774.411622
583.317837	2764.026845
583.671186	2759.260434
584.024481	2753.127871
584.377721	2747.864906
584.730906	2740.194790
585.084037	2734.914182
585.437113	2726.976885
585.790135	2724.935218
586.143103	2720.650237
586.496016	2715.162941
586.848874	2708.957281
587.201679	2705.284800
587.554428	2698.733821
587.907124	2698.544777
588.259765	2692.500434
588.612352	2692.167718
588.964884	2685.568847
589.317362	2682.478620
589.669786	2681.062056
590.022155	2680.447035
590.374470	2678.314627
590.726731	2678.259174
591.078937	2667.019922
591.431090	2667.980262
591.783188	2666.866167
592.135232	2662.107317
592.487222	2659.717810
592.839157	2659.954745
593.191038	2654.648930
593.542866	2655.916780
593.894639	2649.804381
594.246358	2649.310348
594.598022	2647.455204
594.949633	2645.421098
595.301190	2642.527476
595.652692	2640.261477
596.004141	2640.440438
596.355535	2638.749131
596.706876	2635.671507
597.058162	2633.377782
597.409395	2634.048255
597.760573	2636.251239
598.111698	2631.068933
598.462768	2630.398460
598.813785	2629.997688
599.164748	2629.128089
599.515657	2629.798562
599.866511	2624.517954
600.217312	2626.436113
600.568060	2623.875207
600.918753	2624.986781
601.269392	2622.362860
601.619978	2624.770011
601.970510	2622.715741
602.320988	2622.793879
602.671412	2621.321862
603.021783	2619.809516
603.372100	2620.038888
603.722363	2617.518312
604.072572	2620.479989
604.422728	2617.863631
604.772830	2615.017899
605.122878	2612.797271
605.472872	2611.816767
605.822813	2609.538165
606.172701	2611.675614
606.522534	2615.549741
606.872314	2613.530759
607.222041	2610.687548
607.571714	2613.934051
607.921333	2612.462034
608.270899	2611.867178
608.620411	2615.007817
608.969870	2610.828700
609.319276	2613.477827
609.668627	2615.000255
610.017926	2614.405399
610.367171	2617.210801
610.716362	2615.983280
611.065500	2615.494288
611.414585	2612.651077
611.763616	2612.537652
612.112594	2612.792230
612.461518	2610.490943
612.810389	2611.030347
613.159207	2609.666714
613.507971	2607.274687
613.856682	2608.537496
614.205340	2609.233175
614.553945	2609.402054
614.902496	2607.748555
615.250994	2610.029677
615.599439	2606.442897
615.947830	2607.970366
616.296169	2605.646394
616.644454	2605.737135
616.992686	2608.507249
617.340864	2609.349122
617.688990	2607.413319
618.037063	2606.873915
618.385082	2606.901642
618.733048	2607.914913
619.080961	2608.194697
619.428821	2608.557661
619.776628	2602.546085
620.124382	2605.986672
620.472083	2606.049687
620.819731	2605.449789
621.167326	2602.803183
621.514868	2605.386775
621.862357	2603.135900
622.209793	2605.701847
622.557176	2602.533482
622.904506	2599.324787
623.251783	2598.871083
623.599007	2597.116762
623.946179	2596.806731
624.293297	2598.462750
624.640363	2597.325970
624.987376	2598.450147
625.334336	2597.114241
625.681243	2596.274889
626.028097	2596.322780
626.374899	2594.951586
626.721647	2594.586103
627.068343	2594.765064
627.414987	2594.737337
627.761577	2594.944025
628.108115	2596.932760
628.454600	2595.407811
628.801032	2592.819178
629.147412	2592.652820
629.493739	2589.449167
629.840014	2592.272213
630.186236	2594.913778
630.532405	2591.929415
630.878521	2594.273551
631.224585	2592.869590
631.570597	2587.460432
631.916556	2589.494537
632.262462	2590.207861
632.608316	2592.292378
632.954117	2587.803230
633.299866	2593.293047
633.645562	2590.709455
633.991206	2591.611822
634.336797	2588.733323
634.682336	2586.797520
635.027823	2588.377922
635.373257	2589.096286
635.718639	2584.725606
636.063968	2588.768611
636.409245	2584.017324
636.754470	2584.367684
637.099642	2586.832808
637.444762	2584.546645
637.789829	2585.081007
638.134845	2585.673343
638.479808	2583.944227
638.824719	2581.224524
639.169577	2583.321644
639.514383	2581.675708
639.859137	2579.936510
640.203839	2584.082859
640.548489	2581.496747
640.893086	2578.948443
641.237632	2577.400809
641.582125	2580.528845
641.926566	2577.332754
642.270955	2579.593711
642.615292	2581.567323
642.959576	2583.611511
643.303809	2582.668815
643.647990	2579.898701
643.992118	2580.271746
644.336195	2581.826942
644.680219	2579.699575
645.024192	2581.040522
645.368112	2580.014647
645.711981	2581.272415
646.055797	2582.414237
646.399562	2586.752150
646.743274	2583.377097
647.086935	2586.116964
647.430544	2583.452714
647.774101	2585.340627
648.117606	2584.249217
648.461059	2581.952971
648.804460	2586.921028
649.147810	2583.782910
649.491108	2579.374421
649.834354	2582.562951
650.177548	2581.912642
650.520690	2581.395924
650.863781	2578.933320
651.206820	2585.144022
651.549807	2580.685121
651.892742	2580.218814
652.235626	2579.873495
652.578458	2579.939030
652.921238	2578.814853
653.263967	2578.469534
653.606644	2580.060018
653.949269	2577.640264
654.291843	2578.482137
654.634365	2575.951477
654.976836	2576.647157
655.319255	2577.705799
655.661622	2580.407857
656.003938	2577.685634
656.346203	2575.291086
656.688416	2578.593042
657.030577	2577.620099
657.372687	2577.000038
657.714746	2577.335274
658.056753	2578.030953
658.398708	2567.263049
658.740612	2573.992989
659.082465	2573.241857
659.424266	2575.984245
659.766016	2571.505180
660.107715	2573.927454
660.449362	2575.623802
660.790958	2577.418453
661.132503	2576.211097
661.473996	2576.397620
661.815438	2575.674214
662.156829	2577.189081
662.498168	2575.465006
662.839456	2573.836713
663.180693	2576.074986
663.521879	2573.483833
663.863013	2576.921900
664.204097	2575.197825
664.545129	2578.393917
664.886110	2580.385172
665.227040	2577.841910
665.567918	2579.243351
665.908746	2577.146231
666.249522	2577.652867
666.590248	2576.604307
666.930922	2576.130438
667.271545	2575.744790
667.612118	2575.757393
667.952639	2578.356108
668.293109	2577.975501
668.633528	2576.851323
668.973896	2577.403330
669.314213	2577.143710
669.654480	2577.426015
669.994695	2574.466858
670.334859	2574.822259
670.674973	2574.229923
671.015035	2575.238154
671.355047	2574.970973
671.695008	2575.777558
672.034918	2575.948957
672.374777	2577.269739
672.714585	2574.086251
673.054342	2574.449214
673.394049	2577.761252
673.733705	2575.069276
674.073310	2576.758062
674.412864	2576.400140
674.752368	2574.136662
675.091820	2576.402661
675.431223	2574.272773
675.770574	2572.679769
676.109875	2569.370251
676.449125	2570.050807
676.788324	2571.875705
677.127473	2571.805128
677.466571	2571.676579
677.805619	2575.084399
678.144616	2572.052145
678.483562	2571.820252
678.822458	2572.614234
679.161303	2575.016343
679.500098	2571.074161
679.838842	2574.794533
680.177535	2573.955181
680.516179	2572.215982
680.854771	2572.261353
681.193314	2574.844944
681.531805	2574.713874
681.870247	2576.110274
682.208638	2578.348546
682.546978	2579.792837
682.885268	2577.501632
683.223508	2575.717064
683.561697	2574.386199
683.899836	2576.006930
684.237925	2574.570201
684.575963	2576.669842
684.913951	2576.773186
685.251889	2575.613720
685.589776	2576.180850
685.927614	2573.567012
686.265401	2576.221179
686.603137	2573.282187
686.940824	2575.323854
687.278460	2579.404668
687.616046	2576.843762
687.953582	2577.892322
688.291068	2577.806622
688.628504	2577.705799
688.965889	2577.236972
689.303224	2576.894173
689.640510	2576.705130
689.977745	2574.267732
690.314930	2573.413257
690.652065	2573.352763
690.989150	2572.155489
691.326185	2571.979048
691.663170	2571.384192
692.000105	2571.023750
692.336990	2569.859243
692.673825	2570.706157
693.010610	2570.408729
693.347345	2566.179201
693.684030	2563.852708
694.020665	2566.088460
694.357251	2561.175856
694.693786	2565.450754
695.030272	2563.882955
695.366707	2565.596947
695.703093	2564.041752
696.039429	2563.648542
696.375716	2564.797925
696.711952	2563.285578
697.048139	2566.171639
697.384276	2564.656772
697.720363	2562.088304
698.056400	2564.742472
698.392388	2566.466547
698.728326	2561.584189
699.064214	2563.782132
699.400053	2563.202399
699.735842	2565.284396
700.071581	2563.333469
700.407270	2563.048644
700.742910	2564.525702
701.078501	2562.471432
701.414042	2561.606874
701.749533	2561.533778
702.084974	2558.496482
702.420366	2563.025959
702.755709	2560.417162
703.091002	2560.913716
703.426246	2560.323901
703.761440	2560.807851
704.096584	2563.356155
704.431679	2558.443550
704.766725	2559.156873
705.101721	2557.692418
705.436668	2560.717111
705.771565	2559.802141
706.106413	2563.809858
706.441212	2561.901782
706.775961	2563.288099
707.110661	2556.948848
707.445311	2561.122923
707.779913	2561.690053
708.114465	2562.174004
708.448967	2560.664178
708.783421	2564.107287
709.117825	2562.516802
709.452180	2560.575958
709.786485	2562.995712
710.120742	2564.679457
710.454949	2564.699622
710.789107	2564.445044
711.123216	2562.113510
711.457275	2563.141906
711.791286	2563.114179
712.125247	2563.973696
712.459159	2566.141392
712.793023	2569.879408
713.126837	2565.654921
713.460602	2564.921433
713.794318	2565.453275
714.127985	2567.063923
714.461602	2565.992678
714.795171	2566.973183
715.128691	2562.821792
715.462162	2564.492935
715.795584	2558.889692
716.128957	2561.599312
716.462281	2561.057388
716.795556	2561.347255
717.128782	2562.426062
717.461960	2559.534960
717.795088	2559.923129
718.128167	2560.767522
718.461198	2559.913047
718.794180	2561.465722
719.127113	2556.701832
719.459997	2558.496482
719.792833	2559.111503
720.125619	2557.629404
720.458357	2558.549414
720.791046	2557.795762
721.123686	2555.068498
721.456278	2559.991184
721.788821	2555.933056
722.121315	2556.175031
722.453761	2558.272151
722.786158	2557.218550
723.118506	2557.944476
723.450805	2555.943138
723.783056	2558.030176
724.115259	2554.864331
724.447412	2556.021276
724.779518	2558.909857
725.111574	2557.389949
725.443582	2556.101934
725.775542	2555.376008
726.107453	2557.468087
726.439315	2559.734086
726.771129	2561.571586
727.102895	2557.715103
727.434612	2560.477656
727.766281	2559.018242
728.097901	2557.558828
728.429473	2556.500185
728.760996	2555.431461
729.092471	2554.264434
729.423897	2558.050340
729.755276	2558.919939
730.086606	2557.644527
730.417887	2558.814075
730.749120	2562.116031
731.080305	2561.385063
731.411442	2562.635270
731.742530	2560.097049
732.073570	2564.916392
732.404562	2563.401525
732.735506	2560.623849
733.066401	2560.467573
733.397249	2561.881617
733.728048	2560.495300
734.058798	2559.257697
734.389501	2556.651420
734.720156	2558.720814
735.050762	2557.354661
735.381320	2556.046482
735.711831	2555.229815
736.042293	2554.692932
736.372707	2555.781821
736.703073	2554.526574
737.033391	2554.640000
737.363661	2556.296019
737.693883	2555.827191
738.024056	2558.103272
738.354182	2555.980947
738.684260	2558.320042
739.014290	2557.697459
739.344272	2560.843139
739.674207	2557.594116
740.004093	2560.429765
740.333931	2558.045299
740.663722	2557.445402
740.993464	2557.687377
741.323159	2557.417675
741.652806	2556.190154
741.982405	2555.865000
742.311956	2554.667726
742.641460	2555.920453
742.970915	2556.739640
743.300323	2553.712427
743.629683	2556.769887
743.958996	2556.593447
744.288260	2554.370298
744.617477	2554.468600
744.946647	2552.920966
745.275768	2552.316028
745.604842	2549.606408
745.933869	2551.118754
746.262847	2547.983156
746.591778	2551.239741
746.920662	2555.134033
747.249498	2553.919115
747.578286	2549.810574
747.907027	2552.888199
748.235720	2555.113868
748.564365	2554.435833
748.892963	2555.496996
749.221514	2553.286450
749.550017	2553.362067
749.878473	2552.978939
750.206881	2553.755277
750.535242	2552.111861
750.863555	2552.837787
751.191821	2555.270144
751.520039	2553.936759
751.848210	2554.551779
752.176334	2552.913404
752.504411	2551.446429
752.832440	2553.785524
753.160421	2550.629762
753.488356	2551.663198
753.816243	2554.493806
754.144082	2551.809392
754.471875	2551.879968
754.799620	2551.335523
755.127318	2548.951057
755.454969	2552.250493
755.782572	2554.975236
756.110129	2550.780996
756.437638	2548.351160
756.765100	2550.274360
757.092515	2552.656306
757.419882	2549.462735
757.747203	2551.932900
758.074477	2549.780327
758.401703	2550.352498
758.728882	2553.571275
759.056014	2552.109340
759.383099	2552.429454
759.710138	2552.699155
760.037129	2555.769218
760.364073	2551.494320
760.690970	2553.072201
761.017820	2552.192519
761.344623	2554.085473
761.671379	2553.767880
761.998088	2549.061963
762.324751	2556.520350
762.651366	2559.537481
762.977935	2571.190108
763.304456	2572.677248
763.630931	2577.534400
763.957359	2573.274625
764.283740	2568.130127
764.610074	2563.953531
764.936362	2559.726524
765.262602	2556.492624
765.588796	2556.296019
765.914943	2552.865513
766.241044	2555.814588
766.567097	2548.842673
766.893104	2549.629093
767.219064	2550.944834
767.544978	2551.088507
767.870845	2553.001625
768.196665	2550.342416
768.522438	2547.582384
768.848165	2549.432488
769.173846	2547.703372
769.499479	2548.424257
769.825066	2549.097251
770.150607	2546.198587
770.476101	2547.688248
770.801548	2550.213867
771.126949	2545.845707
771.452303	2549.760163
771.777611	2548.217570
772.102872	2547.408464
772.428087	2546.057435
772.753256	2546.921993
773.078378	2546.619524
773.403453	2547.514329
773.728482	2544.635830
774.053465	2548.247817
774.378401	2543.151210
774.703291	2545.094575
775.028135	2544.623227
775.352932	2542.674821
775.677683	2544.620706
776.002388	2547.310162
776.327046	2543.330171
776.651658	2546.241437
776.976224	2544.983669
777.300743	2544.903011
777.625216	2544.008206
777.949643	2545.558361
778.274024	2547.158927
778.598359	2541.033925
778.922647	2539.088040
779.246889	2542.430325
779.571086	2538.384799
779.895236	2542.894111
780.219339	2543.118442
780.543397	2545.938968
780.867409	2544.751776
781.191374	2543.937630
781.515294	2543.869574
781.839167	2542.269008
782.162995	2545.056766
782.486776	2543.501570
782.810511	2544.643392
783.134201	2543.171375
783.457844	2543.811601
783.781441	2545.896118
784.104993	2542.170706
784.428498	2541.356559
784.751958	2542.233720
785.075372	2544.073741
785.398739	2543.375541
785.722061	2540.902855
786.045337	2543.688093
786.368568	2544.855120
786.691752	2542.357228
787.014891	2544.426622
787.337983	2543.330171
787.661030	2544.479554
787.984031	2547.247148
788.306987	2547.489123
788.629897	2547.257230
788.952760	2547.448794
789.275579	2547.148845
789.598351	2548.192364
789.921078	2542.853782
790.243759	2545.767569
790.566395	2544.570295
790.888984	2543.088196
791.211529	2543.229348
791.534027	2545.278577
791.856480	2540.920499
792.178888	2541.908566
792.501249	2543.355377
792.823566	2544.441745
793.145836	2543.506611
793.468062	2540.854964
793.790241	2542.175747
794.112375	2542.437887
794.434464	2541.222969
794.756507	2545.979297
795.078505	2543.022661
795.400457	2541.598535
795.722364	2539.239275
796.044226	2541.956457
796.366042	2543.395706
796.687812	2543.461241
797.009538	2545.301262
797.331218	2545.843186
797.652852	2543.395706
797.974442	2540.386137
798.295986	2544.529966
798.617484	2545.144986
798.938938	2541.391847
799.260346	2543.665408
799.581709	2543.113401
799.903026	2545.230686
800.224299	2541.442259
800.545526	2542.440407
800.866708	2541.495191
801.187845	2542.697506
801.508936	2545.036602
801.829983	2541.076775
802.150984	2541.064172
802.471940	2541.908566
802.792851	2540.973432
803.113717	2542.659697
803.434538	2542.906714
803.755314	2542.316899
804.076045	2540.900335
804.396731	2543.652805
804.717372	2541.371683
805.037967	2540.272711
805.358518	2544.091385
805.679024	2541.417053
805.999485	2540.915458
806.319901	2543.783875
806.640272	2541.830428
806.960598	2540.345808
807.280879	2543.534338
807.601115	2543.294883
807.921306	2543.146169
808.241453	2540.544933
808.561554	2542.914276
808.881611	2543.756148
809.201623	2542.939482
809.521590	2540.865047
809.841513	2542.962167
810.161390	2542.236241
810.481223	2539.617361
810.801011	2544.030891
811.120755	2541.805222
811.440453	2542.299255
811.760107	2542.896632
812.079716	2538.460416
812.399281	2538.150385
812.718801	2540.408822
813.038276	2536.680889
813.357707	2539.753472
813.677093	2543.680531
813.996434	2542.631971
814.315731	2540.360931
814.634983	2540.875129
814.954191	2542.049718
815.273354	2543.005017
815.592473	2542.987373
815.911547	2541.054090
816.230577	2543.060469
816.549562	2543.420912
816.868502	2543.904862
817.187399	2543.289842
817.506250	2542.790767
817.825058	2542.929399
818.143821	2542.997455
818.462539	2543.856972
818.781213	2543.741025
819.099843	2543.738504
819.418429	2549.019113
819.736970	2551.940462
820.055466	2555.033210
820.373919	2554.992880
820.692327	2558.567058
821.010691	2567.280693
821.329011	2584.586974
821.647286	2616.815071
821.965517	2652.219094
822.283704	2676.588032
822.601847	2682.181192
822.919945	2667.408091
823.237999	2644.140645
823.556010	2623.260186
823.873976	2607.725870
824.191897	2595.380084
824.509775	2584.045050
824.827609	2573.118349
825.145398	2571.059038
825.463144	2572.175653
825.780845	2570.776733
826.098502	2575.520459
826.416116	2585.607808
826.733685	2597.416711
827.051210	2600.254880
827.368692	2597.509972
827.686129	2585.993456
828.003522	2577.352918
828.320872	2564.664334
828.638177	2558.423386
828.955439	2554.075390
829.272656	2550.218908
829.589830	2543.874616
829.906960	2544.799667
830.224046	2547.710934
830.541088	2547.239586
830.858086	2542.546272
831.175041	2545.079451
831.491952	2543.650284
831.808819	2543.463762
832.125642	2545.810419
832.442421	2545.371838
832.759157	2552.363919
833.075849	2558.456153
833.392497	2568.167936
833.709101	2572.674728
834.025662	2570.023081
834.342179	2567.137020
834.658653	2562.373130
834.975083	2556.172510
835.291469	2559.875238
835.607811	2546.952240
835.924110	2544.106509
836.240366	2546.375028
836.556578	2544.194729
836.872746	2543.105840
837.188871	2542.750438
837.504952	2542.337064
837.820990	2540.983514
838.136984	2542.016950
838.452935	2539.718184
838.768842	2542.712630
839.084706	2540.726415
839.400526	2541.953936
839.716303	2547.801674
840.032037	2552.948692
840.347727	2552.018600
840.663373	2550.738147
840.978977	2543.562064
841.294537	2542.705068
841.610054	2542.074924
841.925527	2538.238606
842.240957	2542.019471
842.556344	2541.033925
842.871687	2538.778009
843.186987	2542.384955
843.502244	2536.829603
843.817458	2537.300951
844.132629	2534.903882
844.447756	2535.849099
844.762840	2533.704088
845.077881	2531.685106
845.392879	2531.790970
845.707833	2533.184849
846.022745	2532.126207
846.337613	2536.580066
846.652438	2533.893131
846.967221	2536.388502
847.281960	2536.015457
847.596656	2537.779861
847.911309	2535.060158
848.225919	2536.146527
848.540485	2536.015457
848.855009	2533.769623
849.169490	2536.108718
849.483928	2533.973789
849.798323	2534.626619
850.112675	2536.655683
850.426984	2536.330529
850.741251	2535.665097
851.055474	2536.128883
851.369654	2536.640560
851.683792	2535.818852
851.997887	2536.690971
852.311938	2536.451517
852.625947	2536.471681
852.939914	2535.939839
853.253837	2535.377751
853.567718	2538.515869
853.881555	2535.581918
854.195350	2534.959335
854.509103	2536.093595
854.822812	2535.960004
855.136479	2537.358924
855.450103	2534.082174
855.763685	2538.004192
856.077224	2534.366999
856.390720	2534.601413
856.704173	2533.376413
857.017584	2536.010416
857.330953	2534.205682
857.644278	2536.693492
857.957561	2539.987886
858.270802	2537.749614
858.584000	2535.334901
858.897155	2533.913296
859.210268	2535.960004
859.523339	2536.615354
859.836367	2536.416228
860.149352	2536.209541
860.462295	2534.654345
860.775195	2532.211906
861.088054	2530.311391
861.400869	2530.213089
861.713642	2530.518078
862.026373	2535.473533
862.339062	2535.695343
862.651708	2535.027391
862.964312	2535.435724
863.276873	2535.130734
863.589392	2538.669624
863.901869	2535.130734
864.214303	2535.884387
864.526696	2537.812628
864.839045	2538.473019
865.151353	2537.041332
865.463619	2538.188194
865.775842	2536.557381
866.088023	2534.152750
866.400162	2537.429500
866.712258	2536.388502
867.024313	2537.064017
867.336325	2536.512010
867.648296	2538.094933
867.960224	2536.456558
868.272110	2537.061496
868.583954	2534.475384
868.895755	2536.597710
869.207515	2537.437062
869.519233	2538.440252
869.830909	2537.341280
870.142542	2538.165509
870.454134	2534.790456
870.765684	2538.193235
871.077191	2538.541075
871.388657	2536.713657
871.700081	2538.367155
872.011463	2536.645601
872.322803	2536.529654
872.634101	2537.631147
872.945357	2535.655014
873.256571	2538.324305
873.567744	2538.747762
873.878874	2540.532331
874.189963	2538.236085
874.501010	2541.535520
874.812015	2538.823379
875.122979	2540.756662
875.433900	2541.094419
875.744780	2540.257588
876.055618	2540.134079
876.366415	2538.853626
876.677169	2539.468647
876.987882	2536.106198
877.298554	2536.799356
877.609183	2539.486291
877.919771	2535.894469
878.230317	2536.907741
878.540822	2544.051056
878.851285	2541.346477
879.161707	2545.356715
879.472087	2546.483413
879.782425	2551.078424
880.092722	2557.936914
880.402977	2567.966290
880.713191	2589.663416
881.023363	2604.746548
881.333494	2621.500823
881.643583	2624.318828
881.953631	2623.532408
882.263637	2617.788013
882.573602	2609.389451
882.883526	2599.201279
883.193408	2591.074939
883.503248	2578.930799
883.813048	2574.608010
884.122806	2568.964438
884.432522	2565.435631
884.742197	2559.398849
885.051831	2553.452808
885.361424	2553.775442
885.670975	2550.786037
885.980485	2549.800492
886.289954	2548.875440
886.599382	2542.821014
886.908768	2544.867723
887.218113	2544.035933
887.527417	2544.300593
887.836680	2540.300438
888.145901	2540.270191
888.455082	2539.680376
888.764221	2540.683565
889.073319	2538.410005
889.382376	2540.194573
889.691392	2537.311033
890.000366	2540.731456
890.309300	2540.086188
890.618193	2539.761034
890.927044	2540.428987
891.235855	2541.074255
891.544625	2540.877650
891.853353	2539.239275
892.162041	2538.916641
892.470687	2541.354039
892.779293	2539.907228
893.087858	2539.728267
893.396381	2544.814791
893.704864	2548.693959
894.013306	2548.903167
894.321707	2560.868345
894.630068	2564.440003
894.938387	2568.861095
895.246665	2567.915878
895.554903	2564.606361
895.863100	2556.868190
896.171256	2556.021276
896.479371	2552.729402
896.787446	2549.046839
897.095480	2547.973074
897.403473	2546.564071
897.711425	2542.662218
898.019336	2543.937630
898.327207	2543.370500
898.635038	2543.090716
898.942827	2542.400078
899.250576	2543.456200
899.558284	2540.577701
899.865952	2539.662732
900.173579	2537.169881
900.481165	2539.723225
900.788711	2537.847916
901.096216	2536.922864
901.403681	2541.333874
901.711105	2536.779192
902.018489	2538.654501
902.325832	2539.410674
902.633135	2537.600900
902.940397	2541.984183
903.247619	2541.593493
903.554800	2548.149514
903.861941	2561.710218
904.169041	2568.518296
904.476101	2579.283680
904.783121	2576.077506
905.090100	2572.896538
905.397039	2567.449572
905.703938	2558.572100
906.010796	2554.004814
906.317614	2550.110523
906.624391	2546.443083
906.931129	2543.327650
907.237826	2543.189019
907.544483	2538.886394
907.851099	2536.043183
908.157675	2534.160312
908.464211	2539.350180
908.770707	2531.115455
909.077163	2534.800539
909.383578	2532.474046
909.689954	2532.688295
909.996289	2531.879190
910.302584	2534.795498
910.608839	2537.197607
910.915054	2535.332380
911.221229	2535.634850
911.527363	2536.990920
911.833458	2535.612164
912.139513	2536.776671
912.445527	2537.255581
912.751502	2538.475540
913.057436	2537.311033
913.363331	2540.297917
913.669186	2538.321785
913.975000	2541.442259
914.280775	2541.326312
914.586510	2541.754810
914.892205	2549.699669
915.197859	2555.144115
915.503475	2561.342214
915.809050	2568.805642
916.114585	2570.837227
916.420081	2575.621282
916.725536	2573.924934
917.030952	2571.505180
917.336328	2564.382029
917.641665	2560.376833
917.946961	2558.640155
918.252218	2553.883827
918.557435	2547.988197
918.862612	2546.213711
919.167750	2545.523073
919.472848	2544.608103
919.777906	2542.581560
920.082925	2540.285314
920.387904	2540.396219
920.692843	2539.745911
920.997743	2537.268183
921.302603	2538.755324
921.607423	2539.108205
921.912204	2539.274563
922.216946	2536.827083
922.521647	2539.269522
922.826310	2532.907585
923.130932	2536.590148
923.435516	2535.949922
923.740059	2536.554860
924.044564	2532.733666
924.349028	2536.287679
924.653454	2531.475898
924.957840	2533.570497
925.262186	2531.473377
925.566493	2531.233922
925.870761	2528.332738
926.174989	2532.577390
926.479178	2535.536547
926.783328	2533.023532
927.087438	2531.422966
927.391509	2535.158461
927.695541	2531.382636
927.999533	2530.565969
928.303486	2532.653007
928.607400	2532.529499
928.911275	2531.422966
929.215110	2532.897503
929.518906	2531.183511
929.822663	2533.331042
930.126381	2529.058664
930.430060	2531.594365
930.733699	2532.665610
931.037299	2532.630322
931.340861	2533.767102
931.644383	2530.518078
931.947866	2531.077647
932.251309	2530.573531
932.554714	2533.260466
932.858080	2534.414890
933.161407	2534.387164
933.464694	2531.715352
933.767943	2531.879190
934.071153	2531.259128
934.374323	2531.352389
934.677455	2529.212420
934.980548	2532.474046
935.283602	2531.049920
935.586617	2529.595547
935.889593	2531.715352
936.192530	2532.413552
936.495428	2531.170908
936.798287	2532.713501
937.101108	2530.949097
937.403890	2532.106042
937.706632	2534.427493
938.009336	2531.894313
938.312002	2534.606454
938.614628	2536.149047
938.917216	2534.966897
939.219765	2533.825075
939.522275	2532.983203
939.824747	2535.773481
940.127179	2532.441279
940.429573	2529.560259
940.731929	2531.231402
941.034246	2528.310053
941.336524	2531.995137
941.638763	2533.567977
941.940964	2534.273738
942.243126	2530.291227
942.545250	2535.380271
942.847335	2533.162164
943.149381	2532.809283
943.451389	2532.529499
943.753359	2534.195600
944.055290	2531.775846
944.357182	2531.748120
944.659036	2531.856505
944.960851	2533.189890
945.262628	2528.957841
945.564367	2530.152595
945.866067	2531.738038
946.167729	2536.698533
946.469352	2530.976823
946.770937	2532.849612
947.072484	2528.970444
947.373992	2531.450692
947.675462	2529.351051
947.976893	2530.523120
948.278286	2530.122348
948.579641	2533.613347
948.880958	2530.316432
949.182236	2528.801566
949.483476	2529.714014
949.784678	2533.111752
950.085841	2531.866587
950.386967	2531.879190
950.688054	2530.770136
950.989103	2531.894313
951.290114	2529.156967
951.591087	2532.274921
951.892021	2532.799201
952.192917	2532.358100
952.493776	2531.889272
952.794596	2531.755682
953.095378	2532.022863
953.396122	2529.436751
953.696828	2532.070754
953.997496	2533.452030
954.298126	2530.961700
954.598718	2532.136289
954.899272	2527.763088
955.199788	2531.856505
955.500266	2530.008922
955.800706	2527.190917
956.101108	2526.966586
956.401472	2528.337779
956.701798	2528.335259
957.002087	2527.339631
957.302337	2528.473891
957.602550	2530.439941
957.902724	2527.528674
958.202861	2530.510517
958.502960	2528.932636
958.803022	2529.822399
959.103045	2527.294261
959.403031	2530.407173
959.702979	2528.191586
960.002889	2530.359282
960.302762	2528.342821
960.602596	2529.683767
960.902393	2529.920702
961.202153	2527.765608
961.501875	2528.236956
961.801559	2530.560928
962.101205	2525.965917
962.400814	2527.183355
962.700385	2527.972296
962.999918	2526.346524
963.299414	2529.852646
963.598873	2528.788963
963.898293	2527.327028
964.197677	2531.095291
964.497022	2527.637059
964.796331	2526.404497
965.095601	2530.124868
965.394835	2532.010260
965.694030	2527.337110
965.993189	2529.940866
966.292309	2528.211751
966.591393	2528.224353
966.890439	2528.408356
967.189447	2530.442461
967.488419	2528.809127
967.787353	2526.880886
968.086249	2527.826102
968.385108	2528.390712
968.683930	2530.679395
968.982714	2529.726617
969.281462	2529.048582
969.580172	2527.667306
969.878844	2529.260311
970.177480	2528.168901
970.476078	2527.768129
970.774639	2526.613705
971.073162	2527.919364
971.371649	2526.999353
971.670098	2527.022038
971.968510	2528.599919
972.266885	2527.321987
972.565223	2526.785104
972.863524	2527.198479
973.161788	2528.592358
973.460014	2529.010773
973.758204	2526.724610
974.056356	2526.585978
974.354471	2527.145547
974.652550	2525.653365
974.950591	2529.953469
975.248595	2527.127902
975.546563	2526.903571
975.844493	2528.912471
976.142386	2529.688809
976.440243	2528.060516
976.738062	2527.314425
977.035845	2527.195958
977.333590	2527.190917
977.631299	2525.943231
977.928971	2529.582944
978.226606	2529.046062
978.524204	2529.015815
978.821765	2528.083201
979.119290	2527.720238
979.416777	2525.229908
979.714228	2528.178983
980.011642	2525.701256
980.309020	2530.679395
980.606360	2528.536905
980.903664	2526.278468
981.200931	2526.689322
981.498162	2528.068078
981.795356	2526.951462
982.092513	2528.294930
982.389633	2528.458767
982.686717	2530.069416
982.983764	2530.928933
983.280775	2528.612522
983.577749	2529.698891
983.874686	2529.537574
984.171587	2529.640918
984.468451	2530.384488
984.765279	2529.766947
985.062070	2529.542615
985.358824	2527.954652
985.655543	2529.151926
985.952224	2524.347706
986.248869	2529.434230
986.545478	2524.113293
986.842050	2526.681760
987.138586	2522.351409
987.435086	2522.953827
987.731549	2522.182531
988.027975	2525.330731
988.324366	2526.517923
988.620719	2529.739220
988.917037	2527.541277
989.213318	2528.529343
989.509563	2525.923067
989.805772	2526.780063
990.101944	2524.753519
990.398080	2527.100176
990.694180	2528.965403
990.990244	2526.964065
991.286271	2526.704446
991.582262	2528.146216
991.878217	2526.792666
992.174136	2528.052954
992.470019	2527.107738
992.765865	2526.422141
993.061676	2527.057326
993.357450	2526.344003
993.653188	2526.066740
993.948890	2524.998015
994.244556	2526.215454
994.540186	2530.301309
994.835780	2525.986081
995.131337	2525.955834
995.426859	2526.170083
995.722345	2526.666637
996.017795	2527.321987
996.313208	2528.955321
996.608586	2526.757378
996.903928	2527.747964
997.199234	2527.717718
997.494504	2524.188910
997.789738	2526.477594
998.084936	2526.941380
998.380099	2525.925587
998.675225	2529.542615
998.970316	2528.032790
999.265371	2526.764939
999.560390	2526.593540
999.855373	2524.531708
1000.150320	2526.669157
1000.445232	2528.368026
1000.740108	2525.943231
1001.034948	2530.810465
1001.329752	2524.952645
1001.624521	2528.020187
1001.919254	2521.905267
1002.213951	2524.811492
1002.508613	2520.904598
1002.803239	2523.699918
1003.097829	2522.371574
1003.392384	2526.815351
1003.686903	2526.976668
1003.981386	2530.722245
1004.275834	2525.381143
1004.570246	2526.525485
1004.864623	2523.785618
1005.158964	2527.569003
1005.453270	2526.321318
1005.747540	2526.885927
1006.041775	2526.228057
1006.335974	2526.013807
1006.630138	2526.419620
1006.924266	2527.634538
1007.218359	2525.829805
1007.512416	2525.187058
1007.806438	2524.239321
1008.100425	2524.937521
1008.394376	2526.654034
1008.688292	2524.256965
1008.982172	2527.753006
1009.276017	2526.394415
1009.569827	2527.049765
1009.863602	2527.642100
1010.157341	2527.155629
1010.451045	2525.902902
1010.744714	2524.803931
1011.038347	2524.279651
1011.331945	2525.345855
1011.625508	2525.073632
1011.919036	2527.122861
1012.212528	2526.631349
1012.505986	2526.449867
1012.799408	2525.119003
1013.092795	2524.098169
1013.386147	2526.152439
1013.679464	2525.192099
1013.972745	2524.355268
1014.265992	2526.613705
1014.559204	2526.001205
1014.852380	2524.645134
1015.145521	2525.343334
1015.438628	2524.929959
1015.731699	2527.707635
1016.024736	2526.878365
1016.317737	2527.795855
1016.610703	2526.071781
1016.903635	2526.664116
1017.196531	2521.812006
1017.489393	2525.640762
1017.782219	2521.547345
1018.075011	2523.830988
1018.367768	2526.565814
1018.660490	2525.572707
1018.953177	2525.572707
1019.245829	2525.572707
