Dividing Wavelength (nm)	Counts (n)	Blue Motor Position (mm): 0.000000	Red Motor Position (mm): 8.400000	
326.493990	2134.928654
326.888308	2134.928654
327.282561	2134.928654
327.676750	2046.708462
328.070874	2076.955385
328.464933	2089.558269
328.858929	2056.790769
329.252859	2142.490385
329.646726	2081.996538
330.040528	2147.531538
330.434265	2071.914231
330.827938	2076.955385
331.221547	2129.887500
331.615091	2160.134423
332.008571	2117.284615
332.401986	2145.010962
332.795338	2238.272308
333.188625	2273.560385
333.581847	2192.901923
333.975006	2228.190000
334.368100	2331.533654
334.761129	2313.889615
335.154095	2341.615962
335.546996	2336.574808
335.939833	2323.971923
336.332606	2339.095385
336.725315	2386.986346
337.117960	2404.630385
337.510540	2457.562500
337.903056	2432.356731
338.295508	2389.506923
338.687896	2477.727115
339.080220	2447.480192
339.472480	2432.356731
339.864676	2465.124231
340.256807	2439.918462
340.648875	2477.727115
341.040879	2452.521346
341.432818	2404.630385
341.824694	2422.274423
342.216506	2394.548077
342.608253	2467.644808
342.999937	2470.165385
343.391557	2437.397885
343.783113	2485.288846
344.174605	2452.521346
344.566033	2487.809423
344.957397	2505.453462
345.348697	2427.315577
345.739934	2437.397885
346.131106	2480.247692
346.522215	2523.097500
346.913260	2482.768269
347.304241	2497.891731
347.695159	2402.109808
348.086012	2414.712692
348.476802	2545.782692
348.867528	2439.918462
349.258191	2472.685962
349.648789	2419.753846
350.039324	2472.685962
350.429796	2442.439038
350.820203	2591.153077
351.210548	2444.959615
351.600828	2475.206538
351.991045	2485.288846
352.381198	2485.288846
352.771288	2485.288846
353.161314	2316.410192
353.551276	2518.056346
353.941175	2392.027500
354.331010	2386.986346
354.720782	2392.027500
355.110490	2492.850577
355.500135	2392.027500
355.889717	2409.671538
356.279235	2427.315577
356.668689	2389.506923
357.058080	2434.877308
357.447408	2465.124231
357.836672	2500.412308
358.225873	2442.439038
358.615010	2374.383462
359.004084	2477.727115
359.393095	2507.974038
359.782043	2490.330000
360.170927	2450.000769
360.559748	2543.262115
360.948505	2437.397885
361.337199	2417.233269
361.725830	2434.877308
362.114398	2455.041923
362.502903	2399.589231
362.891344	2407.150962
363.279722	2442.439038
363.668037	2467.644808
364.056289	2533.179808
364.444478	2455.041923
364.832603	2482.768269
365.220665	2394.548077
365.608665	2502.932885
365.996601	2424.795000
366.384474	2528.138654
366.772284	2409.671538
367.160031	2538.220962
367.547715	2399.589231
367.935336	2442.439038
368.322893	2452.521346
368.710388	2389.506923
369.097820	2442.439038
369.485189	2480.247692
369.872495	2429.836154
370.259738	2329.013077
370.646918	2485.288846
371.034035	2530.659231
371.421090	2455.041923
371.808081	2460.083077
372.195010	2439.918462
372.581875	2432.356731
372.968678	2490.330000
373.355418	2432.356731
373.742096	2510.494615
374.128710	2359.260000
374.515262	2460.083077
374.901751	2525.618077
375.288177	2455.041923
375.674540	2424.795000
376.060841	2409.671538
376.447079	2465.124231
376.833254	2422.274423
377.219367	2467.644808
377.605417	2376.904038
377.991404	2475.206538
378.377329	2497.891731
378.763191	2465.124231
379.148991	2402.109808
379.534727	2457.562500
379.920402	2462.603654
380.306013	2402.109808
380.691563	2376.904038
381.077049	2439.918462
381.462474	2447.480192
381.847835	2475.206538
382.233134	2424.795000
382.618371	2487.809423
383.003545	2485.288846
383.388657	2472.685962
383.773706	2513.015192
384.158693	2412.192115
384.543618	2361.780577
384.928480	2457.562500
385.313280	2470.165385
385.698017	2470.165385
386.082692	2424.795000
386.467305	2389.506923
386.851856	2487.809423
387.236344	2515.535769
387.620770	2450.000769
388.005133	2457.562500
388.389435	2480.247692
388.773674	2447.480192
389.157851	2427.315577
389.541965	2475.206538
389.926018	2472.685962
390.310008	2465.124231
390.693936	2402.109808
391.077802	2447.480192
391.461606	2528.138654
391.845348	2419.753846
392.229027	2472.685962
392.612645	2460.083077
392.996200	2538.220962
393.379694	2502.932885
393.763125	2444.959615
394.146494	2475.206538
394.529801	2495.371154
394.913047	2437.397885
395.296230	2500.412308
395.679351	2558.385577
396.062410	2487.809423
396.445408	2487.809423
396.828343	2422.274423
397.211217	2450.000769
397.594028	2487.809423
397.976778	2442.439038
398.359466	2492.850577
398.742092	2465.124231
399.124656	2480.247692
399.507158	2392.027500
399.889598	2475.206538
400.271977	2465.124231
400.654294	2482.768269
401.036549	2480.247692
401.418742	2500.412308
401.800874	2417.233269
402.182944	2482.768269
402.564952	2545.782692
402.946898	2480.247692
403.328783	2455.041923
403.710606	2452.521346
404.092367	2455.041923
404.474067	2437.397885
404.855705	2460.083077
405.237282	2432.356731
405.618797	2490.330000
406.000250	2538.220962
406.381642	2457.562500
406.762972	2485.288846
407.144240	2455.041923
407.525447	2434.877308
407.906593	2477.727115
408.287677	2497.891731
408.668700	2492.850577
409.049661	2477.727115
409.430560	2533.179808
409.811399	2412.192115
410.192176	2492.850577
410.572891	2495.371154
410.953545	2482.768269
411.334138	2470.165385
411.714669	2530.659231
412.095139	2470.165385
412.475547	2472.685962
412.855894	2495.371154
413.236180	2444.959615
413.616405	2470.165385
413.996568	2450.000769
414.376670	2540.741538
414.756711	2553.344423
415.136691	2462.603654
415.516609	2475.206538
415.896466	2364.301154
416.276262	2495.371154
416.655997	2465.124231
417.035670	2439.918462
417.415283	2447.480192
417.794834	2462.603654
418.174324	2497.891731
418.553753	2412.192115
418.933121	2439.918462
419.312428	2457.562500
419.691674	2465.124231
420.070859	2523.097500
420.449983	2495.371154
420.829045	2465.124231
421.208047	2482.768269
421.586988	2462.603654
421.965867	2465.124231
422.344686	2513.015192
422.723444	2492.850577
423.102141	2455.041923
423.480777	2495.371154
423.859352	2422.274423
424.237866	2450.000769
424.616319	2520.576923
424.994712	2518.056346
425.373044	2442.439038
425.751314	2384.465769
426.129524	2581.070769
426.507673	2500.412308
426.885762	2392.027500
427.263789	2545.782692
427.641756	2437.397885
428.019662	2470.165385
428.397508	2485.288846
428.775292	2495.371154
429.153016	2518.056346
429.530679	2487.809423
429.908282	2510.494615
430.285824	2528.138654
430.663305	2467.644808
431.040726	2467.644808
431.418086	2538.220962
431.795385	2510.494615
432.172624	2427.315577
432.549802	2442.439038
432.926920	2533.179808
433.303977	2422.274423
433.680974	2535.700385
434.057910	2452.521346
434.434786	2490.330000
434.811601	2465.124231
435.188355	2510.494615
435.565050	2452.521346
435.941683	2500.412308
436.318257	2485.288846
436.694770	2447.480192
437.071222	2384.465769
437.447614	2429.836154
437.823946	2475.206538
438.200218	2492.850577
438.576429	2497.891731
438.952580	2568.467885
439.328670	2480.247692
439.704700	2487.809423
440.080670	2460.083077
440.456580	2518.056346
440.832429	2412.192115
441.208218	2444.959615
441.583947	2472.685962
441.959616	2439.918462
442.335224	2518.056346
442.710773	2505.453462
443.086261	2568.467885
443.461689	2505.453462
443.837057	2394.548077
444.212365	2452.521346
444.587612	2472.685962
444.962800	2482.768269
445.337927	2543.262115
445.712995	2543.262115
446.088002	2414.712692
446.462949	2409.671538
446.837837	2429.836154
447.212664	2434.877308
447.587431	2505.453462
447.962139	2507.974038
448.336786	2510.494615
448.711374	2500.412308
449.085901	2583.591346
449.460369	2482.768269
449.834776	2351.698269
450.209124	2444.959615
450.583412	2424.795000
450.957640	2480.247692
451.331808	2570.988462
451.705917	2535.700385
452.079965	2437.397885
452.453954	2492.850577
452.827883	2550.823846
453.201752	2530.659231
453.575562	2457.562500
453.949311	2427.315577
454.323001	2460.083077
454.696632	2596.194231
455.070202	2485.288846
455.443713	2528.138654
455.817164	2462.603654
456.190556	2520.576923
456.563888	2442.439038
456.937160	2523.097500
457.310373	2482.768269
457.683526	2485.288846
458.056619	2455.041923
458.429653	2480.247692
458.802628	2490.330000
459.175542	2434.877308
459.548398	2553.344423
459.921194	2437.397885
460.293930	2581.070769
460.666607	2495.371154
461.039224	2482.768269
461.411782	2439.918462
461.784280	2502.932885
462.156719	2439.918462
462.529099	2477.727115
462.901419	2475.206538
463.273680	2525.618077
463.645882	2540.741538
464.018024	2530.659231
464.390106	2513.015192
464.762130	2452.521346
465.134094	2507.974038
465.505999	2495.371154
465.877845	2409.671538
466.249631	2510.494615
466.621358	2444.959615
466.993026	2472.685962
467.364634	2497.891731
467.736184	2505.453462
468.107674	2540.741538
468.479105	2523.097500
468.850477	2470.165385
469.221790	2523.097500
469.593043	2467.644808
469.964238	2510.494615
470.335373	2394.548077
470.706449	2470.165385
471.077467	2470.165385
471.448425	2573.509038
471.819324	2460.083077
472.190164	2543.262115
472.560945	2560.906154
472.931667	2465.124231
473.302330	2550.823846
473.672934	2369.342308
474.043479	2606.276538
474.413965	2490.330000
474.784393	2407.150962
475.154761	2525.618077
475.525070	2510.494615
475.895321	2427.315577
476.265513	2576.029615
476.635645	2472.685962
477.005719	2482.768269
477.375734	2545.782692
477.745691	2442.439038
478.115588	2487.809423
478.485427	2520.576923
478.855207	2439.918462
479.224928	2538.220962
479.594591	2500.412308
479.964194	2487.809423
480.333739	2515.535769
480.703226	2525.618077
481.072653	2502.932885
481.442022	2475.206538
481.811333	2497.891731
482.180584	2497.891731
482.549777	2528.138654
482.918912	2460.083077
483.287988	2487.809423
483.657005	2457.562500
484.025964	2518.056346
484.394864	2457.562500
484.763706	2565.947308
485.132489	2432.356731
485.501213	2437.397885
485.869879	2518.056346
486.238487	2472.685962
486.607036	2482.768269
486.975527	2505.453462
487.343959	2467.644808
487.712333	2548.303269
488.080648	2450.000769
488.448905	2485.288846
488.817104	2623.920577
489.185244	2482.768269
489.553326	2487.809423
489.921350	2424.795000
490.289315	2583.591346
490.657222	2515.535769
491.025070	2470.165385
491.392861	2467.644808
491.760593	2487.809423
492.128267	2460.083077
492.495883	2407.150962
492.863440	2444.959615
493.230939	2492.850577
493.598380	2548.303269
493.965763	2535.700385
494.333088	2457.562500
494.700354	2533.179808
495.067563	2495.371154
495.434713	2513.015192
495.801805	2623.920577
496.168839	2523.097500
496.535815	2576.029615
496.902733	2523.097500
497.269593	2505.453462
497.636395	2374.383462
498.003139	2460.083077
498.369825	2588.632500
498.736453	2444.959615
499.103023	2351.698269
499.469535	2502.932885
499.835989	2424.795000
500.202385	2507.974038
500.568723	2528.138654
500.935003	2455.041923
501.301226	2535.700385
501.667390	2376.904038
502.033497	2437.397885
502.399546	2533.179808
502.765537	2462.603654
503.131470	2518.056346
503.497345	2492.850577
503.863163	2548.303269
504.228923	2550.823846
504.594625	2409.671538
504.960269	2487.809423
505.325856	2470.165385
505.691385	2467.644808
506.056856	2525.618077
506.422270	2475.206538
506.787625	2477.727115
507.152924	2444.959615
507.518164	2543.262115
507.883347	2417.233269
508.248472	2553.344423
508.613540	2472.685962
508.978550	2417.233269
509.343503	2475.206538
509.708398	2487.809423
510.073236	2495.371154
510.438016	2470.165385
510.802738	2523.097500
511.167403	2477.727115
511.532010	2598.714808
511.896561	2422.274423
512.261053	2460.083077
512.625488	2444.959615
512.989866	2507.974038
513.354186	2457.562500
513.718449	2520.576923
514.082655	2465.124231
514.446803	2442.439038
514.810894	2497.891731
515.174927	2497.891731
515.538904	2500.412308
515.902822	2558.385577
516.266684	2490.330000
516.630488	2487.809423
516.994235	2497.891731
517.357925	2500.412308
517.721558	2392.027500
518.085133	2555.865000
518.448651	2583.591346
518.812112	2523.097500
519.175516	2465.124231
519.538863	2480.247692
519.902152	2417.233269
520.265385	2429.836154
520.628560	2414.712692
520.991678	2523.097500
521.354739	2480.247692
521.717743	2502.932885
522.080690	2455.041923
522.443580	2513.015192
522.806413	2510.494615
523.169189	2495.371154
523.531908	2495.371154
523.894569	2457.562500
524.257174	2480.247692
524.619722	2419.753846
524.982213	2507.974038
525.344647	2538.220962
525.707025	2533.179808
526.069345	2495.371154
526.431608	2525.618077
526.793815	2558.385577
527.155964	2507.974038
527.518057	2505.453462
527.880093	2533.179808
528.242072	2613.838269
528.603995	2482.768269
528.965860	2523.097500
529.327669	2457.562500
529.689421	2570.988462
530.051117	2510.494615
530.412755	2576.029615
530.774337	2505.453462
531.135862	2538.220962
531.497331	2500.412308
531.858743	2460.083077
532.220098	2442.439038
532.581396	2513.015192
532.942638	2467.644808
533.303824	2480.247692
533.664953	2455.041923
534.026025	2525.618077
534.387040	2505.453462
534.747999	2472.685962
535.108902	2525.618077
535.469748	2397.068654
535.830537	2573.509038
536.191270	2502.932885
536.551947	2490.330000
536.912567	2477.727115
537.273131	2492.850577
537.633638	2586.111923
537.994089	2455.041923
538.354483	2444.959615
538.714821	2482.768269
539.075103	2500.412308
539.435328	2513.015192
539.795497	2492.850577
540.155609	2472.685962
540.515665	2576.029615
540.875665	2460.083077
541.235609	2475.206538
541.595496	2530.659231
541.955328	2495.371154
542.315102	2422.274423
542.674821	2429.836154
543.034483	2417.233269
543.394090	2485.288846
543.753640	2407.150962
544.113134	2520.576923
544.472571	2510.494615
544.831953	2513.015192
545.191278	2487.809423
545.550548	2533.179808
545.909761	2434.877308
546.268918	2480.247692
546.628019	2490.330000
546.987064	2492.850577
547.346053	2550.823846
547.704986	2487.809423
548.063863	2485.288846
548.422684	2530.659231
548.781449	2455.041923
549.140158	2369.342308
549.498811	2492.850577
549.857408	2533.179808
550.215949	2530.659231
550.574434	2457.562500
550.932864	2485.288846
551.291237	2409.671538
551.649555	2490.330000
552.007817	2530.659231
552.366022	2553.344423
552.724173	2513.015192
553.082267	2570.988462
553.440305	2455.041923
553.798288	2480.247692
554.156215	2601.235385
554.514086	2465.124231
554.871902	2520.576923
555.229661	2518.056346
555.587365	2460.083077
555.945014	2540.741538
556.302606	2548.303269
556.660143	2424.795000
557.017625	2472.685962
557.375050	2475.206538
557.732421	2439.918462
558.089735	2437.397885
558.446994	2523.097500
558.804197	2490.330000
559.161345	2437.397885
559.518437	2450.000769
559.875474	2452.521346
560.232455	2515.535769
560.589381	2465.124231
560.946251	2507.974038
561.303065	2480.247692
561.659825	2515.535769
562.016528	2487.809423
562.373177	2497.891731
562.729770	2467.644808
563.086307	2500.412308
563.442789	2573.509038
563.799216	2467.644808
564.155587	2487.809423
564.511904	2492.850577
564.868164	2475.206538
565.224370	2465.124231
565.580520	2513.015192
565.936615	2543.262115
566.292654	2470.165385
566.648638	2467.644808
567.004567	2497.891731
567.360441	2424.795000
567.716260	2505.453462
568.072023	2455.041923
568.427732	2543.262115
568.783385	2482.768269
569.138982	2553.344423
569.494525	2507.974038
569.850013	2487.809423
570.205445	2409.671538
570.560823	2545.782692
570.916145	2510.494615
571.271412	2533.179808
571.626625	2548.303269
571.981782	2520.576923
572.336884	2518.056346
572.691931	2555.865000
573.046923	2495.371154
573.401860	2487.809423
573.756743	2510.494615
574.111570	2482.768269
574.466342	2482.768269
574.821059	2442.439038
575.175722	2563.426731
575.530330	2424.795000
575.884882	2515.535769
576.239380	2581.070769
576.593823	2480.247692
576.948211	2409.671538
577.302544	2482.768269
577.656823	2462.603654
578.011047	2565.947308
578.365216	2586.111923
578.719330	2490.330000
579.073389	2465.124231
579.427394	2404.630385
579.781344	2447.480192
580.135239	2452.521346
580.489080	2485.288846
580.842866	2482.768269
581.196597	2477.727115
581.550273	2502.932885
581.903895	2500.412308
582.257463	2442.439038
582.610975	2535.700385
582.964434	2528.138654
583.317837	2470.165385
583.671186	2480.247692
584.024481	2475.206538
584.377721	2492.850577
584.730906	2492.850577
585.084037	2505.453462
585.437113	2576.029615
585.790135	2462.603654
586.143103	2540.741538
586.496016	2495.371154
586.848874	2568.467885
587.201679	2507.974038
587.554428	2530.659231
587.907124	2470.165385
588.259765	2477.727115
588.612352	2482.768269
588.964884	2563.426731
589.317362	2520.576923
589.669786	2485.288846
590.022155	2543.262115
590.374470	2480.247692
590.726731	2470.165385
591.078937	2525.618077
591.431090	2472.685962
591.783188	2515.535769
592.135232	2525.618077
592.487222	2495.371154
592.839157	2457.562500
593.191038	2500.412308
593.542866	2518.056346
593.894639	2553.344423
594.246358	2548.303269
594.598022	2462.603654
594.949633	2520.576923
595.301190	2513.015192
595.652692	2490.330000
596.004141	2528.138654
596.355535	2596.194231
596.706876	2475.206538
597.058162	2490.330000
597.409395	2470.165385
597.760573	2518.056346
598.111698	2447.480192
598.462768	2613.838269
598.813785	2480.247692
599.164748	2455.041923
599.515657	2513.015192
599.866511	2467.644808
600.217312	2520.576923
600.568060	2414.712692
600.918753	2502.932885
601.269392	2505.453462
601.619978	2412.192115
601.970510	2480.247692
602.320988	2482.768269
602.671412	2535.700385
603.021783	2533.179808
603.372100	2444.959615
603.722363	2530.659231
604.072572	2490.330000
604.422728	2533.179808
604.772830	2520.576923
605.122878	2533.179808
605.472872	2525.618077
605.822813	2460.083077
606.172701	2475.206538
606.522534	2601.235385
606.872314	2586.111923
607.222041	2487.809423
607.571714	2480.247692
607.921333	2563.426731
608.270899	2601.235385
608.620411	2462.603654
608.969870	2402.109808
609.319276	2480.247692
609.668627	2525.618077
610.017926	2510.494615
610.367171	2530.659231
610.716362	2495.371154
611.065500	2570.988462
611.414585	2422.274423
611.763616	2525.618077
612.112594	2581.070769
612.461518	2437.397885
612.810389	2495.371154
613.159207	2560.906154
613.507971	2487.809423
613.856682	2480.247692
614.205340	2513.015192
614.553945	2553.344423
614.902496	2495.371154
615.250994	2497.891731
615.599439	2520.576923
615.947830	2510.494615
616.296169	2505.453462
616.644454	2528.138654
616.992686	2528.138654
617.340864	2550.823846
617.688990	2485.288846
618.037063	2477.727115
618.385082	2528.138654
618.733048	2457.562500
619.080961	2596.194231
619.428821	2457.562500
619.776628	2447.480192
620.124382	2563.426731
620.472083	2528.138654
620.819731	2427.315577
621.167326	2407.150962
621.514868	2553.344423
621.862357	2414.712692
622.209793	2553.344423
622.557176	2523.097500
622.904506	2533.179808
623.251783	2525.618077
623.599007	2472.685962
623.946179	2424.795000
624.293297	2480.247692
624.640363	2510.494615
624.987376	2482.768269
625.334336	2465.124231
625.681243	2497.891731
626.028097	2520.576923
626.374899	2434.877308
626.721647	2515.535769
627.068343	2467.644808
627.414987	2507.974038
627.761577	2510.494615
628.108115	2467.644808
628.454600	2518.056346
628.801032	2513.015192
629.147412	2533.179808
629.493739	2485.288846
629.840014	2482.768269
630.186236	2548.303269
630.532405	2450.000769
630.878521	2480.247692
631.224585	2437.397885
631.570597	2540.741538
631.916556	2452.521346
632.262462	2374.383462
632.608316	2500.412308
632.954117	2492.850577
633.299866	2550.823846
633.645562	2555.865000
633.991206	2477.727115
634.336797	2475.206538
634.682336	2460.083077
635.027823	2434.877308
635.373257	2472.685962
635.718639	2417.233269
636.063968	2477.727115
636.409245	2535.700385
636.754470	2502.932885
637.099642	2485.288846
637.444762	2477.727115
637.789829	2472.685962
638.134845	2553.344423
638.479808	2444.959615
638.824719	2507.974038
639.169577	2457.562500
639.514383	2444.959615
639.859137	2545.782692
640.203839	2568.467885
640.548489	2518.056346
640.893086	2452.521346
641.237632	2533.179808
641.582125	2563.426731
641.926566	2462.603654
642.270955	2543.262115
642.615292	2525.618077
642.959576	2510.494615
643.303809	2500.412308
643.647990	2576.029615
643.992118	2480.247692
644.336195	2513.015192
644.680219	2414.712692
645.024192	2444.959615
645.368112	2497.891731
645.711981	2470.165385
646.055797	2444.959615
646.399562	2492.850577
646.743274	2492.850577
647.086935	2507.974038
647.430544	2444.959615
647.774101	2497.891731
648.117606	2505.453462
648.461059	2510.494615
648.804460	2442.439038
649.147810	2482.768269
649.491108	2477.727115
649.834354	2437.397885
650.177548	2520.576923
650.520690	2434.877308
650.863781	2555.865000
651.206820	2497.891731
651.549807	2417.233269
651.892742	2455.041923
652.235626	2397.068654
652.578458	2533.179808
652.921238	2492.850577
653.263967	2492.850577
653.606644	2548.303269
653.949269	2472.685962
654.291843	2515.535769
654.634365	2525.618077
654.976836	2500.412308
655.319255	2513.015192
655.661622	2535.700385
656.003938	2502.932885
656.346203	2573.509038
656.688416	2460.083077
657.030577	2500.412308
657.372687	2502.932885
657.714746	2424.795000
658.056753	2525.618077
658.398708	2465.124231
658.740612	2500.412308
659.082465	2434.877308
659.424266	2487.809423
659.766016	2568.467885
660.107715	2543.262115
660.449362	2470.165385
660.790958	2543.262115
661.132503	2523.097500
661.473996	2507.974038
661.815438	2591.153077
662.156829	2515.535769
662.498168	2586.111923
662.839456	2500.412308
663.180693	2487.809423
663.521879	2434.877308
663.863013	2497.891731
664.204097	2492.850577
664.545129	2434.877308
664.886110	2538.220962
665.227040	2422.274423
665.567918	2452.521346
665.908746	2450.000769
666.249522	2543.262115
666.590248	2558.385577
666.930922	2455.041923
667.271545	2389.506923
667.612118	2510.494615
667.952639	2470.165385
668.293109	2593.673654
668.633528	2477.727115
668.973896	2419.753846
669.314213	2475.206538
669.654480	2470.165385
669.994695	2485.288846
670.334859	2457.562500
670.674973	2444.959615
671.015035	2487.809423
671.355047	2560.906154
671.695008	2543.262115
672.034918	2447.480192
672.374777	2447.480192
672.714585	2386.986346
673.054342	2520.576923
673.394049	2460.083077
673.733705	2518.056346
674.073310	2432.356731
674.412864	2513.015192
674.752368	2565.947308
675.091820	2520.576923
675.431223	2502.932885
675.770574	2475.206538
676.109875	2470.165385
676.449125	2497.891731
676.788324	2480.247692
677.127473	2500.412308
677.466571	2432.356731
677.805619	2485.288846
678.144616	2603.755962
678.483562	2545.782692
678.822458	2510.494615
679.161303	2450.000769
679.500098	2427.315577
679.838842	2520.576923
680.177535	2502.932885
680.516179	2500.412308
680.854771	2450.000769
681.193314	2417.233269
681.531805	2495.371154
681.870247	2465.124231
682.208638	2495.371154
682.546978	2485.288846
682.885268	2447.480192
683.223508	2497.891731
683.561697	2518.056346
683.899836	2513.015192
684.237925	2543.262115
684.575963	2427.315577
684.913951	2472.685962
685.251889	2442.439038
685.589776	2535.700385
685.927614	2510.494615
686.265401	2563.426731
686.603137	2465.124231
686.940824	2434.877308
687.278460	2518.056346
687.616046	2424.795000
687.953582	2540.741538
688.291068	2518.056346
688.628504	2462.603654
688.965889	2482.768269
689.303224	2412.192115
689.640510	2485.288846
689.977745	2538.220962
690.314930	2535.700385
690.652065	2545.782692
690.989150	2485.288846
691.326185	2533.179808
691.663170	2442.439038
692.000105	2477.727115
692.336990	2538.220962
692.673825	2507.974038
693.010610	2455.041923
693.347345	2465.124231
693.684030	2437.397885
694.020665	2457.562500
694.357251	2472.685962
694.693786	2412.192115
695.030272	2548.303269
695.366707	2543.262115
695.703093	2528.138654
696.039429	2530.659231
696.375716	2394.548077
696.711952	2492.850577
697.048139	2530.659231
697.384276	2513.015192
697.720363	2470.165385
698.056400	2507.974038
698.392388	2465.124231
698.728326	2530.659231
699.064214	2570.988462
699.400053	2505.453462
699.735842	2513.015192
700.071581	2492.850577
700.407270	2535.700385
700.742910	2515.535769
701.078501	2558.385577
701.414042	2565.947308
701.749533	2450.000769
702.084974	2513.015192
702.420366	2437.397885
702.755709	2518.056346
703.091002	2452.521346
703.426246	2540.741538
703.761440	2581.070769
704.096584	2402.109808
704.431679	2457.562500
704.766725	2560.906154
705.101721	2525.618077
705.436668	2450.000769
705.771565	2480.247692
706.106413	2497.891731
706.441212	2480.247692
706.775961	2457.562500
707.110661	2485.288846
707.445311	2455.041923
707.779913	2528.138654
708.114465	2500.412308
708.448967	2422.274423
708.783421	2528.138654
709.117825	2513.015192
709.452180	2442.439038
709.786485	2485.288846
710.120742	2409.671538
710.454949	2477.727115
710.789107	2450.000769
711.123216	2611.317692
711.457275	2518.056346
711.791286	2460.083077
712.125247	2487.809423
712.459159	2470.165385
712.793023	2500.412308
713.126837	2497.891731
713.460602	2485.288846
713.794318	2457.562500
714.127985	2480.247692
714.461602	2475.206538
714.795171	2482.768269
715.128691	2447.480192
715.462162	2412.192115
715.795584	2490.330000
716.128957	2447.480192
716.462281	2525.618077
716.795556	2578.550192
717.128782	2465.124231
717.461960	2495.371154
717.795088	2482.768269
718.128167	2381.945192
718.461198	2568.467885
718.794180	2437.397885
719.127113	2538.220962
719.459997	2500.412308
719.792833	2480.247692
720.125619	2407.150962
720.458357	2437.397885
720.791046	2502.932885
721.123686	2581.070769
721.456278	2550.823846
721.788821	2447.480192
722.121315	2492.850577
722.453761	2570.988462
722.786158	2429.836154
723.118506	2545.782692
723.450805	2447.480192
723.783056	2450.000769
724.115259	2490.330000
724.447412	2505.453462
724.779518	2497.891731
725.111574	2533.179808
725.443582	2450.000769
725.775542	2525.618077
726.107453	2452.521346
726.439315	2462.603654
726.771129	2419.753846
727.102895	2560.906154
727.434612	2528.138654
727.766281	2439.918462
728.097901	2455.041923
728.429473	2460.083077
728.760996	2490.330000
729.092471	2492.850577
729.423897	2505.453462
729.755276	2447.480192
730.086606	2570.988462
730.417887	2470.165385
730.749120	2470.165385
731.080305	2507.974038
731.411442	2392.027500
731.742530	2465.124231
732.073570	2480.247692
732.404562	2434.877308
732.735506	2462.603654
733.066401	2586.111923
733.397249	2568.467885
733.728048	2404.630385
734.058798	2523.097500
734.389501	2444.959615
734.720156	2543.262115
735.050762	2467.644808
735.381320	2462.603654
735.711831	2450.000769
736.042293	2507.974038
736.372707	2470.165385
736.703073	2523.097500
737.033391	2520.576923
737.363661	2555.865000
737.693883	2502.932885
738.024056	2450.000769
738.354182	2490.330000
738.684260	2505.453462
739.014290	2472.685962
739.344272	2460.083077
739.674207	2429.836154
740.004093	2530.659231
740.333931	2563.426731
740.663722	2485.288846
740.993464	2450.000769
741.323159	2540.741538
741.652806	2444.959615
741.982405	2550.823846
742.311956	2543.262115
742.641460	2510.494615
742.970915	2576.029615
743.300323	2487.809423
743.629683	2475.206538
743.958996	2455.041923
744.288260	2540.741538
744.617477	2472.685962
744.946647	2507.974038
745.275768	2457.562500
745.604842	2502.932885
745.933869	2450.000769
746.262847	2444.959615
746.591778	2497.891731
746.920662	2442.439038
747.249498	2434.877308
747.578286	2576.029615
747.907027	2462.603654
748.235720	2507.974038
748.564365	2475.206538
748.892963	2457.562500
749.221514	2558.385577
749.550017	2525.618077
749.878473	2513.015192
750.206881	2442.439038
750.535242	2563.426731
750.863555	2523.097500
751.191821	2538.220962
751.520039	2500.412308
751.848210	2490.330000
752.176334	2414.712692
752.504411	2510.494615
752.832440	2548.303269
753.160421	2460.083077
753.488356	2475.206538
753.816243	2502.932885
754.144082	2455.041923
754.471875	2437.397885
754.799620	2586.111923
755.127318	2457.562500
755.454969	2485.288846
755.782572	2487.809423
756.110129	2482.768269
756.437638	2528.138654
756.765100	2507.974038
757.092515	2482.768269
757.419882	2381.945192
757.747203	2460.083077
758.074477	2437.397885
758.401703	2502.932885
758.728882	2565.947308
759.056014	2495.371154
759.383099	2505.453462
759.710138	2447.480192
760.037129	2520.576923
760.364073	2442.439038
760.690970	2563.426731
761.017820	2533.179808
761.344623	2452.521346
761.671379	2505.453462
761.998088	2470.165385
762.324751	2545.782692
762.651366	2555.865000
762.977935	2515.535769
763.304456	2482.768269
763.630931	2535.700385
763.957359	2528.138654
764.283740	2407.150962
764.610074	2533.179808
764.936362	2470.165385
765.262602	2492.850577
765.588796	2457.562500
765.914943	2492.850577
766.241044	2444.959615
766.567097	2439.918462
766.893104	2384.465769
767.219064	2402.109808
767.544978	2470.165385
767.870845	2533.179808
768.196665	2505.453462
768.522438	2507.974038
768.848165	2490.330000
769.173846	2515.535769
769.499479	2520.576923
769.825066	2437.397885
770.150607	2502.932885
770.476101	2460.083077
770.801548	2447.480192
771.126949	2586.111923
771.452303	2573.509038
771.777611	2480.247692
772.102872	2460.083077
772.428087	2482.768269
772.753256	2513.015192
773.078378	2505.453462
773.403453	2490.330000
773.728482	2500.412308
774.053465	2581.070769
774.378401	2570.988462
774.703291	2538.220962
775.028135	2500.412308
775.352932	2621.400000
775.677683	2429.836154
776.002388	2505.453462
776.327046	2427.315577
776.651658	2540.741538
776.976224	2540.741538
777.300743	2409.671538
777.625216	2588.632500
777.949643	2477.727115
778.274024	2429.836154
778.598359	2505.453462
778.922647	2540.741538
779.246889	2553.344423
779.571086	2507.974038
779.895236	2444.959615
780.219339	2523.097500
780.543397	2515.535769
780.867409	2505.453462
781.191374	2523.097500
781.515294	2457.562500
781.839167	2460.083077
782.162995	2507.974038
782.486776	2447.480192
782.810511	2510.494615
783.134201	2482.768269
783.457844	2550.823846
783.781441	2497.891731
784.104993	2533.179808
784.428498	2439.918462
784.751958	2540.741538
785.075372	2500.412308
785.398739	2578.550192
785.722061	2545.782692
786.045337	2520.576923
786.368568	2485.288846
786.691752	2576.029615
787.014891	2492.850577
787.337983	2507.974038
787.661030	2515.535769
787.984031	2457.562500
788.306987	2497.891731
788.629897	2586.111923
788.952760	2452.521346
789.275579	2452.521346
789.598351	2467.644808
789.921078	2497.891731
790.243759	2452.521346
790.566395	2550.823846
790.888984	2480.247692
791.211529	2528.138654
791.534027	2417.233269
791.856480	2530.659231
792.178888	2576.029615
792.501249	2480.247692
792.823566	2442.439038
793.145836	2467.644808
793.468062	2555.865000
793.790241	2447.480192
794.112375	2515.535769
794.434464	2525.618077
794.756507	2518.056346
795.078505	2523.097500
795.400457	2437.397885
795.722364	2397.068654
796.044226	2523.097500
796.366042	2412.192115
796.687812	2495.371154
797.009538	2472.685962
797.331218	2467.644808
797.652852	2450.000769
797.974442	2530.659231
798.295986	2422.274423
798.617484	2520.576923
798.938938	2507.974038
799.260346	2475.206538
799.581709	2439.918462
799.903026	2535.700385
800.224299	2505.453462
800.545526	2482.768269
800.866708	2472.685962
801.187845	2535.700385
801.508936	2457.562500
801.829983	2538.220962
802.150984	2510.494615
802.471940	2475.206538
802.792851	2487.809423
803.113717	2518.056346
803.434538	2543.262115
803.755314	2455.041923
804.076045	2528.138654
804.396731	2513.015192
804.717372	2432.356731
805.037967	2414.712692
805.358518	2492.850577
805.679024	2518.056346
805.999485	2540.741538
806.319901	2550.823846
806.640272	2447.480192
806.960598	2545.782692
807.280879	2558.385577
807.601115	2485.288846
807.921306	2510.494615
808.241453	2457.562500
808.561554	2462.603654
808.881611	2502.932885
809.201623	2492.850577
809.521590	2495.371154
809.841513	2507.974038
810.161390	2450.000769
810.481223	2510.494615
810.801011	2465.124231
811.120755	2457.562500
811.440453	2497.891731
811.760107	2500.412308
812.079716	2364.301154
812.399281	2447.480192
812.718801	2442.439038
813.038276	2392.027500
813.357707	2545.782692
813.677093	2507.974038
813.996434	2553.344423
814.315731	2480.247692
814.634983	2495.371154
814.954191	2513.015192
815.273354	2528.138654
815.592473	2399.589231
815.911547	2545.782692
816.230577	2462.603654
816.549562	2439.918462
816.868502	2492.850577
817.187399	2525.618077
817.506250	2553.344423
817.825058	2545.782692
818.143821	2530.659231
818.462539	2439.918462
818.781213	2502.932885
819.099843	2515.535769
819.418429	2447.480192
819.736970	2455.041923
820.055466	2480.247692
820.373919	2525.618077
820.692327	2462.603654
821.010691	2497.891731
821.329011	2543.262115
821.647286	2565.947308
821.965517	2507.974038
822.283704	2540.741538
822.601847	2563.426731
822.919945	2520.576923
823.237999	2462.603654
823.556010	2407.150962
823.873976	2550.823846
824.191897	2530.659231
824.509775	2505.453462
824.827609	2439.918462
825.145398	2523.097500
825.463144	2475.206538
825.780845	2510.494615
826.098502	2462.603654
826.416116	2470.165385
826.733685	2510.494615
827.051210	2523.097500
827.368692	2455.041923
827.686129	2510.494615
828.003522	2520.576923
828.320872	2540.741538
828.638177	2540.741538
828.955439	2507.974038
829.272656	2545.782692
829.589830	2490.330000
829.906960	2520.576923
830.224046	2455.041923
830.541088	2472.685962
830.858086	2427.315577
831.175041	2465.124231
831.491952	2545.782692
831.808819	2507.974038
832.125642	2535.700385
832.442421	2447.480192
832.759157	2477.727115
833.075849	2467.644808
833.392497	2462.603654
833.709101	2518.056346
834.025662	2467.644808
834.342179	2513.015192
834.658653	2427.315577
834.975083	2505.453462
835.291469	2533.179808
835.607811	2548.303269
835.924110	2490.330000
836.240366	2502.932885
836.556578	2497.891731
836.872746	2470.165385
837.188871	2518.056346
837.504952	2475.206538
837.820990	2530.659231
838.136984	2477.727115
838.452935	2520.576923
838.768842	2588.632500
839.084706	2507.974038
839.400526	2465.124231
839.716303	2477.727115
840.032037	2455.041923
840.347727	2472.685962
840.663373	2507.974038
840.978977	2477.727115
841.294537	2497.891731
841.610054	2507.974038
841.925527	2535.700385
842.240957	2467.644808
842.556344	2548.303269
842.871687	2502.932885
843.186987	2497.891731
843.502244	2447.480192
843.817458	2507.974038
844.132629	2462.603654
844.447756	2565.947308
844.762840	2497.891731
845.077881	2518.056346
845.392879	2492.850577
845.707833	2540.741538
846.022745	2457.562500
846.337613	2502.932885
846.652438	2467.644808
846.967221	2545.782692
847.281960	2480.247692
847.596656	2518.056346
847.911309	2475.206538
848.225919	2492.850577
848.540485	2518.056346
848.855009	2565.947308
849.169490	2507.974038
849.483928	2457.562500
849.798323	2450.000769
850.112675	2447.480192
850.426984	2497.891731
850.741251	2573.509038
851.055474	2492.850577
851.369654	2444.959615
851.683792	2507.974038
851.997887	2492.850577
852.311938	2500.412308
852.625947	2560.906154
852.939914	2457.562500
853.253837	2507.974038
853.567718	2500.412308
853.881555	2465.124231
854.195350	2505.453462
854.509103	2457.562500
854.822812	2477.727115
855.136479	2475.206538
855.450103	2538.220962
855.763685	2538.220962
856.077224	2462.603654
856.390720	2477.727115
856.704173	2462.603654
857.017584	2487.809423
857.330953	2548.303269
857.644278	2515.535769
857.957561	2462.603654
858.270802	2565.947308
858.584000	2412.192115
858.897155	2437.397885
859.210268	2452.521346
859.523339	2439.918462
859.836367	2523.097500
860.149352	2480.247692
860.462295	2528.138654
860.775195	2444.959615
861.088054	2545.782692
861.400869	2581.070769
861.713642	2505.453462
862.026373	2447.480192
862.339062	2477.727115
862.651708	2518.056346
862.964312	2570.988462
863.276873	2397.068654
863.589392	2523.097500
863.901869	2563.426731
864.214303	2568.467885
864.526696	2540.741538
864.839045	2513.015192
865.151353	2455.041923
865.463619	2510.494615
865.775842	2573.509038
866.088023	2460.083077
866.400162	2525.618077
866.712258	2513.015192
867.024313	2525.618077
867.336325	2460.083077
867.648296	2470.165385
867.960224	2502.932885
868.272110	2530.659231
868.583954	2417.233269
868.895755	2495.371154
869.207515	2570.988462
869.519233	2434.877308
869.830909	2570.988462
870.142542	2608.797115
870.454134	2492.850577
870.765684	2565.947308
871.077191	2477.727115
871.388657	2576.029615
871.700081	2507.974038
872.011463	2485.288846
872.322803	2548.303269
872.634101	2437.397885
872.945357	2472.685962
873.256571	2452.521346
873.567744	2427.315577
873.878874	2523.097500
874.189963	2442.439038
874.501010	2394.548077
874.812015	2419.753846
875.122979	2558.385577
875.433900	2429.836154
875.744780	2621.400000
876.055618	2477.727115
876.366415	2545.782692
876.677169	2492.850577
876.987882	2540.741538
877.298554	2439.918462
877.609183	2482.768269
877.919771	2467.644808
878.230317	2460.083077
878.540822	2485.288846
878.851285	2475.206538
879.161707	2485.288846
879.472087	2457.562500
879.782425	2510.494615
880.092722	2513.015192
880.402977	2467.644808
880.713191	2487.809423
881.023363	2457.562500
881.333494	2515.535769
881.643583	2475.206538
881.953631	2543.262115
882.263637	2523.097500
882.573602	2568.467885
882.883526	2568.467885
883.193408	2472.685962
883.503248	2555.865000
883.813048	2480.247692
884.122806	2462.603654
884.432522	2477.727115
884.742197	2520.576923
885.051831	2528.138654
885.361424	2520.576923
885.670975	2444.959615
885.980485	2462.603654
886.289954	2414.712692
886.599382	2472.685962
886.908768	2490.330000
887.218113	2477.727115
887.527417	2359.260000
887.836680	2452.521346
888.145901	2495.371154
888.455082	2475.206538
888.764221	2533.179808
889.073319	2510.494615
889.382376	2525.618077
889.691392	2553.344423
890.000366	2487.809423
890.309300	2414.712692
890.618193	2520.576923
890.927044	2457.562500
891.235855	2485.288846
891.544625	2417.233269
891.853353	2533.179808
892.162041	2409.671538
892.470687	2452.521346
892.779293	2402.109808
893.087858	2533.179808
893.396381	2470.165385
893.704864	2565.947308
894.013306	2465.124231
894.321707	2525.618077
894.630068	2515.535769
894.938387	2555.865000
895.246665	2502.932885
895.554903	2467.644808
895.863100	2452.521346
896.171256	2487.809423
896.479371	2568.467885
896.787446	2500.412308
897.095480	2507.974038
897.403473	2444.959615
897.711425	2477.727115
898.019336	2518.056346
898.327207	2530.659231
898.635038	2593.673654
898.942827	2513.015192
899.250576	2563.426731
899.558284	2548.303269
899.865952	2424.795000
900.173579	2475.206538
900.481165	2500.412308
900.788711	2500.412308
901.096216	2502.932885
901.403681	2518.056346
901.711105	2437.397885
902.018489	2530.659231
902.325832	2535.700385
902.633135	2419.753846
902.940397	2482.768269
903.247619	2518.056346
903.554800	2444.959615
903.861941	2538.220962
904.169041	2495.371154
904.476101	2510.494615
904.783121	2548.303269
905.090100	2452.521346
905.397039	2523.097500
905.703938	2482.768269
906.010796	2485.288846
906.317614	2502.932885
906.624391	2379.424615
906.931129	2460.083077
907.237826	2530.659231
907.544483	2482.768269
907.851099	2439.918462
908.157675	2460.083077
908.464211	2490.330000
908.770707	2485.288846
909.077163	2475.206538
909.383578	2450.000769
909.689954	2555.865000
909.996289	2495.371154
910.302584	2472.685962
910.608839	2462.603654
910.915054	2495.371154
911.221229	2523.097500
911.527363	2487.809423
911.833458	2470.165385
912.139513	2505.453462
912.445527	2492.850577
912.751502	2450.000769
913.057436	2548.303269
913.363331	2444.959615
913.669186	2543.262115
913.975000	2465.124231
914.280775	2485.288846
914.586510	2477.727115
914.892205	2558.385577
915.197859	2545.782692
915.503475	2462.603654
915.809050	2573.509038
916.114585	2447.480192
916.420081	2497.891731
916.725536	2528.138654
917.030952	2505.453462
917.336328	2520.576923
917.641665	2457.562500
917.946961	2407.150962
918.252218	2533.179808
918.557435	2482.768269
918.862612	2470.165385
919.167750	2613.838269
919.472848	2457.562500
919.777906	2495.371154
920.082925	2510.494615
920.387904	2515.535769
920.692843	2495.371154
920.997743	2427.315577
921.302603	2523.097500
921.607423	2505.453462
921.912204	2427.315577
922.216946	2583.591346
922.521647	2482.768269
922.826310	2505.453462
923.130932	2462.603654
923.435516	2492.850577
923.740059	2555.865000
924.044564	2439.918462
924.349028	2457.562500
924.653454	2535.700385
924.957840	2475.206538
925.262186	2553.344423
925.566493	2419.753846
925.870761	2497.891731
926.174989	2392.027500
926.479178	2563.426731
926.783328	2616.358846
927.087438	2404.630385
927.391509	2457.562500
927.695541	2460.083077
927.999533	2409.671538
928.303486	2518.056346
928.607400	2507.974038
928.911275	2507.974038
929.215110	2439.918462
929.518906	2505.453462
929.822663	2477.727115
930.126381	2558.385577
930.430060	2417.233269
930.733699	2535.700385
931.037299	2482.768269
931.340861	2447.480192
931.644383	2452.521346
931.947866	2543.262115
932.251309	2502.932885
932.554714	2424.795000
932.858080	2497.891731
933.161407	2545.782692
933.464694	2475.206538
933.767943	2470.165385
934.071153	2402.109808
934.374323	2462.603654
934.677455	2492.850577
934.980548	2497.891731
935.283602	2510.494615
935.586617	2591.153077
935.889593	2500.412308
936.192530	2515.535769
936.495428	2447.480192
936.798287	2450.000769
937.101108	2495.371154
937.403890	2475.206538
937.706632	2341.615962
938.009336	2497.891731
938.312002	2500.412308
938.614628	2487.809423
938.917216	2482.768269
939.219765	2520.576923
939.522275	2472.685962
939.824747	2500.412308
940.127179	2467.644808
940.429573	2409.671538
940.731929	2409.671538
941.034246	2540.741538
941.336524	2475.206538
941.638763	2492.850577
941.940964	2505.453462
942.243126	2495.371154
942.545250	2470.165385
942.847335	2492.850577
943.149381	2450.000769
943.451389	2507.974038
943.753359	2477.727115
944.055290	2505.453462
944.357182	2434.877308
944.659036	2525.618077
944.960851	2432.356731
945.262628	2482.768269
945.564367	2543.262115
945.866067	2477.727115
946.167729	2502.932885
946.469352	2364.301154
946.770937	2500.412308
947.072484	2505.453462
947.373992	2487.809423
947.675462	2470.165385
947.976893	2533.179808
948.278286	2495.371154
948.579641	2462.603654
948.880958	2518.056346
949.182236	2505.453462
949.483476	2500.412308
949.784678	2513.015192
950.085841	2419.753846
950.386967	2462.603654
950.688054	2513.015192
950.989103	2515.535769
951.290114	2424.795000
951.591087	2500.412308
951.892021	2500.412308
952.192917	2439.918462
952.493776	2381.945192
952.794596	2548.303269
953.095378	2460.083077
953.396122	2480.247692
953.696828	2450.000769
953.997496	2485.288846
954.298126	2457.562500
954.598718	2429.836154
954.899272	2525.618077
955.199788	2444.959615
955.500266	2442.439038
955.800706	2518.056346
956.101108	2475.206538
956.401472	2492.850577
956.701798	2452.521346
957.002087	2525.618077
957.302337	2558.385577
957.602550	2513.015192
957.902724	2480.247692
958.202861	2434.877308
958.502960	2502.932885
958.803022	2513.015192
959.103045	2485.288846
959.403031	2480.247692
959.702979	2447.480192
960.002889	2485.288846
960.302762	2480.247692
960.602596	2533.179808
960.902393	2379.424615
961.202153	2457.562500
961.501875	2558.385577
961.801559	2525.618077
962.101205	2535.700385
962.400814	2485.288846
962.700385	2507.974038
962.999918	2417.233269
963.299414	2502.932885
963.598873	2477.727115
963.898293	2462.603654
964.197677	2427.315577
964.497022	2513.015192
964.796331	2455.041923
965.095601	2538.220962
965.394835	2535.700385
965.694030	2417.233269
965.993189	2414.712692
966.292309	2502.932885
966.591393	2447.480192
966.890439	2497.891731
967.189447	2472.685962
967.488419	2452.521346
967.787353	2480.247692
968.086249	2462.603654
968.385108	2442.439038
968.683930	2495.371154
968.982714	2495.371154
969.281462	2505.453462
969.580172	2515.535769
969.878844	2439.918462
970.177480	2487.809423
970.476078	2563.426731
970.774639	2432.356731
971.073162	2462.603654
971.371649	2409.671538
971.670098	2437.397885
971.968510	2480.247692
972.266885	2424.795000
972.565223	2495.371154
972.863524	2530.659231
973.161788	2548.303269
973.460014	2515.535769
973.758204	2477.727115
974.056356	2432.356731
974.354471	2530.659231
974.652550	2437.397885
974.950591	2507.974038
975.248595	2482.768269
975.546563	2500.412308
975.844493	2520.576923
976.142386	2578.550192
976.440243	2442.439038
976.738062	2565.947308
977.035845	2520.576923
977.333590	2414.712692
977.631299	2492.850577
977.928971	2495.371154
978.226606	2553.344423
978.524204	2434.877308
978.821765	2472.685962
979.119290	2565.947308
979.416777	2477.727115
979.714228	2505.453462
980.011642	2487.809423
980.309020	2510.494615
980.606360	2482.768269
980.903664	2513.015192
981.200931	2407.150962
981.498162	2392.027500
981.795356	2444.959615
982.092513	2409.671538
982.389633	2480.247692
982.686717	2523.097500
982.983764	2495.371154
983.280775	2452.521346
983.577749	2439.918462
983.874686	2419.753846
984.171587	2490.330000
984.468451	2472.685962
984.765279	2480.247692
985.062070	2540.741538
985.358824	2480.247692
985.655543	2409.671538
985.952224	2525.618077
986.248869	2530.659231
986.545478	2515.535769
986.842050	2510.494615
987.138586	2550.823846
987.435086	2432.356731
987.731549	2439.918462
988.027975	2487.809423
988.324366	2510.494615
988.620719	2470.165385
988.917037	2545.782692
989.213318	2460.083077
989.509563	2482.768269
989.805772	2374.383462
990.101944	2535.700385
990.398080	2543.262115
990.694180	2384.465769
990.990244	2555.865000
991.286271	2467.644808
991.582262	2568.467885
991.878217	2444.959615
992.174136	2528.138654
992.470019	2432.356731
992.765865	2528.138654
993.061676	2442.439038
993.357450	2533.179808
993.653188	2507.974038
993.948890	2470.165385
994.244556	2528.138654
994.540186	2500.412308
994.835780	2475.206538
995.131337	2558.385577
995.426859	2444.959615
995.722345	2487.809423
996.017795	2505.453462
996.313208	2528.138654
996.608586	2482.768269
996.903928	2427.315577
997.199234	2538.220962
997.494504	2407.150962
997.789738	2513.015192
998.084936	2576.029615
998.380099	2538.220962
998.675225	2447.480192
998.970316	2603.755962
999.265371	2485.288846
999.560390	2523.097500
999.855373	2507.974038
1000.150320	2528.138654
1000.445232	2576.029615
1000.740108	2432.356731
1001.034948	2470.165385
1001.329752	2502.932885
1001.624521	2427.315577
1001.919254	2482.768269
1002.213951	2485.288846
1002.508613	2465.124231
1002.803239	2465.124231
1003.097829	2533.179808
1003.392384	2555.865000
1003.686903	2487.809423
1003.981386	2442.439038
1004.275834	2482.768269
1004.570246	2596.194231
1004.864623	2497.891731
1005.158964	2412.192115
1005.453270	2490.330000
1005.747540	2555.865000
1006.041775	2462.603654
1006.335974	2472.685962
1006.630138	2505.453462
1006.924266	2540.741538
1007.218359	2462.603654
1007.512416	2490.330000
1007.806438	2470.165385
1008.100425	2482.768269
1008.394376	2495.371154
1008.688292	2520.576923
1008.982172	2565.947308
1009.276017	2490.330000
1009.569827	2530.659231
1009.863602	2487.809423
1010.157341	2495.371154
1010.451045	2507.974038
1010.744714	2530.659231
1011.038347	2545.782692
1011.331945	2482.768269
1011.625508	2528.138654
1011.919036	2412.192115
1012.212528	2465.124231
1012.505986	2487.809423
1012.799408	2505.453462
1013.092795	2528.138654
1013.386147	2545.782692
1013.679464	2507.974038
1013.972745	2513.015192
1014.265992	2487.809423
1014.559204	2427.315577
1014.852380	2553.344423
1015.145521	2427.315577
1015.438628	2490.330000
1015.731699	2573.509038
1016.024736	2467.644808
1016.317737	2455.041923
1016.610703	2553.344423
1016.903635	2460.083077
1017.196531	2510.494615
1017.489393	2518.056346
1017.782219	2502.932885
1018.075011	2480.247692
1018.367768	2439.918462
1018.660490	2480.247692
1018.953177	2480.247692
1019.245829	2480.247692
