Dividing Wavelength (nm)	Counts (n)	Blue Motor Position (mm): 0.000000	Red Motor Position (mm): 23.200000	
326.493990	2128.128137
326.888308	2128.128137
327.282561	2128.128137
327.676750	2094.309557
328.070874	2094.289392
328.464933	2097.835844
328.858929	2104.543099
329.252859	2114.569954
329.646726	2126.086470
330.040528	2137.202214
330.434265	2156.282982
330.827938	2171.839982
331.221547	2190.855215
331.615091	2210.475385
332.008571	2228.157233
332.401986	2248.377301
332.795338	2266.669127
333.188625	2286.720317
333.581847	2305.198666
333.975006	2322.630976
334.368100	2343.357680
334.761129	2361.170597
335.154095	2376.316744
335.546996	2396.327604
335.939833	2408.058369
336.332606	2425.871286
336.725315	2437.854109
337.117960	2444.120263
337.510540	2453.201902
337.903056	2469.026084
338.295508	2471.627319
338.687896	2481.192909
339.080220	2491.350834
339.472480	2496.399549
339.864676	2499.903151
340.256807	2507.570746
340.648875	2508.808349
341.040879	2511.807836
341.432818	2515.606345
341.824694	2513.574760
342.216506	2514.686335
342.608253	2514.653567
342.999937	2513.831859
343.391557	2515.545852
343.783113	2513.733557
344.174605	2511.999400
344.566033	2512.178361
344.957397	2510.287928
345.348697	2508.369769
345.739934	2507.684172
346.131106	2503.222751
346.522215	2506.121414
346.913260	2502.915241
347.304241	2498.655466
347.695159	2498.156391
348.086012	2495.935763
348.476802	2493.941987
348.867528	2493.952069
349.258191	2491.819661
349.648789	2492.303612
350.039324	2487.879999
350.429796	2488.850421
350.820203	2485.097282
351.210548	2488.167345
351.600828	2484.588126
351.991045	2481.480254
352.381198	2483.199288
352.771288	2486.803713
353.161314	2481.134935
353.551276	2483.758856
353.941175	2484.194916
354.331010	2483.043012
354.720782	2483.718527
355.110490	2483.393372
355.500135	2486.796151
355.889717	2482.460759
356.279235	2482.465800
356.668689	2481.893629
357.058080	2483.781541
357.447408	2481.699545
357.836672	2481.732312
358.225873	2483.186685
358.615010	2481.092086
359.004084	2488.253045
359.393095	2489.157932
359.782043	2488.560555
360.170927	2487.786738
360.559748	2488.825216
360.948505	2490.130874
361.337199	2489.788076
361.725830	2491.870072
362.114398	2493.268993
362.502903	2495.020794
362.891344	2492.510299
363.279722	2490.919815
363.668037	2494.806545
364.056289	2492.681698
364.444478	2495.519868
364.832603	2495.174549
365.220665	2498.519354
365.608665	2497.221257
365.996601	2499.535147
366.384474	2498.683192
366.772284	2503.563029
367.160031	2503.217710
367.547715	2502.658142
367.935336	2505.042607
368.322893	2510.083761
368.710388	2512.085099
369.097820	2520.002232
369.485189	2521.345699
369.872495	2528.486493
370.259738	2535.039993
370.646918	2541.964018
371.034035	2548.756973
371.421090	2558.365412
371.808081	2571.724470
372.195010	2580.357446
372.581875	2590.507809
372.968678	2605.159923
373.355418	2613.843310
373.742096	2634.925416
374.128710	2648.362611
374.515262	2663.327277
374.901751	2676.189781
375.288177	2691.406503
375.674540	2713.343084
376.060841	2732.892679
376.447079	2751.822212
376.833254	2773.007661
377.219367	2783.921759
377.605417	2822.302584
377.991404	2833.466219
378.377329	2852.625124
378.763191	2873.225799
379.148991	2911.422622
379.534727	2936.008329
379.920402	2963.008749
380.306013	2977.988538
380.691563	3021.574354
381.077049	3047.160730
381.462474	3064.141857
381.847835	3099.500510
382.233134	3125.016310
382.618371	3124.073615
383.003545	3191.826722
383.388657	3201.004143
383.773706	3230.686457
384.158693	3247.574322
384.543618	3273.533744
384.928480	3313.331133
385.313280	3359.745036
385.698017	3354.547607
386.082692	3406.776481
386.467305	3411.525248
386.851856	3444.985907
387.236344	3469.984989
387.620770	3500.466325
388.005133	3523.839635
388.389435	3548.644633
388.773674	3561.063515
389.157851	3606.595217
389.541965	3622.280767
389.926018	3583.852051
390.310008	3656.721930
390.693936	3672.798170
391.077802	3715.262329
391.461606	3705.734548
391.845348	3768.280144
392.229027	3765.941049
392.612645	3780.605765
392.996200	3857.785831
393.379694	3898.959455
393.763125	3963.607212
394.146494	3929.244186
394.529801	3993.145852
394.913047	4037.205537
395.296230	4005.736134
395.679351	4057.198753
396.062410	4081.363524
396.445408	4063.916091
396.828343	4100.179631
397.211217	4123.132004
397.594028	4042.995302
397.976778	4109.125158
398.359466	4133.420999
398.742092	4161.928724
399.124656	4085.643464
399.507158	4164.348478
399.889598	4193.869475
400.271977	4249.352414
400.654294	4219.591963
401.036549	4233.036720
401.418742	4205.270045
401.800874	4300.081546
402.182944	4323.028878
402.564952	4390.552613
402.946898	4377.977455
403.328783	4372.921177
403.710606	4285.537817
404.092367	4479.211386
404.474067	4440.568421
404.855705	4450.365903
405.237282	4378.494173
405.618797	4487.809074
406.000250	4521.960370
406.381642	4600.473821
406.762972	4561.528387
407.144240	4578.191921
407.525447	4573.052465
407.906593	4631.101351
408.287677	4677.298485
408.668700	4603.997587
409.049661	4654.933406
409.430560	4696.427143
409.811399	4622.372593
410.192176	4782.625833
410.572891	4725.635589
410.953545	4825.649560
411.334138	4703.063822
411.714669	4773.760964
412.095139	4670.893699
412.475547	4807.191376
412.855894	4793.633192
413.236180	4805.426972
413.616405	4754.917131
413.996568	4839.805120
414.376670	4782.391419
414.756711	4738.147732
415.136691	4767.835087
415.516609	4846.784598
415.896466	4884.497470
416.276262	4917.872429
416.655997	4898.728647
417.035670	5080.225309
417.415283	5169.025234
417.794834	5115.150423
418.174324	5070.780707
418.553753	4976.712777
418.933121	5157.801105
419.312428	5226.796857
419.691674	5163.111961
420.070859	5290.612824
420.449983	5200.870203
420.829045	5318.213141
421.208047	5222.630343
421.586988	5293.882012
421.965867	5301.693280
422.344686	5432.221356
422.723444	5291.091733
423.102141	5108.889310
423.480777	5399.884874
423.859352	5175.099824
424.237866	5425.360345
424.616319	5415.441875
424.994712	5518.253687
425.373044	5393.374224
425.751314	5528.000758
426.129524	5328.625644
426.507673	5511.551473
426.885762	5588.882773
427.263789	5511.445609
427.641756	5391.899687
428.019662	5500.844062
428.397508	5499.064535
428.775292	5441.587820
429.153016	5527.715933
429.530679	5443.148057
429.908282	5512.443757
430.285824	5375.538622
430.663305	5620.286641
431.040726	5360.009348
431.418086	5347.640877
431.795385	5425.781282
432.172624	5424.508390
432.549802	5394.122836
432.926920	5394.508484
433.303977	5382.145054
433.680974	5392.083689
434.057910	5387.637391
434.434786	5369.116192
434.811601	5316.433614
435.188355	5500.392879
435.565050	5367.752560
435.941683	5323.992824
436.318257	5472.974043
436.694770	5429.378145
437.071222	5427.727167
437.447614	5344.144836
437.823946	5236.649792
438.200218	5327.262012
438.576429	5184.776319
438.952580	5221.710333
439.328670	5220.704623
439.704700	5111.563642
440.080670	5064.456580
440.456580	5219.335949
440.832429	5088.018933
441.208218	4937.479997
441.583947	5003.998022
441.959616	4961.591836
442.335224	4867.607084
442.710773	4914.537706
443.086261	4879.622674
443.461689	4709.198907
443.837057	4747.110904
444.212365	4794.412051
444.587612	4681.442313
444.962800	4718.497315
445.337927	4655.150176
445.712995	4385.413157
446.088002	4651.170185
446.462949	4505.642155
446.837837	4412.705964
447.212664	4459.311431
447.587431	4461.489209
447.962139	4658.721833
448.336786	5017.909086
448.711374	4846.018342
449.085901	4375.910582
449.460369	4275.084984
449.834776	4189.839073
450.209124	4283.665028
450.583412	4275.631949
450.957640	4282.641674
451.331808	4129.320021
451.705917	3920.883433
452.079965	3845.145137
452.453954	3855.630737
452.827883	3773.328860
453.201752	3743.560846
453.575562	3644.270280
453.949311	3647.282369
454.323001	3580.638316
454.696632	3553.456414
455.070202	3538.184238
455.443713	3533.846326
455.817164	3509.689116
456.190556	3471.613281
456.563888	3446.699899
456.937160	3412.820825
457.310373	3311.803663
457.683526	3269.016870
458.056619	3213.849003
458.429653	3176.231913
458.802628	3137.077271
459.175542	3120.378449
459.548398	3127.466311
459.921194	3120.012965
460.293930	3099.452619
460.666607	3124.275261
461.039224	3135.290182
461.411782	3113.068776
461.784280	3072.915985
462.156719	3024.246166
462.529099	2978.659011
462.901419	2916.738519
463.273680	2881.752911
463.645882	2864.555015
464.018024	2830.098728
464.390106	2816.958961
464.762130	2820.747388
465.134094	2833.206599
465.505999	2878.140924
465.877845	2920.685742
466.249631	2920.166503
466.621358	2865.154912
466.993026	2814.519042
467.364634	2785.895371
467.736184	2754.630134
468.107674	2730.419993
468.479105	2716.788713
468.850477	2700.641897
469.221790	2686.821574
469.593043	2667.360200
469.964238	2656.627583
470.335373	2652.088024
470.706449	2644.773310
471.077467	2637.302320
471.448425	2655.332007
471.819324	2665.714263
472.190164	2659.710249
472.560945	2635.086733
472.931667	2621.198354
473.302330	2614.612086
473.672934	2609.812908
474.043479	2612.086468
474.413965	2607.657815
474.784393	2602.248657
475.154761	2603.120776
475.525070	2598.518203
475.895321	2599.327308
476.265513	2595.097780
476.635645	2599.639859
477.005719	2597.260435
477.375734	2600.078440
477.745691	2602.979624
478.115588	2601.850405
478.485427	2597.802359
478.855207	2604.504573
479.224928	2609.994389
479.594591	2615.070831
479.964194	2610.581684
480.333739	2611.287445
480.703226	2607.854420
481.072653	2608.250150
481.442022	2609.265943
481.811333	2610.836262
482.180584	2609.838114
482.549777	2604.141610
482.918912	2603.340066
483.287988	2601.041300
483.657005	2600.887545
484.025964	2596.524426
484.394864	2602.856116
484.763706	2602.921651
485.132489	2597.378902
485.501213	2597.293202
485.869879	2597.406628
486.238487	2592.284816
486.607036	2595.617019
486.975527	2595.995105
487.343959	2591.942018
487.712333	2594.664241
488.080648	2593.943356
488.448905	2595.813624
488.817104	2591.659713
489.185244	2594.548294
489.553326	2595.987543
489.921350	2601.978955
490.289315	2606.342073
490.657222	2609.218052
491.025070	2607.062958
491.392861	2604.638163
491.760593	2602.357041
492.128267	2601.477360
492.495883	2601.079109
492.863440	2596.978130
493.230939	2592.204157
493.598380	2594.548294
493.965763	2588.052767
494.333088	2589.935638
494.700354	2586.003538
495.067563	2586.842890
495.434713	2583.424988
495.801805	2587.740216
496.168839	2590.245669
496.535815	2589.418920
496.902733	2588.692994
497.269593	2590.149887
497.636395	2589.607963
498.003139	2587.856162
498.369825	2588.811461
498.736453	2588.151070
499.103023	2585.776686
499.469535	2587.841039
499.835989	2586.414392
500.202385	2587.215936
500.568723	2585.643096
500.935003	2589.171903
501.301226	2581.390882
501.667390	2584.415575
502.033497	2587.873806
502.399546	2583.132601
502.765537	2583.268712
503.131470	2585.602767
503.497345	2582.333578
503.863163	2584.148394
504.228923	2583.823239
504.594625	2586.631162
504.960269	2583.621593
505.325856	2585.244845
505.691385	2585.847262
506.056856	2584.367684
506.422270	2585.953127
506.787625	2585.325503
507.152924	2585.454053
507.518164	2584.037488
507.883347	2585.806933
508.248472	2582.459607
508.613540	2582.452045
508.978550	2583.127560
509.343503	2584.350040
509.708398	2586.719382
510.073236	2586.684094
510.438016	2587.273909
510.802738	2584.304669
511.167403	2586.306007
511.532010	2582.434401
511.896561	2586.527818
512.261053	2589.010587
512.625488	2587.021851
512.989866	2582.610842
513.354186	2585.819536
513.718449	2582.590677
514.082655	2585.471697
514.446803	2585.433888
514.810894	2589.360947
515.174927	2588.080494
515.538904	2589.252562
515.902822	2588.750967
516.266684	2587.362129
516.630488	2585.156624
516.994235	2585.862386
517.357925	2588.445977
517.721558	2586.613518
518.085133	2589.940679
518.448651	2589.489496
518.812112	2585.305338
519.175516	2588.884558
519.538863	2588.133426
519.902152	2590.296081
520.265385	2588.377922
520.628560	2586.358940
520.991678	2588.703076
521.354739	2588.662747
521.717743	2586.459763
522.080690	2587.077304
522.443580	2587.772983
522.806413	2587.407500
523.169189	2589.209712
523.531908	2589.577716
523.894569	2589.267685
524.257174	2589.723910
524.619722	2588.912284
524.982213	2590.916143
525.344647	2589.066039
525.707025	2586.389187
526.069345	2591.132912
526.431608	2588.829105
526.793815	2585.907756
527.155964	2591.145515
527.518057	2589.766760
527.880093	2588.410689
528.242072	2589.970926
528.603995	2590.790114
528.965860	2588.425813
529.327669	2589.108889
529.689421	2590.064188
530.051117	2591.221133
530.412755	2588.887078
530.774337	2590.563262
531.135862	2587.412541
531.497331	2585.012952
531.858743	2584.816347
532.220098	2584.735688
532.581396	2584.140832
532.942638	2586.600915
533.303824	2588.030082
533.664953	2587.026892
534.026025	2588.758529
534.387040	2590.714497
534.747999	2586.749629
535.108902	2590.217943
535.469748	2587.715010
535.830537	2587.122674
536.191270	2586.197623
536.551947	2587.331882
536.912567	2586.938672
537.273131	2587.261306
537.633638	2589.464290
537.994089	2589.270206
538.354483	2587.145360
538.714821	2588.047726
539.075103	2590.646441
539.435328	2590.338931
539.795497	2588.224167
540.155609	2589.302973
540.515665	2590.321287
540.875665	2588.566965
541.235609	2588.367839
541.595496	2591.679877
541.955328	2588.461101
542.315102	2589.854980
542.674821	2590.225505
543.034483	2590.137284
543.394090	2587.573858
543.753640	2588.138467
544.113134	2587.067222
544.472571	2588.259455
544.831953	2587.304156
545.191278	2587.699887
545.550548	2590.159970
545.909761	2587.934300
546.268918	2590.906060
546.628019	2588.955134
546.987064	2585.990935
547.346053	2589.860021
547.704986	2588.012438
548.063863	2587.863724
548.422684	2594.064343
548.781449	2589.802048
549.140158	2588.161152
549.498811	2588.791296
549.857408	2587.291553
550.215949	2587.891450
550.574434	2585.509505
550.932864	2587.964547
551.291237	2586.371542
551.649555	2587.609146
552.007817	2590.154928
552.366022	2588.415730
552.724173	2591.175762
553.082267	2587.934300
553.440305	2592.478900
553.798288	2588.198961
554.156215	2592.262131
554.514086	2591.445464
554.871902	2588.700556
555.229661	2589.108889
555.587365	2588.229208
555.945014	2586.628641
556.302606	2591.405135
556.660143	2590.406986
557.017625	2590.588468
557.375050	2589.353385
557.732421	2590.830443
558.089735	2587.808271
558.446994	2591.032089
558.804197	2590.792634
559.161345	2590.273396
559.518437	2590.197778
559.875474	2589.970926
560.232455	2589.688622
560.589381	2588.498909
560.946251	2590.903540
561.303065	2588.244331
561.659825	2589.915474
562.016528	2592.002511
562.373177	2587.483117
562.729770	2587.631831
563.086307	2591.352202
563.442789	2590.911102
563.799216	2589.877665
564.155587	2589.764239
564.511904	2591.400093
564.868164	2588.619897
565.224370	2591.364805
565.580520	2589.716348
565.936615	2589.068560
566.292654	2588.748447
566.648638	2590.732141
567.004567	2587.573858
567.360441	2588.745926
567.716260	2589.313056
568.072023	2589.146698
568.427732	2585.874989
568.783385	2589.262644
569.138982	2584.960019
569.494525	2585.491861
569.850013	2584.297108
570.205445	2587.518405
570.560823	2587.594022
570.916145	2587.064701
571.271412	2586.293405
571.626625	2587.218456
571.981782	2586.394228
572.336884	2586.172417
572.691931	2585.716192
573.046923	2587.853642
573.401860	2589.040833
573.756743	2587.029413
574.111570	2588.566965
574.466342	2583.876171
574.821059	2585.554876
575.175722	2587.808271
575.530330	2588.861872
575.884882	2589.691142
576.239380	2587.687284
576.593823	2586.842890
576.948211	2583.372056
577.302544	2584.796182
577.656823	2587.740216
578.011047	2584.849114
578.365216	2586.051429
578.719330	2586.278281
579.073389	2582.890626
579.427394	2584.465986
579.781344	2584.871799
580.135239	2583.263671
580.489080	2586.585792
580.842866	2583.180492
581.196597	2584.256778
581.550273	2581.854669
581.903895	2581.249730
582.257463	2585.348188
582.610975	2584.592015
582.964434	2583.669484
583.317837	2580.944740
583.671186	2583.971953
584.024481	2583.455235
584.377721	2581.935327
584.730906	2582.575554
585.084037	2583.649319
585.437113	2578.736715
585.790135	2583.304000
586.143103	2582.552868
586.496016	2582.053794
586.848874	2577.846951
587.201679	2580.715368
587.554428	2576.049780
587.907124	2579.467682
588.259765	2575.230592
588.612352	2582.126891
588.964884	2578.892991
589.317362	2581.693352
589.669786	2580.536407
590.022155	2582.842735
590.374470	2582.159658
590.726731	2579.195460
591.078937	2579.374421
591.431090	2579.805440
591.783188	2580.846438
592.135232	2580.680080
592.487222	2580.319637
592.839157	2580.846438
593.191038	2577.972980
593.542866	2578.638412
593.894639	2576.833679
594.246358	2577.743608
594.598022	2579.772672
594.949633	2581.864751
595.301190	2579.145048
595.652692	2579.969277
596.004141	2579.190419
596.355535	2577.796540
596.706876	2578.988773
597.058162	2578.605645
597.409395	2578.366190
597.760573	2579.692014
598.111698	2575.628844
598.462768	2578.414081
598.813785	2576.669842
599.164748	2578.651015
599.515657	2575.281004
599.866511	2576.942064
600.217312	2574.366035
600.568060	2577.032805
600.918753	2579.296283
601.269392	2577.423494
601.619978	2575.948957
601.970510	2578.159503
602.320988	2577.012640
602.671412	2575.243195
603.021783	2577.063052
603.372100	2576.785788
603.722363	2575.744790
604.072572	2574.585325
604.422728	2574.968453
604.772830	2573.665314
605.122878	2571.119532
605.472872	2573.456106
605.822813	2571.449727
606.172701	2574.338308
606.522534	2576.556416
606.872314	2575.028946
607.222041	2576.138000
607.571714	2576.074986
607.921333	2574.441652
608.270899	2576.087589
608.620411	2576.407702
608.969870	2577.761252
609.319276	2576.836200
609.668627	2581.506829
610.017926	2578.940882
610.367171	2584.791141
610.716362	2580.120512
611.065500	2581.252251
611.414585	2576.768144
611.763616	2577.887281
612.112594	2578.451890
612.461518	2577.665470
612.810389	2581.038002
613.159207	2578.499781
613.507971	2575.487691
613.856682	2577.005079
614.205340	2576.810994
614.553945	2576.513566
614.902496	2575.580953
615.250994	2575.507856
615.599439	2578.154462
615.947830	2577.662949
616.296169	2576.074986
616.644454	2576.626992
616.992686	2573.582135
617.340864	2577.307548
617.688990	2575.283525
618.037063	2571.986610
618.385082	2576.100192
618.733048	2575.522979
619.080961	2576.914338
619.428821	2577.189081
619.776628	2575.492732
620.124382	2577.839390
620.472083	2576.155644
620.819731	2576.984914
621.167326	2574.245047
621.514868	2574.204718
621.862357	2574.280335
622.209793	2576.879050
622.557176	2575.462486
622.904506	2573.945098
623.251783	2569.962587
623.599007	2568.649366
623.946179	2569.836558
624.293297	2570.514593
624.640363	2571.318657
624.987376	2571.495097
625.334336	2569.458471
625.681243	2570.547361
626.028097	2570.683472
626.374899	2573.496436
626.721647	2572.397464
627.068343	2571.139696
627.414987	2570.771692
627.761577	2571.827814
628.108115	2570.736404
628.454600	2568.815724
628.801032	2569.682803
629.147412	2570.060889
629.493739	2570.355797
629.840014	2570.234809
630.186236	2569.902093
630.532405	2570.053327
630.878521	2569.864284
631.224585	2571.147258
631.570597	2566.985785
631.916556	2567.593244
632.262462	2566.882442
632.608316	2564.636608
632.954117	2566.806824
633.299866	2566.819427
633.645562	2567.878070
633.991206	2566.844633
634.336797	2568.740107
634.682336	2566.292627
635.027823	2568.944274
635.373257	2568.508214
635.718639	2563.824982
636.063968	2566.446382
636.409245	2567.875549
636.754470	2566.330435
637.099642	2564.124931
637.444762	2567.003429
637.789829	2564.755075
638.134845	2563.285578
638.479808	2563.323387
638.824719	2563.351113
639.169577	2562.199210
639.514383	2563.136864
639.859137	2562.085784
640.203839	2560.875907
640.548489	2564.041752
640.893086	2560.974209
641.237632	2559.807182
641.582125	2559.865156
641.926566	2558.123437
642.270955	2567.588203
642.615292	2562.279868
642.959576	2564.828172
643.303809	2563.978737
643.647990	2560.253324
643.992118	2561.987481
644.336195	2561.702656
644.680219	2560.429765
645.024192	2562.519323
645.368112	2563.595609
645.711981	2558.599826
646.055797	2562.690722
646.399562	2560.954045
646.743274	2561.024621
647.086935	2564.863460
647.430544	2563.537636
647.774101	2563.676268
648.117606	2564.301371
648.461059	2565.329766
648.804460	2564.157698
649.147810	2565.450754
649.491108	2564.135013
649.834354	2562.794066
650.177548	2560.613767
650.520690	2560.855742
650.863781	2563.814900
651.206820	2565.014694
651.549807	2560.318859
651.892742	2562.204251
652.235626	2558.325083
652.578458	2561.069991
652.921238	2560.313818
653.263967	2558.677964
653.606644	2562.146278
653.949269	2560.991853
654.291843	2559.701318
654.634365	2559.751730
654.976836	2558.806513
655.319255	2562.529405
655.661622	2558.357851
656.003938	2559.991184
656.346203	2559.779456
656.688416	2557.337017
657.030577	2557.528581
657.372687	2561.453119
657.714746	2557.163097
658.056753	2559.582851
658.398708	2555.186965
658.740612	2555.108827
659.082465	2556.341389
659.424266	2555.146636
659.766016	2552.225287
660.107715	2558.728375
660.449362	2556.837943
660.790958	2558.501523
661.132503	2560.359189
661.473996	2561.185938
661.815438	2556.283416
662.156829	2560.412121
662.498168	2560.102090
662.839456	2559.040927
663.180693	2558.524209
663.521879	2558.572100
663.863013	2560.066802
664.204097	2561.029662
664.545129	2558.619991
664.886110	2559.908005
665.227040	2558.695608
665.567918	2559.003118
665.908746	2558.244425
666.249522	2559.003118
666.590248	2559.605536
666.930922	2558.859445
667.271545	2558.919939
667.612118	2561.115362
667.952639	2557.717624
668.293109	2559.928170
668.633528	2560.540670
668.973896	2557.929352
669.314213	2559.983623
669.654480	2558.050340
669.994695	2558.007490
670.334859	2562.100907
670.674973	2558.715772
671.015035	2558.322563
671.355047	2558.851884
671.695008	2559.565207
672.034918	2557.026986
672.374777	2558.418344
672.714585	2558.869528
673.054342	2559.353478
673.394049	2555.643189
673.733705	2558.667882
674.073310	2561.261555
674.412864	2560.109652
674.752368	2556.301060
675.091820	2559.028324
675.431223	2556.840463
675.770574	2556.858107
676.109875	2554.115720
676.449125	2556.777449
676.788324	2555.149156
677.127473	2555.844835
677.466571	2552.903322
677.805619	2556.752243
678.144616	2555.920453
678.483562	2555.902809
678.822458	2558.695608
679.161303	2559.149312
679.500098	2557.170659
679.838842	2556.500185
680.177535	2556.656461
680.516179	2555.207129
680.854771	2554.319886
681.193314	2559.267779
681.531805	2557.279044
681.870247	2560.346586
682.208638	2557.934394
682.546978	2558.607388
682.885268	2554.773590
683.223508	2557.591595
683.561697	2558.337686
683.899836	2555.595298
684.237925	2556.217881
684.575963	2558.375495
684.913951	2556.154866
685.251889	2559.660989
685.589776	2558.894733
685.927614	2556.686708
686.265401	2557.571431
686.603137	2558.110834
686.940824	2558.100752
687.278460	2559.144271
687.616046	2556.502706
687.953582	2558.146122
688.291068	2559.587892
688.628504	2559.736606
688.965889	2560.351627
689.303224	2557.778118
689.640510	2558.010011
689.977745	2556.986657
690.314930	2555.978426
690.652065	2559.212326
690.989150	2552.464742
691.326185	2555.063457
691.663170	2554.622356
692.000105	2553.251162
692.336990	2555.345761
692.673825	2556.575803
693.010610	2556.681667
693.347345	2550.962478
693.684030	2549.949206
694.020665	2550.760832
694.357251	2546.082641
694.693786	2548.963660
695.030272	2551.096068
695.366707	2552.280740
695.703093	2551.413661
696.039429	2551.592622
696.375716	2553.412479
696.711952	2549.089689
697.048139	2552.883157
697.384276	2552.782334
697.720363	2549.044319
698.056400	2549.495502
698.392388	2551.534649
698.728326	2553.367108
699.064214	2547.569781
699.400053	2549.987015
699.735842	2551.453990
700.071581	2551.138918
700.407270	2548.255378
700.742910	2553.210832
701.078501	2550.281922
701.414042	2548.472148
701.749533	2548.933413
702.084974	2550.120605
702.420366	2548.643547
702.755709	2548.613300
703.091002	2546.846376
703.426246	2550.140770
703.761440	2550.881819
704.096584	2550.334854
704.431679	2549.331665
704.766725	2551.408620
705.101721	2547.174051
705.436668	2549.124977
705.771565	2546.732950
706.106413	2549.651778
706.441212	2549.820657
706.775961	2547.597508
707.110661	2546.309493
707.445311	2548.535162
707.779913	2550.286963
708.114465	2550.438198
708.448967	2551.085986
708.783421	2548.746891
709.117825	2549.636654
709.452180	2551.534649
709.786485	2551.156562
710.120742	2552.283260
710.454949	2551.607746
710.789107	2547.400903
711.123216	2547.163968
711.457275	2551.080945
711.791286	2549.359391
712.125247	2549.782848
712.459159	2552.744526
712.793023	2552.794937
713.126837	2551.249824
713.460602	2550.473486
713.794318	2552.875596
714.127985	2551.728733
714.461602	2549.467776
714.795171	2552.179917
715.128691	2550.891902
715.462162	2549.452652
715.795584	2549.467776
716.128957	2549.319062
716.462281	2548.595656
716.795556	2549.548434
717.128782	2547.557178
717.461960	2547.637837
717.795088	2549.137580
718.128167	2547.073228
718.461198	2547.539534
718.794180	2547.937786
719.127113	2547.201777
719.459997	2548.346119
719.792833	2546.937117
720.125619	2547.736139
720.458357	2545.465100
720.791046	2548.593136
721.123686	2545.863351
721.456278	2549.578681
721.788821	2546.667415
722.121315	2547.289997
722.453761	2546.801005
722.786158	2544.845038
723.118506	2545.001313
723.450805	2547.138763
723.783056	2546.034750
724.115259	2546.851417
724.447412	2546.228834
724.779518	2546.392672
725.111574	2545.397044
725.443582	2546.059956
725.775542	2546.173382
726.107453	2547.390820
726.439315	2546.939637
726.771129	2549.684545
727.102895	2547.836962
727.434612	2548.630944
727.766281	2545.855789
728.097901	2544.363607
728.429473	2543.688093
728.760996	2543.892260
729.092471	2543.831766
729.423897	2545.570964
729.755276	2545.933927
730.086606	2549.198074
730.417887	2549.412323
730.749120	2548.545245
731.080305	2552.310987
731.411442	2547.668084
731.742530	2551.627910
732.073570	2548.610780
732.404562	2547.463917
732.735506	2548.699000
733.066401	2548.653629
733.397249	2549.167827
733.728048	2549.036757
734.058798	2548.013403
734.389501	2543.123484
734.720156	2546.107847
735.050762	2546.410316
735.381320	2544.260264
735.711831	2547.065666
736.042293	2547.075748
736.372707	2545.926365
736.703073	2546.506098
737.033391	2546.629606
737.363661	2544.887888
737.693883	2546.448125
738.024056	2544.885367
738.354182	2547.226983
738.684260	2544.880326
739.014290	2546.077600
739.344272	2547.577343
739.674207	2546.516180
740.004093	2546.927034
740.333931	2544.933258
740.663722	2547.274874
740.993464	2546.619524
741.323159	2549.180430
741.652806	2547.335368
741.982405	2545.384441
742.311956	2546.397713
742.641460	2543.496529
742.970915	2541.139790
743.300323	2546.034750
743.629683	2545.281098
743.958996	2545.757487
744.288260	2543.415871
744.617477	2546.957281
744.946647	2539.972762
745.275768	2543.191539
745.604842	2538.352032
745.933869	2538.538554
746.262847	2536.302802
746.591778	2546.657333
746.920662	2542.856302
747.249498	2542.145500
747.578286	2542.417722
747.907027	2544.499719
748.235720	2544.305634
748.564365	2542.805891
748.892963	2542.405119
749.221514	2542.410160
749.550017	2545.228165
749.878473	2543.683052
750.206881	2543.942671
750.535242	2543.186498
750.863555	2541.588452
751.191821	2545.344112
751.520039	2543.743546
751.848210	2543.461241
752.176334	2542.795809
752.504411	2546.097764
752.832440	2542.269008
753.160421	2543.441076
753.488356	2542.619368
753.816243	2543.400747
754.144082	2540.739018
754.471875	2543.126004
754.799620	2544.986190
755.127318	2542.682383
755.454969	2542.826056
755.782572	2542.677342
756.110129	2541.953936
756.437638	2544.149358
756.765100	2542.997455
757.092515	2544.434184
757.419882	2543.438556
757.747203	2545.520552
758.074477	2544.116591
758.401703	2542.712630
758.728882	2542.629451
759.056014	2542.866385
759.383099	2542.120294
759.710138	2542.949564
760.037129	2543.733463
760.364073	2542.873947
760.690970	2544.043494
761.017820	2542.856303
761.344623	2544.401416
761.671379	2544.015768
761.998088	2539.882022
762.324751	2544.686241
762.651366	2542.760521
762.977935	2553.041954
763.304456	2551.764021
763.630931	2556.401883
763.957359	2556.381718
764.283740	2552.910884
764.610074	2547.335368
764.936362	2546.122970
765.262602	2547.718495
765.588796	2544.638350
765.914943	2543.612476
766.241044	2544.683721
766.567097	2544.434184
766.893104	2543.894780
767.219064	2539.269522
767.544978	2541.197763
767.870845	2536.466640
768.196665	2543.655325
768.522438	2542.813453
768.848165	2540.411343
769.173846	2541.170037
769.499479	2543.466282
769.825066	2539.662732
770.150607	2541.555685
770.476101	2540.318082
770.801548	2539.924872
771.126949	2539.110725
771.452303	2541.762372
771.777611	2538.455375
772.102872	2539.834131
772.428087	2539.299768
772.753256	2540.267670
773.078378	2538.336908
773.403453	2540.025695
773.728482	2539.650129
774.053465	2540.403781
774.378401	2539.042670
774.703291	2536.093595
775.028135	2540.885211
775.352932	2537.933616
775.677683	2539.514017
776.002388	2537.694161
776.327046	2538.709953
776.651658	2538.309182
776.976224	2539.231713
777.300743	2538.152906
777.625216	2535.995292
777.949643	2539.844213
778.274024	2536.839685
778.598359	2536.907741
778.922647	2533.076464
779.246889	2536.065868
779.571086	2534.447658
779.895236	2535.425642
780.219339	2536.194418
780.543397	2537.676517
780.867409	2539.473688
781.191374	2538.936805
781.515294	2538.226003
781.839167	2537.744572
782.162995	2534.634181
782.486776	2537.111908
782.810511	2535.511341
783.134201	2539.612320
783.457844	2538.009233
783.781441	2539.244316
784.104993	2536.234747
784.428498	2539.892104
784.751958	2538.089892
785.075372	2538.707433
785.398739	2538.853626
785.722061	2536.965714
786.045337	2535.768440
786.368568	2538.072248
786.691752	2536.128883
787.014891	2539.193904
787.337983	2535.113090
787.661030	2542.730274
787.984031	2539.405633
788.306987	2541.225489
788.629897	2538.790612
788.952760	2540.086188
789.275579	2541.187681
789.598351	2540.469316
789.921078	2538.105015
790.243759	2540.940664
790.566395	2537.767258
790.888984	2540.315561
791.211529	2538.578883
791.534027	2539.312371
791.856480	2537.041332
792.178888	2537.185004
792.501249	2536.617875
792.823566	2539.072917
793.145836	2536.033101
793.468062	2539.173740
793.790241	2536.688451
794.112375	2539.040149
794.434464	2539.123328
794.756507	2537.800025
795.078505	2536.733821
795.400457	2534.256094
795.722364	2534.220806
796.044226	2536.940508
796.366042	2534.533358
796.687812	2534.984541
797.009538	2539.319933
797.331218	2537.605941
797.652852	2540.605427
797.974442	2539.216589
798.295986	2536.423790
798.617484	2538.082330
798.938938	2536.559901
799.260346	2539.594676
799.581709	2536.978317
799.903026	2538.493184
800.224299	2536.706095
800.545526	2538.750283
800.866708	2537.852957
801.187845	2535.355066
801.508936	2536.562422
801.829983	2536.781712
802.150984	2535.566794
802.471940	2539.332536
802.792851	2537.237937
803.113717	2538.483102
803.434538	2535.014788
803.755314	2537.855478
804.076045	2533.073943
804.396731	2537.084181
804.717372	2536.632998
805.037967	2536.428831
805.358518	2539.287166
805.679024	2537.946219
805.999485	2533.890610
806.319901	2540.066024
806.640272	2536.103677
806.960598	2536.363296
807.280879	2533.804911
807.601115	2536.423790
807.921306	2535.997813
808.241453	2537.278266
808.561554	2535.287010
808.881611	2537.205169
809.201623	2538.493184
809.521590	2534.533357
809.841513	2537.376568
810.161390	2536.655683
810.481223	2537.704243
810.801011	2534.125024
811.120755	2537.333718
811.440453	2538.178112
811.760107	2539.019984
812.079716	2534.523275
812.399281	2531.067564
812.718801	2535.334901
813.038276	2531.473377
813.357707	2537.280786
813.677093	2537.734490
813.996434	2537.386651
814.315731	2536.199459
814.634983	2536.443955
814.954191	2537.008564
815.273354	2534.777853
815.592473	2534.941691
815.911547	2536.771630
816.230577	2535.811290
816.549562	2537.008564
816.868502	2536.708615
817.187399	2540.250026
817.506250	2539.355221
817.825058	2537.505118
818.143821	2538.107536
818.462539	2536.496887
818.781213	2538.150385
819.099843	2539.902186
819.418429	2542.493339
819.736970	2539.521579
820.055466	2544.512322
820.373919	2545.810419
820.692327	2547.451314
821.010691	2553.198230
821.329011	2559.426575
821.647286	2582.457087
821.965517	2598.613985
822.283704	2612.905656
822.601847	2618.249279
822.919945	2606.392485
823.237999	2594.142481
823.556010	2583.858527
823.873976	2574.035839
824.191897	2568.293965
824.509775	2559.043447
824.827609	2553.546069
825.145398	2552.547921
825.463144	2553.440205
825.780845	2554.766028
826.098502	2554.836605
826.416116	2562.511761
826.733685	2568.462843
827.051210	2569.408060
827.368692	2568.997206
827.686129	2562.176525
828.003522	2556.384239
828.320872	2547.703372
828.638177	2544.340922
828.955439	2541.618699
829.272656	2538.944367
829.589830	2537.918492
829.906960	2540.726415
830.224046	2538.639377
830.541088	2540.192053
830.858086	2539.130890
831.175041	2540.250026
831.491952	2535.148378
831.808819	2539.836651
832.125642	2535.097967
832.442421	2541.717002
832.759157	2540.711292
833.075849	2544.996272
833.392497	2548.446942
833.709101	2552.537838
834.025662	2552.631100
834.342179	2551.612787
834.658653	2546.564071
834.975083	2545.265974
835.291469	2547.158927
835.607811	2541.427135
835.924110	2540.958308
836.240366	2537.926054
836.556578	2538.891435
836.872746	2534.525796
837.188871	2537.225334
837.504952	2534.989582
837.820990	2536.060827
838.136984	2532.925229
838.452935	2536.690971
838.768842	2537.807587
839.084706	2537.429500
839.400526	2538.765406
839.716303	2539.771116
840.032037	2542.543751
840.347727	2541.477547
840.663373	2539.319933
840.978977	2537.356404
841.294537	2539.002340
841.610054	2538.856147
841.925527	2534.737524
842.240957	2535.390354
842.556344	2537.545447
842.871687	2536.580066
843.186987	2531.019673
843.502244	2530.563449
843.817458	2534.107380
844.132629	2531.657379
844.447756	2536.587628
844.762840	2529.184693
845.077881	2532.176618
845.392879	2529.230064
845.707833	2530.606299
846.022745	2527.899199
846.337613	2533.696526
846.652438	2533.126876
846.967221	2534.084695
847.281960	2533.759540
847.596656	2533.686444
847.911309	2533.562935
848.225919	2535.160981
848.540485	2532.756351
848.855009	2532.617719
849.169490	2535.057637
849.483928	2534.545960
849.798323	2534.099818
850.112675	2534.989582
850.426984	2533.295754
850.741251	2533.736855
851.055474	2534.135106
851.369654	2531.037317
851.683792	2530.228212
851.997887	2534.616537
852.311938	2530.949097
852.625947	2531.017153
852.939914	2534.861033
853.253837	2534.233409
853.567718	2531.672503
853.881555	2533.603265
854.195350	2531.831299
854.509103	2532.514375
854.822812	2531.100332
855.136479	2532.791639
855.450103	2531.458254
855.763685	2533.641073
856.077224	2535.022349
856.390720	2532.534540
856.704173	2532.171577
857.017584	2534.603934
857.330953	2533.552853
857.644278	2531.924560
857.957561	2536.494366
858.270802	2534.742565
858.584000	2534.480425
858.897155	2534.785415
859.210268	2530.802904
859.523339	2534.064530
859.836367	2532.285003
860.149352	2534.467823
860.462295	2532.060672
860.775195	2529.512368
861.088054	2528.201668
861.400869	2531.738038
861.713642	2528.005063
862.026373	2532.058151
862.339062	2533.530168
862.651708	2533.043697
862.964312	2533.469674
863.276873	2532.179139
863.589392	2536.080992
863.901869	2532.040507
864.214303	2532.660569
864.526696	2533.235260
864.839045	2534.485467
865.151353	2530.008922
865.463619	2534.389685
865.775842	2536.532175
866.088023	2531.775846
866.400162	2533.681402
866.712258	2535.644932
867.024313	2532.988244
867.336325	2532.658048
867.648296	2533.396577
867.960224	2534.535878
868.272110	2531.581762
868.583954	2532.312729
868.895755	2531.541433
869.207515	2533.227699
869.519233	2533.242822
869.830909	2528.693181
870.142542	2534.167874
870.454134	2533.993954
870.765684	2533.348686
871.077191	2533.167205
871.388657	2535.712987
871.700081	2532.116124
872.011463	2534.525796
872.322803	2533.820034
872.634101	2532.257277
872.945357	2535.072761
873.256571	2534.598892
873.567744	2533.678882
873.878874	2533.162164
874.189963	2534.359438
874.501010	2534.319108
874.812015	2531.203675
875.122979	2532.930271
875.433900	2533.774664
875.744780	2534.157792
876.055618	2533.036135
876.366415	2535.566794
876.677169	2534.596372
876.987882	2533.182328
877.298554	2528.612522
877.609183	2533.071423
877.919771	2532.773995
878.230317	2534.223327
878.540822	2538.097453
878.851285	2539.685417
879.161707	2538.329346
879.472087	2539.123328
879.782425	2539.004861
880.092722	2542.382434
880.402977	2551.287632
880.713191	2562.045455
881.023363	2571.283369
881.333494	2580.188567
881.643583	2580.150759
881.953631	2581.859710
882.263637	2579.427353
882.573602	2573.544327
882.883526	2569.299675
883.193408	2562.738613
883.503248	2559.781977
883.813048	2554.609753
884.122806	2550.493651
884.432522	2547.978115
884.742197	2545.298742
885.051831	2541.774975
885.361424	2541.764893
885.670975	2541.038967
885.980485	2537.200128
886.289954	2539.236754
886.599382	2537.938657
886.908768	2536.769109
887.218113	2536.214582
887.527417	2535.602082
887.836680	2536.809438
888.145901	2535.392874
888.455082	2534.004036
888.764221	2536.910262
889.073319	2534.656866
889.382376	2536.620395
889.691392	2534.538399
890.000366	2536.191897
890.309300	2532.605116
890.618193	2535.241640
890.927044	2533.961187
891.235855	2536.156609
891.544625	2536.920344
891.853353	2536.585107
892.162041	2536.045704
892.470687	2535.216434
892.779293	2535.914634
893.087858	2535.586959
893.396381	2534.520755
893.704864	2537.366486
894.013306	2538.359593
894.321707	2547.715975
894.630068	2548.353681
894.938387	2551.085986
895.246665	2551.428785
895.554903	2544.527445
895.863100	2545.339071
896.171256	2541.432177
896.479371	2542.468134
896.787446	2541.167516
897.095480	2538.838503
897.403473	2537.174922
897.711425	2535.733152
898.019336	2537.094264
898.327207	2536.950591
898.635038	2537.129552
898.942827	2536.839685
899.250576	2535.836496
899.558284	2535.231557
899.865952	2535.609644
900.173579	2535.902031
900.481165	2536.431352
900.788711	2534.551002
901.096216	2533.540250
901.403681	2536.388502
901.711105	2533.005888
902.018489	2534.427493
902.325832	2535.206352
902.633135	2535.392874
902.940397	2534.414890
903.247619	2535.360107
903.554800	2540.602907
903.861941	2545.523073
904.169041	2550.012220
904.476101	2555.360885
904.783121	2555.224773
905.090100	2551.073383
905.397039	2549.407282
905.703938	2543.491488
906.010796	2542.122815
906.317614	2538.641898
906.624391	2542.158103
906.931129	2538.004192
907.237826	2535.801208
907.544483	2533.492359
907.851099	2533.736855
908.157675	2532.315250
908.464211	2535.304654
908.770707	2529.771988
909.077163	2529.754344
909.383578	2528.887265
909.689954	2528.559590
909.996289	2525.544980
910.302584	2532.113604
910.608839	2531.669982
910.915054	2531.296937
911.221229	2530.903727
911.527363	2534.861033
911.833458	2531.559077
912.139513	2533.694005
912.445527	2530.818027
912.751502	2531.680064
913.057436	2532.743748
913.363331	2535.425642
913.669186	2532.272400
913.975000	2534.593851
914.280775	2536.955632
914.586510	2537.815149
914.892205	2537.986548
915.197859	2544.293031
915.503475	2545.245809
915.809050	2551.212015
916.114585	2550.899463
916.420081	2557.505896
916.725536	2553.309135
917.030952	2551.091027
917.336328	2548.146993
917.641665	2544.794626
917.946961	2545.762528
918.252218	2540.781868
918.557435	2538.261291
918.862612	2539.836651
919.167750	2538.906558
919.472848	2538.583925
919.777906	2534.503111
920.082925	2534.798018
920.387904	2534.699716
920.692843	2533.119314
920.997743	2532.965559
921.302603	2534.508152
921.607423	2535.115611
921.912204	2533.071423
922.216946	2532.690816
922.521647	2533.172246
922.826310	2534.044366
923.130932	2532.292565
923.435516	2530.094622
923.740059	2530.755013
924.044564	2530.697039
924.349028	2530.059333
924.653454	2523.813344
924.957840	2526.918695
925.262186	2525.245032
925.566493	2530.308871
925.870761	2527.735362
926.174989	2531.697708
926.479178	2529.812317
926.783328	2529.908099
927.087438	2530.308871
927.391509	2533.676361
927.695541	2531.221319
927.999533	2529.963552
928.303486	2527.634538
928.607400	2530.301309
928.911275	2532.713501
929.215110	2528.841895
929.518906	2529.056144
929.822663	2530.845753
930.126381	2531.065044
930.430060	2529.305681
930.733699	2531.508665
931.037299	2530.366844
931.340861	2528.718387
931.644383	2531.090249
931.947866	2530.800383
932.251309	2530.369364
932.554714	2530.664272
932.858080	2530.492873
933.161407	2531.443130
933.464694	2530.891124
933.767943	2528.519261
934.071153	2531.307019
934.374323	2530.913809
934.677455	2533.540250
934.980548	2532.481608
935.283602	2529.134282
935.586617	2528.872142
935.889593	2528.786442
936.192530	2529.736700
936.495428	2529.950949
936.798287	2527.674868
937.101108	2532.632843
937.403890	2532.526978
937.706632	2528.942718
938.009336	2530.006401
938.312002	2533.129396
938.614628	2531.289375
938.917216	2533.515044
939.219765	2530.243336
939.522275	2530.921371
939.824747	2531.203675
940.127179	2526.107069
940.429573	2527.183355
940.731929	2528.652852
941.034246	2529.366175
941.336524	2528.642769
941.638763	2530.533202
941.940964	2530.916330
942.243126	2529.096473
942.545250	2529.746782
942.847335	2531.034797
943.149381	2532.242153
943.451389	2529.088911
943.753359	2528.917512
944.055290	2530.230733
944.357182	2528.257121
944.659036	2530.760054
944.960851	2530.011443
945.262628	2532.088398
945.564367	2529.615712
945.866067	2530.349200
946.167729	2533.512524
946.469352	2530.359282
946.770937	2531.508665
947.072484	2530.535723
947.373992	2530.679395
947.675462	2532.537061
947.976893	2530.127389
948.278286	2528.153777
948.579641	2530.399611
948.880958	2530.381967
949.182236	2529.595547
949.483476	2528.599919
949.784678	2529.202337
950.085841	2530.293747
950.386967	2531.828778
950.688054	2529.635877
950.989103	2531.445651
951.290114	2531.564118
951.591087	2528.786442
951.892021	2529.464477
952.192917	2531.274252
952.493776	2528.123530
952.794596	2529.950949
953.095378	2528.443644
953.396122	2530.876000
953.696828	2527.959693
953.997496	2528.594878
954.298126	2528.279806
954.598718	2531.586803
954.899272	2529.771988
955.199788	2530.699560
955.500266	2529.582944
955.800706	2525.371060
956.101108	2524.418282
956.401472	2524.267048
956.701798	2525.615556
957.002087	2525.711338
957.302337	2527.427851
957.602550	2526.291071
957.902724	2528.115969
958.202861	2527.964734
958.502960	2527.347193
958.803022	2527.485824
959.103045	2526.885927
959.403031	2530.641587
959.702979	2525.686133
960.002889	2530.165198
960.302762	2527.276617
960.602596	2529.035979
960.902393	2526.898530
961.202153	2530.001360
961.501875	2525.807120
961.801559	2529.555218
962.101205	2525.539939
962.400814	2528.864580
962.700385	2527.110258
962.999918	2527.390043
963.299414	2529.305681
963.598873	2528.342821
963.898293	2530.245856
964.197677	2527.805938
964.497022	2527.024559
964.796331	2525.469363
965.095601	2527.037162
965.394835	2528.753675
965.694030	2527.609333
965.993189	2527.183355
966.292309	2527.392563
966.591393	2527.566483
966.890439	2530.581093
967.189447	2529.235105
967.488419	2529.066226
967.787353	2526.074301
968.086249	2526.119672
968.385108	2526.147398
968.683930	2527.649662
968.982714	2526.522964
969.281462	2524.720752
969.580172	2530.089580
969.878844	2526.049096
970.177480	2528.680578
970.476078	2527.052285
970.774639	2525.187058
971.073162	2527.022038
971.371649	2526.054137
971.670098	2527.319466
971.968510	2522.598426
972.266885	2523.493231
972.565223	2528.526823
972.863524	2524.498941
973.161788	2531.589324
973.460014	2528.113448
973.758204	2527.763088
974.056356	2526.568334
974.354471	2527.669827
974.652550	2527.962213
974.950591	2528.758716
975.248595	2525.620598
975.546563	2529.933305
975.844493	2526.056657
976.142386	2529.424148
976.440243	2527.790814
976.738062	2527.561442
977.035845	2527.279137
977.333590	2527.916843
977.631299	2525.613036
977.928971	2529.393901
978.226606	2526.162522
978.524204	2526.885927
978.821765	2529.232584
979.119290	2525.555063
979.416777	2525.366019
979.714228	2526.223015
980.011642	2528.153777
980.309020	2528.126051
980.606360	2528.431041
980.903664	2527.145547
981.200931	2528.559590
981.498162	2526.008766
981.795356	2526.270906
982.092513	2528.194107
982.389633	2526.288550
982.686717	2528.786442
982.983764	2528.315094
983.280775	2531.049920
983.577749	2527.576565
983.874686	2530.810465
984.171587	2529.683768
984.468451	2526.094466
984.765279	2527.503468
985.062070	2529.930784
985.358824	2529.146885
985.655543	2527.011956
985.952224	2525.963396
986.248869	2527.508510
986.545478	2521.214629
986.842050	2525.192099
987.138586	2522.991636
987.435086	2524.529188
987.731549	2521.660771
988.027975	2526.492717
988.324366	2526.835516
988.620719	2526.124713
988.917037	2525.887779
989.213318	2529.182173
989.509563	2526.374250
989.805772	2527.203520
990.101944	2529.111597
990.398080	2526.737213
990.694180	2524.221677
990.990244	2526.772501
991.286271	2527.175793
991.582262	2525.159332
991.878217	2527.904240
992.174136	2526.956503
992.470019	2527.926925
992.765865	2527.342152
993.061676	2526.893489
993.357450	2524.740916
993.653188	2524.972809
993.948890	2527.536236
994.244556	2527.551359
994.540186	2527.218643
994.835780	2526.568334
995.131337	2529.295599
995.426859	2530.109745
995.722345	2526.331400
996.017795	2529.189734
996.313208	2526.107069
996.608586	2526.207892
996.903928	2526.994312
997.199234	2527.657224
997.494504	2526.122192
997.789738	2528.108407
998.084936	2528.209230
998.380099	2527.833664
998.675225	2528.494055
998.970316	2525.744106
999.265371	2527.712676
999.560390	2523.957017
999.855373	2525.587830
1000.150320	2527.165711
1000.445232	2527.344672
1000.740108	2525.197141
1001.034948	2527.642100
1001.329752	2525.875176
1001.624521	2527.695032
1001.919254	2521.320493
1002.213951	2523.899043
1002.508613	2522.653878
1002.803239	2525.204702
1003.097829	2523.316790
1003.392384	2526.613705
1003.686903	2523.296626
1003.981386	2526.228057
1004.275834	2525.451719
1004.570246	2523.321831
1004.864623	2527.158149
1005.158964	2524.778725
1005.453270	2527.211082
1005.747540	2525.718900
1006.041775	2527.705115
1006.335974	2527.629497
1006.630138	2525.711338
1006.924266	2526.107069
1007.218359	2528.100845
1007.512416	2525.645803
1007.806438	2527.415248
1008.100425	2527.707635
1008.394376	2527.780732
1008.688292	2526.838036
1008.982172	2526.585978
1009.276017	2527.526154
1009.569827	2523.896523
1009.863602	2526.669157
1010.157341	2525.091276
1010.451045	2526.951462
1010.744714	2526.089425
1011.038347	2529.676206
1011.331945	2523.029444
1011.625508	2524.108251
1011.919036	2529.351051
1012.212528	2527.188396
1012.505986	2527.581606
1012.799408	2527.972296
1013.092795	2527.803417
1013.386147	2525.023221
1013.679464	2524.476256
1013.972745	2524.221677
1014.265992	2526.941380
1014.559204	2523.979702
1014.852380	2526.689322
1015.145521	2525.958355
1015.438628	2524.980371
1015.731699	2528.055475
1016.024736	2524.143539
1016.317737	2526.946421
1016.610703	2526.248221
1016.903635	2520.400483
1017.196531	2521.877541
1017.489393	2522.979033
1017.782219	2521.282685
1018.075011	2525.920546
1018.367768	2524.824095
1018.660490	2526.565814
1018.953177	2526.565814
1019.245829	2526.565814
