Dividing Wavelength (nm)	Counts (n)	Blue Motor Position (mm): 0.000000	Red Motor Position (mm): 28.500000	
326.493990	2081.646178
326.888308	2081.646178
327.282561	2081.646178
327.676750	2056.846222
328.070874	2059.081974
328.464933	2065.728735
328.858929	2075.652246
329.252859	2087.481314
329.646726	2098.040011
330.040528	2115.280757
330.434265	2135.563839
330.827938	2156.298105
331.221547	2176.003975
331.615091	2197.507017
332.008571	2218.458053
332.401986	2235.671072
332.795338	2256.037334
333.188625	2277.086672
333.581847	2297.039559
333.975006	2315.530511
334.368100	2332.007522
334.761129	2346.631910
335.154095	2361.611698
335.546996	2388.334855
335.939833	2417.258475
336.332606	2431.451844
336.725315	2442.257557
337.117960	2450.272992
337.510540	2459.394959
337.903056	2466.901238
338.295508	2475.249388
338.687896	2480.333392
339.080220	2485.465287
339.472480	2495.671102
339.864676	2494.587254
340.256807	2501.755775
340.648875	2502.154026
341.040879	2504.173008
341.432818	2502.456496
341.824694	2502.388440
342.216506	2503.651249
342.608253	2503.147134
342.999937	2502.209479
343.391557	2501.856598
343.783113	2497.866525
344.174605	2500.792915
344.566033	2498.920126
344.957397	2498.844509
345.348697	2493.649600
345.739934	2490.899650
346.131106	2491.343272
346.522215	2492.490134
346.913260	2489.767911
347.304241	2487.086018
347.695159	2485.871099
348.086012	2485.188023
348.476802	2482.982518
348.867528	2483.436222
349.258191	2476.618062
349.648789	2480.880357
350.039324	2478.745428
350.429796	2478.929431
350.820203	2477.926241
351.210548	2478.473206
351.600828	2476.403812
351.991045	2476.562609
352.381198	2476.736529
352.771288	2479.088227
353.161314	2475.763586
353.551276	2475.720736
353.941175	2476.839872
354.331010	2475.917341
354.720782	2479.597383
355.110490	2478.705099
355.500135	2478.233751
355.889717	2477.517907
356.279235	2478.810963
356.668689	2482.165851
357.058080	2476.476909
357.447408	2479.637713
357.836672	2476.804584
358.225873	2477.107053
358.615010	2479.231900
359.004084	2484.525111
359.393095	2482.783393
359.782043	2487.254896
360.170927	2487.784217
360.559748	2486.370174
360.948505	2487.010400
361.337199	2486.486120
361.725830	2487.156594
362.114398	2489.934269
362.502903	2491.499548
362.891344	2491.078611
363.279722	2493.652120
363.668037	2491.988540
364.056289	2493.805876
364.444478	2492.091883
364.832603	2494.766215
365.220665	2496.838130
365.608665	2498.242091
365.996601	2500.593789
366.384474	2500.661845
366.772284	2498.274858
367.160031	2499.159581
367.547715	2501.080261
367.935336	2501.047493
368.322893	2505.229130
368.710388	2504.220899
369.097820	2505.496311
369.485189	2503.696619
369.872495	2507.669049
370.259738	2508.921775
370.646918	2509.894718
371.034035	2509.756086
371.421090	2515.268588
371.808081	2516.702796
372.195010	2521.257479
372.581875	2525.819723
372.968678	2532.068233
373.355418	2539.093081
373.742096	2550.574309
374.128710	2556.842984
374.515262	2567.999057
374.901751	2581.935327
375.288177	2596.963007
375.674540	2612.419184
376.060841	2631.527678
376.447079	2651.520894
376.833254	2675.506704
377.219367	2698.474201
377.605417	2728.895044
377.991404	2752.243148
378.377329	2790.475259
378.763191	2821.082624
379.148991	2866.407639
379.534727	2912.995462
379.920402	2955.205043
380.306013	2999.060561
380.691563	3062.211095
381.077049	3115.801081
381.462474	3165.184224
381.847835	3237.771798
382.233134	3301.665903
382.618371	3356.402751
383.003545	3436.156326
383.388657	3515.282277
383.773706	3605.521451
384.158693	3672.352028
384.543618	3759.024586
384.928480	3833.174918
385.313280	3932.944393
385.698017	4029.631203
386.082692	4148.887259
386.467305	4204.382802
386.851856	4327.165145
387.236344	4478.112414
387.620770	4531.228532
388.005133	4645.841685
388.389435	4786.436945
388.773674	4864.290005
389.157851	4984.599662
389.541965	5118.717039
389.926018	5145.624198
390.310008	5312.325073
390.693936	5432.007107
391.077802	5541.672367
391.461606	5665.853631
391.845348	5781.036434
392.229027	5896.683024
392.612645	6111.010201
392.996200	6225.797274
393.379694	6388.886162
393.763125	6602.414316
394.146494	6694.150713
394.529801	6821.462533
394.913047	7060.803914
395.296230	7053.345527
395.679351	7108.024402
396.062410	7355.963472
396.445408	7261.030983
396.828343	7412.782317
397.211217	7544.124539
397.594028	7436.753004
397.976778	7634.472099
398.359466	7799.998385
398.742092	7778.081969
399.124656	7921.223012
399.507158	8110.213349
399.889598	8128.469887
400.271977	8343.225562
400.654294	8370.959470
401.036549	8570.049759
401.418742	8599.931198
401.800874	8892.252586
402.182944	8973.699988
402.564952	9326.336262
402.946898	9165.064709
403.328783	9220.449346
403.710606	9414.387575
404.092367	9659.846397
404.474067	10016.848310
404.855705	9824.548455
405.237282	9778.250498
405.618797	10198.108037
406.000250	10449.346542
406.381642	10798.333020
406.762972	10748.833930
407.144240	10572.285161
407.525447	10814.908334
407.906593	10758.278532
408.287677	11023.075220
408.668700	11171.698518
409.049661	11160.476909
409.430560	11311.648510
409.811399	11295.935234
410.192176	11455.641508
410.572891	11528.992817
410.953545	12007.645334
411.334138	11494.581901
411.714669	12060.834548
412.095139	11421.210427
412.475547	11894.559650
412.855894	11766.756318
413.236180	12080.381622
413.616405	11779.404573
413.996568	12054.825493
414.376670	12025.942202
414.756711	11920.524113
415.136691	12190.603930
415.516609	12362.865198
415.896466	12453.177470
416.276262	12738.040471
416.655997	13191.605685
417.035670	13241.631575
417.415283	13854.875338
417.794834	13940.597638
418.174324	13692.507334
418.553753	13600.821348
418.933121	14089.954424
419.312428	13912.732660
419.691674	13824.091532
420.070859	14282.395431
420.449983	13947.055356
420.829045	14494.096166
421.208047	14256.864507
421.586988	14702.147106
421.965867	14941.909424
422.344686	14946.186843
422.723444	15515.587690
423.102141	14223.280340
423.480777	15406.718932
423.859352	14917.396813
424.237866	16008.446178
424.616319	15732.692543
424.994712	16377.050307
425.373044	16169.901733
425.751314	16854.833224
426.129524	15995.876061
426.507673	17067.411120
426.885762	16793.126980
427.263789	16970.517623
427.641756	17156.395047
428.019662	17211.782204
428.397508	17260.532683
428.775292	17550.320891
429.153016	17532.669291
429.530679	17609.307432
429.908282	17637.850445
430.285824	17376.900158
430.663305	18084.872242
431.040726	17701.941155
431.418086	17542.028193
431.795385	18171.411209
432.172624	18613.333879
432.549802	18177.203495
432.926920	18376.767652
433.303977	18257.498994
433.680974	18516.589096
434.057910	18823.975972
434.434786	18871.950112
434.811601	18789.592782
435.188355	19843.158648
435.565050	19502.641308
435.941683	19472.517894
436.318257	20361.923626
436.694770	20153.744136
437.071222	20757.908781
437.447614	19826.855556
437.823946	19859.396204
438.200218	20036.751558
438.576429	19808.788061
438.952580	20117.689804
439.328670	20088.743499
439.704700	20508.906028
440.080670	20072.435366
440.456580	20689.220539
440.832429	20854.698935
441.208218	19868.634119
441.583947	20312.749690
441.959616	20432.477094
442.335224	20674.525576
442.710773	20817.338943
443.086261	21363.941173
443.461689	20709.163344
443.837057	20869.371213
444.212365	21523.624762
444.587612	21528.181965
444.962800	21124.816561
445.337927	21555.810009
445.712995	20270.298134
446.088002	22162.223008
446.462949	22363.874203
446.837837	22542.971275
447.212664	22560.887536
447.587431	25526.217737
447.962139	28489.060128
448.336786	30789.174790
448.711374	29120.028587
449.085901	25397.897686
449.460369	25407.120477
449.834776	25403.369859
450.209124	27953.999620
450.583412	27433.538294
450.957640	27933.204861
451.331808	26574.578611
451.705917	25198.394023
452.079965	25245.395221
452.453954	25621.563600
452.827883	25536.284921
453.201752	25336.385527
453.575562	25489.785318
453.949311	26625.665664
454.323001	26695.866252
454.696632	26490.474521
455.070202	28077.482684
455.443713	28246.547860
455.817164	28825.234513
456.190556	29390.352901
456.563888	28787.902248
456.937160	29229.172089
457.310373	27524.188323
457.683526	27974.363361
458.056619	27950.080123
458.429653	27927.962061
458.802628	28548.477688
459.175542	28681.491052
459.548398	30057.300075
459.921194	31661.165856
460.293930	32405.759403
460.666607	34471.510823
461.039224	36253.077277
461.411782	36589.589420
461.784280	35310.457126
462.156719	34750.677320
462.529099	34177.150288
462.901419	32825.407734
463.273680	31773.792795
463.645882	31905.223238
464.018024	31891.221433
464.390106	32821.820953
464.762130	35692.397626
465.134094	39976.798663
465.505999	45409.388023
465.877845	49905.278066
466.249631	50879.513814
466.621358	49002.851034
466.993026	46750.418125
467.364634	44604.628305
467.736184	42634.560505
468.107674	41339.848525
468.479105	40530.266943
468.850477	39783.954363
469.221790	38328.285902
469.593043	36549.797072
469.964238	35619.545391
470.335373	35520.600144
470.706449	37303.016033
471.077467	39997.111992
471.448425	44527.319690
471.819324	47200.353708
472.190164	45175.881777
472.560945	41560.066289
472.931667	38403.598220
473.302330	37284.711603
473.672934	36393.145737
474.043479	36851.119441
474.413965	36024.816352
474.784393	35588.869970
475.154761	36426.525737
475.525070	36402.807108
475.895321	35859.751331
476.265513	36389.710191
476.635645	37261.572707
477.005719	37023.841974
477.375734	37407.158710
477.745691	38016.903912
478.115588	39215.193742
478.485427	41119.920627
478.855207	44311.848172
479.224928	46733.719303
479.594591	48125.967528
479.964194	46925.454548
480.333739	46931.153573
480.703226	46855.538785
481.072653	47331.108636
481.442022	47637.346130
481.811333	47677.221657
482.180584	46273.461957
482.549777	45595.754439
482.918912	44924.797027
483.287988	44441.604951
483.657005	43471.951612
484.025964	42672.268336
484.394864	42498.625792
484.763706	41901.954823
485.132489	40910.866497
485.501213	40559.881202
485.869879	40502.555721
486.238487	39917.905383
486.607036	39892.679449
486.975527	39190.308087
487.343959	39176.689409
487.712333	39011.067341
488.080648	38681.383441
488.448905	38860.291471
488.817104	38440.680948
489.185244	39067.881145
489.553326	40309.043469
489.921350	42450.523102
490.289315	44803.751361
490.657222	45035.893975
491.025070	44964.969982
491.392861	43760.514820
491.760593	42271.516770
492.128267	40464.419392
492.495883	38847.890232
492.863440	37369.110601
493.230939	35955.518131
493.598380	34801.124147
493.965763	34244.502624
494.333088	33305.406239
494.700354	32638.738848
495.067563	32118.123767
495.434713	31699.395447
495.801805	31459.854939
496.168839	30865.477695
496.535815	30317.998305
496.902733	30026.019715
497.269593	29413.733772
497.636395	29056.545337
498.003139	29006.055661
498.369825	28316.529158
498.736453	28201.164873
499.103023	27559.393221
499.469535	27152.567064
499.835989	26900.756388
500.202385	26348.810536
500.568723	26047.899022
500.935003	25849.907705
501.301226	25382.635593
501.667390	25447.548010
502.033497	25255.590954
502.399546	24587.554891
502.765537	23848.864535
503.131470	23736.590477
503.497345	23602.500826
503.863163	22531.648844
504.228923	22552.584756
504.594625	22436.013114
504.960269	21734.718038
505.325856	21746.557188
505.691385	21103.903334
506.056856	20853.940241
506.422270	20731.208309
506.787625	20194.824499
507.152924	19975.463731
507.518164	19696.191369
507.883347	19014.942441
508.248472	18813.525660
508.613540	18705.201346
508.978550	18507.416716
509.343503	18082.959124
509.708398	17852.328856
510.073236	17737.456083
510.438016	17404.815547
510.802738	16886.809263
511.167403	16821.367524
511.532010	16601.232939
511.896561	16403.962506
512.261053	16399.115437
512.625488	15939.624346
512.989866	15597.869403
513.354186	15257.588998
513.718449	14959.941631
514.082655	14879.058838
514.446803	14507.024205
514.810894	14384.950144
515.174927	14090.009877
515.538904	13791.354279
515.902822	13695.443806
516.266684	13278.815126
516.630488	13131.051345
516.994235	12825.101198
517.357925	12704.718444
517.721558	12490.219868
518.085133	12314.132364
518.448651	12100.324427
518.812112	11799.881740
519.175516	11584.808473
519.538863	11418.790674
519.902152	11191.537979
520.265385	11056.702237
520.628560	10839.541932
520.991678	10575.682899
521.354739	10400.598584
521.717743	10254.750442
522.080690	10026.247541
522.443580	9919.415409
522.806413	9721.711437
523.169189	9521.683494
523.531908	9359.398669
523.894569	9144.000248
524.257174	8985.521494
524.619722	8847.025874
524.982213	8667.560797
525.344647	8484.513981
525.707025	8323.827202
526.069345	8203.194911
526.431608	8039.455713
526.793815	7909.083913
527.155964	7698.149433
527.518057	7563.384268
527.880093	7390.303812
528.242072	7302.832231
528.603995	7134.644215
528.965860	6997.658421
529.327669	6870.999431
529.689421	6736.889615
530.051117	6603.084789
530.412755	6495.572101
530.774337	6382.526747
531.135862	6253.475729
531.497331	6150.116952
531.858743	6036.428850
532.220098	5957.207117
532.581396	5833.174568
532.942638	5704.897367
533.303824	5633.617972
533.664953	5541.112799
534.026025	5428.500984
534.387040	5374.182552
534.747999	5284.563439
535.108902	5210.942428
535.469748	5101.350264
535.830537	5030.658164
536.191270	4967.406807
536.551947	4873.011201
536.912567	4821.979600
537.273131	4762.526752
537.633638	4670.117361
537.994089	4624.237820
538.354483	4545.802508
538.714821	4514.136500
539.075103	4469.577741
539.435328	4404.425868
539.795497	4346.732383
540.155609	4293.954023
540.515665	4264.196092
540.875665	4193.196481
541.235609	4157.714320
541.595496	4112.772433
541.955328	4094.208384
542.315102	4027.960061
542.674821	3979.365858
543.034483	3945.638019
543.394090	3905.669230
543.753640	3868.715052
544.113134	3862.075852
544.472571	3804.503355
544.831953	3804.725166
545.191278	3755.026951
545.550548	3718.155951
545.909761	3699.024773
546.268918	3678.817307
546.628019	3661.810975
546.987064	3627.006849
547.346053	3583.335333
547.704986	3586.082762
548.063863	3551.891136
548.422684	3534.146274
548.781449	3511.146010
549.140158	3500.766274
549.498811	3477.995382
549.857408	3452.005713
550.215949	3448.829787
550.574434	3428.450922
550.932864	3412.263777
551.291237	3407.368817
551.649555	3393.460273
552.007817	3384.781927
552.366022	3364.818958
552.724173	3354.567771
553.082267	3349.781196
553.440305	3342.786595
553.798288	3321.054181
554.156215	3312.922799
554.514086	3308.070689
554.871902	3293.169038
555.229661	3285.594704
555.587365	3273.352262
555.945014	3266.942435
556.302606	3259.330293
556.660143	3252.401227
557.017625	3246.999631
557.375050	3236.493866
557.732421	3231.114955
558.089735	3224.818554
558.446994	3218.282698
558.804197	3218.663305
559.161345	3207.209803
559.518437	3188.474355
559.875474	3191.057946
560.232455	3184.837162
560.589381	3184.164168
560.946251	3174.883404
561.303065	3176.655370
561.659825	3168.027435
562.016528	3157.393121
562.373177	3143.550112
562.729770	3148.132521
563.086307	3142.504073
563.442789	3140.820328
563.799216	3137.026859
564.155587	3127.647793
564.511904	3124.910446
564.868164	3122.208388
565.224370	3120.075980
565.580520	3111.574074
565.936615	3109.660956
566.292654	3102.701643
566.648638	3101.902620
567.004567	3096.503544
567.360441	3094.673605
567.716260	3087.182451
568.072023	3089.929880
568.427732	3079.474527
568.783385	3073.135276
569.138982	3074.745924
569.494525	3071.509503
569.850013	3061.918708
570.205445	3064.845098
570.560823	3059.161197
570.916145	3054.372101
571.271412	3054.931669
571.626625	3048.355484
571.981782	3042.890873
572.336884	3041.565050
572.691931	3038.890718
573.046923	3036.942312
573.401860	3029.549459
573.756743	3023.815147
574.111570	3026.277751
574.466342	3022.794313
574.821059	3018.894981
575.175722	3017.062521
575.530330	3011.469361
575.884882	3008.036335
576.239380	3002.526354
576.593823	3002.296982
576.948211	2999.390757
577.302544	2997.036538
577.656823	2991.834067
578.011047	2993.331290
578.365216	2988.348109
578.719330	2980.728405
579.073389	2979.006851
579.427394	2979.722695
579.781344	2978.931234
580.135239	2975.099957
580.489080	2972.665079
580.842866	2967.843216
581.196597	2970.527630
581.550273	2966.716518
581.903895	2961.398101
582.257463	2966.532516
582.610975	2959.726958
582.964434	2960.957000
583.317837	2955.454580
583.671186	2954.474076
584.024481	2955.580609
584.377721	2949.107768
584.730906	2950.264712
585.084037	2948.822942
585.437113	2947.061059
585.790135	2943.524690
586.143103	2941.752724
586.496016	2940.812549
586.848874	2936.676282
587.201679	2935.867177
587.554428	2929.472473
587.907124	2934.148143
588.259765	2927.740837
588.612352	2930.556321
588.964884	2924.317893
589.317362	2925.280754
589.669786	2928.096238
590.022155	2923.110537
590.374470	2926.835950
590.726731	2918.870927
591.078937	2915.120308
591.431090	2916.509146
591.783188	2912.221645
592.135232	2907.324164
592.487222	2909.461613
592.839157	2909.580080
593.191038	2909.315420
593.542866	2903.069430
593.894639	2897.884603
594.246358	2902.446848
594.598022	2897.788821
594.949633	2893.594581
595.301190	2894.809499
595.652692	2888.825650
596.004141	2892.246073
596.355535	2885.329610
596.706876	2883.585370
597.058162	2881.326933
597.409395	2885.480844
597.760573	2885.604352
598.111698	2881.652088
598.462768	2881.624362
598.813785	2877.788043
599.164748	2873.082126
599.515657	2877.178064
599.866511	2873.097250
600.217312	2877.783002
600.568060	2867.277238
600.918753	2875.590100
601.269392	2875.726212
601.619978	2871.864688
601.970510	2872.421735
602.320988	2870.395191
602.671412	2874.339894
603.021783	2871.799153
603.372100	2866.737834
603.722363	2865.001157
604.072572	2865.212885
604.422728	2867.678009
604.772830	2860.890096
605.122878	2861.580734
605.472872	2860.927904
605.822813	2858.104858
606.172701	2862.084849
606.522534	2863.660210
606.872314	2862.977133
607.222041	2864.171887
607.571714	2864.703729
607.921333	2860.569983
608.270899	2860.275075
608.620411	2863.261959
608.969870	2860.421268
609.319276	2860.305322
609.668627	2859.808768
610.017926	2863.902185
610.367171	2863.335055
610.716362	2863.710621
611.065500	2861.275744
611.414585	2860.358254
611.763616	2865.958976
612.112594	2862.883872
612.461518	2862.057123
612.810389	2864.804552
613.159207	2863.007380
613.507971	2861.558049
613.856682	2863.647607
614.205340	2864.509644
614.553945	2867.143647
614.902496	2863.108203
615.250994	2864.796990
615.599439	2867.123482
615.947830	2865.069212
616.296169	2866.405118
616.644454	2864.764222
616.992686	2866.989892
617.340864	2869.525592
617.688990	2867.481404
618.037063	2870.276724
618.385082	2865.033924
618.733048	2868.950901
619.080961	2868.857639
619.428821	2869.404605
619.776628	2867.267155
620.124382	2865.633822
620.472083	2867.806559
620.819731	2867.214223
621.167326	2858.964375
621.514868	2863.791280
621.862357	2855.385156
622.209793	2859.246680
622.557176	2853.393900
622.904506	2850.838035
623.251783	2843.346880
623.599007	2841.239678
623.946179	2837.846982
624.293297	2838.099039
624.640363	2836.611899
624.987376	2836.707681
625.334336	2833.355313
625.681243	2829.887000
626.028097	2828.994715
626.374899	2828.745178
626.721647	2828.094869
627.068343	2823.857780
627.414987	2822.869713
627.761577	2823.018427
628.108115	2822.249652
628.454600	2818.662871
628.801032	2816.659012
629.147412	2817.649599
629.493739	2815.512149
629.840014	2814.738332
630.186236	2815.527273
630.532405	2811.743887
630.878521	2812.222797
631.224585	2809.636685
631.570597	2807.726087
631.916556	2811.496870
632.262462	2805.049235
632.608316	2806.934626
632.954117	2807.448824
633.299866	2802.750468
633.645562	2801.888431
633.991206	2801.759882
634.336797	2794.102369
634.682336	2797.769808
635.027823	2793.925929
635.373257	2790.162707
635.718639	2788.494085
636.063968	2786.772531
636.409245	2782.658950
636.754470	2781.267591
637.099642	2780.806326
637.444762	2778.532765
637.789829	2778.174843
638.134845	2774.734256
638.479808	2772.236364
638.824719	2771.427259
639.169577	2769.070520
639.514383	2769.110849
639.859137	2765.672782
640.203839	2769.912392
640.548489	2763.873090
640.893086	2764.271341
641.237632	2756.870927
641.582125	2758.441247
641.926566	2756.263468
642.270955	2758.282450
642.615292	2763.792432
642.959576	2762.766557
643.303809	2758.852101
643.647990	2761.024838
643.992118	2758.526946
644.336195	2757.861514
644.680219	2757.836308
645.024192	2759.978799
645.368112	2763.739499
645.711981	2764.243615
646.055797	2765.395518
646.399562	2765.508944
646.743274	2771.649070
647.086935	2775.114863
647.430544	2772.143103
647.774101	2772.916920
648.117606	2774.474637
648.461059	2775.654267
648.804460	2773.053031
649.147810	2768.649583
649.491108	2766.129006
649.834354	2764.014242
650.177548	2757.947214
650.520690	2754.950248
650.863781	2756.765063
651.206820	2755.882861
651.549807	2751.557551
651.892742	2747.779206
652.235626	2744.971284
652.578458	2747.176788
652.921238	2743.204359
653.263967	2744.147055
653.606644	2740.741756
653.949269	2739.262177
654.291843	2738.616909
654.634365	2740.467013
654.976836	2738.521127
655.319255	2736.240005
655.661622	2735.193966
656.003938	2736.396281
656.346203	2736.938205
656.688416	2734.415107
657.030577	2731.208934
657.372687	2730.661968
657.714746	2732.108780
658.056753	2731.637432
658.398708	2723.528736
658.740612	2727.720455
659.082465	2726.250959
659.424266	2727.962431
659.766016	2724.957903
660.107715	2730.389746
660.449362	2728.249776
660.790958	2727.896896
661.132503	2728.521999
661.473996	2729.033676
661.815438	2728.983264
662.156829	2729.641135
662.498168	2726.886144
662.839456	2727.518809
663.180693	2727.445712
663.521879	2729.706670
663.863013	2730.024262
664.204097	2727.821278
664.545129	2730.873697
664.886110	2732.512072
665.227040	2728.295147
665.567918	2729.079046
665.908746	2731.060220
666.249522	2733.008626
666.590248	2731.965107
666.930922	2734.127762
667.271545	2729.406721
667.612118	2732.280179
667.952639	2730.334293
668.293109	2732.501990
668.633528	2728.718604
668.973896	2727.024776
669.314213	2726.868500
669.654480	2725.998901
669.994695	2728.252297
670.334859	2723.853890
670.674973	2727.730537
671.015035	2728.436299
671.355047	2724.844477
671.695008	2725.824981
672.034918	2724.509240
672.374777	2725.386401
672.714585	2724.088304
673.054342	2724.683160
673.394049	2722.661657
673.733705	2727.233984
674.073310	2725.814899
674.412864	2725.734241
674.752368	2718.737119
675.091820	2722.971688
675.431223	2717.597818
675.770574	2716.203939
676.109875	2712.385265
676.449125	2716.720657
676.788324	2711.508104
677.127473	2710.106664
677.466571	2707.157589
677.805619	2707.281097
678.144616	2708.624564
678.483562	2707.515511
678.822458	2704.369831
679.161303	2708.274204
679.500098	2705.012578
679.838842	2705.710777
680.177535	2706.497197
680.516179	2708.730429
680.854771	2710.106664
681.193314	2712.302086
681.531805	2719.876420
681.870247	2723.289281
682.208638	2725.567882
682.546978	2728.973182
682.885268	2728.489231
683.223508	2724.468911
683.561697	2723.856411
683.899836	2722.954044
684.237925	2718.918601
684.575963	2720.746019
684.913951	2718.240565
685.251889	2719.770556
685.589776	2714.484906
685.927614	2713.461552
686.265401	2715.510781
686.603137	2716.897098
686.940824	2719.352140
687.278460	2724.204250
687.616046	2723.632079
687.953582	2727.942266
688.291068	2726.770198
688.628504	2726.863459
688.965889	2727.652400
689.303224	2723.720300
689.640510	2723.218705
689.977745	2718.691749
690.314930	2712.425594
690.652065	2710.663711
690.989150	2705.244471
691.326185	2702.895293
691.663170	2696.256093
692.000105	2691.209898
692.336990	2689.208560
692.673825	2686.652695
693.010610	2686.405679
693.347345	2677.382013
693.684030	2671.821621
694.020665	2673.543175
694.357251	2665.240394
694.693786	2668.184428
695.030272	2669.900941
695.366707	2664.446413
695.703093	2662.697132
696.039429	2666.084788
696.375716	2663.758295
696.711952	2661.542708
697.048139	2660.942811
697.384276	2663.128151
697.720363	2662.503048
698.056400	2661.943480
698.392388	2658.213026
698.728326	2659.185969
699.064214	2656.425937
699.400053	2656.708242
699.735842	2654.177582
700.071581	2652.216573
700.407270	2652.740853
700.742910	2650.724392
701.078501	2649.554844
701.414042	2644.803557
701.749533	2644.012096
702.084974	2644.067548
702.420366	2642.535037
702.755709	2643.034112
703.091002	2641.274749
703.426246	2641.045377
703.761440	2641.446148
704.096584	2640.672331
704.431679	2636.392392
704.766725	2640.253915
705.101721	2637.725777
705.436668	2639.555716
705.771565	2635.621095
706.106413	2636.120169
706.441212	2639.696868
706.775961	2639.802732
707.110661	2638.723925
707.445311	2640.042187
707.779913	2641.267187
708.114465	2643.112250
708.448967	2641.736015
708.783421	2649.224649
709.117825	2648.382776
709.452180	2650.716830
709.786485	2650.673980
710.120742	2658.346617
710.454949	2656.637665
710.789107	2656.892244
711.123216	2661.351144
711.457275	2663.430620
711.791286	2663.125630
712.125247	2665.366423
712.459159	2669.021260
712.793023	2670.180725
713.126837	2664.128820
713.460602	2666.263749
713.794318	2663.155877
714.127985	2661.943480
714.461602	2656.146153
714.795171	2656.357881
715.128691	2648.317241
715.462162	2647.077117
715.795584	2645.925213
716.128957	2641.950264
716.462281	2642.948412
716.795556	2640.916827
717.128782	2634.176804
717.461960	2636.284007
717.795088	2632.064561
718.128167	2631.978861
718.461198	2629.460805
718.794180	2627.003242
719.127113	2626.962913
719.459997	2624.785135
719.792833	2620.744650
720.125619	2624.679271
720.458357	2618.589557
720.791046	2619.660802
721.123686	2615.000255
721.456278	2618.261882
721.788821	2616.444546
722.121315	2614.879267
722.453761	2616.842797
722.786158	2610.934565
723.118506	2613.745008
723.450805	2611.826849
723.783056	2611.277363
724.115259	2615.423712
724.447412	2614.912035
724.779518	2615.189298
725.111574	2613.606376
725.443582	2617.321707
725.775542	2619.728857
726.107453	2618.849176
726.439315	2619.746502
726.771129	2623.797069
727.102895	2624.064250
727.434612	2624.671709
727.766281	2625.942080
728.097901	2625.906792
728.429473	2624.399487
728.760996	2627.862759
729.092471	2625.574075
729.423897	2631.804942
729.755276	2628.525671
730.086606	2625.201030
730.417887	2632.369551
730.749120	2636.301651
731.080305	2637.214100
731.411442	2639.931282
731.742530	2640.949595
732.073570	2642.018319
732.404562	2643.008906
732.735506	2641.680562
733.066401	2640.503452
733.397249	2633.161012
733.728048	2632.651855
734.058798	2626.214302
734.389501	2620.429578
734.720156	2619.499485
735.050762	2617.218363
735.381320	2614.919597
735.711831	2612.562857
736.042293	2611.368104
736.372707	2609.265943
736.703073	2607.415839
737.033391	2608.184615
737.363661	2609.200408
737.693883	2608.323247
738.024056	2614.970008
738.354182	2610.359873
738.684260	2616.671398
739.014290	2618.400513
739.344272	2616.026130
739.674207	2619.809516
740.004093	2620.885802
740.333931	2622.027624
740.663722	2620.923611
740.993464	2619.544855
741.323159	2619.622993
741.652806	2616.048815
741.982405	2618.355143
742.311956	2614.450769
742.641460	2615.940430
742.970915	2610.838783
743.300323	2607.110849
743.629683	2608.108998
743.958996	2606.856271
744.288260	2608.658484
744.617477	2601.149685
744.946647	2598.911413
745.275768	2596.224478
745.604842	2593.850094
745.933869	2594.051740
746.262847	2593.464446
746.591778	2597.348655
746.920662	2596.211875
747.249498	2597.504931
747.578286	2596.847060
747.907027	2596.058120
748.235720	2600.953080
748.564365	2601.104315
748.892963	2596.975610
749.221514	2599.309664
749.550017	2600.680858
749.878473	2597.809921
750.206881	2598.341762
750.535242	2597.000815
750.863555	2597.401587
751.191821	2596.779005
751.520039	2594.177769
751.848210	2597.204982
752.176334	2594.686926
752.504411	2592.970413
752.832440	2592.655341
753.160421	2593.829930
753.488356	2594.114755
753.816243	2593.381267
754.144082	2591.291709
754.471875	2592.158787
754.799620	2592.249528
755.127318	2590.938828
755.454969	2589.620566
755.782572	2590.868252
756.110129	2591.410176
756.437638	2589.514702
756.765100	2590.769949
757.092515	2589.355906
757.419882	2591.702563
757.747203	2589.615525
758.074477	2592.947728
758.401703	2590.134764
758.728882	2593.043510
759.056014	2595.554004
759.383099	2595.095259
759.710138	2597.336052
760.037129	2595.122986
760.364073	2597.993923
760.690970	2595.196082
761.017820	2595.680033
761.344623	2596.181628
761.671379	2601.653800
761.998088	2601.757144
762.324751	2615.879937
762.651366	2637.322484
762.977935	2666.553615
763.304456	2680.278156
763.630931	2686.662778
763.957359	2679.889987
764.283740	2666.248625
764.610074	2654.328817
764.936362	2638.847433
765.262602	2625.652213
765.588796	2614.654936
765.914943	2605.041456
766.241044	2598.573655
766.567097	2592.332707
766.893104	2585.116295
767.219064	2584.405493
767.544978	2578.892991
767.870845	2580.362487
768.196665	2577.226889
768.522438	2574.363514
768.848165	2571.069120
769.173846	2571.893349
769.499479	2571.580797
769.825066	2571.147258
770.150607	2568.944274
770.476101	2570.018039
770.801548	2567.547874
771.126949	2567.885631
771.452303	2563.512430
771.777611	2562.322718
772.102872	2560.938921
772.428087	2560.301215
772.753256	2562.463870
773.078378	2559.459343
773.403453	2558.786349
773.728482	2559.242573
774.053465	2558.080587
774.378401	2555.837274
774.703291	2556.802655
775.028135	2555.002963
775.352932	2553.818292
775.677683	2554.536656
776.002388	2554.934907
776.327046	2555.638148
776.651658	2554.226625
776.976224	2552.827705
777.300743	2552.905843
777.625216	2551.963147
777.949643	2550.591953
778.274024	2554.120761
778.598359	2548.976263
778.922647	2545.553320
779.246889	2548.227652
779.571086	2543.867054
779.895236	2551.585060
780.219339	2552.631100
780.543397	2550.816284
780.867409	2552.563044
781.191374	2552.726882
781.515294	2551.464073
781.839167	2549.341747
782.162995	2552.938610
782.486776	2552.973898
782.810511	2549.984494
783.134201	2549.944165
783.457844	2550.944834
783.781441	2549.021634
784.104993	2547.718495
784.428498	2547.330327
784.751958	2549.306459
785.075372	2550.564227
785.398739	2549.498023
785.722061	2548.139432
786.045337	2547.085831
786.368568	2551.690925
786.691752	2549.833259
787.014891	2552.459701
787.337983	2556.729558
787.661030	2560.954045
787.984031	2566.637946
788.306987	2565.095353
788.629897	2569.140879
788.952760	2567.152143
789.275579	2566.769016
789.598351	2565.042421
789.921078	2557.944476
790.243759	2557.352140
790.566395	2555.988508
790.888984	2554.004814
791.211529	2552.510112
791.534027	2553.314176
791.856480	2548.618341
792.178888	2550.418033
792.501249	2550.859134
792.823566	2547.282436
793.145836	2548.595656
793.468062	2546.674977
793.790241	2543.771272
794.112375	2546.831252
794.434464	2546.667415
794.756507	2549.850903
795.078505	2550.357539
795.400457	2551.300235
795.722364	2550.223949
796.044226	2553.354505
796.366042	2554.675288
796.687812	2554.433312
797.009538	2556.527912
797.331218	2556.898437
797.652852	2555.723848
797.974442	2554.541697
798.295986	2553.427602
798.617484	2551.834598
798.938938	2552.111861
799.260346	2551.217056
799.581709	2552.598332
799.903026	2549.482899
800.224299	2550.322251
800.545526	2546.987528
800.866708	2550.700338
801.187845	2548.817467
801.508936	2546.173382
801.829983	2545.233207
802.150984	2543.476364
802.471940	2546.342260
802.792851	2545.334030
803.113717	2541.187681
803.434538	2544.993752
803.755314	2543.115922
804.076045	2542.135417
804.396731	2544.265305
804.717372	2543.176416
805.037967	2545.344112
805.358518	2542.831097
805.679024	2546.107847
805.999485	2543.862013
806.319901	2542.720191
806.640272	2544.192208
806.960598	2543.919986
807.280879	2546.319575
807.601115	2547.133722
807.921306	2547.332847
808.241453	2546.077600
808.561554	2544.605583
808.881611	2546.138094
809.201623	2544.111550
809.521590	2546.682538
809.841513	2545.460058
810.161390	2546.604400
810.481223	2544.837476
810.801011	2543.872095
811.120755	2542.425284
811.440453	2544.005686
811.760107	2543.529297
812.079716	2540.945705
812.399281	2540.209697
812.718801	2538.989738
813.038276	2536.930426
813.357707	2539.279604
813.677093	2541.245654
813.996434	2541.661549
814.315731	2538.049562
814.634983	2542.614327
814.954191	2540.620551
815.273354	2543.751107
815.592473	2545.376879
815.911547	2545.475182
816.230577	2546.392672
816.549562	2547.673125
816.868502	2546.914431
817.187399	2548.018444
817.506250	2548.338557
817.825058	2551.771583
818.143821	2553.793086
818.462539	2557.886503
818.781213	2560.649055
819.099843	2563.595609
819.418429	2574.008113
819.736970	2580.962384
820.055466	2588.105699
820.373919	2602.024325
820.692327	2625.808489
821.010691	2658.238232
821.329011	2739.932650
821.647286	2860.292719
821.965517	2992.325579
822.283704	3063.836867
822.601847	3083.331009
822.919945	3026.638193
823.237999	2961.824078
823.556010	2897.410735
823.873976	2837.340346
824.191897	2787.049795
824.509775	2745.503125
824.827609	2714.986501
825.145398	2692.356761
825.463144	2681.546007
825.780845	2683.461645
826.098502	2698.653162
826.416116	2726.986967
826.733685	2756.863366
827.051210	2758.559714
827.368692	2746.917169
827.686129	2717.237376
828.003522	2685.215967
828.320872	2653.272695
828.638177	2632.354427
828.955439	2613.041767
829.272656	2601.739500
829.589830	2585.287694
829.906960	2576.974832
830.224046	2570.711198
830.541088	2565.622153
830.858086	2560.303736
831.175041	2558.609908
831.491952	2559.421534
831.808819	2558.889692
832.125642	2561.506051
832.442421	2569.934860
832.759157	2584.844073
833.075849	2612.930862
833.392497	2639.613689
833.709101	2652.234217
834.025662	2647.863537
834.342179	2634.131434
834.658653	2618.554269
834.975083	2603.670262
835.291469	2594.525609
835.607811	2579.296283
835.924110	2569.425704
836.240366	2563.580486
836.556578	2555.963302
836.872746	2548.734288
837.188871	2546.150697
837.504952	2543.746066
837.820990	2539.919830
838.136984	2535.839016
838.452935	2536.224665
838.768842	2539.977804
839.084706	2543.365459
839.400526	2556.956410
839.716303	2570.396126
840.032037	2576.599266
840.347727	2573.534244
840.663373	2565.675085
840.978977	2559.033365
841.294537	2551.491799
841.610054	2544.119112
841.925527	2540.779347
842.240957	2534.886238
842.556344	2534.805580
842.871687	2530.008922
843.186987	2531.180990
843.502244	2524.471214
843.817458	2526.613705
844.132629	2524.632531
844.447756	2527.561442
844.762840	2520.559279
845.077881	2522.263189
845.392879	2518.726820
845.707833	2519.873682
846.022745	2517.345543
846.337613	2522.631193
846.652438	2518.343692
846.967221	2518.079031
847.281960	2522.127078
847.596656	2519.430061
847.911309	2520.513909
848.225919	2518.930986
848.540485	2520.380318
848.855009	2517.552231
849.169490	2519.563651
849.483928	2519.848476
849.798323	2516.244051
850.112675	2518.378980
850.426984	2516.332272
850.741251	2516.879237
851.055474	2516.286901
851.369654	2517.032992
851.683792	2519.301511
851.997887	2520.435771
852.311938	2517.867303
852.625947	2518.797396
852.939914	2517.302694
853.253837	2520.342509
853.567718	2515.467714
853.881555	2515.926459
854.195350	2519.291429
854.509103	2517.584998
854.822812	2517.849659
855.136479	2519.417458
855.450103	2517.862262
855.763685	2516.738084
856.077224	2517.524504
856.390720	2518.991480
856.704173	2517.917714
857.017584	2517.642972
857.330953	2518.315966
857.644278	2518.449556
857.957561	2519.992149
858.270802	2520.597088
858.584000	2520.251769
858.897155	2520.062725
859.210268	2515.195491
859.523339	2518.000893
859.836367	2518.522653
860.149352	2520.909639
860.462295	2519.636748
860.775195	2515.092148
861.088054	2513.320182
861.400869	2515.787827
861.713642	2514.983763
862.026373	2517.017868
862.339062	2520.385359
862.651708	2518.371418
862.964312	2515.780265
863.276873	2518.338651
863.589392	2517.224556
863.901869	2520.680267
864.214303	2521.983405
864.526696	2520.821419
864.839045	2520.057684
865.151353	2521.990967
865.463619	2518.134484
865.775842	2521.766635
866.088023	2518.850328
866.400162	2521.547345
866.712258	2521.754032
867.024313	2524.204033
867.336325	2522.696728
867.648296	2523.508354
867.960224	2519.546007
868.272110	2523.669671
868.583954	2523.906605
868.895755	2522.757222
869.207515	2522.094310
869.519233	2521.302849
869.830909	2522.293436
870.142542	2523.475587
870.454134	2523.125226
870.765684	2522.391738
871.077191	2524.882068
871.388657	2524.254445
871.700081	2525.176976
872.011463	2526.104548
872.322803	2523.636903
872.634101	2526.767460
872.945357	2524.599764
873.256571	2525.698735
873.567744	2528.257121
873.878874	2528.446164
874.189963	2529.993798
874.501010	2529.686288
874.812015	2525.471883
875.122979	2530.936494
875.433900	2530.724766
875.744780	2529.015815
876.055618	2529.260311
876.366415	2530.853315
876.677169	2530.225692
876.987882	2528.199148
877.298554	2525.968437
877.609183	2530.812986
877.919771	2532.504293
878.230317	2532.831968
878.540822	2542.881508
878.851285	2541.727084
879.161707	2546.183464
879.472087	2558.609908
879.782425	2571.056517
880.092722	2600.791763
880.402977	2645.272384
880.713191	2692.203006
881.023363	2737.386868
881.333494	2765.781167
881.643583	2775.271139
881.953631	2772.987496
882.263637	2755.877820
882.573602	2737.089440
882.883526	2716.740822
883.193408	2697.120651
883.503248	2678.284380
883.813048	2660.557162
884.122806	2642.194760
884.432522	2629.554066
884.742197	2616.681480
885.051831	2598.853439
885.361424	2587.427664
885.670975	2577.846951
885.980485	2565.586865
886.289954	2563.935887
886.599382	2554.927345
886.908768	2550.644885
887.218113	2546.735470
887.527417	2544.514842
887.836680	2542.500901
888.145901	2537.399253
888.455082	2536.280117
888.764221	2533.305837
889.073319	2533.308357
889.382376	2532.529499
889.691392	2531.669982
890.000366	2533.822555
890.309300	2530.220650
890.618193	2531.843902
890.927044	2529.835002
891.235855	2533.812473
891.544625	2530.939015
891.853353	2535.430683
892.162041	2536.534696
892.470687	2538.283976
892.779293	2539.521579
893.087858	2540.847403
893.396381	2546.601880
893.704864	2560.850701
894.013306	2574.330747
894.321707	2591.891606
894.630068	2601.318564
894.938387	2604.915427
895.246665	2599.322267
895.554903	2590.371698
895.863100	2582.494895
896.171256	2575.621282
896.479371	2571.555591
896.787446	2563.552760
897.095480	2557.271482
897.403473	2554.466080
897.711425	2549.170348
898.019336	2548.532642
898.327207	2545.482744
898.635038	2540.615510
898.942827	2539.415715
899.250576	2537.681558
899.558284	2534.548481
899.865952	2532.647966
900.173579	2532.574869
900.481165	2531.485980
900.788711	2528.899868
901.096216	2526.071781
901.403681	2526.341482
901.711105	2525.668488
902.018489	2528.698222
902.325832	2527.561442
902.633135	2531.256607
902.940397	2535.435724
903.247619	2548.159596
903.554800	2569.740776
903.861941	2591.405135
904.169041	2612.527569
904.476101	2617.503188
904.783121	2611.375666
905.090100	2601.311002
905.397039	2590.890937
905.703938	2581.194277
906.010796	2572.594069
906.317614	2566.388409
906.624391	2558.025134
906.931129	2551.438867
907.237826	2544.630789
907.544483	2541.424615
907.851099	2538.785571
908.157675	2533.338604
908.464211	2525.209743
908.770707	2523.410052
909.077163	2521.635565
909.383578	2518.300842
909.689954	2515.926459
909.996289	2515.621469
910.302584	2517.864782
910.608839	2519.127591
910.915054	2516.576768
911.221229	2516.425533
911.527363	2517.600122
911.833458	2514.900584
912.139513	2516.559123
912.445527	2518.686490
912.751502	2519.137674
913.057436	2523.145391
913.363331	2524.408200
913.669186	2525.857532
913.975000	2530.951618
914.280775	2536.960673
914.586510	2543.226827
914.892205	2554.161090
915.197859	2573.501477
915.503475	2587.165524
915.809050	2604.131527
916.114585	2611.088320
916.420081	2614.365070
916.725536	2612.683845
917.030952	2606.233689
917.336328	2600.358224
917.641665	2595.128027
917.946961	2588.413210
918.252218	2580.985070
918.557435	2574.953329
918.862612	2568.576269
919.167750	2559.708880
919.472848	2556.638817
919.777906	2551.133877
920.082925	2545.258412
920.387904	2542.279090
920.692843	2537.754655
920.997743	2538.427649
921.302603	2534.200641
921.607423	2531.072605
921.912204	2528.408356
922.216946	2526.212933
922.521647	2524.335103
922.826310	2525.179497
923.130932	2520.171110
923.435516	2521.880061
923.740059	2518.938548
924.044564	2518.658764
924.349028	2517.685821
924.653454	2514.270440
924.957840	2512.798423
925.262186	2508.432783
925.566493	2514.073835
925.870761	2511.006292
926.174989	2514.164575
926.479178	2511.684328
926.783328	2512.437980
927.087438	2510.234996
927.391509	2510.318175
927.695541	2510.363545
927.999533	2511.031498
928.303486	2509.645181
928.607400	2506.907834
928.911275	2508.526045
929.215110	2511.293638
929.518906	2507.820283
929.822663	2509.226765
930.126381	2507.031343
930.430060	2506.708709
930.733699	2507.737104
931.037299	2507.570746
931.340861	2508.936899
931.644383	2508.979749
931.947866	2508.788185
932.251309	2507.792557
932.554714	2510.320696
932.858080	2507.031343
933.161407	2508.946981
933.464694	2507.979080
933.767943	2508.944461
934.071153	2508.957063
934.374323	2509.226765
934.677455	2508.664677
934.980548	2508.984790
935.283602	2508.087464
935.586617	2505.947495
935.889593	2508.891528
936.192530	2508.276508
936.495428	2507.873215
936.798287	2506.817094
937.101108	2508.188287
937.403890	2510.940758
937.706632	2513.196674
938.009336	2512.082579
938.312002	2510.900428
938.614628	2514.111643
938.917216	2517.400996
939.219765	2517.763959
939.522275	2513.289935
939.824747	2517.471572
940.127179	2516.486027
940.429573	2512.523680
940.731929	2513.327744
941.034246	2512.407733
941.336524	2513.980573
941.638763	2513.804133
941.940964	2515.203053
942.243126	2512.017044
942.545250	2514.812364
942.847335	2514.252796
943.149381	2513.237003
943.451389	2510.784482
943.753359	2511.717095
944.055290	2509.579646
944.357182	2510.698782
944.659036	2511.671725
944.960851	2510.237517
945.262628	2509.816580
945.564367	2511.190295
945.866067	2509.645181
946.167729	2510.393792
946.469352	2509.698113
946.770937	2510.986128
947.072484	2509.622496
947.373992	2510.308093
947.675462	2510.363545
947.976893	2511.795233
948.278286	2507.548061
948.579641	2509.317506
948.880958	2509.105778
949.182236	2508.488236
949.483476	2507.951353
949.784678	2507.918586
950.085841	2512.017044
950.386967	2512.213649
950.688054	2511.167609
950.989103	2509.945130
951.290114	2510.701303
951.591087	2511.026457
951.892021	2509.466220
952.192917	2510.436642
952.493776	2509.655263
952.794596	2512.952178
953.095378	2512.213649
953.396122	2511.810357
953.696828	2510.882784
953.997496	2511.568381
954.298126	2509.972856
954.598718	2510.827332
954.899272	2512.553927
955.199788	2507.961436
955.500266	2510.628206
955.800706	2507.477485
956.101108	2505.352638
956.401472	2505.269459
956.701798	2500.170332
957.002087	2504.694768
957.302337	2506.822135
957.602550	2505.055210
957.902724	2505.423215
958.202861	2504.944305
958.502960	2504.813235
958.803022	2507.164933
959.103045	2503.497494
959.403031	2503.575632
959.702979	2504.467916
960.002889	2504.704850
960.302762	2500.888697
960.602596	2502.383399
960.902393	2500.384581
961.202153	2502.504387
961.501875	2500.898779
961.801559	2503.068996
962.101205	2502.310302
962.400814	2499.353665
962.700385	2500.404746
962.999918	2503.240395
963.299414	2501.700323
963.598873	2501.216372
963.898293	2504.581342
964.197677	2501.687720
964.497022	2502.335508
964.796331	2500.732421
965.095601	2498.259735
965.394835	2502.027998
965.694030	2500.966835
965.993189	2500.747544
966.292309	2504.420025
966.591393	2502.471619
966.890439	2501.375168
967.189447	2500.505569
967.488419	2502.272493
967.787353	2500.510610
968.086249	2502.819459
968.385108	2500.334170
968.683930	2501.760816
968.982714	2501.407936
969.281462	2500.334170
969.580172	2502.088491
969.878844	2499.532626
970.177480	2502.217041
970.476078	2501.838954
970.774639	2504.336846
971.073162	2499.983810
971.371649	2498.121103
971.670098	2498.622698
971.968510	2498.683192
972.266885	2498.363079
972.565223	2502.078409
972.863524	2501.297030
973.161788	2503.621002
973.460014	2500.389623
973.758204	2503.530261
974.056356	2502.058244
974.354471	2503.726866
974.652550	2502.166629
974.950591	2504.457834
975.248595	2502.736280
975.546563	2502.358193
975.844493	2502.141423
976.142386	2502.322905
976.440243	2502.806856
976.738062	2502.562360
977.035845	2500.440034
977.333590	2499.328460
977.631299	2500.442555
977.928971	2500.021618
978.226606	2502.784171
978.524204	2499.459530
978.821765	2499.489777
979.119290	2501.221413
979.416777	2501.201248
979.714228	2502.585045
980.011642	2502.025477
980.309020	2505.483708
980.606360	2503.840292
980.903664	2503.013543
981.200931	2504.004130
981.498162	2505.539161
981.795356	2505.113184
982.092513	2508.165602
982.389633	2507.280880
982.686717	2510.025788
982.983764	2514.179699
983.280775	2511.560819
983.577749	2511.938906
983.874686	2511.820439
984.171587	2512.700120
984.468451	2510.403875
984.765279	2510.154338
985.062070	2508.604183
985.358824	2512.508556
985.655543	2506.940602
985.952224	2507.341374
986.248869	2504.420025
986.545478	2500.742503
986.842050	2501.599499
987.138586	2498.037924
987.435086	2499.081443
987.731549	2494.879641
988.027975	2501.833913
988.324366	2500.747544
988.620719	2498.957935
988.917037	2497.717811
989.213318	2503.273163
989.509563	2499.888028
989.805772	2499.131855
990.101944	2495.943325
990.398080	2501.511279
990.694180	2498.098418
990.990244	2500.263594
991.286271	2498.761330
991.582262	2501.665034
991.878217	2497.984992
992.174136	2500.651763
992.470019	2498.705877
992.765865	2500.797956
993.061676	2499.320898
993.357450	2501.450785
993.653188	2499.741834
993.948890	2499.986330
994.244556	2500.064468
994.540186	2501.778460
994.835780	2501.750734
995.131337	2501.970024
995.426859	2503.424397
995.722345	2501.959942
996.017795	2505.476147
996.313208	2505.047649
996.608586	2503.774757
996.903928	2507.167454
997.199234	2507.958915
997.494504	2507.505211
997.789738	2505.965139
998.084936	2507.240551
998.380099	2502.519510
998.675225	2506.491939
998.970316	2504.344408
999.265371	2503.850375
999.560390	2504.273832
999.855373	2502.537154
1000.150320	2501.019767
1000.445232	2501.435662
1000.740108	2501.838954
1001.034948	2497.755620
1001.329752	2498.637822
1001.624521	2499.903151
1001.919254	2491.718838
1002.213951	2494.214209
1002.508613	2493.004332
1002.803239	2499.767040
1003.097829	2494.085660
1003.392384	2499.315857
1003.686903	2498.544560
1003.981386	2497.039776
1004.275834	2499.305774
1004.570246	2498.705877
1004.864623	2495.764364
1005.158964	2498.932729
1005.453270	2497.662358
1005.747540	2497.392657
1006.041775	2497.735455
1006.335974	2497.259066
1006.630138	2497.475836
1006.924266	2497.987513
1007.218359	2498.731083
1007.512416	2500.046824
1007.806438	2496.581031
1008.100425	2497.513644
1008.394376	2496.039107
1008.688292	2497.057420
1008.982172	2499.527585
1009.276017	2495.736637
1009.569827	2500.273676
1009.863602	2495.981133
1010.157341	2499.129334
1010.451045	2498.063130
1010.744714	2493.954590
1011.038347	2497.765702
1011.331945	2496.696977
1011.625508	2499.313336
1011.919036	2498.335352
1012.212528	2497.836278
1012.505986	2498.095897
1012.799408	2494.746051
1013.092795	2496.906185
1013.386147	2497.453150
1013.679464	2496.394508
1013.972745	2498.945332
1014.265992	2497.352327
1014.559204	2497.274189
1014.852380	2497.795949
1015.145521	2496.225629
1015.438628	2495.287975
1015.731699	2495.734117
1016.024736	2496.838130
1016.317737	2496.482728
1016.610703	2498.123624
1016.903635	2490.897130
1017.196531	2494.589775
1017.489393	2493.543736
1017.782219	2493.097593
1018.075011	2496.061792
1018.367768	2495.618170
1018.660490	2497.417862
1018.953177	2497.417862
1019.245829	2497.417862
