Dividing Wavelength (nm)	Counts (n)	Blue Motor Position (mm): 0.000000	Red Motor Position (mm): 35.100000	
326.493990	2127.747530
326.888308	2127.747530
327.282561	2127.747530
327.676750	2095.116141
328.070874	2093.954155
328.464933	2096.857860
328.858929	2101.644436
329.252859	2112.291353
329.646726	2122.592950
330.040528	2137.819756
330.434265	2153.470018
330.827938	2170.735970
331.221547	2186.197188
331.615091	2209.630992
332.008571	2226.319732
332.401986	2248.278998
332.795338	2268.859509
333.188625	2285.954061
333.581847	2305.516259
333.975006	2323.188024
334.368100	2343.483709
334.761129	2359.907788
335.154095	2377.955119
335.546996	2393.963303
335.939833	2414.629513
336.332606	2430.047882
336.725315	2443.366611
337.117960	2452.481017
337.510540	2461.459312
337.903056	2469.532720
338.295508	2476.618062
338.687896	2487.713641
339.080220	2495.252687
339.472480	2500.427431
339.864676	2503.736949
340.256807	2510.164420
340.648875	2513.957888
341.040879	2515.369411
341.432818	2516.750687
341.824694	2519.273785
342.216506	2517.774042
342.608253	2522.865607
342.999937	2518.010976
343.391557	2519.046933
343.783113	2517.743795
344.174605	2516.622138
344.566033	2515.208094
344.957397	2511.696931
345.348697	2512.571571
345.739934	2509.302383
346.131106	2511.119718
346.522215	2509.761128
346.913260	2506.688544
347.304241	2505.271980
347.695159	2501.864160
348.086012	2500.084633
348.476802	2499.709067
348.867528	2498.310147
349.258191	2496.278562
349.648789	2495.595485
350.039324	2494.672954
350.429796	2497.435506
350.820203	2489.447798
351.210548	2491.010556
351.600828	2490.907212
351.991045	2487.096100
352.381198	2488.893271
352.771288	2487.146511
353.161314	2488.240442
353.551276	2487.403610
353.941175	2489.682212
354.331010	2487.096100
354.720782	2485.472848
355.110490	2488.789927
355.500135	2487.454022
355.889717	2490.415700
356.279235	2491.103817
356.668689	2489.019300
357.058080	2490.655154
357.447408	2488.051398
357.836672	2488.066522
358.225873	2488.847901
358.615010	2486.687766
359.004084	2490.468632
359.393095	2492.399394
359.782043	2492.238077
360.170927	2492.835453
360.559748	2493.931904
360.948505	2492.200268
361.337199	2495.109014
361.725830	2497.992554
362.114398	2497.748058
362.502903	2497.397698
362.891344	2500.180415
363.279722	2497.352327
363.668037	2496.772595
364.056289	2501.486073
364.444478	2499.341063
364.832603	2500.871053
365.220665	2501.569253
365.608665	2502.516989
365.996601	2503.928512
366.384474	2502.751403
366.772284	2505.536641
367.160031	2505.168636
367.547715	2510.567712
367.935336	2508.636950
368.322893	2513.882271
368.710388	2517.010307
369.097820	2524.594723
369.485189	2525.474404
369.872495	2532.005219
370.259738	2538.359593
370.646918	2545.800336
371.034035	2553.863662
371.421090	2562.499158
371.808081	2574.605489
372.195010	2584.115626
372.581875	2594.812955
372.968678	2608.668566
373.355418	2619.872530
373.742096	2637.997999
374.128710	2652.816471
374.515262	2667.150992
374.901751	2680.010975
375.288177	2695.661237
375.674540	2717.938096
376.060841	2736.769326
376.447079	2756.447470
376.833254	2775.757610
377.219367	2790.843263
377.605417	2826.834581
377.991404	2838.388906
378.377329	2858.639221
378.763191	2876.696634
379.148991	2910.973959
379.534727	2936.446910
379.920402	2966.151909
380.306013	2976.997951
380.691563	3026.159283
381.077049	3049.625855
381.462474	3066.745613
381.847835	3109.308075
382.233134	3130.070067
382.618371	3129.485293
383.003545	3198.135726
383.388657	3204.963969
383.773706	3238.119638
384.158693	3251.329982
384.543618	3279.850310
384.928480	3313.620999
385.313280	3359.382073
385.698017	3362.018597
386.082692	3410.534661
386.467305	3417.393151
386.851856	3454.538893
387.236344	3474.121255
387.620770	3505.071419
388.005133	3532.651572
388.389435	3556.579409
388.773674	3569.449475
389.157851	3610.469343
389.541965	3630.918784
389.926018	3593.107610
390.310008	3664.691994
390.693936	3681.794109
391.077802	3722.032599
391.461606	3710.513562
391.845348	3772.413890
392.229027	3771.622429
392.612645	3788.447280
392.996200	3861.186089
393.379694	3905.018922
393.763125	3971.673058
394.146494	3939.059313
394.529801	3999.205319
394.913047	4048.139800
395.296230	4013.035725
395.679351	4067.215526
396.062410	4093.847942
396.445408	4069.945311
396.828343	4105.001495
397.211217	4129.060401
397.594028	4047.872619
397.976778	4114.380561
398.359466	4140.713028
398.742092	4171.574972
399.124656	4092.912808
399.507158	4167.872245
399.889598	4200.811144
400.271977	4263.565948
400.654294	4232.981267
401.036549	4237.082246
401.418742	4210.142320
401.800874	4314.025377
402.182944	4336.657637
402.564952	4397.829519
402.946898	4387.747211
403.328783	4379.615830
403.710606	4293.109630
404.092367	4484.917972
404.474067	4450.295327
404.855705	4459.082058
405.237282	4391.089496
405.618797	4494.289477
406.000250	4533.774314
406.381642	4612.849854
406.762972	4569.072474
407.144240	4585.980504
407.525447	4582.653342
407.906593	4640.641735
408.287677	4685.724774
408.668700	4613.472436
409.049661	4666.311290
409.430560	4710.741500
409.811399	4637.037310
410.192176	4795.511022
410.572891	4737.981374
410.953545	4836.775387
411.334138	4720.551585
411.714669	4787.702275
412.095139	4678.306716
412.475547	4824.462369
412.855894	4805.154749
413.236180	4813.523065
413.616405	4764.034057
413.996568	4853.663252
414.376670	4795.052277
414.756711	4750.511162
415.136691	4780.957211
415.516609	4858.391855
415.896466	4898.887443
416.276262	4928.549593
416.655997	4911.908744
417.035670	5092.702165
417.415283	5184.564591
417.794834	5126.674501
418.174324	5083.295372
418.553753	4993.141897
418.933121	5179.147871
419.312428	5242.742027
419.691674	5181.950752
420.070859	5306.646213
420.449983	5217.720260
420.829045	5332.645964
421.208047	5241.232201
421.586988	5308.574455
421.965867	5326.936858
422.344686	5451.138286
422.723444	5314.379343
423.102141	5127.072752
423.480777	5430.272950
423.859352	5194.619172
424.237866	5458.516014
424.616319	5449.812462
424.994712	5556.818514
425.373044	5432.037354
425.751314	5575.813582
426.129524	5385.079006
426.507673	5574.548252
426.885762	5659.789123
427.263789	5592.257826
427.641756	5471.023117
428.019662	5593.001396
428.397508	5598.138332
428.775292	5544.722266
429.153016	5648.552391
429.530679	5568.413168
429.908282	5652.754193
430.285824	5525.908679
430.663305	5804.079549
431.040726	5536.666502
431.418086	5539.050967
431.795385	5646.172966
432.172624	5656.530017
432.549802	5649.482484
432.926920	5663.781717
433.303977	5669.601729
433.680974	5710.490528
434.057910	5729.147838
434.434786	5730.594649
434.811601	5699.647006
435.188355	5942.285302
435.565050	5807.053829
435.941683	5794.710564
436.318257	6006.209653
436.694770	5988.127034
437.071222	6024.246902
437.447614	5956.887004
437.823946	5867.078848
438.200218	6021.340677
438.576429	5883.815479
438.952580	5983.221992
439.328670	6030.767634
439.704700	5937.783552
440.080670	5925.233599
440.456580	6197.922213
440.832429	6080.236477
441.208218	5921.102373
441.583947	6079.702115
441.959616	6081.058185
442.335224	6012.374984
442.710773	6149.053268
443.086261	6171.662843
443.461689	5967.866637
443.837057	6115.983299
444.212365	6272.075066
444.587612	6165.247975
444.962800	6319.847560
445.337927	6299.816536
445.712995	5908.963275
446.088002	6486.603888
446.462949	6322.295041
446.837837	6248.137147
447.212664	6417.807262
447.587431	6562.437966
447.962139	7105.060204
448.336786	8036.536885
448.711374	7774.406968
449.085901	6849.587130
449.460369	6767.000427
449.834776	6701.956940
450.209124	7091.683502
450.583412	7245.163952
450.957640	7392.055613
451.331808	7154.990312
451.705917	6712.518157
452.079965	6632.696527
452.453954	6842.325348
452.827883	6717.544187
453.201752	6818.331976
453.575562	6610.344051
453.949311	6817.467418
454.323001	6698.150868
454.696632	6776.974350
455.070202	6916.679847
455.443713	7069.789771
455.817164	7169.652508
456.190556	7255.694922
456.563888	7325.411559
456.937160	7377.229580
457.310373	7028.837958
457.683526	7050.328397
458.056619	6943.710513
458.429653	6927.765344
458.802628	6865.819645
459.175542	6970.010213
459.548398	7327.967424
459.921194	7491.106724
460.293930	7494.864905
460.666607	8028.493724
461.039224	8332.513110
461.411782	8464.883728
461.784280	8477.353022
462.156719	8370.888894
462.529099	8248.708968
462.901419	7836.544230
463.273680	7726.614309
463.645882	7742.516628
464.018024	7603.993283
464.390106	7769.585104
464.762130	8162.333838
465.134094	8623.601936
465.505999	9655.952106
465.877845	10873.781449
466.249631	11531.805781
466.621358	11144.758592
466.993026	10507.828968
467.364634	10255.607438
467.736184	9892.145287
468.107674	9561.674967
468.479105	9589.822250
468.850477	9358.546714
469.221790	9132.002301
469.593043	8800.806055
469.964238	8660.414962
470.335373	8671.094646
470.706449	8733.022701
471.077467	8713.747849
471.448425	10027.449856
471.819324	11098.629513
472.190164	11119.341094
472.560945	9875.302792
472.931667	9079.748221
473.302330	8945.885422
473.672934	8592.417358
474.043479	8951.332389
474.413965	8891.866938
474.784393	8771.806818
475.154761	8928.110313
475.525070	9016.537193
475.895321	8842.892128
476.265513	9019.773614
476.635645	9187.432308
477.005719	9189.098410
477.375734	9306.111152
477.745691	9531.753198
478.115588	9668.849898
478.485427	9915.087578
478.855207	10454.037336
479.224928	11271.715010
479.594591	11904.183213
479.964194	11709.335055
480.333739	11644.329376
480.703226	11564.921121
481.072653	11657.254895
481.442022	11891.444217
481.811333	12090.287489
482.180584	11888.883311
482.549777	11595.629309
482.918912	11422.432907
483.287988	11441.586771
483.657005	11456.322064
484.025964	11133.645368
484.394864	11268.017324
484.763706	11233.445091
485.132489	10991.555406
485.501213	10953.661052
485.869879	11031.930007
486.238487	10872.130471
486.607036	10979.910340
486.975527	10765.777248
487.343959	10950.883377
487.712333	11006.676347
488.080648	10934.676067
488.448905	10973.646707
488.817104	10909.094732
489.185244	11185.176043
489.553326	11334.416882
489.921350	11878.523740
490.289315	12935.164709
490.657222	13273.529476
491.025070	13185.160570
491.392861	13059.406467
491.760593	12678.784228
492.128267	12328.771875
492.495883	12001.013696
492.863440	11663.362253
493.230939	11326.217445
493.598380	11258.615572
493.965763	11130.419030
494.333088	11026.238544
494.700354	10948.791298
495.067563	11010.439568
495.434713	10836.766777
495.801805	10968.151849
496.168839	10888.559592
496.535815	10826.278656
496.902733	10824.466362
497.269593	10759.364901
497.636395	10848.694147
498.003139	10846.133241
498.369825	10706.833557
498.736453	10864.944306
499.103023	10800.263782
499.469535	10820.733387
499.835989	10812.271810
500.202385	10775.952818
500.568723	10622.968922
500.935003	10843.776501
501.301226	10649.563529
501.667390	10903.877137
502.033497	10999.159986
502.399546	10864.982115
502.765537	10767.062743
503.131470	10837.553197
503.497345	11007.727427
503.863163	10623.029416
504.228923	10932.266395
504.594625	10986.466361
504.960269	10736.052085
505.325856	10953.368665
505.691385	10745.640359
506.056856	10900.053422
506.422270	10915.930536
506.787625	10803.240583
507.152924	10920.959087
507.518164	10895.440767
507.883347	10816.710546
508.248472	10724.855682
508.613540	10956.353028
508.978550	10830.548514
509.343503	10809.274844
509.708398	10922.743656
510.073236	11017.124138
510.438016	11023.491115
510.802738	10965.585902
511.167403	11015.200938
511.532010	10898.359595
511.896561	11125.415684
512.261053	11185.816269
512.625488	11049.884076
512.989866	11018.414673
513.354186	11012.435865
513.718449	10901.903526
514.082655	11087.133162
514.446803	10964.804523
514.810894	11077.275186
515.174927	10943.377098
515.538904	10955.327154
515.902822	11102.617066
516.266684	10971.957920
516.630488	10902.488300
516.994235	10957.900663
517.357925	10996.571354
517.721558	11064.193392
518.085133	11072.140771
518.448651	11065.446118
518.812112	10937.506675
519.175516	10936.372415
519.538863	11036.981243
519.902152	10940.594382
520.265385	11072.352499
520.628560	10974.639814
520.991678	10931.694224
521.354739	10978.367747
521.717743	10894.208204
522.080690	10861.481034
522.443580	10961.341250
522.806413	10897.255582
523.169189	10907.824361
523.531908	10937.736047
523.894569	10743.641542
524.257174	10730.632844
524.619722	10816.957563
524.982213	10750.164795
525.344647	10760.476475
525.707025	10693.411485
526.069345	10752.329971
526.431608	10647.635288
526.793815	10726.317617
527.155964	10498.389407
527.518057	10528.512822
527.880093	10454.831317
528.242072	10487.243416
528.603995	10361.781700
528.965860	10272.951528
529.327669	10281.077868
529.689421	10202.070384
530.051117	10154.436522
530.412755	10204.099449
530.774337	10077.284183
531.135862	10009.014357
531.497331	10004.510086
531.858743	9837.806690
532.220098	9947.482033
532.581396	9794.924114
532.942638	9752.641437
533.303824	9677.588738
533.664953	9650.631168
534.026025	9543.557060
534.387040	9584.130787
534.747999	9551.315396
535.108902	9549.440087
535.469748	9312.977204
535.830537	9355.600160
536.191270	9296.790059
536.551947	9275.687789
536.912567	9224.348678
537.273131	9127.682032
537.633638	9067.485614
537.994089	9009.401440
538.354483	8931.976878
538.714821	9001.270059
539.075103	8959.471332
539.435328	8881.938385
539.795497	8724.974499
540.155609	8790.885065
540.515665	8812.834248
540.875665	8570.228720
541.235609	8569.936333
541.595496	8520.583437
541.955328	8580.500071
542.315102	8453.702448
542.674821	8374.939461
543.034483	8331.998912
543.394090	8286.769680
543.753640	8183.574740
544.113134	8277.446066
544.472571	8137.218810
544.831953	8178.092485
545.191278	8000.802666
545.550548	7976.917679
545.909761	8015.411930
546.268918	7938.756145
546.628019	7947.242927
546.987064	7797.563508
547.346053	7715.228863
547.704986	7712.365487
548.063863	7656.232239
548.422684	7606.223993
548.781449	7493.193762
549.140158	7508.193715
549.498811	7381.887606
549.857408	7251.803151
550.215949	7320.708163
550.574434	7192.395674
550.932864	7185.844694
551.291237	7182.041144
551.649555	7083.816782
552.007817	7050.681277
552.366022	6979.729558
552.724173	6928.599655
553.082267	6871.501026
553.440305	6874.180399
553.798288	6741.436736
554.156215	6752.832264
554.514086	6692.688778
554.871902	6574.188895
555.229661	6543.939452
555.587365	6486.845864
555.945014	6400.518625
556.302606	6390.237192
556.660143	6307.050591
557.017625	6317.342107
557.375050	6224.917592
557.732421	6234.062245
558.089735	6143.059336
558.446994	6101.540393
558.804197	6068.803140
559.161345	6019.510738
559.518437	5921.069606
559.875474	5895.437859
560.232455	5859.655749
560.589381	5801.531245
560.946251	5735.005659
561.303065	5747.018728
561.659825	5665.404968
562.016528	5598.907108
562.373177	5511.770763
562.729770	5495.833156
563.086307	5428.715233
563.442789	5420.886321
563.799216	5315.470753
564.155587	5297.534328
564.511904	5228.460438
564.868164	5191.009706
565.224370	5153.052338
565.580520	5069.981684
565.936615	5048.307243
566.292654	4957.763079
566.648638	4961.433039
567.004567	4901.150922
567.360441	4861.746742
567.716260	4788.955002
568.072023	4782.824958
568.427732	4721.159044
568.783385	4678.294113
569.138982	4641.055109
569.494525	4614.258856
569.850013	4547.622364
570.205445	4528.919683
570.560823	4476.048062
570.916145	4414.601438
571.271412	4401.912853
571.626625	4353.737067
571.981782	4314.960511
572.336884	4272.120786
572.691931	4247.953494
573.046923	4191.772355
573.401860	4157.363960
573.756743	4110.438379
574.111570	4087.685131
574.466342	4059.321079
574.821059	4031.642624
575.175722	3984.974142
575.530330	3948.559367
575.884882	3928.772838
576.239380	3881.895149
576.593823	3851.686034
576.948211	3826.379442
577.302544	3786.216569
577.656823	3753.854882
578.011047	3735.661358
578.365216	3703.289589
578.719330	3669.566790
579.073389	3639.607213
579.427394	3614.010754
579.781344	3590.483689
580.135239	3556.970098
580.489080	3538.809342
580.842866	3503.811131
581.196597	3482.696258
581.550273	3471.220071
581.903895	3441.971297
582.257463	3435.533743
582.610975	3397.755336
582.964434	3384.950806
583.317837	3356.286805
583.671186	3340.036645
584.024481	3319.909839
584.377721	3297.133906
584.730906	3274.846964
585.084037	3258.014552
585.437113	3238.157447
585.790135	3218.880074
586.143103	3195.834440
586.496016	3180.675690
586.848874	3165.285047
587.201679	3158.660971
587.554428	3128.179634
587.907124	3120.527163
588.259765	3101.864811
588.612352	3092.606732
588.964884	3072.968918
589.317362	3061.822926
589.669786	3047.770710
590.022155	3041.446583
590.374470	3027.404448
590.726731	3013.732839
591.078937	2992.358347
591.431090	2984.264774
591.783188	2967.384471
592.135232	2954.811833
592.487222	2948.790175
592.839157	2942.864298
593.191038	2926.263779
593.542866	2916.010072
593.894639	2900.778226
594.246358	2892.999725
594.598022	2886.300032
594.949633	2870.604399
595.301190	2862.263810
595.652692	2857.615866
596.004141	2849.892819
596.355535	2835.838082
596.706876	2823.983808
597.058162	2813.972077
597.409395	2811.023002
597.760573	2807.494194
598.111698	2793.089097
598.462768	2788.746143
598.813785	2781.872530
599.164748	2776.624689
599.515657	2766.922988
599.866511	2760.258583
600.217312	2762.234715
600.568060	2749.929258
600.918753	2750.856831
601.269392	2744.441962
601.619978	2736.144223
601.970510	2735.468709
602.320988	2728.254817
602.671412	2728.153994
603.021783	2720.786348
603.372100	2715.588918
603.722363	2710.525079
604.072572	2711.480378
604.422728	2705.670448
604.772830	2696.843388
605.122878	2690.960361
605.472872	2688.845597
605.822813	2685.747808
606.172701	2684.626152
606.522534	2682.682787
606.872314	2682.317303
607.222041	2678.748166
607.571714	2679.607683
607.921333	2672.862619
608.270899	2671.448575
608.620411	2672.209790
608.969870	2670.089984
609.319276	2668.905313
609.668627	2670.226096
610.017926	2669.361538
610.367171	2667.965138
610.716362	2666.112514
611.065500	2662.780311
611.414585	2657.111534
611.763616	2656.637665
612.112594	2654.548107
612.461518	2654.101965
612.810389	2651.346974
613.159207	2647.954278
613.507971	2649.373363
613.856682	2647.419916
614.205340	2645.857158
614.553945	2646.981335
614.902496	2643.258443
615.250994	2641.020171
615.599439	2639.288534
615.947830	2640.112763
616.296169	2638.925571
616.644454	2636.820890
616.992686	2633.904582
617.340864	2634.781743
617.688990	2632.765281
618.037063	2636.248719
618.385082	2631.149592
618.733048	2635.542957
619.080961	2631.341155
619.428821	2632.271248
619.776628	2632.747637
620.124382	2628.553397
620.472083	2626.766308
620.819731	2626.657923
621.167326	2625.775722
621.514868	2625.362347
621.862357	2626.148767
622.209793	2621.523508
622.557176	2623.207254
622.904506	2619.759104
623.251783	2614.034874
623.599007	2614.881788
623.946179	2611.894904
624.293297	2614.289452
624.640363	2611.794081
624.987376	2614.024792
625.334336	2612.630913
625.681243	2609.780140
626.028097	2608.411467
626.374899	2613.666870
626.721647	2608.542537
627.068343	2605.986672
627.414987	2605.568256
627.761577	2605.676641
628.108115	2605.086826
628.454600	2604.728904
628.801032	2602.415015
629.147412	2602.210848
629.493739	2604.300406
629.840014	2604.277721
630.186236	2604.081116
630.532405	2601.515169
630.878521	2600.275045
631.224585	2603.093050
631.570597	2601.502566
631.916556	2600.365786
632.262462	2599.770929
632.608316	2597.986361
632.954117	2597.071392
633.299866	2600.496856
633.645562	2597.124324
633.991206	2599.261773
634.336797	2595.077615
634.682336	2594.888572
635.027823	2595.853953
635.373257	2593.978644
635.718639	2589.613004
636.063968	2593.756833
636.409245	2593.214909
636.754470	2590.505289
637.099642	2590.643920
637.444762	2592.093252
637.789829	2589.842377
638.134845	2589.441605
638.479808	2589.791965
638.824719	2586.721903
639.169577	2586.225349
639.514383	2588.783735
639.859137	2588.093097
640.203839	2588.020000
640.548489	2587.379773
640.893086	2585.007910
641.237632	2580.531366
641.582125	2583.820719
641.926566	2581.176633
642.270955	2584.506316
642.615292	2585.133939
642.959576	2586.137129
643.303809	2584.854155
643.647990	2586.449680
643.992118	2584.833991
644.336195	2583.309042
644.680219	2584.465986
645.024192	2583.523291
645.368112	2583.976994
645.711981	2583.417426
646.055797	2587.248703
646.399562	2585.789289
646.743274	2585.612849
647.086935	2589.620566
647.430544	2587.462952
647.774101	2584.206367
648.117606	2588.418251
648.461059	2585.602767
648.804460	2587.278950
649.147810	2585.043198
649.491108	2584.357602
649.834354	2584.465986
650.177548	2584.077817
650.520690	2582.830132
650.863781	2582.250399
651.206820	2584.090420
651.549807	2581.728640
651.892742	2580.927096
652.235626	2580.165882
652.578458	2582.567992
652.921238	2576.793350
653.263967	2583.893815
653.606644	2581.837025
653.949269	2580.493557
654.291843	2578.083886
654.634365	2577.741087
654.976836	2580.964905
655.319255	2581.262333
655.661622	2578.250244
656.003938	2580.793506
656.346203	2578.698906
656.688416	2576.919379
657.030577	2578.988773
657.372687	2574.557598
657.714746	2573.612382
658.056753	2575.863257
658.398708	2573.919892
658.740612	2577.584811
659.082465	2572.357135
659.424266	2575.240675
659.766016	2570.733883
660.107715	2576.289235
660.449362	2576.679924
660.790958	2577.776375
661.132503	2576.064903
661.473996	2579.679411
661.815438	2579.989442
662.156829	2579.596232
662.498168	2576.385017
662.839456	2575.649008
663.180693	2575.530541
663.521879	2578.177147
663.863013	2576.395099
664.204097	2580.470872
664.545129	2577.849472
664.886110	2576.102712
665.227040	2576.125397
665.567918	2576.785788
665.908746	2577.347877
666.249522	2578.202353
666.590248	2578.315779
666.930922	2576.569019
667.271545	2578.126735
667.612118	2579.916345
667.952639	2579.495409
668.293109	2577.899883
668.633528	2576.430387
668.973896	2578.393917
669.314213	2576.241344
669.654480	2577.489029
669.994695	2575.028946
670.334859	2576.533731
670.674973	2579.661767
671.015035	2577.529359
671.355047	2576.009451
671.695008	2574.255129
672.034918	2575.404512
672.374777	2578.887950
672.714585	2574.880232
673.054342	2580.833835
673.394049	2578.267888
673.733705	2578.424163
674.073310	2578.381314
674.412864	2577.146231
674.752368	2576.170768
675.091820	2578.406519
675.431223	2577.579770
675.770574	2575.525500
676.109875	2571.606003
676.449125	2572.311764
676.788324	2572.344532
677.127473	2572.001733
677.466571	2569.332443
677.805619	2574.829821
678.144616	2572.158009
678.483562	2575.838052
678.822458	2572.878894
679.161303	2572.019377
679.500098	2574.474419
679.838842	2571.669017
680.177535	2570.756568
680.516179	2571.674058
680.854771	2573.312433
681.193314	2575.031467
681.531805	2575.825449
681.870247	2576.405181
682.208638	2578.056159
682.546978	2578.998855
682.885268	2576.402661
683.223508	2573.957701
683.561697	2576.760583
683.899836	2575.782599
684.237925	2578.333423
684.575963	2576.813515
684.913951	2575.031467
685.251889	2576.463155
685.589776	2575.444842
685.927614	2575.210428
686.265401	2574.471899
686.603137	2575.961560
686.940824	2577.080696
687.278460	2577.753690
687.616046	2578.577919
687.953582	2580.054977
688.291068	2577.642785
688.628504	2579.129925
688.965889	2580.846438
689.303224	2578.880388
689.640510	2577.299986
689.977745	2575.780078
690.314930	2575.966601
690.652065	2573.372927
690.989150	2573.761096
691.326185	2572.430232
691.663170	2572.092474
692.000105	2572.508369
692.336990	2571.900910
692.673825	2570.822103
693.010610	2569.347566
693.347345	2567.724314
693.684030	2563.729200
694.020665	2565.576783
694.357251	2564.303892
694.693786	2565.896896
695.030272	2567.661300
695.366707	2566.355641
695.703093	2566.441341
696.039429	2565.223902
696.375716	2565.720456
696.711952	2568.475446
697.048139	2565.453275
697.384276	2566.022925
697.720363	2567.227761
698.056400	2565.564180
698.392388	2564.437482
698.728326	2566.085939
699.064214	2564.621484
699.400053	2561.659806
699.735842	2564.117369
700.071581	2564.913871
700.407270	2561.521175
700.742910	2565.223902
701.078501	2563.174673
701.414042	2559.600495
701.749533	2562.446226
702.084974	2562.766340
702.420366	2562.506720
702.755709	2562.761298
703.091002	2560.805331
703.426246	2560.701987
703.761440	2562.206772
704.096584	2561.054868
704.431679	2560.767522
704.766725	2561.737944
705.101721	2558.907336
705.436668	2560.018911
705.771565	2559.260217
706.106413	2561.458160
706.441212	2560.931360
706.775961	2561.122923
707.110661	2562.284909
707.445311	2562.252142
707.779913	2560.974209
708.114465	2563.983778
708.448967	2561.939590
708.783421	2564.772719
709.117825	2562.095866
709.452180	2563.724159
709.786485	2564.886145
710.120742	2566.615261
710.454949	2565.463357
710.789107	2562.272307
711.123216	2561.082594
711.457275	2566.343038
711.791286	2563.184755
712.125247	2565.977555
712.459159	2566.174160
712.793023	2571.081723
713.126837	2566.766495
713.460602	2564.586196
713.794318	2566.965621
714.127985	2565.667524
714.461602	2564.586196
714.795171	2565.937225
715.128691	2565.702812
715.462162	2564.268603
715.795584	2559.817265
716.128957	2561.543860
716.462281	2560.132337
716.795556	2562.786504
717.128782	2562.239539
717.461960	2557.752912
717.795088	2559.867676
718.128167	2560.006308
718.461198	2556.870710
718.794180	2560.959086
719.127113	2561.052347
719.459997	2558.859445
719.792833	2557.510937
720.125619	2560.268448
720.458357	2557.974723
720.791046	2554.201419
721.123686	2557.788200
721.456278	2558.148643
721.788821	2559.444219
722.121315	2557.130330
722.453761	2556.177552
722.786158	2554.574465
723.118506	2558.279713
723.450805	2556.530432
723.783056	2556.517829
724.115259	2555.970864
724.447412	2557.770556
724.779518	2557.679815
725.111574	2555.002963
725.443582	2557.740309
725.775542	2557.699980
726.107453	2558.972871
726.439315	2558.100752
726.771129	2563.383881
727.102895	2557.452963
727.434612	2560.328942
727.766281	2562.466391
728.097901	2557.677295
728.429473	2557.352140
728.760996	2556.689229
729.092471	2555.023127
729.423897	2559.537481
729.755276	2560.417162
730.086606	2556.903478
730.417887	2560.528067
730.749120	2559.923129
731.080305	2563.393963
731.411442	2560.971689
731.742530	2562.841957
732.073570	2561.574107
732.404562	2561.183417
732.735506	2562.680640
733.066401	2563.109138
733.397249	2562.678119
733.728048	2562.703325
734.058798	2560.742316
734.389501	2556.129661
734.720156	2559.610577
735.050762	2555.925494
735.381320	2556.593447
735.711831	2554.435833
736.042293	2555.915412
736.372707	2556.089331
736.703073	2556.603529
737.033391	2553.609084
737.363661	2557.160577
737.693883	2554.919784
738.024056	2558.400700
738.354182	2556.462377
738.684260	2556.490103
739.014290	2557.422717
739.344272	2558.204095
739.674207	2556.086811
740.004093	2561.364899
740.333931	2560.157543
740.663722	2559.960937
740.993464	2559.320711
741.323159	2560.031514
741.652806	2557.326935
741.982405	2558.181410
742.311956	2556.936245
742.641460	2557.463046
742.970915	2557.127809
743.300323	2555.436502
743.629683	2555.048333
743.958996	2555.693601
744.288260	2555.973385
744.617477	2553.039433
744.946647	2549.558517
745.275768	2553.402396
745.604842	2547.731098
745.933869	2550.579350
746.262847	2549.427447
746.591778	2553.689742
746.920662	2551.736295
747.249498	2553.868703
747.578286	2553.861141
747.907027	2556.467418
748.235720	2554.808878
748.564365	2554.917263
748.892963	2550.130688
749.221514	2553.011707
749.550017	2552.618497
749.878473	2555.365926
750.206881	2554.332489
750.535242	2554.536656
750.863555	2551.040616
751.191821	2552.696635
751.520039	2554.148487
751.848210	2554.012376
752.176334	2555.360885
752.504411	2553.465411
752.832440	2552.724361
753.160421	2551.471634
753.488356	2553.069680
753.816243	2550.612118
754.144082	2552.545400
754.471875	2551.126315
754.799620	2550.773435
755.127318	2551.385935
755.454969	2552.757129
755.782572	2548.900646
756.110129	2550.143290
756.437638	2553.437684
756.765100	2551.877447
757.092515	2550.614638
757.419882	2550.148332
757.747203	2551.688404
758.074477	2550.677653
758.401703	2552.263096
758.728882	2551.640513
759.056014	2552.752088
759.383099	2552.696635
759.710138	2554.103117
760.037129	2556.462377
760.364073	2553.523384
760.690970	2553.725030
761.017820	2552.805020
761.344623	2553.863662
761.671379	2554.541697
761.998088	2550.360060
762.324751	2554.090514
762.651366	2556.376677
762.977935	2571.570715
763.304456	2571.127093
763.630931	2578.514904
763.957359	2572.019377
764.283740	2569.150961
764.610074	2565.138202
764.936362	2561.881617
765.262602	2554.788714
765.588796	2556.774928
765.914943	2556.351471
766.241044	2553.911553
766.567097	2551.327962
766.893104	2553.276367
767.219064	2548.439380
767.544978	2549.266130
767.870845	2549.150183
768.196665	2552.550441
768.522438	2546.279246
768.848165	2548.605738
769.173846	2550.476007
769.499479	2549.891233
769.825066	2549.830739
770.150607	2549.646737
770.476101	2547.504246
770.801548	2549.263609
771.126949	2547.118598
771.452303	2547.199257
771.777611	2547.902498
772.102872	2545.807898
772.428087	2546.664894
772.753256	2547.310162
773.078378	2546.483413
773.403453	2546.755635
773.728482	2547.085831
774.053465	2544.608103
774.378401	2544.913093
774.703291	2547.305121
775.028135	2542.805891
775.352932	2546.178423
775.677683	2545.996941
776.002388	2546.619524
776.327046	2546.148176
776.651658	2543.572146
776.976224	2545.132383
777.300743	2544.938299
777.625216	2540.169368
777.949643	2543.269677
778.274024	2544.328319
778.598359	2542.372352
778.922647	2540.686086
779.246889	2540.786909
779.571086	2537.414377
779.895236	2543.209183
780.219339	2543.756148
780.543397	2543.599873
780.867409	2544.545089
781.191374	2542.828576
781.515294	2541.762372
781.839167	2543.703216
782.162995	2544.908052
782.486776	2548.383928
782.810511	2543.133566
783.134201	2542.942002
783.457844	2544.915614
783.781441	2544.199770
784.104993	2543.453679
784.428498	2542.783206
784.751958	2541.941333
785.075372	2544.903011
785.398739	2545.399565
785.722061	2541.235572
786.045337	2543.436035
786.368568	2546.022147
786.691752	2544.822352
787.014891	2544.167002
787.337983	2542.652136
787.661030	2546.659853
787.984031	2543.559543
788.306987	2548.555327
788.629897	2547.579864
788.952760	2546.458207
789.275579	2548.194884
789.598351	2547.988197
789.921078	2545.757487
790.243759	2545.369318
790.566395	2543.378062
790.888984	2546.435522
791.211529	2542.523586
791.534027	2545.853268
791.856480	2540.912938
792.178888	2547.292518
792.501249	2542.460572
792.823566	2544.693803
793.145836	2543.241951
793.468062	2540.693647
793.790241	2540.532331
794.112375	2544.265305
794.434464	2541.172557
794.756507	2540.673483
795.078505	2542.231199
795.400457	2542.642053
795.722364	2541.041487
796.044226	2542.420243
796.366042	2543.093237
796.687812	2541.054090
797.009538	2541.961498
797.331218	2545.150028
797.652852	2544.938299
797.974442	2542.120294
798.295986	2543.239430
798.617484	2542.213555
798.938938	2545.608773
799.260346	2544.033412
799.581709	2543.126004
799.903026	2544.668597
800.224299	2544.454348
800.545526	2543.536858
800.866708	2542.694986
801.187845	2543.418391
801.508936	2544.078782
801.829983	2542.495860
802.150984	2539.690458
802.471940	2542.286652
802.792851	2542.107691
803.113717	2541.888401
803.434538	2540.461754
803.755314	2541.424615
804.076045	2540.635674
804.396731	2541.507794
804.717372	2540.996117
805.037967	2543.869574
805.358518	2540.393699
805.679024	2541.343956
805.999485	2542.233720
806.319901	2542.488298
806.640272	2539.380427
806.960598	2545.351674
807.280879	2537.976466
807.601115	2541.041487
807.921306	2540.204656
808.241453	2542.579039
808.561554	2540.406302
808.881611	2543.249512
809.201623	2543.340253
809.521590	2541.999306
809.841513	2542.284132
810.161390	2543.584749
810.481223	2541.956457
810.801011	2542.720191
811.120755	2539.166178
811.440453	2544.313196
811.760107	2541.028884
812.079716	2539.025026
812.399281	2536.456558
812.718801	2539.884542
813.038276	2537.553009
813.357707	2542.437887
813.677093	2541.207845
813.996434	2539.735828
814.315731	2537.026208
814.634983	2539.554347
814.954191	2540.066024
815.273354	2541.810263
815.592473	2541.422094
815.911547	2542.258926
816.230577	2542.274049
816.549562	2544.915614
816.868502	2541.348997
817.187399	2544.056097
817.506250	2541.253216
817.825058	2545.931406
818.143821	2541.928730
818.462539	2544.025850
818.781213	2545.084493
819.099843	2547.738660
819.418429	2548.477189
819.736970	2550.773435
820.055466	2554.458518
820.373919	2557.682336
820.692327	2560.646534
821.010691	2567.353790
821.329011	2584.526480
821.647286	2618.334978
821.965517	2656.146153
822.283704	2680.290759
822.601847	2685.914166
822.919945	2670.909172
823.237999	2646.525111
823.556010	2625.437964
823.873976	2608.890377
824.191897	2595.163315
824.509775	2581.849627
824.827609	2574.350911
825.145398	2571.845458
825.463144	2570.615416
825.780845	2574.038360
826.098502	2575.820407
826.416116	2584.886923
826.733685	2598.097266
827.051210	2600.353183
827.368692	2597.187338
827.686129	2586.568147
828.003522	2576.427867
828.320872	2563.512430
828.638177	2560.999415
828.955439	2551.527087
829.272656	2550.352498
829.589830	2545.276056
829.906960	2550.463404
830.224046	2547.516849
830.541088	2545.654143
830.858086	2546.017106
831.175041	2545.129863
831.491952	2543.642722
831.808819	2543.617517
832.125642	2544.580377
832.442421	2548.053732
832.759157	2551.887530
833.075849	2558.821637
833.392497	2567.293296
833.709101	2572.442834
834.025662	2572.699933
834.342179	2566.733728
834.658653	2564.293809
834.975083	2555.370967
835.291469	2558.708211
835.607811	2549.992056
835.924110	2544.892929
836.240366	2548.220090
836.556578	2544.275387
836.872746	2545.974256
837.188871	2540.950746
837.504952	2542.621889
837.820990	2539.541744
838.136984	2537.890766
838.452935	2538.921682
838.768842	2540.565098
839.084706	2543.015099
839.400526	2543.090716
839.716303	2546.531304
840.032037	2553.722510
840.347727	2550.629762
840.663373	2549.445091
840.978977	2544.139276
841.294537	2543.675490
841.610054	2544.978628
841.925527	2540.199614
842.240957	2539.284645
842.556344	2538.730118
842.871687	2538.097453
843.186987	2538.283976
843.502244	2537.127031
843.817458	2536.499408
844.132629	2535.181146
844.447756	2537.333718
844.762840	2532.610157
845.077881	2533.699047
845.392879	2530.376926
845.707833	2535.735673
846.022745	2531.473377
846.337613	2535.080323
846.652438	2535.975127
846.967221	2536.048224
847.281960	2537.164840
847.596656	2537.217772
847.911309	2533.567977
848.225919	2536.116280
848.540485	2537.868081
848.855009	2534.568646
849.169490	2534.193080
849.483928	2535.869263
849.798323	2534.213244
850.112675	2538.742721
850.426984	2532.988244
850.741251	2534.576207
851.055474	2533.636032
851.369654	2535.110570
851.683792	2534.004036
851.997887	2533.048738
852.311938	2534.359438
852.625947	2534.157792
852.939914	2536.927906
853.253837	2540.318082
853.567718	2536.479243
853.881555	2536.559901
854.195350	2537.084181
854.509103	2534.099818
854.822812	2532.025383
855.136479	2536.456558
855.450103	2533.946063
855.763685	2534.089736
856.077224	2534.230888
856.390720	2534.467822
856.704173	2534.351876
857.017584	2537.250539
857.330953	2535.203831
857.644278	2535.413039
857.957561	2539.027546
858.270802	2537.323636
858.584000	2535.465971
858.897155	2536.358255
859.210268	2535.100487
859.523339	2536.151568
859.836367	2534.477905
860.149352	2536.643080
860.462295	2536.549819
860.775195	2531.959848
861.088054	2529.633356
861.400869	2532.559746
861.713642	2529.487163
862.026373	2535.309695
862.339062	2534.891279
862.651708	2536.912782
862.964312	2534.654345
863.276873	2536.580066
863.589392	2536.451517
863.901869	2535.458409
864.214303	2536.819521
864.526696	2536.988399
864.839045	2535.990251
865.151353	2537.668955
865.463619	2535.894469
865.775842	2534.331711
866.088023	2538.619213
866.400162	2537.610982
866.712258	2535.337422
867.024313	2538.588966
867.336325	2539.546785
867.648296	2537.653832
867.960224	2533.777184
868.272110	2537.270704
868.583954	2537.260622
868.895755	2535.559232
869.207515	2534.987061
869.519233	2538.483102
869.830909	2536.557381
870.142542	2537.686599
870.454134	2537.038811
870.765684	2536.862371
871.077191	2534.881197
871.388657	2540.139121
871.700081	2538.430169
872.011463	2536.504449
872.322803	2536.199459
872.634101	2538.709953
872.945357	2537.396733
873.256571	2536.232226
873.567744	2537.018646
873.878874	2539.566950
874.189963	2537.091743
874.501010	2539.655170
874.812015	2536.544778
875.122979	2537.351363
875.433900	2539.400592
875.744780	2540.360931
876.055618	2539.108205
876.366415	2537.043852
876.677169	2538.130221
876.987882	2534.845909
877.298554	2533.943543
877.609183	2539.418236
877.919771	2536.650642
878.230317	2539.874460
878.540822	2540.383617
878.851285	2542.158103
879.161707	2543.189019
879.472087	2545.185316
879.782425	2550.985163
880.092722	2557.263920
880.402977	2568.414953
880.713191	2587.112592
881.023363	2607.252002
881.333494	2621.964609
881.643583	2622.345216
881.953631	2621.911677
882.263637	2617.540997
882.573602	2613.097220
882.883526	2599.730600
883.193408	2588.171234
883.503248	2580.811150
883.813048	2575.210428
884.122806	2567.313460
884.432522	2562.582337
884.742197	2557.710062
885.051831	2552.908363
885.361424	2553.160421
885.670975	2551.083466
885.980485	2547.347971
886.289954	2546.012065
886.599382	2544.406457
886.908768	2546.664894
887.218113	2542.934440
887.527417	2545.079451
887.836680	2539.597197
888.145901	2544.151879
888.455082	2539.945036
888.764221	2540.872608
889.073319	2536.660724
889.382376	2540.078627
889.691392	2537.056455
890.000366	2537.404295
890.309300	2537.653832
890.618193	2537.767258
890.927044	2539.014943
891.235855	2537.495035
891.544625	2537.109387
891.853353	2541.071734
892.162041	2539.960160
892.470687	2540.728936
892.779293	2541.921168
893.087858	2541.154913
893.396381	2540.930582
893.704864	2546.133052
894.013306	2550.821326
894.321707	2559.426575
894.630068	2563.114179
894.938387	2568.848492
895.246665	2566.585014
895.554903	2562.559652
895.863100	2557.563869
896.171256	2557.188303
896.479371	2551.610266
896.787446	2550.065153
897.095480	2546.927034
897.403473	2545.848227
897.711425	2545.366797
898.019336	2545.195398
898.327207	2542.725233
898.635038	2542.571477
898.942827	2541.296065
899.250576	2543.045346
899.558284	2540.144162
899.865952	2541.386806
900.173579	2540.247505
900.481165	2539.745911
900.788711	2539.962680
901.096216	2537.842875
901.403681	2539.791281
901.711105	2537.631147
902.018489	2539.284645
902.325832	2541.366642
902.633135	2537.956301
902.940397	2538.644418
903.247619	2541.769934
903.554800	2544.787064
903.861941	2558.453632
904.169041	2572.793195
904.476101	2580.717888
904.783121	2576.198494
905.090100	2571.691702
905.397039	2567.603327
905.703938	2558.579661
906.010796	2556.669064
906.317614	2547.347971
906.624391	2544.371169
906.931129	2544.159441
907.237826	2543.413350
907.544483	2538.067206
907.851099	2539.672814
908.157675	2536.048224
908.464211	2535.123173
908.770707	2534.495549
909.077163	2530.964221
909.383578	2531.564118
909.689954	2531.702750
909.996289	2531.450692
910.302584	2535.665097
910.608839	2535.975127
910.915054	2535.579397
911.221229	2536.559901
911.527363	2536.275076
911.833458	2534.160312
912.139513	2534.614016
912.445527	2533.825075
912.751502	2537.686599
913.057436	2536.970755
913.363331	2536.811959
913.669186	2539.801363
913.975000	2541.797660
914.280775	2542.619368
914.586510	2544.698844
914.892205	2549.003990
915.197859	2556.258210
915.503475	2558.395659
915.809050	2568.712381
916.114585	2575.530541
916.420081	2575.515418
916.725536	2574.116497
917.030952	2570.219686
917.336328	2564.916392
917.641665	2559.247614
917.946961	2561.241391
918.252218	2554.461039
918.557435	2550.528939
918.862612	2546.715306
919.167750	2545.066848
919.472848	2541.464944
919.777906	2540.935623
920.082925	2540.693647
920.387904	2537.507638
920.692843	2539.856816
920.997743	2539.728267
921.302603	2537.684079
921.607423	2536.746424
921.912204	2537.517721
922.216946	2535.881866
922.521647	2537.986548
922.826310	2531.879190
923.130932	2533.986392
923.435516	2533.124355
923.740059	2534.795497
924.044564	2535.632329
924.349028	2534.840868
924.653454	2531.067564
924.957840	2530.724766
925.262186	2529.729138
925.566493	2531.493542
925.870761	2527.319466
926.174989	2530.170239
926.479178	2531.680064
926.783328	2531.906916
927.087438	2531.213758
927.391509	2532.453882
927.695541	2531.170908
927.999533	2529.444313
928.303486	2530.810465
928.607400	2533.096629
928.911275	2532.133768
929.215110	2529.474560
929.518906	2531.594365
929.822663	2533.416742
930.126381	2527.395084
930.430060	2532.189221
930.733699	2531.710311
931.037299	2532.426155
931.340861	2528.418438
931.644383	2530.082019
931.947866	2531.632173
932.251309	2532.158974
932.554714	2530.651669
932.858080	2532.738707
933.161407	2532.327853
933.464694	2530.543284
933.767943	2530.079498
934.071153	2532.864736
934.374323	2529.535053
934.677455	2532.423635
934.980548	2529.096473
935.283602	2531.480939
935.586617	2531.246525
935.889593	2531.138140
936.192530	2531.702750
936.495428	2533.157123
936.798287	2533.520086
937.101108	2530.775177
937.403890	2530.954138
937.706632	2531.743079
938.009336	2533.885569
938.312002	2531.707791
938.614628	2532.068233
938.917216	2534.374561
939.219765	2532.090918
939.522275	2536.212062
939.824747	2537.502597
940.127179	2530.576052
940.429573	2531.251566
940.731929	2532.209386
941.034246	2526.404497
941.336524	2533.179808
941.638763	2534.785415
941.940964	2528.103366
942.243126	2535.344983
942.545250	2536.582587
942.847335	2531.082688
943.149381	2533.235260
943.451389	2532.819365
943.753359	2529.787111
944.055290	2533.129396
944.357182	2533.872966
944.659036	2533.573018
944.960851	2532.844571
945.262628	2531.337266
945.564367	2532.242153
945.866067	2531.092770
946.167729	2533.250384
946.469352	2533.318439
946.770937	2534.951773
947.072484	2529.746782
947.373992	2533.336083
947.675462	2529.784591
947.976893	2528.655372
948.278286	2532.665610
948.579641	2532.438758
948.880958	2531.851464
949.182236	2531.987575
949.483476	2529.267872
949.784678	2532.214427
950.085841	2528.937677
950.386967	2531.082688
950.688054	2532.892462
950.989103	2531.622091
951.290114	2530.311391
951.591087	2530.747451
951.892021	2532.726104
952.192917	2532.010260
952.493776	2530.364323
952.794596	2532.456402
953.095378	2532.098480
953.396122	2532.532019
953.696828	2531.682585
953.997496	2531.120496
954.298126	2529.661082
954.598718	2530.520599
954.899272	2529.222502
955.199788	2530.238294
955.500266	2530.845753
955.800706	2527.707635
956.101108	2525.446678
956.401472	2525.547501
956.701798	2526.344003
957.002087	2528.017666
957.302337	2527.611853
957.602550	2529.325846
957.902724	2527.211082
958.202861	2525.640762
958.502960	2526.611184
958.803022	2532.892462
959.103045	2527.533715
959.403031	2529.053623
959.702979	2530.107224
960.002889	2527.589168
960.302762	2526.457429
960.602596	2526.505320
960.902393	2529.033459
961.202153	2529.043541
961.501875	2529.603109
961.801559	2526.911133
962.101205	2527.440454
962.400814	2527.551359
962.700385	2527.279137
962.999918	2530.417255
963.299414	2528.292409
963.598873	2529.847605
963.898293	2527.006915
964.197677	2528.025228
964.497022	2526.056657
964.796331	2530.729807
965.095601	2526.447347
965.394835	2529.156967
965.694030	2525.030783
965.993189	2529.961031
966.292309	2527.168232
966.591393	2527.080012
966.890439	2528.763757
967.189447	2528.015146
967.488419	2531.155784
967.787353	2529.141843
968.086249	2526.311236
968.385108	2529.041020
968.683930	2528.310053
968.982714	2526.459950
969.281462	2526.782583
969.580172	2528.362985
969.878844	2527.372398
970.177480	2527.753006
970.476078	2526.936339
970.774639	2528.577234
971.073162	2525.849970
971.371649	2524.410721
971.670098	2525.018180
971.968510	2521.514578
972.266885	2519.616583
972.565223	2530.155115
972.863524	2526.724610
973.161788	2528.337779
973.460014	2524.854342
973.758204	2528.985568
974.056356	2524.814013
974.354471	2529.348531
974.652550	2528.264683
974.950591	2525.429034
975.248595	2527.896678
975.546563	2528.816689
975.844493	2527.957172
976.142386	2526.275948
976.440243	2527.528674
976.738062	2527.783253
977.035845	2526.086904
977.333590	2527.039682
977.631299	2529.598068
977.928971	2528.546987
978.226606	2527.770650
978.524204	2525.502130
978.821765	2526.202851
979.119290	2528.113448
979.416777	2527.218643
979.714228	2526.611184
980.011642	2528.247039
980.309020	2527.596730
980.606360	2526.333921
980.903664	2529.638397
981.200931	2526.888448
981.498162	2525.562624
981.795356	2528.088242
982.092513	2529.754344
982.389633	2528.297450
982.686717	2531.468336
982.983764	2529.981196
983.280775	2529.164529
983.577749	2529.472039
983.874686	2533.552853
984.171587	2527.937008
984.468451	2529.096473
984.765279	2529.237625
985.062070	2528.610002
985.358824	2527.644621
985.655543	2527.463139
985.952224	2527.858870
986.248869	2526.827954
986.545478	2522.303518
986.842050	2526.827954
987.138586	2523.294105
987.435086	2527.321987
987.731549	2523.508354
988.027975	2527.498427
988.324366	2526.316277
988.620719	2525.882738
988.917037	2527.243849
989.213318	2525.746626
989.509563	2523.904085
989.805772	2525.537418
990.101944	2528.219312
990.398080	2529.542615
990.694180	2526.638911
990.990244	2525.444157
991.286271	2526.717048
991.582262	2526.321318
991.878217	2526.943900
992.174136	2528.345341
992.470019	2528.536905
992.765865	2528.652852
993.061676	2525.066071
993.357450	2528.352903
993.653188	2526.999353
993.948890	2527.798376
994.244556	2526.013807
994.540186	2526.863242
994.835780	2525.983561
995.131337	2528.204189
995.426859	2525.126564
995.722345	2527.705115
996.017795	2525.943231
996.313208	2526.134795
996.608586	2524.133457
996.903928	2525.993643
997.199234	2529.088911
997.494504	2526.971627
997.789738	2527.914322
998.084936	2526.757378
998.380099	2527.027079
998.675225	2524.998015
998.970316	2526.013808
999.265371	2527.276617
999.560390	2526.855680
999.855373	2526.941380
1000.150320	2524.514064
1000.445232	2528.184024
1000.740108	2527.362316
1001.034948	2526.263345
1001.329752	2528.587317
1001.624521	2526.875845
1001.919254	2521.436440
1002.213951	2523.750329
1002.508613	2521.527181
1002.803239	2523.707480
1003.097829	2522.434588
1003.392384	2524.115813
1003.686903	2527.105217
1003.981386	2527.387522
1004.275834	2525.784435
1004.570246	2527.420289
1004.864623	2524.317459
1005.158964	2526.941380
1005.453270	2524.899712
1005.747540	2524.894671
1006.041775	2525.217305
1006.335974	2526.898530
1006.630138	2526.454908
1006.924266	2523.962058
1007.218359	2525.766791
1007.512416	2526.238139
1007.806438	2525.320649
1008.100425	2523.987264
1008.394376	2525.791997
1008.688292	2524.572038
1008.982172	2526.464991
1009.276017	2526.044054
1009.569827	2526.096987
1009.863602	2526.744775
1010.157341	2526.747295
1010.451045	2524.824095
1010.744714	2525.411390
1011.038347	2527.581606
1011.331945	2522.850483
1011.625508	2526.099507
1011.919036	2525.839888
1012.212528	2526.049096
1012.505986	2525.134126
1012.799408	2525.388704
1013.092795	2525.282840
1013.386147	2525.209743
1013.679464	2524.849301
1013.972745	2523.258817
1014.265992	2526.714528
1014.559204	2525.139167
1014.852380	2524.123375
1015.145521	2525.242511
1015.438628	2526.205371
1015.731699	2526.182686
1016.024736	2526.558252
1016.317737	2524.919877
1016.610703	2525.998684
1016.903635	2519.989629
1017.196531	2521.058353
1017.489393	2520.634896
1017.782219	2520.009793
1018.075011	2525.116482
1018.367768	2525.544980
1018.660490	2528.105886
1018.953177	2528.105886
1019.245829	2528.105886
