Dividing Wavelength (nm)	Counts (n)	Blue Motor Position (mm): 0.000000	Red Motor Position (mm): 22.500000	
326.493990	2084.980902
326.888308	2084.980902
327.282561	2084.980902
327.676750	2059.066850
328.070874	2059.291182
328.464933	2066.845351
328.858929	2076.118553
329.252859	2087.282188
329.646726	2104.389344
330.040528	2121.070522
330.434265	2138.666669
330.827938	2157.802889
331.221547	2176.606393
331.615091	2196.665144
332.008571	2219.456201
332.401986	2239.225086
332.795338	2259.863570
333.188625	2280.013062
333.581847	2298.677934
333.975006	2316.435398
334.368100	2332.292348
334.761129	2350.004442
335.154095	2363.955835
335.546996	2385.519370
335.939833	2405.434449
336.332606	2421.354413
336.725315	2430.768767
337.117960	2440.082299
337.510540	2449.559668
337.903056	2458.739609
338.295508	2461.033334
338.687896	2470.009109
339.080220	2477.923720
339.472480	2482.291880
339.864676	2483.199288
340.256807	2488.016110
340.648875	2491.786893
341.040879	2492.268324
341.432818	2493.488283
341.824694	2494.158756
342.216506	2493.528612
342.608253	2493.773108
342.999937	2490.609784
343.391557	2494.057933
343.783113	2486.193733
344.174605	2489.657006
344.566033	2486.859166
344.957397	2486.377735
345.348697	2482.768269
345.739934	2481.523104
346.131106	2480.993783
346.522215	2479.862044
346.913260	2478.639564
347.304241	2475.577063
347.695159	2474.120170
348.086012	2475.927423
348.476802	2471.957515
348.867528	2470.346866
349.258191	2470.556074
349.648789	2470.165385
350.039324	2469.179839
350.429796	2467.632205
350.820203	2468.728656
351.210548	2467.259159
351.600828	2463.737913
351.991045	2464.887297
352.381198	2467.249077
352.771288	2463.495938
353.161314	2462.205403
353.551276	2469.285703
353.941175	2464.783953
354.331010	2466.770167
354.720782	2463.838737
355.110490	2466.235805
355.500135	2465.502317
355.889717	2470.203193
356.279235	2467.745631
356.668689	2467.307050
357.058080	2468.622792
357.447408	2466.951649
357.836672	2468.151444
358.225873	2467.203707
358.615010	2466.508028
359.004084	2473.149748
359.393095	2470.049438
359.782043	2474.531024
360.170927	2472.869964
360.559748	2471.975159
360.948505	2473.356435
361.337199	2476.799543
361.725830	2480.247692
362.114398	2477.772486
362.502903	2478.263998
362.891344	2478.027064
363.279722	2481.707106
363.668037	2480.731643
364.056289	2481.082003
364.444478	2482.846407
364.832603	2482.710296
365.220665	2481.119812
365.608665	2485.074597
365.996601	2483.345481
366.384474	2485.936634
366.772284	2485.422437
367.160031	2488.963847
367.547715	2485.024186
367.935336	2487.701038
368.322893	2488.880668
368.710388	2489.757829
369.097820	2492.538025
369.485189	2493.314363
369.872495	2492.636328
370.259738	2495.043479
370.646918	2495.678664
371.034035	2497.526247
371.421090	2502.673265
371.808081	2504.901455
372.195010	2506.086126
372.581875	2512.783299
372.968678	2517.738753
373.355418	2524.314939
373.742096	2533.716691
374.128710	2540.403781
374.515262	2553.031872
374.901751	2564.306412
375.288177	2580.899370
375.674540	2596.620208
376.060841	2615.537138
376.447079	2638.791981
376.833254	2657.219919
377.219367	2682.029957
377.605417	2713.736294
377.991404	2736.829820
378.377329	2772.674945
378.763191	2806.359935
379.148991	2853.615711
379.534727	2895.734551
379.920402	2940.946139
380.306013	2984.108499
380.691563	3042.633774
381.077049	3095.049171
381.462474	3150.123777
381.847835	3218.403685
382.233134	3286.502112
382.618371	3343.565453
383.003545	3423.258534
383.388657	3495.157990
383.773706	3584.824994
384.158693	3651.955519
384.543618	3744.485898
384.928480	3816.944923
385.313280	3913.714912
385.698017	4010.641177
386.082692	4128.707521
386.467305	4186.774051
386.851856	4301.949293
387.236344	4457.093323
387.620770	4515.046428
388.005133	4625.077172
388.389435	4763.298049
388.773674	4846.945915
389.157851	4971.480059
389.541965	5099.485037
389.926018	5124.504284
390.310008	5291.391682
390.693936	5407.892747
391.077802	5523.332650
391.461606	5646.760261
391.845348	5759.687148
392.229027	5878.756681
392.612645	6091.473209
392.996200	6205.849428
393.379694	6374.423092
393.763125	6580.205513
394.146494	6673.532394
394.529801	6806.467621
394.913047	7039.381531
395.296230	7037.677621
395.679351	7094.239367
396.062410	7337.129721
396.445408	7240.594146
396.828343	7391.223823
397.211217	7521.285592
397.594028	7411.484220
397.976778	7613.531146
398.359466	7773.623068
398.742092	7758.229905
399.124656	7896.170998
399.507158	8086.633352
399.889598	8106.515662
400.271977	8311.075603
400.654294	8339.416970
401.036549	8545.030512
401.418742	8568.711332
401.800874	8866.159574
402.182944	8944.068086
402.564952	9302.330287
402.946898	9140.824321
403.328783	9189.567237
403.710606	9382.613183
404.092367	9635.482501
404.474067	9987.415533
404.855705	9796.418817
405.237282	9749.168082
405.618797	10168.781125
406.000250	10410.733824
406.381642	10765.608370
406.762972	10707.816582
407.144240	10532.719665
407.525447	10783.217120
407.906593	10725.810981
408.287677	10980.074178
408.668700	11129.614966
409.049661	11119.318409
409.430560	11282.082143
409.811399	11257.428380
410.192176	11415.070302
410.572891	11490.967394
410.953545	11958.902417
411.334138	11452.768051
411.714669	12029.302131
412.095139	11382.222144
412.475547	11851.334277
412.855894	11724.579504
413.236180	12041.025334
413.616405	11740.275137
413.996568	12013.820747
414.376670	11984.229174
414.756711	11874.808409
415.136691	12151.928198
415.516609	12325.585866
415.896466	12404.147207
416.276262	12688.375023
416.655997	13140.949651
417.035670	13188.681816
417.415283	13804.050425
417.794834	13885.936407
418.174324	13634.788643
418.553753	13538.328685
418.933121	14034.894942
419.312428	13861.204506
419.691674	13773.334674
420.070859	14221.674733
420.449983	13883.763670
420.829045	14437.720943
421.208047	14188.377912
421.586988	14636.097908
421.965867	14882.401123
422.344686	14886.991094
422.723444	15443.063131
423.102141	14158.287264
423.480777	15334.443909
423.859352	14831.583772
424.237866	15926.247644
424.616319	15648.550644
424.994712	16282.047242
425.373044	16073.930767
425.751314	16762.030623
426.129524	15894.904270
426.507673	16956.485571
426.885762	16685.057245
427.263789	16860.317999
427.641756	17035.931635
428.019662	17087.517762
428.397508	17129.024102
428.775292	17406.635403
429.153016	17385.696971
429.530679	17439.004652
429.908282	17461.440308
430.285824	17191.781427
430.663305	17882.474956
431.040726	17488.607086
431.418086	17319.279769
431.795385	17919.557684
432.172624	18331.830807
432.549802	17867.681690
432.926920	18053.009629
433.303977	17907.592505
433.680974	18132.604407
434.057910	18410.707221
434.434786	18402.679183
434.811601	18295.426115
435.188355	19268.696482
435.565050	18905.650226
435.941683	18826.887238
436.318257	19639.236413
436.694770	19385.326097
437.071222	19893.489528
437.447614	18947.766546
437.823946	18896.145130
438.200218	18999.808897
438.576429	18712.180824
438.952580	18921.814686
439.328670	18806.553744
439.704700	19115.836094
440.080670	18617.031565
440.456580	19091.005891
440.832429	19141.856010
441.208218	18132.629613
441.583947	18430.629861
441.959616	18426.773378
442.335224	18539.546510
442.710773	18545.104382
443.086261	18890.073061
443.461689	18189.602213
443.837057	18193.004992
444.212365	18618.223798
444.587612	18480.002922
444.962800	17998.159355
445.337927	18199.921455
445.712995	16985.169736
446.088002	18394.860354
446.462949	18392.614520
446.837837	18375.986274
447.212664	18211.753043
447.587431	20315.015689
447.962139	22385.722563
448.336786	23942.395583
448.711374	22446.977624
449.085901	19447.488565
449.460369	19232.085102
449.834776	18983.992277
450.209124	20569.041952
450.583412	19979.428598
450.957640	20081.496840
451.331808	18916.292102
451.705917	17712.852732
452.079965	17499.024630
452.453954	17508.864962
452.827883	17218.832258
453.201752	16851.836258
453.575562	16729.273205
453.949311	17161.660532
454.323001	16962.361036
454.696632	16572.526088
455.070202	17238.722131
455.443713	17086.796877
455.817164	17139.572717
456.190556	17166.381573
456.563888	16592.524345
456.937160	16533.263061
457.310373	15393.155708
457.683526	15338.439024
458.056619	15066.541870
458.429653	14787.375373
458.802628	14814.007789
459.175542	14612.480102
459.548398	14968.771212
459.921194	15414.807463
460.293930	15477.189222
460.666607	16080.219606
461.039224	16541.228084
461.411782	16365.309459
461.784280	15525.748136
462.156719	14974.228261
462.529099	14439.510552
462.901419	13639.207214
463.273680	12955.319243
463.645882	12713.951317
464.018024	12430.126794
464.390106	12472.752270
464.762130	13164.486798
465.134094	14313.096058
465.505999	15803.634180
465.877845	16964.952189
466.249631	16886.789098
466.621358	15852.845924
466.993026	14769.164205
467.364634	13778.733750
467.736184	12905.031212
468.107674	12242.326169
468.479105	11751.705953
468.850477	11294.659822
469.221790	10687.099960
469.593043	10042.003667
469.964238	9595.624618
470.335373	9347.183953
470.706449	9475.274631
471.077467	9778.043811
471.448425	10433.139232
471.819324	10746.068857
472.190164	10132.033634
472.560945	9257.229604
472.931667	8498.112493
473.302330	8093.267510
473.672934	7766.507480
474.043479	7646.563306
474.413965	7355.862649
474.784393	7128.473843
475.154761	7075.070380
475.525070	6921.234529
475.895321	6700.293359
476.265513	6613.525019
476.635645	6573.190747
477.005719	6408.642444
477.375734	6309.709800
477.745691	6229.706688
478.115588	6219.458023
478.485427	6281.426406
478.855207	6466.875333
479.224928	6575.978505
479.594591	6558.662142
479.964194	6291.934692
480.333739	6142.671167
480.703226	5998.398385
481.072653	5921.828300
481.442022	5831.200956
481.811333	5714.518409
482.180584	5497.733671
482.549777	5345.740362
482.918912	5202.934555
483.287988	5081.031894
483.657005	4930.752577
484.025964	4798.195437
484.394864	4702.295046
484.763706	4598.810240
485.132489	4475.889265
485.501213	4392.831215
485.869879	4326.373683
486.238487	4249.344853
486.607036	4197.720917
486.975527	4117.657311
487.343959	4067.651586
487.712333	4017.676107
488.080648	3966.896564
488.448905	3937.609981
488.817104	3883.548647
489.185244	3877.988255
489.553326	3889.116602
489.921350	3933.675361
490.289315	3988.568485
490.657222	3967.345227
491.025070	3940.667441
491.392861	3878.709140
491.760593	3806.867656
492.128267	3732.132550
492.495883	3661.833660
492.863440	3606.796863
493.230939	3551.482802
493.598380	3502.702077
493.965763	3473.947336
494.333088	3439.004578
494.700354	3409.193714
495.067563	3391.736199
495.434713	3371.695092
495.801805	3359.903833
496.168839	3340.228209
496.535815	3320.179540
496.902733	3305.940801
497.269593	3285.478758
497.636395	3272.981737
498.003139	3273.485853
498.369825	3250.367121
498.736453	3244.284969
499.103023	3227.034141
499.469535	3215.104250
499.835989	3203.812066
500.202385	3187.181299
500.568723	3177.076306
500.935003	3174.931295
501.301226	3158.560148
501.667390	3159.787669
502.033497	3153.992863
502.399546	3138.813948
502.765537	3120.741412
503.131470	3116.471555
503.497345	3114.021554
503.863163	3086.333016
504.228923	3085.491144
504.594625	3083.693972
504.960269	3064.802248
505.325856	3067.287537
505.691385	3051.191133
506.056856	3047.644681
506.422270	3044.801470
506.787625	3035.069523
507.152924	3029.252031
507.518164	3025.705580
507.883347	3010.201511
508.248472	3006.743279
508.613540	3006.032477
508.978550	3003.161540
509.343503	2995.778770
509.708398	2991.670229
510.073236	2993.520333
510.438016	2986.112357
510.802738	2977.943168
511.167403	2982.104640
511.532010	2977.476861
511.896561	2975.825883
512.261053	2982.011379
512.625488	2969.975624
512.989866	2965.952783
513.354186	2961.970272
513.718449	2953.836370
514.082655	2958.766618
514.446803	2952.636575
514.810894	2958.350723
515.174927	2954.683284
515.538904	2952.467697
515.902822	2951.474589
516.266684	2942.839093
516.630488	2946.234310
516.994235	2942.534103
517.357925	2947.159362
517.721558	2947.139197
518.085133	2947.514763
518.448651	2947.489557
518.812112	2940.227775
519.175516	2938.506221
519.538863	2940.046293
519.902152	2940.384051
520.265385	2940.235337
520.628560	2937.228288
520.991678	2936.323401
521.354739	2935.204265
521.717743	2938.970007
522.080690	2933.666713
522.443580	2936.439348
522.806413	2937.291303
523.169189	2936.502362
523.531908	2933.666713
523.894569	2932.449275
524.257174	2929.971548
524.619722	2932.769388
524.982213	2933.172680
525.344647	2927.226639
525.707025	2930.279058
526.069345	2929.676640
526.431608	2927.607246
526.793815	2929.258224
527.155964	2924.343099
527.518057	2924.022986
527.880093	2920.350505
528.242072	2921.898140
528.603995	2922.775300
528.965860	2917.933272
529.327669	2918.500402
529.689421	2913.018147
530.051117	2916.065525
530.412755	2913.660894
530.774337	2913.388672
531.135862	2913.204670
531.497331	2908.881880
531.858743	2903.339132
532.220098	2908.415574
532.581396	2906.179822
532.942638	2899.588513
533.303824	2900.939543
533.664953	2902.323339
534.026025	2899.916188
534.387040	2903.979358
534.747999	2900.828637
535.108902	2904.949780
535.469748	2894.887637
535.830537	2892.966958
536.191270	2896.863770
536.551947	2891.890671
536.912567	2894.310425
537.273131	2890.763973
537.633638	2884.888509
537.994089	2888.346740
538.354483	2881.528580
538.714821	2887.393962
539.075103	2890.232132
539.435328	2884.170144
539.795497	2883.492109
540.155609	2882.698127
540.515665	2884.336502
540.875665	2878.740822
541.235609	2881.422715
541.595496	2878.271994
541.955328	2881.856255
542.315102	2876.926006
542.674821	2874.342415
543.034483	2872.467106
543.394090	2871.494163
543.753640	2870.349821
544.113134	2876.336191
544.472571	2869.230685
544.831953	2878.017416
545.191278	2867.483925
545.550548	2867.811600
545.909761	2870.070037
546.268918	2868.517362
546.628019	2870.927033
546.987064	2866.742875
547.346053	2860.799355
547.704986	2865.936291
548.063863	2860.393542
548.422684	2861.943697
548.781449	2858.009076
549.140158	2860.426310
549.498811	2860.774149
549.857408	2855.128057
550.215949	2858.102338
550.574434	2855.105372
550.932864	2855.049919
551.291237	2855.821216
551.649555	2853.887933
552.007817	2855.508664
552.366022	2853.005731
552.724173	2853.530011
553.082267	2856.267358
553.440305	2856.481607
553.798288	2853.093951
554.156215	2852.476410
554.514086	2851.937007
554.871902	2849.774352
555.229661	2848.433405
555.587365	2852.380628
555.945014	2849.373580
556.302606	2846.295955
556.660143	2850.089424
557.017625	2848.733353
557.375050	2845.207066
557.732421	2848.995493
558.089735	2847.722602
558.446994	2846.863085
558.804197	2846.424505
559.161345	2847.498271
559.518437	2844.765965
559.875474	2843.765296
560.232455	2844.912159
560.589381	2844.193794
560.946251	2844.977694
561.303065	2845.320492
561.659825	2843.082220
562.016528	2841.839575
562.373177	2839.739935
562.729770	2841.080882
563.086307	2839.959225
563.442789	2839.359328
563.799216	2841.499297
564.155587	2836.072495
564.511904	2836.926971
564.868164	2841.385872
565.224370	2838.073833
565.580520	2838.845130
565.936615	2839.185408
566.292654	2833.045282
566.648638	2836.072495
567.004567	2836.064934
567.360441	2836.944615
567.716260	2832.768019
568.072023	2836.097701
568.427732	2829.430775
568.783385	2829.259376
569.138982	2831.177535
569.494525	2830.786846
569.850013	2826.441371
570.205445	2829.453460
570.560823	2828.667040
570.916145	2829.730724
571.271412	2828.251145
571.626625	2824.523212
571.981782	2824.568582
572.336884	2822.282419
572.691931	2823.149497
573.046923	2818.927531
573.401860	2818.577171
573.756743	2818.083138
574.111570	2818.425936
574.466342	2816.628765
574.821059	2815.076090
575.175722	2814.367807
575.530330	2814.246820
575.884882	2813.813281
576.239380	2811.207004
576.593823	2810.680203
576.948211	2807.579894
577.302544	2802.881538
577.656823	2805.281128
578.011047	2805.109728
578.365216	2804.028401
578.719330	2804.255253
579.073389	2796.809469
579.427394	2798.959521
579.781344	2798.011784
580.135239	2797.719397
580.489080	2793.880558
580.842866	2794.538429
581.196597	2796.973306
581.550273	2795.607153
581.903895	2791.606998
582.257463	2795.115641
582.610975	2785.935700
582.964434	2790.868469
583.317837	2786.691873
583.671186	2787.816050
584.024481	2784.693055
584.377721	2781.968312
584.730906	2782.124587
585.084037	2783.349588
585.437113	2781.834721
585.790135	2783.846142
586.143103	2777.204421
586.496016	2777.723660
586.848874	2773.403391
587.201679	2773.070675
587.554428	2770.918102
587.907124	2771.785181
588.259765	2770.005654
588.612352	2772.594286
588.964884	2770.270314
589.317362	2771.452465
589.669786	2770.328287
590.022155	2768.009357
590.374470	2765.922319
590.726731	2767.061620
591.078937	2763.323604
591.431090	2764.997267
591.783188	2760.742533
592.135232	2756.886051
592.487222	2759.507451
592.839157	2758.950403
593.191038	2756.404621
593.542866	2759.076432
593.894639	2750.135946
594.246358	2753.662233
594.598022	2749.911614
594.949633	2750.559403
595.301190	2748.321130
595.652692	2744.620923
596.004141	2747.922879
596.355535	2743.363156
596.706876	2741.881056
597.058162	2740.920717
597.409395	2744.356263
597.760573	2743.973135
598.111698	2735.834192
598.462768	2737.064234
598.813785	2737.908627
599.164748	2734.818400
599.515657	2733.386712
599.866511	2731.982751
600.217312	2732.360837
600.568060	2729.656258
600.918753	2731.849160
601.269392	2731.395456
601.619978	2727.886813
601.970510	2730.283882
602.320988	2729.169787
602.671412	2732.335632
603.021783	2728.254817
603.372100	2723.828684
603.722363	2727.259190
604.072572	2726.162739
604.422728	2726.591237
604.772830	2720.282233
605.122878	2719.687377
605.472872	2718.966492
605.822813	2719.828529
606.172701	2720.446070
606.522534	2721.290463
606.872314	2723.082594
607.222041	2721.020762
607.571714	2720.264589
607.921333	2719.266440
608.270899	2715.709906
608.620411	2722.719631
608.969870	2719.523539
609.319276	2714.983980
609.668627	2717.693600
610.017926	2718.490102
610.367171	2717.633106
610.716362	2716.670246
611.065500	2719.498333
611.414585	2717.933055
611.763616	2715.170503
612.112594	2715.336861
612.461518	2719.369784
612.810389	2716.115719
613.159207	2716.730740
613.507971	2716.319886
613.856682	2715.228476
614.205340	2716.430791
614.553945	2717.572612
614.902496	2715.150338
615.250994	2714.053887
615.599439	2716.632437
615.947830	2715.757797
616.296169	2716.662684
616.644454	2718.180072
616.992686	2715.165462
617.340864	2716.128322
617.688990	2714.368959
618.037063	2714.482385
618.385082	2716.829042
618.733048	2714.147148
619.080961	2715.813250
619.428821	2714.830225
619.776628	2714.900801
620.124382	2710.507435
620.472083	2710.000799
620.819731	2710.187322
621.167326	2707.679348
621.514868	2710.633464
621.862357	2706.451827
622.209793	2705.131045
622.557176	2705.625078
622.904506	2698.517051
623.251783	2694.262317
623.599007	2695.467153
623.946179	2692.024045
624.293297	2693.145702
624.640363	2692.492872
624.987376	2692.752492
625.334336	2689.379960
625.681243	2689.170752
626.028097	2686.753518
626.374899	2686.375432
626.721647	2685.079855
627.068343	2681.467869
627.414987	2682.849145
627.761577	2679.990811
628.108115	2681.329237
628.454600	2680.663805
628.801032	2679.968125
629.147412	2676.739266
629.493739	2678.617096
629.840014	2676.562826
630.186236	2675.110974
630.532405	2674.170798
630.878521	2677.180367
631.224585	2674.473268
631.570597	2670.606703
631.916556	2673.790191
632.262462	2672.492094
632.608316	2671.188956
632.954117	2668.716270
633.299866	2669.447237
633.645562	2666.997237
633.991206	2666.019253
634.336797	2664.141423
634.682336	2666.425066
635.027823	2661.393994
635.373257	2661.812410
635.718639	2658.152532
636.063968	2660.849549
636.409245	2657.900474
636.754470	2655.299239
637.099642	2655.216060
637.444762	2652.380411
637.789829	2653.476862
638.134845	2649.398568
638.479808	2652.471152
638.824719	2649.612817
639.169577	2646.610810
639.514383	2648.085348
639.859137	2643.505460
640.203839	2646.951088
640.548489	2645.050573
640.893086	2639.457413
641.237632	2639.530510
641.582125	2641.131076
641.926566	2638.416415
642.270955	2644.526293
642.615292	2640.407671
642.959576	2640.752990
643.303809	2640.294245
643.647990	2639.659059
643.992118	2639.946405
644.336195	2639.689306
644.680219	2639.434728
645.024192	2639.235602
645.368112	2638.975983
645.711981	2639.860705
646.055797	2643.480254
646.399562	2641.718371
646.743274	2644.755666
647.086935	2647.614000
647.430544	2645.766417
647.774101	2644.158289
648.117606	2646.560399
648.461059	2647.513177
648.804460	2647.866058
649.147810	2641.476395
649.491108	2641.698206
649.834354	2641.267187
650.177548	2637.498925
650.520690	2635.739562
650.863781	2636.127731
651.206820	2639.091929
651.549807	2631.356279
651.892742	2631.673872
652.235626	2631.172277
652.578458	2628.417286
652.921238	2627.527522
653.263967	2629.065074
653.606644	2624.969137
653.949269	2624.454939
654.291843	2626.289919
654.634365	2628.049282
654.976836	2623.209774
655.319255	2625.838736
655.661622	2624.943931
656.003938	2626.302522
656.346203	2623.126595
656.688416	2623.499641
657.030577	2623.030813
657.372687	2619.756584
657.714746	2620.648868
658.056753	2623.492079
658.398708	2617.339351
658.740612	2616.308435
659.082465	2617.208281
659.424266	2615.675770
659.766016	2615.199381
660.107715	2617.049484
660.449362	2617.888836
660.790958	2616.333640
661.132503	2619.091152
661.473996	2617.828342
661.815438	2621.861266
662.156829	2618.234155
662.498168	2616.540328
662.839456	2617.178034
663.180693	2616.207612
663.521879	2618.322376
663.863013	2616.479834
664.204097	2616.346243
664.545129	2619.333127
664.886110	2620.419496
665.227040	2617.273816
665.567918	2617.238527
665.908746	2619.920421
666.249522	2621.142901
666.590248	2617.470421
666.930922	2617.185595
667.271545	2618.415637
667.612118	2619.320524
667.952639	2617.140225
668.293109	2618.627365
668.633528	2617.024278
668.973896	2615.557303
669.314213	2614.778444
669.654480	2616.439505
669.994695	2615.020420
670.334859	2615.673249
670.674973	2616.263064
671.015035	2615.469082
671.355047	2614.007148
671.695008	2615.821963
672.034918	2612.494802
672.374777	2614.949844
672.714585	2613.707199
673.054342	2613.195522
673.394049	2613.273660
673.733705	2612.832559
674.073310	2614.206273
674.412864	2612.958588
674.752368	2610.949688
675.091820	2613.455142
675.431223	2609.225613
675.770574	2611.105964
676.109875	2606.596652
676.449125	2605.243102
676.788324	2606.521034
677.127473	2604.330653
677.466571	2603.934923
677.805619	2604.897783
678.144616	2603.236723
678.483562	2605.999275
678.822458	2602.084819
679.161303	2605.094388
679.500098	2604.789398
679.838842	2604.708740
680.177535	2600.073399
680.516179	2602.475508
680.854771	2603.057762
681.193314	2604.605396
681.531805	2607.584718
681.870247	2613.664349
682.208638	2614.284411
682.546978	2614.352467
682.885268	2614.420523
683.223508	2616.535287
683.561697	2612.409102
683.899836	2611.363063
684.237925	2608.764348
684.575963	2608.280397
684.913951	2606.974738
685.251889	2609.386930
685.589776	2607.884667
685.927614	2605.724532
686.265401	2606.281580
686.603137	2608.829883
686.940824	2612.038577
687.278460	2609.661673
687.616046	2613.692076
687.953582	2613.797940
688.291068	2612.242744
688.628504	2616.066459
688.965889	2614.259206
689.303224	2612.835080
689.640510	2611.615120
689.977745	2608.224944
690.314930	2607.380551
690.652065	2606.193359
690.989150	2599.846547
691.326185	2599.685230
691.663170	2596.559714
692.000105	2595.614498
692.336990	2594.578541
692.673825	2595.007039
693.010610	2592.688108
693.347345	2588.486307
693.684030	2581.665625
694.020665	2584.017324
694.357251	2583.281315
694.693786	2580.695203
695.030272	2581.975656
695.366707	2580.939699
695.703093	2583.838363
696.039429	2581.892477
696.375716	2580.801067
696.711952	2575.906107
697.048139	2578.116653
697.384276	2578.711509
697.720363	2576.770665
698.056400	2581.068249
698.392388	2578.414081
698.728326	2576.677404
699.064214	2578.111612
699.400053	2578.512384
699.735842	2576.896694
700.071581	2575.293607
700.407270	2574.706312
700.742910	2574.832341
701.078501	2572.105077
701.414042	2571.946281
701.749533	2571.984089
702.084974	2571.711867
702.420366	2568.644325
702.755709	2568.687175
703.091002	2567.754561
703.426246	2571.762279
703.761440	2566.721125
704.096584	2568.288924
704.431679	2567.016032
704.766725	2565.304561
705.101721	2566.574931
705.436668	2566.852195
705.771565	2564.878583
706.106413	2568.132648
706.441212	2565.793552
706.775961	2569.841599
707.110661	2568.172977
707.445311	2567.641135
707.779913	2568.155333
708.114465	2569.130796
708.448967	2570.552402
708.783421	2571.636250
709.117825	2574.547516
709.452180	2572.692372
709.786485	2575.838052
710.120742	2577.284863
710.454949	2577.249575
710.789107	2579.520614
711.123216	2578.403999
711.457275	2580.269226
711.791286	2579.974318
712.125247	2582.885585
712.459159	2584.110585
712.793023	2584.334916
713.126837	2582.686459
713.460602	2582.356263
713.794318	2578.257805
714.127985	2580.428022
714.461602	2577.380645
714.795171	2574.539954
715.128691	2575.427197
715.462162	2571.749676
715.795584	2571.868143
716.128957	2569.897052
716.462281	2569.917216
716.795556	2570.053327
717.128782	2563.676268
717.461960	2564.505538
717.795088	2568.548543
718.128167	2564.487894
718.461198	2561.415310
718.794180	2564.167780
719.127113	2559.746688
719.459997	2562.675599
719.792833	2558.819116
720.125619	2560.517985
720.458357	2558.241904
720.791046	2559.701318
721.123686	2555.534804
721.456278	2558.874569
721.788821	2557.926832
722.121315	2558.630073
722.453761	2554.912222
722.786158	2555.935576
723.118506	2555.426420
723.450805	2554.483724
723.783056	2556.069167
724.115259	2554.110678
724.447412	2554.403065
724.779518	2556.694270
725.111574	2556.497665
725.443582	2559.066133
725.775542	2555.436502
726.107453	2558.980433
726.439315	2559.305587
726.771129	2566.017884
727.102895	2560.472615
727.434612	2560.659137
727.766281	2562.859601
728.097901	2561.289282
728.429473	2559.945814
728.760996	2559.935732
729.092471	2557.962120
729.423897	2565.014694
729.755276	2566.264900
730.086606	2562.852039
730.417887	2561.402707
730.749120	2568.115004
731.080305	2567.058882
731.411442	2568.220868
731.742530	2570.186918
732.073570	2570.005437
732.404562	2570.169274
732.735506	2570.655745
733.066401	2564.311453
733.397249	2565.722976
733.728048	2564.376988
734.058798	2563.406566
734.389501	2558.980433
734.720156	2559.693756
735.050762	2559.502193
735.381320	2554.513971
735.711831	2554.758467
736.042293	2553.369629
736.372707	2555.083621
736.703073	2553.614125
737.033391	2556.921122
737.363661	2553.288970
737.693883	2554.728220
738.024056	2557.689898
738.354182	2555.469269
738.684260	2559.320711
739.014290	2559.862635
739.344272	2559.275341
739.674207	2559.078736
740.004093	2559.666030
740.333931	2561.100238
740.663722	2560.296174
740.993464	2561.811041
741.323159	2559.033365
741.652806	2558.433468
741.982405	2559.202244
742.311956	2557.642007
742.641460	2555.728889
742.970915	2553.677139
743.300323	2553.856100
743.629683	2555.275185
743.958996	2555.643189
744.288260	2553.064639
744.617477	2548.656150
744.946647	2545.717157
745.275768	2547.473999
745.604842	2543.642723
745.933869	2545.752445
746.262847	2544.880326
746.591778	2546.856458
746.920662	2546.498536
747.249498	2548.525080
747.578286	2548.550286
747.907027	2547.317724
748.235720	2551.002807
748.564365	2551.005328
748.892963	2547.363094
749.221514	2548.814946
749.550017	2550.218908
749.878473	2550.574309
750.206881	2550.476007
750.535242	2548.303269
750.863555	2546.453166
751.191821	2545.928886
751.520039	2547.169010
751.848210	2547.849565
752.176334	2546.856458
752.504411	2546.795964
752.832440	2548.144473
753.160421	2548.943496
753.488356	2545.674307
753.816243	2547.952909
754.144082	2546.150697
754.471875	2546.140614
754.799620	2546.125491
755.127318	2544.872764
755.454969	2546.460727
755.782572	2544.351005
756.110129	2544.522404
756.437638	2544.860161
756.765100	2545.868392
757.092515	2543.756148
757.419882	2546.163299
757.747203	2543.362938
758.074477	2543.345294
758.401703	2545.127342
758.728882	2546.992569
759.056014	2545.555840
759.383099	2546.629606
759.710138	2546.185985
760.037129	2549.162786
760.364073	2551.201933
760.690970	2547.272353
761.017820	2550.042467
761.344623	2549.467776
761.671379	2551.915256
761.998088	2550.881819
762.324751	2556.558159
762.651366	2566.080898
762.977935	2582.295770
763.304456	2588.917325
763.630931	2595.117944
763.957359	2593.305650
764.283740	2583.687128
764.610074	2577.514235
764.936362	2572.475602
765.262602	2560.989333
765.588796	2558.367933
765.914943	2554.312325
766.241044	2547.403423
766.567097	2547.663043
766.893104	2544.477033
767.219064	2543.864533
767.544978	2540.721374
767.870845	2539.882022
768.196665	2541.293545
768.522438	2541.916127
768.848165	2539.521579
769.173846	2537.462268
769.499479	2535.798687
769.825066	2538.130221
770.150607	2533.555374
770.476101	2532.055630
770.801548	2536.088553
771.126949	2534.258615
771.452303	2534.331711
771.777611	2531.193593
772.102872	2533.976310
772.428087	2531.826258
772.753256	2533.537730
773.078378	2531.748120
773.403453	2531.112935
773.728482	2530.218130
774.053465	2529.731658
774.378401	2532.176618
774.703291	2530.835671
775.028135	2527.783253
775.352932	2530.749972
775.677683	2531.198634
776.002388	2530.147554
776.327046	2528.804086
776.651658	2525.933149
776.976224	2528.975485
777.300743	2527.090094
777.625216	2527.914323
777.949643	2527.679909
778.274024	2527.158149
778.598359	2525.071112
778.922647	2524.362830
779.246889	2521.973323
779.571086	2523.132788
779.895236	2526.464991
780.219339	2524.861904
780.543397	2527.339631
780.867409	2526.170083
781.191374	2526.454908
781.515294	2525.476925
781.839167	2525.887779
782.162995	2528.317615
782.486776	2524.509023
782.810511	2526.308715
783.134201	2525.819723
783.457844	2523.052130
783.781441	2528.347862
784.104993	2525.983561
784.428498	2525.522295
784.751958	2522.064063
785.075372	2523.500792
785.398739	2524.687984
785.722061	2525.900382
786.045337	2526.384332
786.368568	2525.575227
786.691752	2523.755371
787.014891	2528.935156
787.337983	2529.313243
787.661030	2532.290044
787.984031	2530.520599
788.306987	2535.034952
788.629897	2535.158461
788.952760	2535.967566
789.275579	2535.561753
789.598351	2533.215096
789.921078	2532.693336
790.243759	2530.999509
790.566395	2527.180835
790.888984	2526.507841
791.211529	2528.478932
791.534027	2524.947603
791.856480	2525.015659
792.178888	2525.171935
792.501249	2526.714528
792.823566	2525.628159
793.145836	2522.421985
793.468062	2522.986595
793.790241	2522.671523
794.112375	2525.270237
794.434464	2527.238808
794.756507	2527.352234
795.078505	2524.395597
795.400457	2524.463653
795.722364	2524.967768
796.044226	2528.932636
796.366042	2528.050434
796.687812	2527.964734
797.009538	2530.571011
797.331218	2531.420445
797.652852	2528.325177
797.974442	2529.933305
798.295986	2528.970444
798.617484	2528.385670
798.938938	2527.422810
799.260346	2529.439272
799.581709	2527.294261
799.903026	2530.223171
800.224299	2525.504651
800.545526	2526.528005
800.866708	2526.664116
801.187845	2523.823426
801.508936	2525.015659
801.829983	2526.694363
802.150984	2525.671009
802.471940	2523.815864
802.792851	2521.025586
803.113717	2524.468694
803.434538	2521.486851
803.755314	2523.548683
804.076045	2523.586492
804.396731	2522.268230
804.717372	2522.706811
805.037967	2526.245701
805.358518	2521.489372
805.679024	2524.690505
805.999485	2521.444002
806.319901	2523.344517
806.640272	2521.411234
806.960598	2525.459281
807.280879	2524.698066
807.601115	2523.646986
807.921306	2523.702438
808.241453	2523.039527
808.561554	2522.336286
808.881611	2524.927439
809.201623	2523.210926
809.521590	2524.791328
809.841513	2528.105886
810.161390	2522.999198
810.481223	2523.097500
810.801011	2522.923580
811.120755	2525.174455
811.440453	2520.420647
811.760107	2524.277130
812.079716	2520.483662
812.399281	2520.155987
812.718801	2519.248579
813.038276	2517.569875
813.357707	2524.337624
813.677093	2523.140350
813.996434	2525.449198
814.315731	2522.822757
814.634983	2520.468538
814.954191	2522.500123
815.273354	2527.014477
815.592473	2522.719413
815.911547	2525.088756
816.230577	2523.561286
816.549562	2525.653365
816.868502	2525.761750
817.187399	2524.685463
817.506250	2526.137316
817.825058	2526.666637
818.143821	2528.741072
818.462539	2530.618902
818.781213	2532.824406
819.099843	2532.164015
819.418429	2539.130890
819.736970	2543.365459
820.055466	2547.395862
820.373919	2556.245607
820.692327	2565.685168
821.010691	2583.132601
821.329011	2623.519805
821.647286	2687.701255
821.965517	2751.653333
822.283704	2789.288067
822.601847	2799.229222
822.919945	2772.828700
823.237999	2740.542630
823.556010	2710.532641
823.873976	2677.520645
824.191897	2652.856800
824.509775	2630.222019
824.827609	2612.187291
825.145398	2600.547267
825.463144	2595.367482
825.780845	2597.310846
826.098502	2604.446600
826.416116	2618.271964
826.733685	2637.027577
827.051210	2638.849954
827.368692	2632.430045
827.686129	2616.341202
828.003522	2596.158943
828.320872	2577.219328
828.638177	2570.086095
828.955439	2555.774259
829.272656	2552.164793
829.589830	2543.960315
829.906960	2542.871426
830.224046	2538.727597
830.541088	2532.461443
830.858086	2530.971782
831.175041	2533.270548
831.491952	2533.043697
831.808819	2532.690816
832.125642	2531.589324
832.442421	2538.533513
832.759157	2543.892260
833.075849	2556.522871
833.392497	2570.597772
833.709101	2578.159503
834.025662	2577.988104
834.342179	2570.975859
834.658653	2559.330793
834.975083	2553.699824
835.291469	2548.086500
835.607811	2544.247661
835.924110	2535.932278
836.240366	2533.527647
836.556578	2529.386339
836.872746	2526.477594
837.188871	2523.886441
837.504952	2525.078673
837.820990	2524.052799
838.136984	2519.702283
838.452935	2518.855369
838.768842	2521.146573
839.084706	2522.686646
839.400526	2529.066226
839.716303	2534.677030
840.032037	2538.281455
840.347727	2538.173071
840.663373	2535.334901
840.978977	2528.360465
841.294537	2525.849970
841.610054	2524.735875
841.925527	2524.211595
842.240957	2522.464835
842.556344	2518.580626
842.871687	2518.084073
843.186987	2516.291942
843.502244	2513.655419
843.817458	2514.111643
844.132629	2514.126767
844.447756	2513.693228
844.762840	2510.010665
845.077881	2512.017044
845.392879	2510.628206
845.707833	2511.374297
846.022745	2508.962105
846.337613	2511.394461
846.652438	2510.645850
846.967221	2512.493433
847.281960	2511.394461
847.596656	2513.133659
847.911309	2511.921262
848.225919	2508.848679
848.540485	2512.427898
848.855009	2512.949657
849.169490	2512.311951
849.483928	2511.770027
849.798323	2512.574091
850.112675	2512.014523
850.426984	2512.047291
850.741251	2514.819925
851.055474	2514.318331
851.369654	2509.635099
851.683792	2510.260202
851.997887	2512.064935
852.311938	2509.970335
852.625947	2509.746004
852.939914	2511.291118
853.253837	2511.800274
853.567718	2509.569564
853.881555	2511.167609
854.195350	2510.298010
854.509103	2508.949502
854.822812	2509.186436
855.136479	2512.052332
855.450103	2507.540499
855.763685	2509.803977
856.077224	2511.643998
856.390720	2509.448576
856.704173	2511.812877
857.017584	2510.136693
857.330953	2508.044615
857.644278	2510.950840
857.957561	2511.991838
858.270802	2512.140552
858.584000	2510.189626
858.897155	2510.877743
859.210268	2509.967815
859.523339	2510.736591
859.836367	2510.759276
860.149352	2510.161899
860.462295	2512.818587
860.775195	2507.361538
861.088054	2507.575787
861.400869	2507.636281
861.713642	2504.732577
862.026373	2510.212311
862.339062	2509.277177
862.651708	2511.510408
862.964312	2511.306241
863.276873	2511.762466
863.589392	2513.214318
863.901869	2511.870850
864.214303	2510.749194
864.526696	2512.122908
864.839045	2512.289266
865.151353	2512.493433
865.463619	2512.455624
865.775842	2511.916221
866.088023	2513.121057
866.400162	2512.866478
866.712258	2510.345901
867.024313	2510.965963
867.336325	2509.940088
867.648296	2512.042250
867.960224	2513.045439
868.272110	2512.233813
868.583954	2510.986128
868.895755	2511.326406
869.207515	2512.231293
869.519233	2515.094668
869.830909	2514.174658
870.142542	2513.877230
870.454134	2512.818587
870.765684	2513.116015
871.077191	2513.867147
871.388657	2515.936541
871.700081	2516.675070
872.011463	2514.472086
872.322803	2515.500481
872.634101	2516.856552
872.945357	2515.765142
873.256571	2515.099709
873.567744	2513.975532
873.878874	2515.467714
874.189963	2515.750018
874.501010	2517.791686
874.812015	2517.373270
875.122979	2516.654905
875.433900	2515.714730
875.744780	2515.777745
876.055618	2518.114319
876.366415	2519.059536
876.677169	2516.312107
876.987882	2516.506191
877.298554	2511.948988
877.609183	2515.606345
877.919771	2514.401510
878.230317	2516.329751
878.540822	2522.976512
878.851285	2521.791841
879.161707	2523.851152
879.472087	2531.158305
879.782425	2537.502597
880.092722	2552.479865
880.402977	2577.826787
880.713191	2605.308637
881.023363	2630.075826
881.333494	2644.397744
881.643583	2649.837149
881.953631	2645.055614
882.263637	2637.350211
882.573602	2626.972996
882.883526	2619.134001
883.193408	2607.075561
883.503248	2593.623242
883.813048	2586.852973
884.122806	2574.822259
884.432522	2571.447207
884.742197	2560.943962
885.051831	2553.838456
885.361424	2550.087838
885.670975	2539.743390
885.980485	2535.387833
886.289954	2533.492359
886.599382	2529.961031
886.908768	2532.373223
887.218113	2526.326359
887.527417	2524.899713
887.836680	2524.153622
888.145901	2519.208250
888.455082	2520.022396
888.764221	2518.759587
889.073319	2518.857890
889.382376	2518.492406
889.691392	2517.022910
890.000366	2520.302180
890.309300	2514.197343
890.618193	2518.023579
890.927044	2517.002745
891.235855	2518.066428
891.544625	2517.222035
891.853353	2517.247241
892.162041	2518.938548
892.470687	2520.045081
892.779293	2522.013652
893.087858	2522.144722
893.396381	2523.215967
893.704864	2534.440096
894.013306	2538.964532
894.321707	2548.146993
894.630068	2549.339226
894.938387	2553.515822
895.246665	2552.716799
895.554903	2550.072714
895.863100	2545.170192
896.171256	2541.343956
896.479371	2538.309182
896.787446	2534.689633
897.095480	2529.903058
897.403473	2530.197965
897.711425	2528.504138
898.019336	2526.775022
898.327207	2523.969620
898.635038	2522.364012
898.942827	2520.884433
899.250576	2521.746471
899.558284	2516.516274
899.865952	2518.444515
900.173579	2516.317148
900.481165	2513.796571
900.788711	2516.037364
901.096216	2514.953516
901.403681	2516.415451
901.711105	2513.617610
902.018489	2513.960409
902.325832	2512.478309
902.633135	2518.411748
902.940397	2520.027437
903.247619	2527.616894
903.554800	2535.690302
903.861941	2548.618341
904.169041	2561.006977
904.476101	2563.658624
904.783121	2561.942111
905.090100	2554.582026
905.397039	2550.420554
905.703938	2544.550130
906.010796	2542.148020
906.317614	2536.572504
906.624391	2530.366844
906.931129	2529.187214
907.237826	2525.575227
907.544483	2521.451563
907.851099	2519.334279
908.157675	2517.786644
908.464211	2516.483506
908.770707	2509.919924
909.077163	2510.262722
909.383578	2506.870026
909.689954	2509.680469
909.996289	2505.549243
910.302584	2511.429749
910.608839	2508.863802
910.915054	2511.419667
911.221229	2509.113339
911.527363	2507.787516
911.833458	2509.987979
912.139513	2510.474451
912.445527	2510.015706
912.751502	2511.238186
913.057436	2511.901097
913.363331	2511.313803
913.669186	2512.516118
913.975000	2516.077693
914.280775	2518.562982
914.586510	2524.274609
914.892205	2527.695032
915.197859	2538.072248
915.503475	2546.763197
915.809050	2554.314845
916.114585	2557.876420
916.420081	2564.734910
916.725536	2560.623849
917.030952	2557.914229
917.336328	2555.396173
917.641665	2553.145297
917.946961	2545.507949
918.252218	2543.068031
918.557435	2540.701209
918.862612	2537.071578
919.167750	2531.324663
919.472848	2532.131248
919.777906	2524.695546
920.082925	2527.132944
920.387904	2521.809485
920.692843	2520.972654
920.997743	2518.414268
921.302603	2517.625328
921.607423	2513.829339
921.912204	2515.248423
922.216946	2515.329082
922.521647	2514.051149
922.826310	2514.237672
923.130932	2513.554596
923.435516	2512.135511
923.740059	2510.542506
924.044564	2510.275325
924.349028	2512.034688
924.653454	2505.892042
924.957840	2505.435818
925.262186	2502.824500
925.566493	2504.891373
925.870761	2502.355673
926.174989	2505.806342
926.479178	2507.853051
926.783328	2508.016888
927.087438	2504.498163
927.391509	2506.267608
927.695541	2504.533451
927.999533	2506.189470
928.303486	2506.315499
928.607400	2506.784326
928.911275	2506.328102
929.215110	2505.458503
929.518906	2504.740138
929.822663	2504.344408
930.126381	2501.536485
930.430060	2506.350787
930.733699	2503.000940
931.037299	2506.859943
931.340861	2504.094871
931.644383	2503.522700
931.947866	2503.971362
932.251309	2505.123266
932.554714	2504.031856
932.858080	2507.296003
933.161407	2505.798781
933.464694	2504.546054
933.767943	2504.472957
934.071153	2505.758451
934.374323	2504.183091
934.677455	2505.783657
934.980548	2503.888183
935.283602	2503.101763
935.586617	2504.921620
935.889593	2504.097391
936.192530	2502.688389
936.495428	2503.827689
936.798287	2501.002123
937.101108	2507.981600
937.403890	2505.965139
937.706632	2505.922289
938.009336	2508.168123
938.312002	2505.743328
938.614628	2508.982269
938.917216	2510.101405
939.219765	2506.048318
939.522275	2510.537465
939.824747	2511.109636
940.127179	2506.769203
940.429573	2505.695437
940.731929	2506.784326
941.034246	2502.927843
941.336524	2506.406240
941.638763	2510.131652
941.940964	2505.052690
942.243126	2506.260046
942.545250	2509.710716
942.847335	2505.070334
943.149381	2505.211486
943.451389	2506.870026
943.753359	2504.480519
944.055290	2506.285252
944.357182	2505.392968
944.659036	2508.079903
944.960851	2504.293996
945.262628	2502.413646
945.564367	2505.531599
945.866067	2504.246105
946.167729	2503.389109
946.469352	2505.171157
946.770937	2501.123110
947.072484	2503.747031
947.373992	2504.823317
947.675462	2503.668893
947.976893	2506.980931
948.278286	2507.147289
948.579641	2503.878101
948.880958	2504.016733
949.182236	2500.752586
949.483476	2503.978924
949.784678	2505.045128
950.085841	2501.947339
950.386967	2505.261898
950.688054	2504.903976
950.989103	2503.810045
951.290114	2504.314161
951.591087	2505.035046
951.892021	2507.903462
952.192917	2506.610406
952.493776	2506.418843
952.794596	2507.558143
953.095378	2505.450941
953.396122	2509.156189
953.696828	2507.132166
953.997496	2509.178874
954.298126	2506.733915
954.598718	2505.748369
954.899272	2506.537310
955.199788	2504.846002
955.500266	2508.619306
955.800706	2503.731907
956.101108	2501.203769
956.401472	2498.703357
956.701798	2500.230826
957.002087	2500.319046
957.302337	2500.593789
957.602550	2500.944149
957.902724	2501.390292
958.202861	2500.724859
958.502960	2503.875580
958.803022	2501.105466
959.103045	2502.355672
959.403031	2501.594458
959.702979	2504.354490
960.002889	2501.788543
960.302762	2504.765344
960.602596	2501.589417
960.902393	2500.520693
961.202153	2499.593120
961.501875	2503.316012
961.801559	2496.800321
962.101205	2498.216885
962.400814	2500.031701
962.700385	2500.964314
962.999918	2501.128152
963.299414	2500.021618
963.598873	2501.922133
963.898293	2500.402225
964.197677	2503.489932
964.497022	2501.539006
964.796331	2501.662514
965.095601	2498.262256
965.394835	2503.399191
965.694030	2500.974396
965.993189	2500.409787
966.292309	2502.708553
966.591393	2501.659993
966.890439	2501.637308
967.189447	2500.092194
967.488419	2502.017915
967.787353	2499.686382
968.086249	2498.670589
968.385108	2500.840806
968.683930	2500.745024
968.982714	2500.314005
969.281462	2499.882987
969.580172	2499.376351
969.878844	2500.881135
970.177480	2501.702843
970.476078	2501.188645
970.774639	2501.087822
971.073162	2500.810559
971.371649	2496.626401
971.670098	2498.849550
971.968510	2495.053561
972.266885	2497.702688
972.565223	2502.035559
972.863524	2500.311485
973.161788	2501.329798
973.460014	2502.078409
973.758204	2502.191835
974.056356	2499.872904
974.354471	2499.888028
974.652550	2501.012205
974.950591	2500.843326
975.248595	2500.603872
975.546563	2502.700992
975.844493	2500.674448
976.142386	2500.843326
976.440243	2501.251660
976.738062	2499.807369
977.035845	2502.345590
977.333590	2501.980107
977.631299	2503.563029
977.928971	2499.474653
978.226606	2498.743686
978.524204	2502.590086
978.821765	2499.507421
979.119290	2501.254180
979.416777	2498.158912
979.714228	2498.433655
980.011642	2500.676968
980.309020	2500.855929
980.606360	2500.523213
980.903664	2501.448265
981.200931	2500.210662
981.498162	2503.041269
981.795356	2505.544202
982.092513	2505.085457
982.389633	2504.276352
982.686717	2505.798781
982.983764	2506.514624
983.280775	2507.651405
983.577749	2506.098729
983.874686	2506.575118
984.171587	2505.609737
984.468451	2507.432114
984.765279	2503.925992
985.062070	2504.924140
985.358824	2504.200735
985.655543	2505.201404
985.952224	2500.896258
986.248869	2500.316526
986.545478	2496.689416
986.842050	2499.641011
987.138586	2495.701349
987.435086	2498.536998
987.731549	2496.339055
988.027975	2498.312667
988.324366	2501.312154
988.620719	2497.140599
988.917037	2498.274858
989.213318	2499.366268
989.509563	2498.479025
989.805772	2500.540857
990.101944	2497.395177
990.398080	2501.596979
990.694180	2498.617657
990.990244	2501.609582
991.286271	2497.480877
991.582262	2499.877945
991.878217	2498.925167
992.174136	2500.099756
992.470019	2499.217554
992.765865	2500.838285
993.061676	2499.759478
993.357450	2499.273007
993.653188	2499.013388
993.948890	2499.114211
994.244556	2501.037411
994.540186	2501.390292
994.835780	2499.330980
995.131337	2500.513131
995.426859	2500.263594
995.722345	2497.402739
996.017795	2501.332318
996.313208	2502.380878
996.608586	2501.677637
996.903928	2504.004130
997.199234	2502.214520
997.494504	2502.322905
997.789738	2505.047649
998.084936	2501.521362
998.380099	2500.203100
998.675225	2501.831393
998.970316	2502.045642
999.265371	2502.229644
999.560390	2501.690240
999.855373	2502.277535
1000.150320	2500.553460
1000.445232	2501.894407
1000.740108	2499.056237
1001.034948	2501.801146
1001.329752	2498.486587
1001.624521	2497.201093
1001.919254	2495.983654
1002.213951	2496.276041
1002.508613	2494.597337
1002.803239	2497.004488
1003.097829	2493.828561
1003.392384	2499.025990
1003.686903	2498.048007
1003.981386	2499.257883
1004.275834	2495.950887
1004.570246	2499.951042
1004.864623	2501.105466
1005.158964	2498.758809
1005.453270	2498.703357
1005.747540	2499.721670
1006.041775	2498.975579
1006.335974	2499.953563
1006.630138	2496.850733
1006.924266	2499.013387
1007.218359	2497.740496
1007.512416	2496.613798
1007.806438	2498.279900
1008.100425	2497.579179
1008.394376	2498.138747
1008.688292	2500.021618
1008.982172	2501.443224
1009.276017	2499.220075
1009.569827	2495.802173
1009.863602	2500.525734
1010.157341	2499.610764
1010.451045	2499.625888
1010.744714	2497.458192
1011.038347	2499.094046
1011.331945	2497.460712
1011.625508	2498.506752
1011.919036	2497.415342
1012.212528	2497.848881
1012.505986	2499.172184
1012.799408	2496.298726
1013.092795	2496.790239
1013.386147	2499.618326
1013.679464	2498.295023
1013.972745	2497.740496
1014.265992	2497.420383
1014.559204	2495.865187
1014.852380	2498.262256
1015.145521	2498.413490
1015.438628	2496.956597
1015.731699	2495.701349
1016.024736	2496.873418
1016.317737	2498.380723
1016.610703	2501.352483
1016.903635	2496.397029
1017.196531	2494.531802
1017.489393	2492.676657
1017.782219	2495.681185
1018.075011	2495.285454
1018.367768	2495.482059
1018.660490	2497.710249
1018.953177	2497.710249
1019.245829	2497.710249
