Dividing Wavelength (nm)	Counts (n)	Blue Motor Position (mm): 0.000000	Red Motor Position (mm): 20.500000	
326.493990	2082.392269
326.888308	2082.392269
327.282561	2082.392269
327.676750	2059.152550
328.070874	2060.564073
328.464933	2066.694116
328.858929	2076.816753
329.252859	2090.546335
329.646726	2104.230548
330.040528	2117.710593
330.434265	2139.364869
330.827938	2156.237611
331.221547	2177.039933
331.615091	2198.550536
332.008571	2218.573999
332.401986	2239.588049
332.795338	2260.115627
333.188625	2283.289812
333.581847	2301.803449
333.975006	2317.483958
334.368100	2334.732266
334.761129	2353.881089
335.154095	2367.852647
335.546996	2387.003990
335.939833	2406.866136
336.332606	2419.229566
336.725315	2429.475711
337.117960	2436.805549
337.510540	2446.053546
337.903056	2454.726851
338.295508	2462.154991
338.687896	2467.181022
339.080220	2476.103864
339.472480	2481.933958
339.864676	2484.084010
340.256807	2486.390338
340.648875	2488.709269
341.040879	2490.947541
341.432818	2488.200113
341.824694	2491.300422
342.216506	2492.066677
342.608253	2491.630618
342.999937	2490.755978
343.391557	2488.941162
343.783113	2485.946717
344.174605	2486.770945
344.566033	2485.750112
344.957397	2484.373877
345.348697	2479.688124
345.739934	2481.235758
346.131106	2477.636375
346.522215	2478.881540
346.913260	2478.047229
347.304241	2474.979687
347.695159	2472.723770
348.086012	2469.497432
348.476802	2469.797380
348.867528	2471.135807
349.258191	2469.862915
349.648789	2466.608851
350.039324	2467.054993
350.429796	2465.915692
350.820203	2467.009622
351.210548	2465.197327
351.600828	2464.327728
351.991045	2461.671040
352.381198	2463.095166
352.771288	2465.227574
353.161314	2464.408387
353.551276	2465.109107
353.941175	2466.470219
354.331010	2465.731690
354.720782	2463.271607
355.110490	2464.862091
355.500135	2465.474591
355.889717	2465.320836
356.279235	2465.746813
356.668689	2467.377627
357.058080	2467.569190
357.447408	2463.818572
357.836672	2464.476442
358.225873	2470.551033
358.615010	2463.387553
359.004084	2471.728142
359.393095	2470.293934
359.782043	2470.843420
360.170927	2471.193780
360.559748	2472.005406
360.948505	2472.625468
361.337199	2474.568832
361.725830	2474.732670
362.114398	2475.864409
362.502903	2474.694861
362.891344	2475.531693
363.279722	2478.737867
363.668037	2478.926910
364.056289	2479.773824
364.444478	2478.495891
364.832603	2480.557723
365.220665	2482.886736
365.608665	2482.485965
365.996601	2483.027889
366.384474	2484.701552
366.772284	2484.242807
367.160031	2482.806078
367.547715	2486.884371
367.935336	2484.119298
368.322893	2487.874958
368.710388	2488.520226
369.097820	2490.514002
369.485189	2489.893940
369.872495	2491.733961
370.259738	2490.400576
370.646918	2494.602378
371.034035	2495.280413
371.421090	2500.702174
371.808081	2500.084633
372.195010	2506.176867
372.581875	2510.250119
372.968678	2513.615090
373.355418	2524.123375
373.742096	2530.313912
374.128710	2538.939326
374.515262	2552.855431
374.901751	2561.501010
375.288177	2579.868454
375.674540	2595.901844
376.060841	2613.893722
376.447079	2635.235447
376.833254	2661.086484
377.219367	2682.138342
377.605417	2712.844010
377.991404	2736.779409
378.377329	2771.906169
378.763191	2806.513690
379.148991	2849.239989
379.534727	2894.769170
379.920402	2938.491098
380.306013	2981.083806
380.691563	3044.093188
381.077049	3093.483893
381.462474	3150.156545
381.847835	3218.111298
382.233134	3282.118829
382.618371	3338.688137
383.003545	3421.191661
383.388657	3493.910305
383.773706	3585.228286
384.158693	3653.883760
384.543618	3741.322574
384.928480	3813.930313
385.313280	3914.564346
385.698017	4008.909541
386.082692	4124.445225
386.467305	4187.404195
386.851856	4301.571207
387.236344	4448.430100
387.620770	4509.682640
388.005133	4623.312768
388.389435	4760.664046
388.773674	4841.567004
389.157851	4970.557528
389.541965	5094.229634
389.926018	5119.223675
390.310008	5286.433707
390.693936	5403.259927
391.077802	5515.533985
391.461606	5644.174149
391.845348	5751.545684
392.229027	5874.025558
392.612645	6083.530871
392.996200	6201.503953
393.379694	6361.633685
393.763125	6576.202836
394.146494	6670.099368
394.529801	6799.946888
394.913047	7027.996085
395.296230	7028.001126
395.679351	7081.525577
396.062410	7330.162847
396.445408	7235.205152
396.828343	7382.169910
397.211217	7519.233842
397.594028	7405.046667
397.976778	7604.522604
398.359466	7770.348839
398.742092	7752.213288
399.124656	7889.267138
399.507158	8075.041218
399.889598	8100.186494
400.271977	8304.834655
400.654294	8340.306734
401.036549	8536.296713
401.418742	8566.059685
401.800874	8852.797996
402.182944	8936.549205
402.564952	9293.846025
402.946898	9129.252352
403.328783	9185.496505
403.710606	9379.328871
404.092367	9632.414958
404.474067	9980.103339
404.855705	9789.973701
405.237282	9742.478470
405.618797	10157.055401
406.000250	10398.060363
406.381642	10759.690055
406.762972	10706.216016
407.144240	10526.516525
407.525447	10769.220357
407.906593	10713.994516
408.287677	10969.694442
408.668700	11118.547112
409.049661	11104.013466
409.430560	11262.739236
409.811399	11247.673748
410.192176	11401.010524
410.572891	11477.381484
410.953545	11946.869183
411.334138	11440.976792
411.714669	12014.284533
412.095139	11371.224867
412.475547	11836.402379
412.855894	11710.393697
413.236180	12026.920186
413.616405	11726.031357
413.996568	11992.741162
414.376670	11973.640231
414.756711	11867.241638
415.136691	12130.727626
415.516609	12297.398254
415.896466	12379.150646
416.276262	12665.959532
416.655997	13119.794448
417.035670	13166.551150
417.415283	13768.595990
417.794834	13841.785982
418.174324	13597.128703
418.553753	13507.224766
418.933121	13987.553466
419.312428	13808.741218
419.691674	13717.871900
420.070859	14172.014326
420.449983	13826.468436
420.829045	14364.220919
421.208047	14114.373773
421.586988	14546.292273
421.965867	14772.027580
422.344686	14767.220840
422.723444	15314.727957
423.102141	14018.538918
423.480777	15164.894782
423.859352	14657.507688
424.237866	15708.048862
424.616319	15410.109108
424.994712	16000.524005
425.373044	15773.132679
425.751314	16401.363792
426.129524	15524.361819
426.507673	16510.749268
426.885762	16204.100921
427.263789	16325.854869
427.641756	16440.402487
428.019662	16431.411589
428.397508	16416.083961
428.775292	16619.532327
429.153016	16527.420364
429.530679	16522.028850
429.908282	16464.612628
430.285824	16139.201106
430.663305	16674.274217
431.040726	16232.437247
431.418086	15992.049826
431.795385	16438.998526
432.172624	16720.952781
432.549802	16215.272118
432.926920	16277.222858
433.303977	16062.802420
433.680974	16144.660676
434.057910	16270.639111
434.434786	16167.539953
434.811601	15965.263655
435.188355	16672.782035
435.565050	16247.149854
435.941683	16064.929787
436.318257	16600.877537
436.694770	16291.872451
437.071222	16573.123465
437.447614	15705.155240
437.823946	15544.387802
438.200218	15496.612787
438.576429	15151.122350
438.952580	15195.436612
439.328670	14979.718078
439.704700	15090.941055
440.080670	14609.682262
440.456580	14823.107072
440.832429	14734.279420
441.208218	13900.507862
441.583947	13983.361746
441.959616	13867.427811
442.335224	13817.359071
442.710773	13698.526472
443.086261	13818.309328
443.461689	13225.159605
443.837057	13099.201335
444.212365	13261.251746
444.587612	13039.864434
444.962800	12589.170156
445.337927	12605.969802
445.712995	11737.772204
446.088002	12474.388124
446.462949	12352.558559
446.837837	12217.135523
447.212664	11996.048159
447.587431	13119.844860
447.962139	14206.969687
448.336786	14975.022243
448.711374	14002.830682
449.085901	12160.528407
449.460369	11873.938810
449.834776	11611.687905
450.209124	12319.289465
450.583412	11907.936352
450.957640	11839.205260
451.331808	11113.347162
451.705917	10396.800075
452.079965	10175.379995
452.453954	10069.351927
452.827883	9819.061159
453.201752	9537.033807
453.575562	9382.759376
453.949311	9484.968770
454.323001	9292.202609
454.696632	9022.710086
455.070202	9226.057629
455.443713	9065.648114
455.817164	8987.553079
456.190556	8903.111232
456.563888	8564.849808
456.937160	8449.288918
457.310373	7888.579020
457.683526	7768.798684
458.056619	7573.867347
458.429653	7382.573203
458.802628	7314.507543
459.175542	7161.352248
459.548398	7212.220011
459.921194	7313.509395
460.293930	7278.939682
460.666607	7431.853002
461.039224	7527.826489
461.411782	7372.989969
461.784280	6997.471899
462.156719	6718.829682
462.529099	6460.478109
462.901419	6118.549246
463.273680	5831.079969
463.645882	5696.130801
464.018024	5550.365837
464.390106	5501.234752
464.762130	5660.000851
465.134094	5965.852696
465.505999	6357.061358
465.877845	6613.784638
466.249631	6500.114181
466.621358	6125.561491
466.993026	5760.836531
467.364634	5436.987767
467.736184	5160.641795
468.107674	4953.503304
468.479105	4788.211431
468.850477	4632.613697
469.221790	4455.419660
469.593043	4269.890075
469.964238	4140.385353
470.335373	4060.162952
470.706449	4059.220256
471.077467	4098.455556
471.448425	4216.277404
471.819324	4262.721554
472.190164	4119.318372
472.560945	3922.877209
472.931667	3754.696755
473.302330	3657.064728
473.672934	3581.099581
474.043479	3551.071948
474.413965	3488.498626
474.784393	3437.698919
475.154761	3424.496137
475.525070	3392.784759
475.895321	3351.669108
476.265513	3335.018177
476.635645	3332.732013
477.005719	3302.417035
477.375734	3291.124850
477.745691	3283.278294
478.115588	3287.028913
478.485427	3306.865853
478.855207	3352.513501
479.224928	3382.430229
479.594591	3394.536560
479.964194	3354.051053
480.333739	3341.133096
480.703226	3326.975016
481.072653	3325.757577
481.442022	3324.479645
481.811333	3313.048828
482.180584	3284.646968
482.549777	3265.321704
482.918912	3245.666245
483.287988	3232.052609
483.657005	3212.382027
484.025964	3194.712783
484.394864	3189.469983
484.763706	3178.117304
485.132489	3156.367246
485.501213	3151.356339
485.869879	3146.824342
486.238487	3134.803711
486.607036	3135.045686
486.975527	3122.878861
487.343959	3121.968933
487.712333	3117.943572
488.080648	3110.684310
488.448905	3113.890484
488.817104	3105.925461
489.185244	3116.302676
489.553326	3135.741365
489.921350	3167.233453
490.289315	3203.335677
490.657222	3210.025288
491.025070	3209.125442
491.392861	3188.494520
491.760593	3167.016684
492.128267	3138.871922
492.495883	3116.632872
492.863440	3093.836774
493.230939	3072.046386
493.598380	3054.281360
493.965763	3044.052859
494.333088	3029.957793
494.700354	3018.055629
495.067563	3012.885925
495.434713	3004.426869
495.801805	2999.872187
496.168839	2994.279027
496.535815	2988.020434
496.902733	2982.749908
497.269593	2974.857981
497.636395	2969.610140
498.003139	2968.511169
498.369825	2956.886268
498.736453	2957.365178
499.103023	2947.784465
499.469535	2942.702982
499.835989	2943.774227
500.202385	2933.366765
500.568723	2929.419541
500.935003	2930.127823
501.301226	2922.190527
501.667390	2925.842843
502.033497	2925.943666
502.399546	2915.944537
502.765537	2907.001530
503.131470	2907.573701
503.497345	2908.642426
503.863163	2892.508213
504.228923	2893.264386
504.594625	2898.383678
504.960269	2885.821122
505.325856	2889.980074
505.691385	2881.775596
506.056856	2879.580174
506.422270	2883.802140
506.787625	2877.495657
507.152924	2877.664535
507.518164	2875.617827
507.883347	2867.831765
508.248472	2866.994933
508.613540	2874.476005
508.978550	2871.305120
509.343503	2866.011908
509.708398	2870.823689
510.073236	2874.057590
510.438016	2870.886704
510.802738	2866.291692
511.167403	2870.115407
511.532010	2871.100953
511.896561	2873.563557
512.261053	2880.507746
512.625488	2870.755634
512.989866	2870.385109
513.354186	2864.456712
513.718449	2860.837164
514.082655	2871.037938
514.446803	2868.353524
514.810894	2872.514997
515.174927	2870.145654
515.538904	2867.748586
515.902822	2872.444420
516.266684	2868.489635
516.630488	2868.766899
516.994235	2868.109028
517.357925	2870.816128
517.721558	2872.946015
518.085133	2871.768906
518.448651	2872.968700
518.812112	2869.903679
519.175516	2869.182794
519.538863	2871.842003
519.902152	2873.223279
520.265385	2873.586242
520.628560	2873.167826
520.991678	2870.097763
521.354739	2872.822507
521.717743	2873.626571
522.080690	2870.264121
522.443580	2870.720346
522.806413	2872.225130
523.169189	2869.419728
523.531908	2871.446272
523.894569	2868.114069
524.257174	2869.210520
524.619722	2871.935264
524.982213	2871.511807
525.344647	2866.599203
525.707025	2866.717670
526.069345	2868.769419
526.431608	2867.126003
526.793815	2870.269162
527.155964	2866.027032
527.518057	2864.325642
527.880093	2860.328007
528.242072	2865.031404
528.603995	2859.962523
528.965860	2858.727441
529.327669	2857.353726
529.689421	2858.314066
530.051117	2857.452029
530.412755	2855.712831
530.774337	2855.254086
531.135862	2852.957840
531.497331	2850.051615
531.858743	2845.648167
532.220098	2850.936337
532.581396	2845.882581
532.942638	2844.526510
533.303824	2844.420646
533.664953	2843.906448
534.026025	2840.428052
534.387040	2838.383864
534.747999	2841.514421
535.108902	2843.034329
535.469748	2837.108452
535.830537	2837.478977
536.191270	2837.496621
536.551947	2832.470591
536.912567	2836.110304
537.273131	2830.038234
537.633638	2825.763336
537.994089	2828.782987
538.354483	2824.586226
538.714821	2827.205106
539.075103	2827.061433
539.435328	2826.201916
539.795497	2824.329127
540.155609	2822.879796
540.515665	2827.658810
540.875665	2819.968529
541.235609	2820.134887
541.595496	2819.406441
541.955328	2822.174034
542.315102	2820.497851
542.674821	2817.165648
543.034483	2816.709423
543.394090	2811.648105
543.753640	2812.749597
544.113134	2816.414516
544.472571	2810.413022
544.831953	2814.221614
545.191278	2811.756490
545.550548	2808.222641
545.909761	2810.718012
546.268918	2809.704740
546.628019	2810.493681
546.987064	2807.163999
547.346053	2801.608647
547.704986	2806.196097
548.063863	2801.795170
548.422684	2803.002526
548.781449	2801.152423
549.140158	2798.442802
549.498811	2802.599234
549.857408	2796.688481
550.215949	2799.110755
550.574434	2796.688481
550.932864	2794.034313
551.291237	2796.592699
551.649555	2797.169911
552.007817	2799.340128
552.366022	2793.268058
552.724173	2795.566824
553.082267	2796.680919
553.440305	2796.688481
553.798288	2793.016000
554.156215	2792.814354
554.514086	2792.343006
554.871902	2791.987605
555.229661	2788.725978
555.587365	2789.106586
555.945014	2788.131122
556.302606	2785.088786
556.660143	2791.077677
557.017625	2789.683798
557.375050	2787.122892
557.732421	2787.246400
558.089735	2784.670370
558.446994	2782.729526
558.804197	2785.078704
559.161345	2787.407717
559.518437	2781.232303
559.875474	2780.188784
560.232455	2783.329423
560.589381	2780.937396
560.946251	2780.839093
561.303065	2782.603497
561.659825	2781.738939
562.016528	2778.472272
562.373177	2778.225255
562.729770	2779.052004
563.086307	2776.455810
563.442789	2777.010337
563.799216	2778.961263
564.155587	2773.801642
564.511904	2774.424225
564.868164	2772.821138
565.224370	2772.576642
565.580520	2770.592948
565.936615	2770.242588
566.292654	2770.797115
566.648638	2769.942639
567.004567	2768.546240
567.360441	2769.347783
567.716260	2768.047165
568.072023	2770.552619
568.427732	2765.670261
568.783385	2762.577513
569.138982	2760.303953
569.494525	2761.922163
569.850013	2761.460898
570.205445	2764.772936
570.560823	2762.002822
570.916145	2758.766401
571.271412	2761.307143
571.626625	2759.169693
571.981782	2756.228180
572.336884	2758.383273
572.691931	2755.257758
573.046923	2752.757346
573.401860	2749.223497
573.756743	2750.587129
574.111570	2750.876995
574.466342	2749.364649
574.821059	2747.905235
575.175722	2747.678383
575.530330	2744.358783
575.884882	2744.358783
576.239380	2741.467682
576.593823	2741.500449
576.948211	2740.875346
577.302544	2736.557598
577.656823	2736.991137
578.011047	2738.150602
578.365216	2736.958370
578.719330	2733.240519
579.073389	2733.462329
579.427394	2731.765981
579.781344	2729.827657
580.135239	2727.415465
580.489080	2729.260528
580.842866	2727.836402
581.196597	2729.719273
581.550273	2728.970661
581.903895	2726.316494
582.257463	2726.397152
582.610975	2720.861965
582.964434	2722.739795
583.317837	2723.432954
583.671186	2719.478169
584.024481	2717.781820
584.377721	2716.037581
584.730906	2718.633775
585.084037	2720.559496
585.437113	2716.463559
585.790135	2716.161089
586.143103	2711.719833
586.496016	2711.868547
586.848874	2710.784699
587.201679	2710.552806
587.554428	2706.862681
587.907124	2706.088864
588.259765	2703.923688
588.612352	2708.012064
588.964884	2703.681713
589.317362	2707.288659
589.669786	2706.739173
590.022155	2703.505273
590.374470	2704.339584
590.726731	2703.895962
591.078937	2697.728110
591.431090	2700.558718
591.783188	2697.428162
592.135232	2695.711649
592.487222	2693.627132
592.839157	2695.726772
593.191038	2692.215609
593.542866	2690.698221
593.894639	2689.926925
594.246358	2691.509847
594.598022	2689.755526
594.949633	2688.651513
595.301190	2687.620597
595.652692	2683.746470
596.004141	2689.274095
596.355535	2682.891995
596.706876	2680.595749
597.058162	2680.999041
597.409395	2681.094823
597.760573	2683.073476
598.111698	2681.107426
598.462768	2678.370080
598.813785	2678.707837
599.164748	2675.037877
599.515657	2677.019050
599.866511	2674.397650
600.217312	2676.731705
600.568060	2671.778771
600.918753	2674.551406
601.269392	2674.095181
601.619978	2672.993689
601.970510	2672.255160
602.320988	2673.787671
602.671412	2677.830676
603.021783	2669.006136
603.372100	2669.427073
603.722363	2670.770540
604.072572	2667.314829
604.422728	2669.593431
604.772830	2666.238543
605.122878	2665.406752
605.472872	2666.052020
605.822813	2664.464057
606.172701	2664.554797
606.522534	2665.651248
606.872314	2665.651248
607.222041	2668.428924
607.571714	2669.507731
607.921333	2664.814417
608.270899	2662.760147
608.620411	2666.288954
608.969870	2664.728717
609.319276	2663.811227
609.668627	2663.133192
610.017926	2666.488080
610.367171	2666.213337
610.716362	2662.417348
611.065500	2665.021104
611.414585	2663.168480
611.763616	2666.576300
612.112594	2665.540343
612.461518	2662.898778
612.810389	2664.806855
613.159207	2663.138233
613.507971	2663.942297
613.856682	2660.957934
614.205340	2665.104283
614.553945	2666.228461
614.902496	2659.826195
615.250994	2662.182935
615.599439	2662.152688
615.947830	2664.050682
616.296169	2661.938439
616.644454	2661.043634
616.992686	2661.439364
617.340864	2665.878100
617.688990	2663.528923
618.037063	2661.721669
618.385082	2664.522030
618.733048	2665.686537
619.080961	2663.831392
619.428821	2664.350631
619.776628	2662.092194
620.124382	2664.161587
620.472083	2660.645383
620.819731	2661.756957
621.167326	2659.133037
621.514868	2657.517347
621.862357	2658.714621
622.209793	2656.211688
622.557176	2656.221770
622.904506	2651.956954
623.251783	2649.829587
623.599007	2646.847745
623.946179	2647.641726
624.293297	2645.915131
624.640363	2647.089720
624.987376	2645.942857
625.334336	2644.332209
625.681243	2643.419760
626.028097	2646.051242
626.374899	2644.473361
626.721647	2643.684421
627.068343	2639.245685
627.414987	2640.682413
627.761577	2638.098822
628.108115	2640.455562
628.454600	2638.834831
628.801032	2637.030097
629.147412	2636.173101
629.493739	2636.541106
629.840014	2636.399953
630.186236	2633.866773
630.532405	2635.306023
630.878521	2635.167391
631.224585	2632.871146
631.570597	2634.350724
631.916556	2634.741414
632.262462	2633.972638
632.608316	2630.872328
632.954117	2630.726135
633.299866	2631.477267
633.645562	2631.288223
633.991206	2627.388891
634.336797	2628.288737
634.682336	2625.972327
635.027823	2625.367388
635.373257	2625.150618
635.718639	2621.309259
636.063968	2622.708179
636.409245	2618.919752
636.754470	2620.172479
637.099642	2620.996708
637.444762	2620.230452
637.789829	2616.058897
638.134845	2616.943620
638.479808	2617.092334
638.824719	2615.922786
639.169577	2615.343054
639.514383	2613.008999
639.859137	2614.682662
640.203839	2613.838269
640.548489	2610.211159
640.893086	2610.203597
641.237632	2608.547578
641.582125	2608.252671
641.926566	2607.367948
642.270955	2612.555296
642.615292	2609.886005
642.959576	2606.883997
643.303809	2610.127980
643.647990	2611.289966
643.992118	2608.933227
644.336195	2611.022785
644.680219	2609.470109
645.024192	2612.608228
645.368112	2613.142590
645.711981	2612.119236
646.055797	2612.449431
646.399562	2613.434977
646.743274	2615.287601
647.086935	2615.900101
647.430544	2614.856582
647.774101	2614.687704
648.117606	2614.518825
648.461059	2616.255502
648.804460	2614.526387
649.147810	2612.504884
649.491108	2610.579163
649.834354	2608.177053
650.177548	2607.607403
650.520690	2610.616972
650.863781	2606.672269
651.206820	2608.850047
651.549807	2603.496342
651.892742	2603.556836
652.235626	2602.208327
652.578458	2598.190528
652.921238	2598.868563
653.263967	2602.145313
653.606644	2598.465271
653.949269	2598.987030
654.291843	2598.682040
654.634365	2596.176587
654.976836	2598.276227
655.319255	2597.968717
655.661622	2597.928388
656.003938	2599.241608
656.346203	2596.012749
656.688416	2597.714139
657.030577	2594.974272
657.372687	2594.870928
657.714746	2596.317739
658.056753	2599.942329
658.398708	2591.185844
658.740612	2592.869590
659.082465	2588.912284
659.424266	2592.302460
659.766016	2590.293560
660.107715	2593.293047
660.449362	2593.391349
660.790958	2595.001998
661.132503	2593.645927
661.473996	2595.501072
661.815438	2590.654003
662.156829	2594.318922
662.498168	2591.793303
662.839456	2591.841194
663.180693	2592.541915
663.521879	2593.726586
663.863013	2594.480238
664.204097	2594.437389
664.545129	2593.338417
664.886110	2592.804055
665.227040	2596.642893
665.567918	2597.406628
665.908746	2594.051740
666.249522	2598.422421
666.590248	2596.264807
666.930922	2593.736668
667.271545	2595.206165
667.612118	2591.022007
667.952639	2595.982502
668.293109	2594.011411
668.633528	2592.776328
668.973896	2591.967223
669.314213	2592.068046
669.654480	2592.133581
669.994695	2593.151894
670.334859	2593.051071
670.674973	2590.107037
671.015035	2592.083170
671.355047	2590.389342
671.695008	2592.594847
672.034918	2587.165524
672.374777	2591.689960
672.714585	2588.534197
673.054342	2594.888572
673.394049	2590.515371
673.733705	2589.575196
674.073310	2588.549321
674.412864	2589.476893
674.752368	2588.914805
675.091820	2592.277254
675.431223	2588.125864
675.770574	2587.457911
676.109875	2581.544638
676.449125	2585.534711
676.788324	2581.647981
677.127473	2581.532035
677.466571	2583.732498
677.805619	2583.500605
678.144616	2583.858527
678.483562	2584.181161
678.822458	2583.651840
679.161303	2583.034299
679.500098	2585.993456
679.838842	2579.760069
680.177535	2585.569999
680.516179	2583.097313
680.854771	2582.880543
681.193314	2585.610328
681.531805	2588.972778
681.870247	2590.573344
682.208638	2588.345154
682.546978	2593.635845
682.885268	2591.959662
683.223508	2591.818509
683.561697	2586.046388
683.899836	2589.015628
684.237925	2588.670309
684.575963	2586.109402
684.913951	2588.196440
685.251889	2588.851790
685.589776	2585.091089
685.927614	2587.538570
686.265401	2586.066553
686.603137	2588.120823
686.940824	2587.621749
687.278460	2588.950093
687.616046	2589.625607
687.953582	2589.688622
688.291068	2589.348344
688.628504	2592.846905
688.965889	2589.134095
689.303224	2590.805237
689.640510	2591.211050
689.977745	2588.471183
690.314930	2586.374063
690.652065	2585.869948
690.989150	2585.948086
691.326185	2580.995152
691.663170	2578.562795
692.000105	2579.737384
692.336990	2577.005079
692.673825	2573.251940
693.010610	2573.952660
693.347345	2569.629871
693.684030	2564.926474
694.020665	2565.700291
694.357251	2562.284909
694.693786	2569.360169
695.030272	2567.411763
695.366707	2568.215827
695.703093	2566.280024
696.039429	2569.158523
696.375716	2564.127451
696.711952	2565.211299
697.048139	2566.574931
697.384276	2564.835733
697.720363	2563.925805
698.056400	2565.869170
698.392388	2565.682647
698.728326	2562.826833
699.064214	2562.647872
699.400053	2563.330949
699.735842	2561.740465
700.071581	2563.535116
700.407270	2560.102090
700.742910	2560.734755
701.078501	2560.530588
701.414042	2558.778787
701.749533	2557.145453
702.084974	2557.863817
702.420366	2557.924311
702.755709	2554.844166
703.091002	2555.249979
703.426246	2558.080587
703.761440	2555.113868
704.096584	2556.626214
704.431679	2554.244269
704.766725	2557.647048
705.101721	2557.367264
705.436668	2555.673436
705.771565	2554.861810
706.106413	2556.913560
706.441212	2554.846687
706.775961	2557.470608
707.110661	2554.526574
707.445311	2555.602860
707.779913	2556.553117
708.114465	2557.611760
708.448967	2560.205433
708.783421	2559.270299
709.117825	2562.766340
709.452180	2559.640824
709.786485	2563.081412
710.120742	2564.487894
710.454949	2562.007646
710.789107	2561.037224
711.123216	2561.911864
711.457275	2563.492266
711.791286	2564.913871
712.125247	2560.888510
712.459159	2564.051834
712.793023	2568.299006
713.126837	2566.343038
713.460602	2567.142061
713.794318	2564.132492
714.127985	2565.062585
714.461602	2563.716597
714.795171	2563.164591
715.128691	2561.213664
715.462162	2560.679302
715.795584	2555.592778
716.128957	2559.872717
716.462281	2556.669064
716.795556	2554.907181
717.128782	2555.784342
717.461960	2555.615463
717.795088	2552.615976
718.128167	2551.774104
718.461198	2550.118085
718.794180	2554.062788
719.127113	2549.029195
719.459997	2550.385266
719.792833	2551.509443
720.125619	2548.537683
720.458357	2547.743701
720.791046	2548.394010
721.123686	2546.853938
721.456278	2547.446273
721.788821	2546.506098
722.121315	2548.555327
722.453761	2544.267826
722.786158	2548.966181
723.118506	2545.626417
723.450805	2545.152548
723.783056	2546.788402
724.115259	2548.358722
724.447412	2544.976108
724.779518	2548.121788
725.111574	2544.671118
725.443582	2549.026675
725.775542	2545.966694
726.107453	2549.119936
726.439315	2548.189843
726.771129	2553.566234
727.102895	2550.382745
727.434612	2551.264947
727.766281	2553.914073
728.097901	2550.007179
728.429473	2546.730429
728.760996	2551.721172
729.092471	2549.606408
729.423897	2552.227808
729.755276	2551.597663
730.086606	2552.915925
730.417887	2552.845349
730.749120	2558.171328
731.080305	2556.389280
731.411442	2556.953889
731.742530	2553.742674
732.073570	2557.919270
732.404562	2556.951369
732.735506	2557.455484
733.066401	2559.920608
733.397249	2555.343241
733.728048	2553.929197
734.058798	2549.500543
734.389501	2549.510626
734.720156	2548.958619
735.050762	2547.587425
735.381320	2549.515667
735.711831	2544.948381
736.042293	2543.912424
736.372707	2546.838814
736.703073	2543.420912
737.033391	2543.914945
737.363661	2546.112888
737.693883	2543.672969
738.024056	2547.461397
738.354182	2546.448125
738.684260	2547.899977
739.014290	2547.736139
739.344272	2547.292518
739.674207	2547.040460
740.004093	2548.260419
740.333931	2550.602035
740.663722	2549.220759
740.993464	2550.438198
741.323159	2550.072714
741.652806	2547.456355
741.982405	2548.479710
742.311956	2548.285625
742.641460	2547.385779
742.970915	2544.025850
743.300323	2546.226314
743.629683	2544.008206
743.958996	2545.480223
744.288260	2544.645912
744.617477	2543.166333
744.946647	2538.306661
745.275768	2538.727597
745.604842	2537.154758
745.933869	2538.954449
746.262847	2537.734490
746.591778	2538.299099
746.920662	2543.672969
747.249498	2540.353370
747.578286	2539.216589
747.907027	2540.870088
748.235720	2542.334543
748.564365	2542.203473
748.892963	2541.961498
749.221514	2542.442928
749.550017	2538.682227
749.878473	2542.415202
750.206881	2539.418236
750.535242	2539.473688
750.863555	2540.676003
751.191821	2539.241795
751.520039	2540.895294
751.848210	2540.711292
752.176334	2540.136600
752.504411	2541.548123
752.832440	2538.047042
753.160421	2540.749100
753.488356	2537.857998
753.816243	2541.028884
754.144082	2537.101825
754.471875	2540.582742
754.799620	2538.508307
755.127318	2538.397402
755.454969	2537.384130
755.782572	2540.270191
756.110129	2538.596528
756.437638	2537.699202
756.765100	2538.183153
757.092515	2538.543595
757.419882	2540.020653
757.747203	2538.997299
758.074477	2539.824048
758.401703	2540.676003
758.728882	2538.215920
759.056014	2539.869419
759.383099	2538.737680
759.710138	2542.644574
760.037129	2538.349511
760.364073	2540.461754
760.690970	2539.440921
761.017820	2540.310520
761.344623	2539.483771
761.671379	2543.214224
761.998088	2545.248330
762.324751	2548.318393
762.651366	2555.736451
762.977935	2570.890159
763.304456	2571.036352
763.630931	2577.695717
763.957359	2572.531055
764.283740	2569.070302
764.610074	2565.415466
764.936362	2556.905998
765.262602	2553.324258
765.588796	2550.551624
765.914943	2545.944009
766.241044	2539.042670
766.567097	2537.840354
766.893104	2537.810108
767.219064	2537.069058
767.544978	2534.863553
767.870845	2536.207021
768.196665	2532.615198
768.522438	2532.741227
768.848165	2534.437576
769.173846	2530.812986
769.499479	2531.876669
769.825066	2532.433717
770.150607	2530.959179
770.476101	2530.439941
770.801548	2529.126720
771.126949	2527.818541
771.452303	2528.441123
771.777611	2527.155629
772.102872	2527.047244
772.428087	2527.349713
772.753256	2525.630680
773.078378	2526.689322
773.403453	2526.560773
773.728482	2524.440967
774.053465	2526.391894
774.378401	2524.466173
774.703291	2524.667819
775.028135	2525.628159
775.352932	2525.091276
775.677683	2525.386184
776.002388	2524.201513
776.327046	2523.866276
776.651658	2524.572037
776.976224	2523.886441
777.300743	2521.827129
777.625216	2523.309228
777.949643	2525.129085
778.274024	2526.147398
778.598359	2521.113806
778.922647	2519.513240
779.246889	2522.316121
779.571086	2515.971829
779.895236	2523.301667
780.219339	2522.563138
780.543397	2522.883251
780.867409	2525.683612
781.191374	2525.124044
781.515294	2523.881399
781.839167	2523.702438
782.162995	2523.392407
782.486776	2523.299146
782.810511	2526.593540
783.134201	2525.018180
783.457844	2522.295957
783.781441	2525.464322
784.104993	2522.348889
784.428498	2522.999197
784.751958	2523.336955
785.075372	2524.052799
785.398739	2520.188754
785.722061	2524.486338
786.045337	2520.592047
786.368568	2525.315608
786.691752	2521.479290
787.014891	2524.990453
787.337983	2525.376102
787.661030	2526.429703
787.984031	2528.257121
788.306987	2530.573531
788.629897	2528.481452
788.952760	2529.141843
789.275579	2527.037162
789.598351	2530.460105
789.921078	2527.440454
790.243759	2527.183355
790.566395	2526.757378
790.888984	2527.059847
791.211529	2521.214629
791.534027	2523.805782
791.856480	2521.529701
792.178888	2524.579599
792.501249	2522.490041
792.823566	2521.464166
793.145836	2520.791172
793.468062	2524.206554
793.790241	2523.221008
794.112375	2521.512057
794.434464	2522.452232
794.756507	2522.895854
795.078505	2521.968282
795.400457	2523.636903
795.722364	2520.425688
796.044226	2526.880886
796.366042	2518.815040
796.687812	2522.212778
797.009538	2527.606812
797.331218	2523.137829
797.652852	2525.040865
797.974442	2525.020700
798.295986	2525.613036
798.617484	2523.982222
798.938938	2524.922398
799.260346	2523.301667
799.581709	2523.168076
799.903026	2522.961389
800.224299	2524.274609
800.545526	2522.963909
800.866708	2524.471214
801.187845	2521.307890
801.508936	2522.537932
801.829983	2523.982222
802.150984	2520.811337
802.471940	2519.982067
802.792851	2519.109947
803.113717	2520.539114
803.434538	2520.680267
803.755314	2523.649506
804.076045	2520.264372
804.396731	2519.818229
804.717372	2520.254289
805.037967	2519.341840
805.358518	2519.886285
805.679024	2522.512726
805.999485	2518.164731
806.319901	2518.568023
806.640272	2518.739423
806.960598	2521.912829
807.280879	2520.778569
807.601115	2522.091790
807.921306	2520.856707
808.241453	2519.999711
808.561554	2518.668846
808.881611	2521.232273
809.201623	2523.049609
809.521590	2521.302849
809.841513	2522.207736
810.161390	2522.149763
810.481223	2522.439629
810.801011	2520.534073
811.120755	2522.258148
811.440453	2521.978364
811.760107	2521.234794
812.079716	2518.701614
812.399281	2516.899401
812.718801	2514.078876
813.038276	2518.194978
813.357707	2519.838394
813.677093	2516.687673
813.996434	2519.535925
814.315731	2518.300842
814.634983	2520.919722
814.954191	2519.228414
815.273354	2520.302180
815.592473	2521.852335
815.911547	2522.953827
816.230577	2521.328055
816.549562	2520.488703
816.868502	2521.285205
817.187399	2524.950124
817.506250	2521.038189
817.825058	2522.653878
818.143821	2524.869466
818.462539	2524.793848
818.781213	2525.638242
819.099843	2528.171421
819.418429	2532.920188
819.736970	2534.961856
820.055466	2539.055272
820.373919	2546.191026
820.692327	2553.523384
821.010691	2568.472926
821.329011	2607.536827
821.647286	2658.142450
821.965517	2710.356201
822.283704	2741.107239
822.601847	2746.148393
822.919945	2725.802296
823.237999	2700.669624
823.556010	2674.400171
823.873976	2644.836324
824.191897	2625.601802
824.509775	2610.843824
824.827609	2592.904878
825.145398	2583.651840
825.463144	2580.838876
825.780845	2579.245872
826.098502	2588.970257
826.416116	2599.400405
826.733685	2614.057559
827.051210	2618.274485
827.368692	2606.314347
827.686129	2596.471494
828.003522	2580.428022
828.320872	2565.967472
828.638177	2556.323745
828.955439	2547.153886
829.272656	2543.625078
829.589830	2537.416897
829.906960	2534.833306
830.224046	2530.767616
830.541088	2530.208048
830.858086	2529.499765
831.175041	2526.510361
831.491952	2525.963396
831.808819	2526.946421
832.125642	2528.458767
832.442421	2532.085877
832.759157	2537.563091
833.075849	2551.408620
833.392497	2558.587223
833.709101	2566.660631
834.025662	2565.170970
834.342179	2561.090156
834.658653	2549.797971
834.975083	2546.455686
835.291469	2542.750438
835.607811	2533.542771
835.924110	2532.915147
836.240366	2530.392050
836.556578	2527.868952
836.872746	2524.952645
837.188871	2522.535411
837.504952	2522.542973
837.820990	2518.510050
838.136984	2516.465862
838.452935	2518.192457
838.768842	2518.169772
839.084706	2520.045081
839.400526	2523.810823
839.716303	2530.104704
840.032037	2534.876156
840.347727	2532.937832
840.663373	2529.943387
840.978977	2525.355937
841.294537	2522.207736
841.610054	2520.733199
841.925527	2521.411234
842.240957	2515.051818
842.556344	2518.694052
842.871687	2515.717251
843.186987	2515.064421
843.502244	2515.886129
843.817458	2513.662981
844.132629	2515.024092
844.447756	2510.371107
844.762840	2510.141735
845.077881	2510.373628
845.392879	2506.875067
845.707833	2508.258864
846.022745	2507.011178
846.337613	2509.982938
846.652438	2510.890346
846.967221	2510.202228
847.281960	2511.344050
847.596656	2512.581653
847.911309	2510.850017
848.225919	2511.696931
848.540485	2509.365397
848.855009	2509.998062
849.169490	2510.930675
849.483928	2513.123577
849.798323	2510.860099
850.112675	2510.406395
850.426984	2508.241220
850.741251	2510.905469
851.055474	2509.768689
851.369654	2509.682990
851.683792	2509.080572
851.997887	2510.482012
852.311938	2507.124604
852.625947	2509.201559
852.939914	2508.367248
853.253837	2512.987466
853.567718	2508.841117
853.881555	2510.313134
854.195350	2510.418998
854.509103	2511.671725
854.822812	2508.909173
855.136479	2510.812208
855.450103	2509.430932
855.763685	2508.810870
856.077224	2512.758093
856.390720	2507.507732
856.704173	2510.010665
857.017584	2509.037722
857.330953	2509.927486
857.644278	2509.607372
857.957561	2512.942096
858.270802	2509.284738
858.584000	2512.122908
858.897155	2509.665346
859.210268	2510.139214
859.523339	2509.350273
859.836367	2510.229955
860.149352	2511.366735
860.462295	2510.925634
860.775195	2503.678975
861.088054	2508.969666
861.400869	2508.778103
861.713642	2504.215858
862.026373	2507.041425
862.339062	2510.497136
862.651708	2510.829852
862.964312	2507.469923
863.276873	2510.577794
863.589392	2509.874553
863.901869	2508.659635
864.214303	2510.993690
864.526696	2509.758607
864.839045	2511.359173
865.151353	2512.765655
865.463619	2507.001096
865.775842	2513.736077
866.088023	2510.255161
866.400162	2512.521159
866.712258	2511.205418
867.024313	2511.278515
867.336325	2513.133659
867.648296	2512.019564
867.960224	2511.515449
868.272110	2510.953360
868.583954	2509.352794
868.895755	2511.792713
869.207515	2510.197187
869.519233	2514.154493
869.830909	2508.836076
870.142542	2512.516118
870.454134	2513.990656
870.765684	2511.659122
871.077191	2510.860099
871.388657	2512.269102
871.700081	2509.897239
872.011463	2513.703310
872.322803	2515.797909
872.634101	2515.190450
872.945357	2513.927641
873.256571	2517.673218
873.567744	2514.129287
873.878874	2513.413443
874.189963	2515.921417
874.501010	2514.126767
874.812015	2512.445542
875.122979	2515.719771
875.433900	2514.497292
875.744780	2517.002745
876.055618	2511.281035
876.366415	2515.165244
876.677169	2515.563496
876.987882	2513.826818
877.298554	2511.142404
877.609183	2514.184740
877.919771	2512.387569
878.230317	2514.938392
878.540822	2521.254958
878.851285	2521.438960
879.161707	2522.114475
879.472087	2527.463139
879.782425	2534.679551
880.092722	2547.098433
880.402977	2566.196845
880.713191	2588.924887
881.023363	2607.413319
881.333494	2621.936883
881.643583	2624.631380
881.953631	2623.078704
882.263637	2617.596449
882.573602	2608.413988
882.883526	2598.031731
883.193408	2591.790783
883.503248	2581.204360
883.813048	2572.374779
884.122806	2564.772719
884.432522	2558.856925
884.742197	2551.154042
885.051831	2544.083823
885.361424	2537.346321
885.670975	2534.684592
885.980485	2531.785929
886.289954	2528.499096
886.599382	2526.301153
886.908768	2524.831657
887.218113	2521.577592
887.527417	2520.922242
887.836680	2522.943745
888.145901	2518.313445
888.455082	2515.535769
888.764221	2518.658764
889.073319	2514.028464
889.382376	2514.280522
889.691392	2515.447549
890.000366	2518.298322
890.309300	2516.904443
890.618193	2512.957219
890.927044	2513.562158
891.235855	2517.038033
891.544625	2514.499812
891.853353	2514.774555
892.162041	2511.966632
892.470687	2521.282685
892.779293	2517.882426
893.087858	2520.738240
893.396381	2522.674043
893.704864	2529.204858
894.013306	2531.511186
894.321707	2541.144831
894.630068	2544.620706
894.938387	2546.117929
895.246665	2544.928217
895.554903	2540.978473
895.863100	2541.079296
896.171256	2537.374048
896.479371	2531.667462
896.787446	2530.876000
897.095480	2527.465660
897.403473	2525.965917
897.711425	2524.274609
898.019336	2521.890144
898.327207	2520.415606
898.635038	2521.149094
898.942827	2515.127436
899.250576	2517.927797
899.558284	2515.422343
899.865952	2515.873527
900.173579	2514.008300
900.481165	2515.621469
900.788711	2513.978053
901.096216	2513.574760
901.403681	2513.262209
901.711105	2516.365039
902.018489	2513.098371
902.325832	2513.506705
902.633135	2515.840759
902.940397	2518.053826
903.247619	2523.883920
903.554800	2534.157792
903.861941	2542.216076
904.169041	2550.440718
904.476101	2554.224104
904.783121	2551.877447
905.090100	2546.846376
905.397039	2543.100798
905.703938	2535.667617
906.010796	2533.555374
906.317614	2526.288550
906.624391	2526.409538
906.931129	2523.589012
907.237826	2524.017511
907.544483	2520.511388
907.851099	2518.852848
908.157675	2515.974350
908.464211	2512.412774
908.770707	2508.974708
909.077163	2506.186949
909.383578	2505.977742
909.689954	2508.281549
909.996289	2504.130159
910.302584	2508.631909
910.608839	2508.281549
910.915054	2507.293483
911.221229	2506.670900
911.527363	2508.349604
911.833458	2507.686693
912.139513	2509.569564
912.445527	2510.154338
912.751502	2514.020903
913.057436	2509.289780
913.363331	2509.972856
913.669186	2512.894205
913.975000	2517.579957
914.280775	2516.750687
914.586510	2520.619773
914.892205	2527.531195
915.197859	2533.933460
915.503475	2540.905376
915.809050	2547.564740
916.114585	2549.107333
916.420081	2551.537169
916.725536	2550.657488
917.030952	2548.467107
917.336328	2546.417878
917.641665	2542.513504
917.946961	2540.786909
918.252218	2537.820190
918.557435	2534.661907
918.862612	2530.765095
919.167750	2528.123530
919.472848	2524.819054
919.777906	2523.135309
920.082925	2520.748322
920.387904	2521.748991
920.692843	2519.878723
920.997743	2517.222035
921.302603	2514.746829
921.607423	2513.584843
921.912204	2513.657939
922.216946	2512.818587
922.521647	2514.653567
922.826310	2510.842455
923.130932	2512.672394
923.435516	2509.725839
923.740059	2511.341529
924.044564	2510.431601
924.349028	2508.389934
924.653454	2506.418843
924.957840	2505.884480
925.262186	2507.149810
925.566493	2504.299037
925.870761	2504.331805
926.174989	2506.696106
926.479178	2505.919768
926.783328	2506.048318
927.087438	2505.438338
927.391509	2507.041425
927.695541	2505.950015
927.999533	2504.909017
928.303486	2506.282731
928.607400	2506.653256
928.911275	2504.654439
929.215110	2505.488750
929.518906	2505.355159
929.822663	2502.796773
930.126381	2504.170488
930.430060	2506.733915
930.733699	2502.955570
931.037299	2505.342556
931.340861	2503.338697
931.644383	2506.658297
931.947866	2504.934223
932.251309	2506.076044
932.554714	2504.641836
932.858080	2507.444717
933.161407	2503.011022
933.464694	2504.205776
933.767943	2503.167298
934.071153	2505.818945
934.374323	2504.629233
934.677455	2504.399860
934.980548	2503.454644
935.283602	2505.864316
935.586617	2503.424397
935.889593	2506.242402
936.192530	2502.985817
936.495428	2505.284583
936.798287	2506.580159
937.101108	2504.467916
937.403890	2506.030674
937.706632	2507.275839
938.009336	2505.087978
938.312002	2504.926661
938.614628	2507.958915
938.917216	2508.891528
939.219765	2507.585870
939.522275	2507.253153
939.824747	2512.944616
940.127179	2505.985303
940.429573	2507.774913
940.731929	2503.598317
941.034246	2505.735766
941.336524	2507.820283
941.638763	2505.962618
941.940964	2508.231137
942.243126	2506.141579
942.545250	2506.844820
942.847335	2504.682165
943.149381	2504.011692
943.451389	2506.970849
943.753359	2504.813235
944.055290	2505.997906
944.357182	2506.007988
944.659036	2506.310458
944.960851	2506.249964
945.262628	2504.457834
945.564367	2504.941784
945.866067	2507.850530
946.167729	2506.159223
946.469352	2503.905827
946.770937	2506.746517
947.072484	2505.047649
947.373992	2506.381034
947.675462	2506.741476
947.976893	2504.888852
948.278286	2506.255005
948.579641	2504.581342
948.880958	2505.831548
949.182236	2507.666528
949.483476	2504.626712
949.784678	2506.791888
950.085841	2503.724346
950.386967	2505.019922
950.688054	2505.503873
950.989103	2506.113853
951.290114	2503.820128
951.591087	2504.949346
951.892021	2506.247443
952.192917	2506.242402
952.493776	2505.990344
952.794596	2508.601662
953.095378	2508.304234
953.396122	2505.302227
953.696828	2504.694768
953.997496	2507.409429
954.298126	2506.628050
954.598718	2508.742814
954.899272	2505.524038
955.199788	2503.500014
955.500266	2503.845333
955.800706	2504.258708
956.101108	2498.597492
956.401472	2503.550426
956.701798	2501.793584
957.002087	2501.980107
957.302337	2504.382216
957.602550	2500.659324
957.902724	2501.627226
958.202861	2503.154695
958.502960	2502.506907
958.803022	2502.663183
959.103045	2503.283245
959.403031	2499.933398
959.702979	2503.285765
960.002889	2500.863491
960.302762	2500.845847
960.602596	2502.406084
960.902393	2504.288955
961.202153	2502.186794
961.501875	2504.021774
961.801559	2500.419869
962.101205	2500.838285
962.400814	2503.104284
962.700385	2501.972545
962.999918	2499.698984
963.299414	2500.492966
963.598873	2502.408605
963.898293	2501.944818
964.197677	2503.265601
964.497022	2502.539675
964.796331	2499.325939
965.095601	2502.688389
965.394835	2501.992709
965.694030	2502.718636
965.993189	2501.715446
966.292309	2501.992709
966.591393	2499.101608
966.890439	2501.385250
967.189447	2500.576145
967.488419	2500.974396
967.787353	2500.906341
968.086249	2498.297544
968.385108	2503.500014
968.683930	2502.259891
968.982714	2500.245950
969.281462	2500.402225
969.580172	2503.915910
969.878844	2500.109838
970.177480	2502.703512
970.476078	2501.937257
970.774639	2504.077227
971.073162	2501.062617
971.371649	2497.198572
971.670098	2498.000116
971.968510	2498.514313
972.266885	2495.381236
972.565223	2502.060765
972.863524	2500.775271
973.161788	2500.581186
973.460014	2503.540344
973.758204	2502.015395
974.056356	2502.627895
974.354471	2502.327946
974.652550	2502.438852
974.950591	2502.711074
975.248595	2503.222751
975.546563	2500.470281
975.844493	2501.574294
976.142386	2503.585714
976.440243	2502.600168
976.738062	2500.898779
977.035845	2501.528923
977.333590	2502.559839
977.631299	2501.760816
977.928971	2501.072699
978.226606	2498.932729
978.524204	2502.597648
978.821765	2500.772750
979.119290	2502.673265
979.416777	2500.490446
979.714228	2500.727380
980.011642	2501.407936
980.309020	2503.643687
980.606360	2498.542040
980.903664	2501.972545
981.200931	2502.796773
981.498162	2503.278204
981.795356	2502.078409
982.092513	2502.945488
982.389633	2503.449603
982.686717	2507.898421
982.983764	2506.474295
983.280775	2507.868174
983.577749	2508.720129
983.874686	2505.791219
984.171587	2505.231651
984.468451	2508.132835
984.765279	2506.459172
985.062070	2503.578152
985.358824	2505.128307
985.655543	2502.620333
985.952224	2505.282062
986.248869	2502.156547
986.545478	2498.663027
986.842050	2498.206803
987.138586	2498.438696
987.435086	2500.140085
987.731549	2498.168994
988.027975	2501.024808
988.324366	2499.071361
988.620719	2500.868532
988.917037	2498.970538
989.213318	2500.853409
989.509563	2499.474653
989.805772	2500.540857
990.101944	2503.189983
990.398080	2500.001454
990.694180	2502.464057
990.990244	2498.116062
991.286271	2495.817296
991.582262	2502.085971
991.878217	2501.077740
992.174136	2499.739314
992.470019	2499.474653
992.765865	2497.944663
993.061676	2499.767040
993.357450	2501.634788
993.653188	2499.194869
993.948890	2500.689571
994.244556	2501.745693
994.540186	2503.371465
994.835780	2499.313336
995.131337	2502.859788
995.426859	2500.011536
995.722345	2501.307112
996.017795	2505.219048
996.313208	2506.423884
996.608586	2502.844664
996.903928	2504.699809
997.199234	2501.846516
997.494504	2505.702999
997.789738	2502.257370
998.084936	2502.897597
998.380099	2502.809376
998.675225	2501.692761
998.970316	2502.277535
999.265371	2501.962463
999.560390	2500.238388
999.855373	2501.261742
1000.150320	2500.649242
1000.445232	2500.003974
1000.740108	2498.431134
1001.034948	2501.120590
1001.329752	2499.746875
1001.624521	2496.928870
1001.919254	2496.477687
1002.213951	2498.605054
1002.508613	2495.603047
1002.803239	2497.221257
1003.097829	2495.592965
1003.392384	2500.069509
1003.686903	2498.405928
1003.981386	2501.339880
1004.275834	2497.737976
1004.570246	2501.932216
1004.864623	2498.310147
1005.158964	2499.988851
1005.453270	2497.317039
1005.747540	2502.842144
1006.041775	2498.821824
1006.335974	2500.248470
1006.630138	2498.156391
1006.924266	2500.727380
1007.218359	2500.021618
1007.512416	2498.010198
1007.806438	2500.165291
1008.100425	2499.298213
1008.394376	2499.177225
1008.688292	2500.651762
1008.982172	2498.905003
1009.276017	2499.058758
1009.569827	2500.152688
1009.863602	2500.266114
1010.157341	2500.397184
1010.451045	2498.048007
1010.744714	2497.692605
1011.038347	2500.883656
1011.331945	2498.416011
1011.625508	2497.909375
1011.919036	2499.063799
1012.212528	2497.806031
1012.505986	2494.219250
1012.799408	2500.051865
1013.092795	2496.765033
1013.386147	2498.693274
1013.679464	2501.113028
1013.972745	2501.012205
1014.265992	2501.382730
1014.559204	2496.805362
1014.852380	2497.375013
1015.145521	2498.796618
1015.438628	2499.968686
1015.731699	2500.228306
1016.024736	2498.703357
1016.317737	2499.434324
1016.610703	2499.915754
1016.903635	2495.741679
1017.196531	2496.104642
1017.489393	2497.864004
1017.782219	2493.868890
1018.075011	2497.695126
1018.367768	2498.421052
1018.660490	2499.746875
1018.953177	2499.746875
1019.245829	2499.746875
