Dividing Wavelength (nm)	Counts (n)	Blue Motor Position (mm): 0.000000	Red Motor Position (mm): 39.000000	
326.493990	2075.806002
326.888308	2075.806002
327.282561	2075.806002
327.676750	2052.674667
328.070874	2058.199772
328.464933	2061.804197
328.858929	2071.531103
329.252859	2083.019893
329.646726	2098.060175
330.040528	2113.216404
330.434265	2132.922275
330.827938	2154.639565
331.221547	2173.523728
331.615091	2191.208095
332.008571	2213.631148
332.401986	2235.199724
332.795338	2254.784607
333.188625	2273.935951
333.581847	2294.975206
333.975006	2309.551703
334.368100	2328.488797
334.761129	2345.903463
335.154095	2361.011801
335.546996	2390.966337
335.939833	2436.361927
336.332606	2451.379525
336.725315	2464.720938
337.117960	2473.041363
337.510540	2478.233751
337.903056	2487.766573
338.295508	2493.878972
338.687896	2500.281238
339.080220	2507.364059
339.472480	2515.003928
339.864676	2515.324041
340.256807	2519.795544
340.648875	2520.082890
341.040879	2523.830988
341.432818	2523.755371
341.824694	2524.652696
342.216506	2524.042716
342.608253	2527.311905
342.999937	2524.234280
343.391557	2523.044568
343.783113	2524.231760
344.174605	2519.233456
344.566033	2518.479803
344.957397	2517.164062
345.348697	2515.886129
345.739934	2515.586181
346.131106	2510.524862
346.522215	2509.766169
346.913260	2508.087464
347.304241	2509.045284
347.695159	2506.045797
348.086012	2505.854233
348.476802	2504.183091
348.867528	2503.618482
349.258191	2503.752072
349.648789	2499.209993
350.039324	2497.501041
350.429796	2501.145796
350.820203	2496.807883
351.210548	2498.635301
351.600828	2497.811072
351.991045	2497.866525
352.381198	2497.090187
352.771288	2496.742348
353.161314	2496.986844
353.551276	2502.126300
353.941175	2497.669920
354.331010	2498.698315
354.720782	2496.117245
355.110490	2500.598830
355.500135	2497.944663
355.889717	2502.421207
356.279235	2501.284427
356.668689	2501.405415
357.058080	2498.821824
357.447408	2499.003305
357.836672	2496.999447
358.225873	2500.198059
358.615010	2501.004643
359.004084	2506.507063
359.393095	2507.190139
359.782043	2504.359531
360.170927	2507.129645
360.559748	2509.103257
360.948505	2509.292300
361.337199	2510.413957
361.725830	2507.618637
362.114398	2511.669204
362.502903	2511.149965
362.891344	2514.101561
363.279722	2513.766324
363.668037	2515.939062
364.056289	2514.464524
364.444478	2514.313289
364.832603	2518.651202
365.220665	2515.155162
365.608665	2519.125071
365.996601	2520.206398
366.384474	2520.234125
366.772284	2519.634227
367.160031	2522.921060
367.547715	2523.072294
367.935336	2523.904085
368.322893	2523.412572
368.710388	2524.854342
369.097820	2530.571011
369.485189	2528.141174
369.872495	2532.824406
370.259738	2530.374406
370.646918	2533.111752
371.034035	2535.665097
371.421090	2540.121477
371.808081	2540.993596
372.195010	2544.250182
372.581875	2548.948537
372.968678	2554.662685
373.355418	2564.041752
373.742096	2568.977041
374.128710	2581.380800
374.515262	2591.891606
374.901751	2601.933584
375.288177	2616.384052
375.674540	2633.370220
376.060841	2651.329330
376.447079	2670.894048
376.833254	2695.517564
377.219367	2718.868189
377.605417	2752.275916
377.991404	2776.319699
378.377329	2811.905204
378.763191	2843.387210
379.148991	2888.485372
379.534727	2937.109821
379.920402	2981.729074
380.306013	3025.662730
380.691563	3085.781010
381.077049	3137.372178
381.462474	3190.826053
381.847835	3260.779625
382.233134	3323.668019
382.618371	3383.556927
383.003545	3466.420893
383.388657	3541.453427
383.773706	3625.625572
384.158693	3695.836243
384.543618	3785.964512
384.928480	3859.940924
385.313280	3960.138898
385.698017	4057.934762
386.082692	4171.738810
386.467305	4231.718458
386.851856	4351.758414
387.236344	4498.950024
387.620770	4560.217687
388.005133	4674.790511
388.389435	4810.301767
388.773674	4891.358480
389.157851	5018.899673
389.541965	5148.477491
389.926018	5171.508002
390.310008	5343.819682
390.693936	5457.810253
391.077802	5569.237397
391.461606	5694.303382
391.845348	5810.300333
392.229027	5928.666625
392.612645	6138.948275
392.996200	6258.380772
393.379694	6424.640546
393.763125	6632.247864
394.146494	6723.109621
394.529801	6857.988213
394.913047	7089.452792
395.296230	7082.800989
395.679351	7142.185782
396.062410	7388.902371
396.445408	7285.808255
396.828343	7440.339785
397.211217	7574.225269
397.594028	7464.280224
397.976778	7660.083681
398.359466	7824.326994
398.742092	7807.550034
399.124656	7948.783000
399.507158	8140.185529
399.889598	8158.666399
400.271977	8371.882001
400.654294	8399.777226
401.036549	8594.688398
401.418742	8629.111917
401.800874	8918.330475
402.182944	9005.066047
402.564952	9356.215180
402.946898	9195.709883
403.328783	9250.963450
403.710606	9440.180639
404.092367	9693.455770
404.474067	10047.594307
404.855705	9849.461837
405.237282	9809.707298
405.618797	10223.807840
406.000250	10470.829419
406.381642	10820.902266
406.762972	10772.608012
407.144240	10590.287121
407.525447	10847.426297
407.906593	10784.379106
408.287677	11049.977338
408.668700	11189.214007
409.049661	11180.127327
409.430560	11345.099087
409.811399	11321.115797
410.192176	11477.946093
410.572891	11556.696478
410.953545	12034.633151
411.334138	11519.712053
411.714669	12096.173037
412.095139	11450.859974
412.475547	11923.001840
412.855894	11795.294290
413.236180	12108.579316
413.616405	11807.957668
413.996568	12080.721900
414.376670	12060.254815
414.756711	11948.084101
415.136691	12220.427397
415.516609	12394.793346
415.896466	12488.059734
416.276262	12763.858740
416.655997	13220.887227
417.035670	13267.744752
417.415283	13887.630235
417.794834	13960.792501
418.174324	13720.720152
418.553753	13638.577070
418.933121	14118.426861
419.312428	13950.740440
419.691674	13855.429865
420.070859	14313.784175
420.449983	13978.179440
420.829045	14531.466239
421.208047	14290.478921
421.586988	14732.530140
421.965867	14981.774868
422.344686	14982.150434
422.723444	15553.280398
423.102141	14250.053908
423.480777	15447.305262
423.859352	14940.913796
424.237866	16041.589244
424.616319	15768.028510
424.994712	16403.718010
425.373044	16208.111159
425.751314	16896.387455
426.129524	16025.560896
426.507673	17095.865913
426.885762	16831.883371
427.263789	17009.621853
427.641756	17191.758741
428.019662	17254.067403
428.397508	17305.209909
428.775292	17585.661900
429.153016	17567.632213
429.530679	17641.694325
429.908282	17677.937701
430.285824	17406.925270
430.663305	18131.956619
431.040726	17741.131085
431.418086	17573.520281
431.795385	18206.759780
432.172624	18653.068254
432.549802	18209.237507
432.926920	18424.222554
433.303977	18304.285942
433.680974	18559.312874
434.057910	18870.709989
434.434786	18906.207273
434.811601	18826.332711
435.188355	19879.737260
435.565050	19542.005158
435.941683	19505.711371
436.318257	20398.950901
436.694770	20209.834535
437.071222	20798.422014
437.447614	19871.431959
437.823946	19903.168543
438.200218	20084.942469
438.576429	19858.375371
438.952580	20165.527833
439.328670	20124.833119
439.704700	20557.250693
440.080670	20125.911926
440.456580	20744.022923
440.832429	20903.514948
441.208218	19915.993239
441.583947	20360.827175
441.959616	20483.969960
442.335224	20733.340717
442.710773	20873.323478
443.086261	21431.255700
443.461689	20762.793659
443.837057	20926.623597
444.212365	21575.576373
444.587612	21582.233217
444.962800	21175.036535
445.337927	21609.614244
445.712995	20326.922894
446.088002	22218.197459
446.462949	22419.614241
446.837837	22607.936625
447.212664	22623.163430
447.587431	25571.807412
447.962139	28541.959476
448.336786	30855.392867
448.711374	29197.899291
449.085901	25472.801671
449.460369	25486.037220
449.834776	25465.885207
450.209124	28028.391928
450.583412	27506.708122
450.957640	28010.750410
451.331808	26662.866859
451.705917	25277.068790
452.079965	25324.468239
452.453954	25707.674069
452.827883	25612.797033
453.201752	25409.179788
453.575562	25580.311838
453.949311	26716.711423
454.323001	26785.651723
454.696632	26580.186895
455.070202	28168.261262
455.443713	28354.020219
455.817164	28934.665360
456.190556	29495.256792
456.563888	28906.944055
456.937160	29344.435551
457.310373	27651.714392
457.683526	28073.563187
458.056619	28079.995699
458.429653	28070.276354
458.802628	28670.246759
459.175542	28806.005032
459.548398	30184.354796
459.921194	31814.326192
460.293930	32558.828998
460.666607	34650.759130
461.039224	36450.272092
461.411782	36809.280384
461.784280	35520.073344
462.156719	34956.184998
462.529099	34401.196809
462.901419	33051.712692
463.273680	32001.688237
463.645882	32149.273057
464.018024	32135.825779
464.390106	33070.395208
464.762130	35985.414693
465.134094	40312.494138
465.505999	45821.666187
465.877845	50365.212778
466.249631	51372.682333
466.621358	49520.842194
466.993026	47292.054818
467.364634	45123.839425
467.736184	43177.835573
468.107674	41908.006728
468.479105	41112.028700
468.850477	40389.051621
469.221790	38937.297616
469.593043	37147.226735
469.964238	36250.395384
470.335373	36200.117436
470.706449	38047.816267
471.077467	40824.287200
471.448425	45495.916908
471.819324	48265.554557
472.190164	46282.077288
472.560945	42643.107782
472.931667	39470.999533
473.302330	38375.342553
473.672934	37526.157667
474.043479	38070.559433
474.413965	37266.707122
474.784393	36906.980466
475.154761	37828.773091
475.525070	37881.790906
475.895321	37398.818121
476.265513	38029.743730
476.635645	39027.927480
477.005719	38859.999084
477.375734	39377.534020
477.745691	40111.488211
478.115588	41480.433703
478.485427	43603.243423
478.855207	47083.920699
479.224928	49740.956615
479.594591	51309.945174
479.964194	50193.266582
480.333739	50331.610967
480.703226	50394.161604
481.072653	51042.847199
481.442022	51531.468597
481.811333	51748.273501
482.180584	50459.205092
482.549777	49927.199523
482.918912	49400.139327
483.287988	49082.097972
483.657005	48247.787011
484.025964	47569.540090
484.394864	47557.615240
484.763706	47124.665825
485.132489	46250.098729
485.501213	46067.296408
485.869879	46218.745273
486.238487	45807.102294
486.607036	45998.797210
486.975527	45443.378003
487.343959	45666.892682
487.712333	45741.688281
488.080648	45623.846269
488.448905	46079.168326
488.817104	45868.831222
489.185244	46900.389931
489.553326	48654.910595
489.921350	51427.373811
490.289315	54259.453713
490.657222	54781.969309
491.025070	55001.135993
491.392861	54084.387043
491.760593	52814.815296
492.128267	51112.394957
492.495883	49554.907791
492.863440	48125.589441
493.230939	46750.697909
493.598380	45652.711916
493.965763	45322.407954
494.333088	44481.936703
494.700354	43989.920087
495.067563	43673.655739
495.434713	43532.732804
495.801805	43618.991987
496.168839	43214.792272
496.535815	42879.999163
496.902733	42884.390008
497.269593	42448.433544
497.636395	42392.212075
498.003139	42780.128864
498.369825	42231.800039
498.736453	42536.273129
499.103023	42055.510889
499.469535	41925.045828
499.835989	41995.957218
500.202385	41670.323886
500.568723	41685.656555
500.935003	41865.149358
501.301226	41660.302072
501.667390	42285.112762
502.033497	42513.892926
502.399546	41943.614918
502.765537	41245.362178
503.131470	41603.596653
503.497345	41976.538694
503.863163	40606.776535
504.228923	41253.861564
504.594625	41652.589107
504.960269	40910.742989
505.325856	41601.383586
505.691385	40979.610192
506.056856	41105.770108
506.422270	41543.664895
506.787625	41107.887392
507.152924	41314.582262
507.518164	41393.307441
507.883347	40602.405855
508.248472	40833.187358
508.613540	41339.866169
508.978550	41615.692902
509.343503	41367.350540
509.708398	41558.054869
510.073236	42083.842174
510.438016	42090.836775
510.802738	41539.689946
511.167403	42169.877026
511.532010	42386.747465
511.896561	42680.397197
512.261053	43533.887228
512.625488	43079.457456
512.989866	42955.319042
513.354186	42771.412709
513.718449	42777.114254
514.082655	43444.915904
514.446803	43107.710602
514.810894	43643.854958
515.174927	43545.605390
515.538904	43442.980101
515.902822	44092.825161
516.266684	43539.704720
516.630488	43974.443745
516.994235	43812.441225
517.357925	44404.527265
517.721558	44563.656327
518.085133	44862.102717
518.448651	44970.096835
518.812112	44751.784627
519.175516	44844.735942
519.538863	45156.831256
519.902152	45140.134955
520.265385	45584.744559
520.628560	45609.063085
520.991678	45404.031797
521.354739	45631.707948
521.717743	45933.541994
522.080690	45829.810171
522.443580	46358.423043
522.806413	46405.242759
523.169189	46364.875720
523.531908	46525.633075
523.894569	46368.517953
524.257174	46540.418779
524.619722	46803.428378
524.982213	46775.535674
525.344647	46709.115951
525.707025	46760.107222
526.069345	47151.784712
526.431608	47058.861123
526.793815	47371.251344
527.155964	46896.563695
527.518057	47073.997187
527.880093	46831.739498
528.242072	47354.862553
528.603995	47053.368786
528.965860	47036.619552
529.327669	47139.759039
529.689421	47035.013945
530.051117	46971.901219
530.412755	47119.420504
530.774337	47186.591358
531.135862	46997.520363
531.497331	47170.994028
531.858743	47058.288952
532.220098	47402.609842
532.581396	47103.858462
532.942638	46758.627644
533.303824	47077.601612
533.664953	47027.938685
534.026025	46748.331087
534.387040	47204.190027
534.747999	47139.214595
535.108902	47288.142882
535.469748	46797.885629
535.830537	46894.499343
536.191270	47086.073271
536.551947	46739.002432
536.912567	47033.262144
537.273131	47144.515368
537.633638	46629.241389
537.994089	46962.149107
538.354483	46546.498411
538.714821	47111.029503
539.075103	47440.332796
539.435328	47192.063531
539.795497	47055.067655
540.155609	47045.355872
540.515665	47494.613420
540.875665	46924.471523
541.235609	47251.687778
541.595496	47209.523567
541.955328	47891.543792
542.315102	47209.100110
542.674821	46970.958523
543.034483	47002.201074
543.394090	46973.463977
543.753640	46915.092456
544.113134	47892.368020
544.472571	46883.822179
544.831953	48106.778376
545.191278	47279.898075
545.550548	47005.921446
545.909761	47449.117007
546.268918	47620.175960
546.628019	47892.962877
546.987064	47437.303063
547.346053	46683.947991
547.704986	47536.744863
548.063863	47074.786128
548.422684	47233.711023
548.781449	47034.136784
549.140158	47435.410109
549.498811	47221.755927
549.857408	46640.636917
550.215949	47455.748645
550.574434	47368.100623
550.932864	47095.520394
551.291237	47774.710010
551.649555	47373.335862
552.007817	47562.928617
552.366022	47187.145885
552.724173	47313.338569
553.082267	47663.862599
553.440305	47920.575797
553.798288	47193.701906
554.156215	47478.897623
554.514086	47641.096748
554.871902	47330.191146
555.229661	47318.291503
555.587365	47108.846684
555.945014	47159.159920
556.302606	47060.239878
556.660143	47233.544665
557.017625	47257.475023
557.375050	47008.237856
557.732421	47320.401226
558.089735	47229.741115
558.446994	47117.028477
558.804197	47512.023045
559.161345	47399.164213
559.518437	46604.416227
559.875474	46846.462188
560.232455	46983.974782
560.589381	47110.956407
560.946251	46744.406549
561.303065	47342.017693
561.659825	47072.121878
562.016528	46712.400263
562.373177	46359.496809
562.729770	46776.831250
563.086307	46231.413692
563.442789	46618.962477
563.799216	46579.938905
564.155587	46330.048908
564.511904	46281.361445
564.868164	46280.350693
565.224370	46445.519058
565.580520	46127.644061
565.936615	46253.380520
566.292654	45885.078861
566.648638	46060.263999
567.004567	45937.857222
567.360441	45915.466937
567.716260	45676.017170
568.072023	45879.067285
568.427732	45749.887718
568.783385	45222.333489
569.138982	45526.045364
569.494525	45388.172327
569.850013	45049.863013
570.205445	44959.374301
570.560823	44793.021265
570.916145	44579.543523
571.271412	44533.626174
571.626625	44177.536710
571.981782	44111.966422
572.336884	43721.448398
572.691931	43909.879167
573.046923	43433.016260
573.401860	43201.808780
573.756743	43049.144998
574.111570	43045.918659
574.466342	42794.506235
574.821059	42779.753298
575.175722	42219.744120
575.530330	42143.163952
575.884882	41756.809921
576.239380	41591.775147
576.593823	41465.511887
576.948211	41288.864815
577.302544	40735.923335
577.656823	40613.277103
578.011047	40704.282533
578.365216	40346.458913
578.719330	40010.438282
579.073389	39769.816447
579.427394	39704.319256
579.781344	39542.170543
580.135239	39117.763362
580.489080	39029.013849
580.842866	38455.703586
581.196597	38706.259015
581.550273	38525.659678
581.903895	38269.407746
582.257463	38484.584357
582.610975	37796.905437
582.964434	37894.575272
583.317837	37447.848383
583.671186	37160.353900
584.024481	37202.921403
584.377721	36663.016347
584.730906	36749.648575
585.084037	36649.964799
585.437113	36263.946005
585.790135	36146.076267
586.143103	35654.210886
586.496016	35607.537363
586.848874	35484.785267
587.201679	35345.583886
587.554428	34777.271927
587.907124	34758.942292
588.259765	34405.781739
588.612352	34460.231241
588.964884	33798.657937
589.317362	33886.752100
589.669786	33685.428580
590.022155	33338.440920
590.374470	33509.557846
590.726731	32990.170286
591.078937	32460.541622
591.431090	32383.616135
591.783188	31969.205562
592.135232	31576.844997
592.487222	31623.074898
592.839157	31514.317045
593.191038	31103.543665
593.542866	30770.502357
593.894639	30181.176348
594.246358	30237.506202
594.598022	30054.913089
594.949633	29622.397212
595.301190	29446.904564
595.652692	29162.593570
596.004141	29247.539533
596.355535	28395.566889
596.706876	28194.316465
597.058162	27924.092975
597.409395	28106.376057
597.760573	27996.889757
598.111698	27564.908243
598.462768	27402.671309
598.813785	27273.053162
599.164748	26762.976613
599.515657	26851.383328
599.866511	26368.997837
600.217312	26614.985980
600.568060	25791.747913
600.918753	26131.766178
601.269392	25936.693689
601.619978	25570.171557
601.970510	25536.592431
602.320988	25505.130590
602.671412	25522.557859
603.021783	25217.925973
603.372100	24846.708007
603.722363	24746.709159
604.072572	24635.392920
604.422728	24495.790767
604.772830	24228.155909
605.122878	24136.923628
605.472872	23932.388893
605.822813	23939.786786
606.172701	23673.722248
606.522534	23668.567668
606.872314	23660.065762
607.222041	23369.904508
607.571714	23432.069497
607.921333	22970.256955
608.270899	22969.604125
608.620411	23008.189117
608.969870	22728.778124
609.319276	22586.877205
609.668627	22457.962298
610.017926	22553.638357
610.367171	22476.700267
610.716362	22362.936548
611.065500	22180.797139
611.414585	22121.193057
611.763616	22116.063682
612.112594	21924.666194
612.461518	21877.987630
612.810389	21882.040718
613.159207	21661.008807
613.507971	21539.186804
613.856682	21615.651025
614.205340	21398.243704
614.553945	21567.581103
614.902496	21152.003503
615.250994	21230.524516
615.599439	21110.035898
615.947830	21038.149044
616.296169	20915.021382
616.644454	20807.455761
616.992686	20730.769729
617.340864	20805.461985
617.688990	20515.998931
618.037063	20647.026081
618.385082	20478.603652
618.733048	20439.254926
619.080961	20295.942483
619.428821	20147.936727
619.776628	20046.133146
620.124382	19825.471760
620.472083	19737.002030
620.819731	19643.183637
621.167326	19344.273460
621.514868	19195.095636
621.862357	18865.036170
622.209793	18739.609742
622.557176	18457.849571
622.904506	18203.873720
623.251783	17915.681037
623.599007	17687.921706
623.946179	17464.132284
624.293297	17316.630643
624.640363	16947.219930
624.987376	16812.560628
625.334336	16590.323882
625.681243	16334.296281
626.028097	16196.874427
626.374899	16015.022364
626.721647	15889.593415
627.068343	15727.359002
627.414987	15520.520459
627.761577	15328.036603
628.108115	15320.721888
628.454600	15020.420354
628.801032	14966.046468
629.147412	14829.685777
629.493739	14716.534559
629.840014	14493.682791
630.186236	14490.688346
630.532405	14256.695628
630.878521	14217.992170
631.224585	14068.723604
631.570597	13864.435886
631.916556	13815.665243
632.262462	13702.889590
632.608316	13601.872429
632.954117	13466.739259
633.299866	13362.843599
633.645562	13229.626067
633.991206	12981.984426
634.336797	12751.102100
634.682336	12632.786219
635.027823	12452.204527
635.373257	12313.010708
635.718639	12147.030717
636.063968	12012.941066
636.409245	11766.244641
636.754470	11680.305571
637.099642	11534.149918
637.444762	11323.502784
637.789829	11263.510532
638.134845	11098.160686
638.479808	10992.634213
638.824719	10886.039015
639.169577	10705.734586
639.514383	10637.431992
639.859137	10483.218055
640.203839	10456.477254
640.548489	10300.294746
640.893086	10235.442823
641.237632	10094.182130
641.582125	10042.505262
641.926566	9947.736611
642.270955	9864.834836
642.615292	9805.341659
642.959576	9724.960461
643.303809	9650.109408
643.647990	9607.246998
643.992118	9527.687508
644.336195	9455.606570
644.680219	9405.338704
645.024192	9401.421727
645.368112	9442.638201
645.711981	9376.294096
646.055797	9485.548503
646.399562	9422.168596
646.743274	9540.744096
647.086935	9569.524044
647.430544	9486.702927
647.774101	9444.029560
648.117606	9415.650384
648.461059	9405.121934
648.804460	9260.224049
649.147810	9069.897807
649.491108	8944.960370
649.834354	8812.163775
650.177548	8599.036393
650.520690	8446.087786
650.863781	8384.333651
651.206820	8295.826113
651.549807	8160.249321
651.892742	8013.171137
652.235626	7924.961027
652.578458	7842.492792
652.921238	7689.128289
653.263967	7683.512443
653.606644	7580.751043
653.949269	7519.387598
654.291843	7403.940133
654.634365	7414.871875
654.976836	7308.233827
655.319255	7254.462360
655.661622	7199.284411
656.003938	7118.905733
656.346203	7056.556742
656.688416	7032.903648
657.030577	6962.272042
657.372687	6892.273100
657.714746	6877.996553
658.056753	6844.177972
658.398708	6729.257308
658.740612	6687.241812
659.082465	6679.549011
659.424266	6619.017356
659.766016	6589.945022
660.107715	6536.297062
660.449362	6514.443661
660.790958	6471.916487
661.132503	6431.010044
661.473996	6394.023098
661.815438	6370.556527
662.156829	6348.204051
662.498168	6280.173680
662.839456	6244.378967
663.180693	6225.222582
663.521879	6202.572678
663.863013	6164.953067
664.204097	6122.645184
664.545129	6136.616742
664.886110	6101.870589
665.227040	6078.514923
665.567918	6049.177928
665.908746	6024.718250
666.249522	6008.710066
666.590248	5980.512372
666.930922	5956.536644
667.271545	5918.448206
667.612118	5890.883177
667.952639	5835.659857
668.293109	5806.269930
668.633528	5757.010295
668.973896	5716.217278
669.314213	5684.805849
669.654480	5626.880470
669.994695	5593.129945
670.334859	5552.752824
670.674973	5508.763715
671.015035	5489.899717
671.355047	5457.964008
671.695008	5427.417136
672.034918	5391.456065
672.374777	5376.221698
672.714585	5333.797868
673.054342	5327.037681
673.394049	5284.064365
673.733705	5276.858035
674.073310	5222.080858
674.412864	5202.248958
674.752368	5139.698322
675.091820	5135.239421
675.431223	5070.821037
675.770574	5026.577350
676.109875	4978.033559
676.449125	4932.993370
676.788324	4896.676898
677.127473	4838.340665
677.466571	4800.189213
677.805619	4756.137090
678.144616	4728.589705
678.483562	4705.208833
678.822458	4662.104447
679.161303	4632.379284
679.500098	4604.514306
679.838842	4576.233433
680.177535	4569.115323
680.516179	4568.528029
680.854771	4569.695056
681.193314	4613.820276
681.531805	4681.487684
681.870247	4725.484354
682.208638	4753.918982
682.546978	4750.579218
682.885268	4731.006938
683.223508	4679.327549
683.561697	4637.980006
683.899836	4603.851394
684.237925	4557.782810
684.575963	4534.943862
684.913951	4489.117253
685.251889	4484.633147
685.589776	4470.787618
685.927614	4458.426708
686.265401	4459.515598
686.603137	4451.606027
686.940824	4474.223164
687.278460	4490.669928
687.616046	4492.714116
687.953582	4521.015154
688.291068	4505.072505
688.628504	4502.410776
688.965889	4486.442921
689.303224	4447.938588
689.640510	4404.309922
689.977745	4337.340714
690.314930	4272.778656
690.652065	4222.024319
690.989150	4157.394207
691.326185	4087.052466
691.663170	4028.428888
692.000105	3972.388902
692.336990	3921.823608
692.673825	3880.844068
693.010610	3843.741176
693.347345	3796.276192
693.684030	3747.944129
694.020665	3724.621231
694.357251	3677.751103
694.693786	3664.001356
695.030272	3644.907986
695.366707	3610.408850
695.703093	3584.507401
696.039429	3572.159095
696.375716	3558.918504
696.711952	3544.770506
697.048139	3534.731048
697.384276	3520.817463
697.720363	3517.223121
698.056400	3502.349196
698.392388	3483.979232
698.728326	3473.627222
699.064214	3454.390179
699.400053	3446.515897
699.735842	3420.059922
700.071581	3397.621746
700.407270	3378.825804
700.742910	3358.373843
701.078501	3338.922550
701.414042	3320.872699
701.749533	3303.344607
702.084974	3278.965587
702.420366	3278.108591
702.755709	3252.660846
703.091002	3238.638877
703.426246	3231.132599
703.761440	3217.597101
704.096584	3202.652600
704.431679	3192.812268
704.766725	3184.058304
705.101721	3177.351049
705.436668	3172.435924
705.771565	3155.709376
706.106413	3162.961075
706.441212	3158.214829
706.775961	3157.564520
707.110661	3155.500168
707.445311	3161.877227
707.779913	3153.027482
708.114465	3156.657112
708.448967	3157.919922
708.783421	3178.739887
709.117825	3186.099972
709.452180	3195.408462
709.786485	3199.857280
710.120742	3225.471383
710.454949	3230.474728
710.789107	3240.814135
711.123216	3264.331117
711.457275	3271.953342
711.791286	3286.098820
712.125247	3287.301135
712.459159	3279.280659
712.793023	3290.729120
713.126837	3251.708068
713.460602	3250.906525
713.794318	3230.194944
714.127985	3209.838765
714.461602	3169.534740
714.795171	3161.854542
715.128691	3127.799027
715.462162	3097.882300
715.795584	3080.104671
716.128957	3069.263669
716.462281	3052.244734
716.795556	3037.443906
717.128782	3019.620907
717.461960	3000.000736
717.795088	2993.285919
718.128167	2981.885350
718.461198	2963.288533
718.794180	2956.772842
719.127113	2947.890329
719.459997	2936.429266
719.792833	2924.673295
720.125619	2919.415371
720.458357	2910.679052
720.791046	2905.577404
721.123686	2899.641445
721.456278	2888.366905
721.788821	2888.755074
722.121315	2881.314331
722.453761	2879.013044
722.786158	2875.461551
723.118506	2873.167826
723.450805	2870.496014
723.783056	2869.444934
724.115259	2866.412680
724.447412	2864.769264
724.779518	2868.141796
725.111574	2867.274717
725.443582	2871.816797
725.775542	2870.369986
726.107453	2880.449773
726.439315	2874.725542
726.771129	2888.384549
727.102895	2893.468553
727.434612	2898.716394
727.766281	2900.826117
728.097901	2902.202352
728.429473	2899.608678
728.760996	2899.646487
729.092471	2894.141547
729.423897	2893.977709
729.755276	2885.846328
730.086606	2887.920763
730.417887	2896.848646
730.749120	2907.392219
731.080305	2909.353228
731.411442	2915.344640
731.742530	2912.834145
732.073570	2912.811460
732.404562	2917.557706
732.735506	2910.268198
733.066401	2904.238978
733.397249	2890.806823
733.728048	2875.040615
734.058798	2858.225846
734.389501	2841.297651
734.720156	2828.455312
735.050762	2816.361584
735.381320	2809.876139
735.711831	2801.197793
736.042293	2795.692853
736.372707	2794.099848
736.703073	2787.228756
737.033391	2792.095990
737.363661	2791.796041
737.693883	2792.393418
738.024056	2800.638225
738.354182	2800.297947
738.684260	2805.281128
739.014290	2809.548464
739.344272	2812.036274
739.674207	2818.201605
740.004093	2819.713951
740.333931	2817.004331
740.663722	2819.151862
740.993464	2817.863848
741.323159	2814.181285
741.652806	2807.221972
741.982405	2802.160653
742.311956	2792.942904
742.641460	2790.949127
742.970915	2781.965791
743.300323	2776.465892
743.629683	2771.386930
743.958996	2766.413832
744.288260	2759.590630
744.617477	2750.932448
744.946647	2747.668301
745.275768	2743.373238
745.604842	2737.903586
745.933869	2736.471898
746.262847	2730.442678
746.591778	2735.806466
746.920662	2735.199007
747.249498	2730.730024
747.578286	2734.838564
747.907027	2738.992475
748.235720	2741.581108
748.564365	2745.039339
748.892963	2739.083216
749.221514	2739.942733
749.550017	2731.881928
749.878473	2734.987278
750.206881	2732.713718
750.535242	2727.725496
750.863555	2728.527040
751.191821	2728.025445
751.520039	2725.401524
751.848210	2724.383211
752.176334	2726.384549
752.504411	2722.752398
752.832440	2718.041440
753.160421	2720.367932
753.488356	2717.565051
753.816243	2717.348281
754.144082	2713.196891
754.471875	2710.058773
754.799620	2709.852085
755.127318	2708.891746
755.454969	2709.481561
755.782572	2706.285469
756.110129	2707.422249
756.437638	2705.254553
756.765100	2706.106508
757.092515	2706.063658
757.419882	2707.674307
757.747203	2706.814790
758.074477	2709.113556
758.401703	2705.430993
758.728882	2710.870398
759.056014	2711.465255
759.383099	2715.440204
759.710138	2714.558002
760.037129	2716.279557
760.364073	2718.883312
760.690970	2717.207129
761.017820	2716.206460
761.344623	2718.384238
761.671379	2724.708366
761.998088	2733.394274
762.324751	2764.150353
762.651366	2812.885708
762.977935	2879.428939
763.304456	2914.197777
763.630931	2926.911567
763.957359	2910.326171
764.283740	2878.148486
764.610074	2841.516942
764.936362	2807.526962
765.262602	2778.401695
765.588796	2752.066708
765.914943	2730.538460
766.241044	2715.354505
766.567097	2703.553164
766.893104	2693.768284
767.219064	2685.306707
767.544978	2679.312775
767.870845	2672.413956
768.196665	2667.700477
768.522438	2663.886845
768.848165	2661.305774
769.173846	2658.530619
769.499479	2658.565907
769.825066	2653.812099
770.150607	2650.000986
770.476101	2648.357570
770.801548	2647.750111
771.126949	2641.771303
771.452303	2640.410191
771.777611	2636.722587
772.102872	2637.083030
772.428087	2634.993471
772.753256	2633.912144
773.078378	2630.035497
773.403453	2629.216309
773.728482	2623.308077
774.053465	2626.758747
774.378401	2622.299846
774.703291	2623.171966
775.028135	2621.652058
775.352932	2621.377315
775.677683	2617.815740
776.002388	2616.865482
776.327046	2613.934051
776.651658	2615.136366
776.976224	2613.392127
777.300743	2614.458331
777.625216	2610.576643
777.949643	2611.652929
778.274024	2613.165275
778.598359	2605.820314
778.922647	2606.208483
779.246889	2606.745366
779.571086	2602.745210
779.895236	2607.771241
780.219339	2607.501539
780.543397	2608.187136
780.867409	2610.190994
781.191374	2608.398864
781.515294	2607.768720
781.839167	2609.961622
782.162995	2609.220572
782.486776	2610.924482
782.810511	2608.411467
783.134201	2607.665376
783.457844	2606.778133
783.781441	2607.010026
784.104993	2603.398040
784.428498	2601.532813
784.751958	2603.390478
785.075372	2605.550612
785.398739	2601.742021
785.722061	2601.878132
786.045337	2603.493822
786.368568	2606.818462
786.691752	2606.306785
787.014891	2611.337857
787.337983	2615.224587
787.661030	2626.201699
787.984031	2635.343832
788.306987	2640.475726
788.629897	2640.833648
788.952760	2639.031436
789.275579	2636.150416
789.598351	2630.055661
789.921078	2624.835546
790.243759	2622.103241
790.566395	2616.724330
790.888984	2612.048660
791.211529	2608.265274
791.534027	2608.154368
791.856480	2604.386106
792.178888	2603.962649
792.501249	2601.605909
792.823566	2597.701536
793.145836	2597.081474
793.468062	2596.189190
793.790241	2596.282451
794.112375	2597.832606
794.434464	2597.699015
794.756507	2599.957452
795.078505	2602.152875
795.400457	2606.352156
795.722364	2610.150665
796.044226	2616.079062
796.366042	2617.099896
796.687812	2613.571088
797.009538	2620.079218
797.331218	2618.085441
797.652852	2614.823815
797.974442	2611.965481
798.295986	2613.051849
798.617484	2610.390120
798.938938	2608.887856
799.260346	2606.682351
799.581709	2603.861826
799.903026	2605.187649
800.224299	2599.450816
800.545526	2598.803028
800.866708	2597.825044
801.187845	2596.088367
801.508936	2591.594178
801.829983	2593.910588
802.150984	2590.422110
802.471940	2587.646954
802.792851	2590.064188
803.113717	2591.422779
803.434538	2588.622418
803.755314	2589.159301
804.076045	2587.016810
804.396731	2589.562593
804.717372	2586.492530
805.037967	2588.095617
805.358518	2589.224836
805.679024	2591.810947
805.999485	2590.041502
806.319901	2592.965372
806.640272	2591.218612
806.960598	2592.453695
807.280879	2592.869590
807.601115	2594.860846
807.921306	2591.019486
808.241453	2593.492172
808.561554	2591.022007
808.881611	2594.175249
809.201623	2592.927563
809.521590	2593.270362
809.841513	2590.487645
810.161390	2594.074426
810.481223	2589.991091
810.801011	2589.204671
811.120755	2588.481265
811.440453	2589.376070
811.760107	2587.462952
812.079716	2586.127047
812.399281	2584.211408
812.718801	2582.774679
813.038276	2582.416757
813.357707	2586.933631
813.677093	2585.766604
813.996434	2582.015986
814.315731	2587.019331
814.634983	2583.377097
814.954191	2587.883889
815.273354	2588.423292
815.592473	2589.280288
815.911547	2589.993612
816.230577	2593.371185
816.549562	2593.003180
816.868502	2594.518047
817.187399	2596.897472
817.506250	2599.236567
817.825058	2602.493152
818.143821	2603.970211
818.462539	2611.524380
818.781213	2616.804988
819.099843	2626.763788
819.418429	2642.479585
819.736970	2658.840650
820.055466	2672.960922
820.373919	2700.460416
820.692327	2736.476939
821.010691	2803.741055
821.329011	2953.712862
821.647286	3185.111905
821.965517	3428.403031
822.283704	3568.252201
822.601847	3605.402984
822.919945	3498.648989
823.237999	3377.363869
823.556010	3258.700149
823.873976	3144.603714
824.191897	3043.190822
824.509775	2970.361272
824.827609	2901.436096
825.145398	2863.098121
825.463144	2842.830162
825.780845	2848.907273
826.098502	2874.917106
826.416116	2930.087494
826.733685	2982.218066
827.051210	2996.562669
827.368692	2967.286168
827.686129	2909.166706
828.003522	2848.723271
828.320872	2791.932152
828.638177	2751.514701
828.955439	2717.683518
829.272656	2693.601926
829.589830	2667.970179
829.906960	2655.601708
830.224046	2635.515231
830.541088	2628.036679
830.858086	2621.324383
831.175041	2617.911522
831.491952	2613.959257
831.808819	2618.695421
832.125642	2624.417131
832.442421	2641.070582
832.759157	2665.101763
833.075849	2709.516849
833.392497	2758.882348
833.709101	2785.633231
834.025662	2778.878084
834.342179	2754.647778
834.658653	2722.737275
834.975083	2698.108717
835.291469	2678.367559
835.607811	2656.163797
835.924110	2637.380458
836.240366	2624.049126
836.556578	2611.894904
836.872746	2603.115735
837.188871	2595.763212
837.504952	2584.849114
837.820990	2583.014134
838.136984	2576.548854
838.452935	2576.006930
838.768842	2579.722261
839.084706	2586.084197
839.400526	2607.839296
839.716303	2634.035652
840.032037	2650.174906
840.347727	2644.710295
840.663373	2629.826289
840.978977	2612.824997
841.294537	2599.133223
841.610054	2591.412696
841.925527	2583.021696
842.240957	2575.180181
842.556344	2572.611713
842.871687	2569.362689
843.186987	2564.077040
843.502244	2557.994887
843.817458	2557.508416
844.132629	2554.266954
844.447756	2550.113043
844.762840	2547.252189
845.077881	2548.966181
845.392879	2543.715819
845.707833	2544.855120
846.022745	2539.367824
846.337613	2547.232024
846.652438	2545.465100
846.967221	2546.969884
847.281960	2544.719009
847.596656	2545.263453
847.911309	2543.877136
848.225919	2543.509132
848.540485	2544.582898
848.855009	2545.021478
849.169490	2543.788916
849.483928	2540.486960
849.798323	2544.560212
850.112675	2542.573998
850.426984	2544.020809
850.741251	2542.286652
851.055474	2543.100798
851.369654	2542.518545
851.683792	2541.908566
851.997887	2541.449821
852.311938	2543.912424
852.625947	2543.163813
852.939914	2543.483926
853.253837	2543.446118
853.567718	2540.897814
853.881555	2542.263967
854.195350	2541.162475
854.509103	2539.350180
854.822812	2543.103319
855.136479	2543.897301
855.450103	2542.379913
855.763685	2541.648946
856.077224	2540.371014
856.390720	2543.531817
856.704173	2541.873277
857.017584	2543.544420
857.330953	2543.655325
857.644278	2544.230017
857.957561	2544.333361
858.270802	2547.204298
858.584000	2545.863351
858.897155	2542.720191
859.210268	2540.829759
859.523339	2539.561908
859.836367	2541.157434
860.149352	2543.642722
860.462295	2543.557023
860.775195	2540.716333
861.088054	2539.027546
861.400869	2539.088040
861.713642	2539.317413
862.026373	2542.195911
862.339062	2543.161292
862.651708	2543.945192
862.964312	2539.599717
863.276873	2546.314534
863.589392	2541.792619
863.901869	2546.692621
864.214303	2546.012065
864.526696	2546.153217
864.839045	2546.964843
865.151353	2548.227652
865.463619	2548.358722
865.775842	2549.160265
866.088023	2549.717313
866.400162	2547.980635
866.712258	2550.002138
867.024313	2548.877961
867.336325	2550.140770
867.648296	2549.046839
867.960224	2546.143135
868.272110	2550.009700
868.583954	2550.806202
868.895755	2549.112374
869.207515	2551.973229
869.519233	2552.684032
869.830909	2550.607077
870.142542	2552.489947
870.454134	2553.082283
870.765684	2551.897612
871.077191	2553.046995
871.388657	2555.330638
871.700081	2554.312325
872.011463	2557.521019
872.322803	2556.961451
872.634101	2557.576472
872.945357	2559.114024
873.256571	2561.546380
873.567744	2560.396997
873.878874	2561.528736
874.189963	2561.821123
874.501010	2565.864129
874.812015	2561.090156
875.122979	2561.712738
875.433900	2562.998233
875.744780	2563.356155
876.055618	2565.284396
876.366415	2565.924622
876.677169	2564.432441
876.987882	2564.366906
877.298554	2563.058727
877.609183	2568.568708
877.919771	2569.685323
878.230317	2574.481981
878.540822	2584.982705
878.851285	2591.674836
879.161707	2597.900661
879.472087	2616.804988
879.782425	2642.618217
880.092722	2690.799044
880.402977	2762.257400
880.713191	2846.366532
881.023363	2928.484407
881.333494	2975.009216
881.643583	2994.485714
881.953631	2984.340392
882.263637	2959.285857
882.573602	2926.503234
882.883526	2890.953017
883.193408	2859.133254
883.503248	2828.573779
883.813048	2793.268058
884.122806	2763.618512
884.432522	2735.987947
884.742197	2710.976263
885.051831	2686.536749
885.361424	2665.575631
885.670975	2648.828918
885.980485	2635.719397
886.289954	2624.391925
886.599382	2612.585542
886.908768	2606.473143
887.218113	2597.081474
887.527417	2592.262131
887.836680	2585.910277
888.145901	2581.796695
888.455082	2579.528176
888.764221	2573.907290
889.073319	2569.592062
889.382376	2571.953842
889.691392	2569.708008
890.000366	2568.367062
890.309300	2569.546692
890.618193	2569.317319
890.927044	2565.932184
891.235855	2568.634243
891.544625	2570.040725
891.853353	2572.236147
892.162041	2573.425859
892.470687	2581.252251
892.779293	2585.136460
893.087858	2593.040989
893.396381	2602.044490
893.704864	2621.513426
894.013306	2644.506129
894.321707	2672.792043
894.630068	2688.220494
894.938387	2693.291895
895.246665	2683.421316
895.554903	2672.940757
895.863100	2659.138078
896.171256	2648.644916
896.479371	2637.042700
896.787446	2629.909468
897.095480	2620.767335
897.403473	2613.588732
897.711425	2604.355859
898.019336	2599.264293
898.327207	2594.865887
898.635038	2587.324321
898.942827	2580.120512
899.250576	2577.642785
899.558284	2572.067268
899.865952	2572.647001
900.173579	2568.692216
900.481165	2564.445044
900.788711	2564.102245
901.096216	2563.361196
901.403681	2562.567214
901.711105	2560.933880
902.018489	2561.407749
902.325832	2566.214489
902.633135	2566.123748
902.940397	2575.331416
903.247619	2596.113572
903.554800	2632.823255
903.861941	2673.742300
904.169041	2706.688761
904.476101	2717.882643
904.783121	2707.384441
905.090100	2691.114117
905.397039	2674.995027
905.703938	2655.783190
906.010796	2639.903555
906.317614	2629.211268
906.624391	2617.293980
906.931129	2606.889039
907.237826	2595.922008
907.544483	2588.995463
907.851099	2581.506829
908.157675	2572.074830
908.464211	2565.425548
908.770707	2555.378529
909.077163	2553.714948
909.383578	2547.045501
909.689954	2547.617672
909.996289	2541.477547
910.302584	2544.315717
910.608839	2542.770603
910.915054	2547.433670
911.221229	2543.453679
911.527363	2542.725233
911.833458	2543.713299
912.139513	2546.990049
912.445527	2547.799154
912.751502	2546.102806
913.057436	2551.327962
913.363331	2555.149156
913.669186	2558.320042
913.975000	2562.098387
914.280775	2574.242526
914.586510	2595.554004
914.892205	2611.163937
915.197859	2635.784932
915.503475	2664.330466
915.809050	2689.727799
916.114585	2704.402598
916.420081	2709.113556
916.725536	2706.124152
917.030952	2699.242977
917.336328	2688.822912
917.641665	2677.717250
917.946961	2667.087977
918.252218	2656.158756
918.557435	2645.602580
918.862612	2633.506331
919.167750	2626.226905
919.472848	2616.560492
919.777906	2604.796960
920.082925	2596.279930
920.387904	2588.438416
920.692843	2580.574216
920.997743	2573.395613
921.302603	2569.798749
921.607423	2567.570559
921.912204	2562.191648
922.216946	2558.672923
922.521647	2555.983467
922.826310	2554.249310
923.130932	2550.327293
923.435516	2547.771427
923.740059	2546.743032
924.044564	2544.890408
924.349028	2543.398227
924.653454	2539.917310
924.957840	2535.864222
925.262186	2534.886238
925.566493	2535.597041
925.870761	2530.243336
926.174989	2536.249870
926.479178	2535.508821
926.783328	2532.300126
927.087438	2535.128214
927.391509	2536.204500
927.695541	2530.712163
927.999533	2531.972451
928.303486	2529.663603
928.607400	2530.868439
928.911275	2528.869621
929.215110	2527.657224
929.518906	2528.388191
929.822663	2528.841895
930.126381	2528.199148
930.430060	2527.609333
930.733699	2529.749303
931.037299	2528.645290
931.340861	2527.750485
931.644383	2529.930784
931.947866	2527.349713
932.251309	2527.569003
932.554714	2528.420958
932.858080	2529.915661
933.161407	2526.901051
933.464694	2527.664785
933.767943	2524.970289
934.071153	2525.295443
934.374323	2524.720752
934.677455	2526.676719
934.980548	2526.911133
935.283602	2527.165711
935.586617	2525.953314
935.889593	2529.141843
936.192530	2525.396266
936.495428	2525.933149
936.798287	2526.805269
937.101108	2526.810310
937.403890	2529.832482
937.706632	2531.271731
938.009336	2534.450178
938.312002	2537.318595
938.614628	2537.454706
938.917216	2540.812115
939.219765	2538.914120
939.522275	2542.853782
939.824747	2540.103833
940.127179	2537.026208
940.429573	2536.995961
940.731929	2539.135931
941.034246	2536.103677
941.336524	2536.086033
941.638763	2534.230888
941.940964	2537.500077
942.243126	2539.488812
942.545250	2537.109387
942.847335	2534.954294
943.149381	2534.379602
943.451389	2533.620909
943.753359	2533.757020
944.055290	2530.994467
944.357182	2532.408511
944.659036	2534.493028
944.960851	2532.519417
945.262628	2527.470701
945.564367	2528.935156
945.866067	2530.812986
946.167729	2529.540095
946.469352	2530.087060
946.770937	2530.419776
947.072484	2527.861390
947.373992	2531.581762
947.675462	2530.548325
947.976893	2528.241997
948.278286	2528.209230
948.579641	2528.733510
948.880958	2528.854498
949.182236	2527.574045
949.483476	2531.274252
949.784678	2526.901051
950.085841	2527.942049
950.386967	2529.542615
950.688054	2527.450536
950.989103	2530.137471
951.290114	2530.361803
951.591087	2530.112266
951.892021	2531.735517
952.192917	2534.563604
952.493776	2531.312060
952.794596	2532.451361
953.095378	2532.300126
953.396122	2531.803573
953.696828	2532.141330
953.997496	2532.007739
954.298126	2529.250228
954.598718	2532.340456
954.899272	2528.133613
955.199788	2528.748633
955.500266	2529.098994
955.800706	2524.907274
956.101108	2522.069105
956.401472	2520.907119
956.701798	2521.746471
957.002087	2519.369567
957.302337	2524.972809
957.602550	2522.979033
957.902724	2516.813702
958.202861	2519.225894
958.502960	2521.796882
958.803022	2519.530884
959.103045	2517.476613
959.403031	2517.920235
959.702979	2517.955523
960.002889	2515.901253
960.302762	2517.282529
960.602596	2518.706655
960.902393	2516.107940
961.202153	2514.580471
961.501875	2514.525018
961.801559	2516.773373
962.101205	2514.714061
962.400814	2513.499143
962.700385	2513.287415
962.999918	2514.134328
963.299414	2513.045439
963.598873	2515.487878
963.898293	2514.489730
964.197677	2513.274812
964.497022	2513.453773
964.796331	2511.412105
965.095601	2516.118022
965.394835	2515.913856
965.694030	2511.891015
965.993189	2513.720954
966.292309	2511.444873
966.591393	2512.332116
966.890439	2511.974194
967.189447	2511.245747
967.488419	2510.434122
967.787353	2509.834224
968.086249	2514.010820
968.385108	2514.290604
968.683930	2512.251457
968.982714	2514.862775
969.281462	2511.742301
969.580172	2513.731036
969.878844	2513.156345
970.177480	2512.100223
970.476078	2512.816067
970.774639	2515.936541
971.073162	2513.254647
971.371649	2513.405882
971.670098	2514.063752
971.968510	2510.933196
972.266885	2508.987310
972.565223	2513.869668
972.863524	2513.985614
973.161788	2513.390758
973.460014	2515.276150
973.758204	2512.886643
974.056356	2514.882940
974.354471	2513.093330
974.652550	2513.365552
974.950591	2515.838238
975.248595	2512.599297
975.546563	2514.527538
975.844493	2511.328926
976.142386	2514.328413
976.440243	2512.291787
976.738062	2511.664163
977.035845	2512.443021
977.333590	2513.531911
977.631299	2512.647188
977.928971	2511.281035
978.226606	2510.159379
978.524204	2512.760614
978.821765	2511.868330
979.119290	2512.614421
979.416777	2515.286232
979.714228	2509.635099
980.011642	2510.731550
980.309020	2517.839577
980.606360	2512.657270
980.903664	2514.905625
981.200931	2513.862106
981.498162	2520.211439
981.795356	2514.608197
982.092513	2521.678415
982.389633	2525.000536
982.686717	2530.462626
982.983764	2530.016484
983.280775	2533.141999
983.577749	2530.805424
983.874686	2532.050589
984.171587	2532.574869
984.468451	2527.248890
984.765279	2525.653365
985.062070	2526.709487
985.358824	2522.742099
985.655543	2521.580113
985.952224	2521.554907
986.248869	2520.455935
986.545478	2510.996210
986.842050	2514.086438
987.138586	2507.275839
987.435086	2508.941940
987.731549	2508.059738
988.027975	2508.949502
988.324366	2507.263236
988.620719	2512.296828
988.917037	2507.933709
989.213318	2506.522186
989.509563	2507.091837
989.805772	2507.500170
990.101944	2507.414470
990.398080	2505.839110
990.694180	2507.860612
990.990244	2507.573267
991.286271	2508.694923
991.582262	2508.551251
991.878217	2510.832373
992.174136	2508.931858
992.470019	2506.237361
992.765865	2507.527896
993.061676	2506.428925
993.357450	2508.994872
993.653188	2509.700634
993.948890	2508.788185
994.244556	2506.786847
994.540186	2510.897908
994.835780	2509.103257
995.131337	2511.853206
995.426859	2512.367404
995.722345	2515.520646
996.017795	2516.949813
996.313208	2520.319824
996.608586	2517.552231
996.903928	2518.346212
997.199234	2517.650533
997.494504	2518.694052
997.789738	2516.682632
998.084936	2517.895029
998.380099	2514.691376
998.675225	2514.971160
998.970316	2516.095337
999.265371	2514.434277
999.560390	2509.453617
999.855373	2510.267763
1000.150320	2509.067969
1000.445232	2507.545540
1000.740108	2507.691734
1001.034948	2507.059069
1001.329752	2506.519666
1001.624521	2507.459841
1001.919254	2501.493635
1002.213951	2505.216527
1002.508613	2500.326608
1002.803239	2503.631084
1003.097829	2501.788543
1003.392384	2502.852226
1003.686903	2503.757113
1003.981386	2502.854747
1004.275834	2502.721156
1004.570246	2503.348780
1004.864623	2503.426918
1005.158964	2504.306599
1005.453270	2504.561177
1005.747540	2504.606548
1006.041775	2503.585714
1006.335974	2502.610251
1006.630138	2501.160919
1006.924266	2502.940446
1007.218359	2504.162926
1007.512416	2502.643018
1007.806438	2502.516989
1008.100425	2502.726197
1008.394376	2500.361896
1008.688292	2500.964314
1008.982172	2505.781137
1009.276017	2500.986999
1009.569827	2503.431959
1009.863602	2503.885663
1010.157341	2502.287617
1010.451045	2504.503204
1010.744714	2504.712412
1011.038347	2502.650580
1011.331945	2502.143944
1011.625508	2503.247957
1011.919036	2504.034377
1012.212528	2502.544716
1012.505986	2501.778460
1012.799408	2503.689058
1013.092795	2501.145796
1013.386147	2504.162926
1013.679464	2499.923316
1013.972745	2500.472802
1014.265992	2502.973214
1014.559204	2503.537823
1014.852380	2501.458347
1015.145521	2503.195025
1015.438628	2500.881135
1015.731699	2500.306443
1016.024736	2500.077071
1016.317737	2501.455827
1016.610703	2500.629077
1016.903635	2499.744355
1017.196531	2499.469612
1017.489393	2498.975579
1017.782219	2498.879797
1018.075011	2497.833758
1018.367768	2502.365755
1018.660490	2499.255363
1018.953177	2499.255363
1019.245829	2499.255363
