Dividing Wavelength (nm)	Counts (n)	Blue Motor Position (mm): 0.000000	Red Motor Position (mm): 48.500000	
326.493990	2077.663667
326.888308	2077.663667
327.282561	2077.663667
327.676750	2053.703062
328.070874	2056.218598
328.464933	2062.293189
328.858929	2070.643860
329.252859	2086.125243
329.646726	2097.969434
330.040528	2112.384614
330.434265	2134.001082
330.827938	2156.063691
331.221547	2175.260405
331.615091	2194.341173
332.008571	2215.103165
332.401986	2235.882801
332.795338	2251.822929
333.188625	2274.291352
333.581847	2296.485032
333.975006	2313.468679
334.368100	2327.649445
334.761129	2346.871364
335.154095	2361.941894
335.546996	2408.191960
335.939833	2496.543222
336.332606	2509.723319
336.725315	2521.237314
337.117960	2529.151926
337.510540	2538.006713
337.903056	2548.890564
338.295508	2549.341747
338.687896	2559.802141
339.080220	2566.748851
339.472480	2572.601631
339.864676	2577.156313
340.256807	2580.796026
340.648875	2579.434915
341.040879	2585.580081
341.432818	2585.559917
341.824694	2581.675708
342.216506	2585.262489
342.608253	2583.377097
342.999937	2582.631006
343.391557	2582.517580
343.783113	2582.257961
344.174605	2579.896180
344.566033	2577.410892
344.957397	2575.197825
345.348697	2574.464337
345.739934	2573.511559
346.131106	2570.164233
346.522215	2571.842937
346.913260	2569.995354
347.304241	2567.134499
347.695159	2566.675754
348.086012	2566.814386
348.476802	2564.926474
348.867528	2561.654765
349.258191	2561.710218
349.648789	2559.913047
350.039324	2558.728375
350.429796	2559.703839
350.820203	2557.367264
351.210548	2555.391132
351.600828	2554.526574
351.991045	2555.544887
352.381198	2554.140925
352.771288	2558.635114
353.161314	2553.949362
353.551276	2556.316183
353.941175	2553.452808
354.331010	2555.247459
354.720782	2557.737789
355.110490	2560.936401
355.500135	2556.437171
355.889717	2557.034548
356.279235	2556.243087
356.668689	2560.704508
357.058080	2557.513457
357.447408	2557.170659
357.836672	2557.642007
358.225873	2559.270299
358.615010	2556.805175
359.004084	2563.008315
359.393095	2564.066957
359.782043	2564.339180
360.170927	2564.339180
360.559748	2567.023594
360.948505	2567.172308
361.337199	2569.163564
361.725830	2569.166084
362.114398	2570.844789
362.502903	2572.465520
362.891344	2573.062896
363.279722	2569.541650
363.668037	2573.904769
364.056289	2572.601631
364.444478	2573.546847
364.832603	2576.004410
365.220665	2575.074317
365.608665	2577.673032
365.996601	2577.521797
366.384474	2578.542631
366.772284	2578.461972
367.160031	2579.747466
367.547715	2583.588826
367.935336	2582.908270
368.322893	2581.622776
368.710388	2581.020358
369.097820	2588.297263
369.485189	2588.077973
369.872495	2588.733323
370.259738	2591.576534
370.646918	2593.439240
371.034035	2593.134250
371.421090	2598.508120
371.808081	2598.959304
372.195010	2604.766713
372.581875	2609.581015
372.968678	2615.156531
373.355418	2618.327417
373.742096	2628.878552
374.128710	2638.532361
374.515262	2651.062149
374.901751	2661.189827
375.288177	2677.056859
375.674540	2692.462625
376.060841	2711.112374
376.447079	2729.200034
376.833254	2753.710124
377.219367	2776.791047
377.605417	2809.238433
377.991404	2829.607216
378.377329	2869.066847
378.763191	2902.325860
379.148991	2945.568878
379.534727	2990.503202
379.920402	3036.145809
380.306013	3081.042325
380.691563	3142.516676
381.077049	3192.348482
381.462474	3245.187336
381.847835	3315.491267
382.233134	3380.915362
382.618371	3436.695729
383.003545	3519.781506
383.388657	3596.956531
383.773706	3678.913089
384.158693	3753.454111
384.543618	3839.483922
384.928480	3915.658277
385.313280	4010.689068
385.698017	4110.745889
386.082692	4226.140422
386.467305	4286.803146
386.851856	4404.352772
387.236344	4546.765368
387.620770	4613.694247
388.005133	4726.429570
388.389435	4861.509808
388.773674	4941.764978
389.157851	5073.127364
389.541965	5196.439029
389.926018	5221.606989
390.310008	5387.140837
390.693936	5510.462584
391.077802	5623.845696
391.461606	5751.051651
391.845348	5858.372776
392.229027	5977.079346
392.612645	6196.424991
392.996200	6306.919521
393.379694	6476.115768
393.763125	6687.735845
394.146494	6778.771521
394.529801	6911.495020
394.913047	7145.870865
395.296230	7141.500185
395.679351	7198.729884
396.062410	7445.101154
396.445408	7350.125816
396.828343	7508.541555
397.211217	7637.728684
397.594028	7521.509923
397.976778	7722.689770
398.359466	7894.071357
398.742092	7874.025209
399.124656	8011.341198
399.507158	8202.239612
399.889598	8226.043941
400.271977	8434.450282
400.654294	8460.694529
401.036549	8660.336824
401.418742	8694.246145
401.800874	8982.143921
402.182944	9067.760357
402.564952	9422.103061
402.946898	9265.429041
403.328783	9313.849323
403.710606	9511.011371
404.092367	9765.047716
404.474067	10107.883986
404.855705	9924.108723
405.237282	9868.595537
405.618797	10297.897678
406.000250	10536.440037
406.381642	10891.276773
406.762972	10843.138795
407.144240	10666.302680
407.525447	10916.175032
407.906593	10860.790396
408.287677	11121.002154
408.668700	11263.641602
409.049661	11256.825962
409.430560	11417.016188
409.811399	11394.782178
410.192176	11553.177753
410.572891	11630.549382
410.953545	12108.060077
411.334138	11592.876839
411.714669	12169.179027
412.095139	11523.354287
412.475547	12000.562513
412.855894	11872.146680
413.236180	12189.525123
413.616405	11880.570448
413.996568	12151.008188
414.376670	12135.965384
414.756711	12035.283460
415.136691	12300.395220
415.516609	12481.314670
415.896466	12554.978530
416.276262	12848.093900
416.655997	13295.763485
417.035670	13353.572917
417.415283	13956.946100
417.794834	14050.499833
418.174324	13800.627481
418.553753	13703.124004
418.933121	14200.970714
419.312428	14022.619732
419.691674	13934.218058
420.070859	14398.233584
420.449983	14052.506212
420.829045	14612.714516
421.208047	14358.569786
421.586988	14812.243385
421.965867	15062.990377
422.344686	15063.466767
422.723444	15636.633356
423.102141	14335.680427
423.480777	15524.749988
423.859352	15022.335992
424.237866	16131.740199
424.616319	15852.833321
424.994712	16492.376783
425.373044	16290.261802
425.751314	16984.842061
426.129524	16112.712363
426.507673	17177.882965
426.885762	16915.143068
427.263789	17093.718381
427.641756	17284.901620
428.019662	17350.156836
428.397508	17386.165798
428.775292	17672.730189
429.153016	17654.874422
429.530679	17725.493425
429.908282	17774.044778
430.285824	17505.215167
430.663305	18212.103403
431.040726	17817.151685
431.418086	17663.202408
431.795385	18296.552813
432.172624	18739.594618
432.549802	18294.813614
432.926920	18520.281741
433.303977	18391.323984
433.680974	18644.145411
434.057910	18953.596640
434.434786	19002.568929
434.811601	18925.000695
435.188355	19961.371185
435.565050	19638.654160
435.941683	19590.115410
436.318257	20494.097638
436.694770	20292.690939
437.071222	20894.955069
437.447614	19965.504931
437.823946	19992.296143
438.200218	20181.314207
438.576429	19943.281004
438.952580	20258.998388
439.328670	20221.701411
439.704700	20638.037704
440.080670	20212.743280
440.456580	20836.427272
440.832429	20997.439206
441.208218	20004.909110
441.583947	20447.739188
441.959616	20582.516956
442.335224	20827.045685
442.710773	20959.680963
443.086261	21515.395078
443.461689	20858.089111
443.837057	21006.283910
444.212365	21674.632525
444.587612	21677.009429
444.962800	21276.535127
445.337927	21711.143082
445.712995	20421.681463
446.088002	22330.363133
446.462949	22527.333616
446.837837	22707.280123
447.212664	22727.543041
447.587431	25676.000500
447.962139	28641.718869
448.336786	30971.273870
448.711374	29333.271916
449.085901	25588.395328
449.460369	25605.731856
449.834776	25580.674801
450.209124	28151.587645
450.583412	27628.129353
450.957640	28131.107958
451.331808	26786.475951
451.705917	25391.334104
452.079965	25426.150833
452.453954	25819.128940
452.827883	25731.758182
453.201752	25531.543716
453.575562	25702.673245
453.949311	26832.055544
454.323001	26905.419456
454.696632	26688.455756
455.070202	28285.757955
455.443713	28472.968765
455.817164	29047.761126
456.190556	29614.427148
456.563888	29041.807524
456.937160	29487.609361
457.310373	27759.837059
457.683526	28207.292395
458.056619	28196.355612
458.429653	28185.088633
458.802628	28804.893457
459.175542	28928.840307
459.548398	30312.122840
459.921194	31930.844902
460.293930	32689.094934
460.666607	34778.718738
461.039224	36568.711482
461.411782	36939.485826
461.784280	35664.283111
462.156719	35099.648675
462.529099	34537.736461
462.901419	33207.028122
463.273680	32136.261839
463.645882	32289.727165
464.018024	32266.137085
464.390106	33203.043089
464.762130	36114.725331
465.134094	40436.619949
465.505999	45915.605568
465.877845	50477.403657
466.249631	51511.142665
466.621358	49686.272699
466.993026	47460.852813
467.364634	45319.363097
467.736184	43354.522974
468.107674	42069.696696
468.479105	41274.681529
468.850477	40559.044370
469.221790	39103.171742
469.593043	37319.513209
469.964238	36421.116579
470.335373	36359.916972
470.706449	38206.136224
471.077467	40965.500002
471.448425	45658.088307
471.819324	48450.532136
472.190164	46466.815412
472.560945	42825.748786
472.931667	39652.554168
473.302330	38544.982421
473.672934	37692.528347
474.043479	38221.935200
474.413965	37422.698067
474.784393	37070.119767
475.154761	37996.789708
475.525070	38043.039774
475.895321	37562.590086
476.265513	38183.362812
476.635645	39202.490035
477.005719	39036.368892
477.375734	39539.576869
477.745691	40278.073140
478.115588	41663.757783
478.485427	43774.682983
478.855207	47248.516892
479.224928	49900.950235
479.594591	51459.115437
479.964194	50378.463451
480.333739	50514.594770
480.703226	50597.272213
481.072653	51235.565469
481.442022	51708.352603
481.811333	51929.737395
482.180584	50654.673312
482.549777	50118.407968
482.918912	49596.194841
483.287988	49282.171286
483.657005	48458.028332
484.025964	47758.666538
484.394864	47769.681459
484.763706	47341.334617
485.132489	46437.014631
485.501213	46288.209852
485.869879	46425.737570
486.238487	46009.219795
486.607036	46208.594909
486.975527	45659.469583
487.343959	45884.105919
487.712333	45942.605988
488.080648	45838.969948
488.448905	46305.135526
488.817104	46108.739734
489.185244	47124.544837
489.553326	48887.358199
489.921350	51643.175525
490.289315	54461.354445
490.657222	54989.218705
491.025070	55220.101031
491.392861	54301.229755
491.760593	53065.675715
492.128267	51382.855382
492.495883	49825.012814
492.863440	48391.832941
493.230939	47034.673667
493.598380	45928.084945
493.965763	45596.281240
494.333088	44772.556701
494.700354	44277.775013
495.067563	43976.220752
495.434713	43836.737066
495.801805	43904.374227
496.168839	43527.338769
496.535815	43166.974407
496.902733	43200.916496
497.269593	42766.789971
497.636395	42696.791029
498.003139	43091.253756
498.369825	42547.983729
498.736453	42851.761139
499.103023	42363.911038
499.469535	42248.531629
499.835989	42329.328722
500.202385	41998.064421
500.568723	42002.500636
500.935003	42206.493447
501.301226	41995.498473
501.667390	42613.629635
502.033497	42863.000392
502.399546	42297.075420
502.765537	41577.085225
503.131470	41956.762247
503.497345	42363.250647
503.863163	40953.499535
504.228923	41618.634415
504.594625	42027.071220
504.960269	41279.226129
505.325856	41973.433343
505.691385	41334.608245
506.056856	41482.119969
506.422270	41925.335694
506.787625	41476.047899
507.152924	41685.744775
507.518164	41762.604728
507.883347	40962.225773
508.248472	41215.092570
508.613540	41724.922103
508.978550	42005.210256
509.343503	41764.911055
509.708398	41977.849394
510.073236	42486.423679
510.438016	42495.217972
510.802738	41950.387708
511.167403	42587.939915
511.532010	42796.936071
511.896561	43097.222482
512.261053	43951.105723
512.625488	43505.233310
512.989866	43364.164181
513.354186	43215.097262
513.718449	43197.440620
514.082655	43889.180189
514.446803	43542.799988
514.810894	44073.325978
515.174927	43993.033000
515.538904	43890.954676
515.902822	44562.320421
516.266684	43995.979554
516.630488	44419.330613
516.994235	44261.169452
517.357925	44865.205547
517.721558	45025.703283
518.085133	45330.640158
518.448651	45440.239884
518.812112	45220.115381
519.175516	45314.067365
519.538863	45642.662376
519.902152	45601.216529
520.265385	46063.399596
520.628560	46093.528052
520.991678	45883.485857
521.354739	46110.042872
521.717743	46429.773014
522.080690	46311.376475
522.443580	46860.466513
522.806413	46897.929848
523.169189	46862.203191
523.531908	47006.039913
523.894569	46864.948099
524.257174	47026.633026
524.619722	47325.376844
524.982213	47295.664284
525.344647	47229.068121
525.707025	47267.721168
526.069345	47669.554062
526.431608	47575.400431
526.793815	47899.244154
527.155964	47414.050741
527.518057	47584.802183
527.880093	47346.637911
528.242072	47885.592710
528.603995	47584.161957
528.965860	47580.612984
529.327669	47662.473761
529.689421	47571.241479
530.051117	47509.328548
530.412755	47676.931790
530.774337	47728.026405
531.135862	47544.805668
531.497331	47720.837720
531.858743	47622.124366
532.220098	47969.837952
532.581396	47669.296963
532.942638	47324.507245
533.303824	47628.188874
533.664953	47603.348588
534.026025	47324.106474
534.387040	47778.090104
534.747999	47733.861541
535.108902	47888.483811
535.469748	47384.829692
535.830537	47505.318310
536.191270	47694.777475
536.551947	47340.588526
536.912567	47648.804672
537.273131	47776.802089
537.633638	47249.167201
537.994089	47583.367975
538.354483	47170.273143
538.714821	47763.082589
539.075103	48107.708469
539.435328	47867.588229
539.795497	47727.408864
540.155609	47730.403309
540.515665	48210.227894
540.875665	47627.876322
541.235609	47963.700347
541.595496	47945.153942
541.955328	48621.906161
542.315102	47966.662025
542.674821	47734.925224
543.034483	47770.467879
543.394090	47765.436808
543.753640	47694.948874
544.113134	48710.874965
544.472571	47686.325980
544.831953	48935.372669
545.191278	48138.819950
545.550548	47873.937562
545.909761	48326.025718
546.268918	48507.189664
546.628019	48827.794446
546.987064	48381.400273
547.346053	47635.196078
547.704986	48498.065176
548.063863	48062.890090
548.422684	48238.813757
548.781449	48075.860979
549.140158	48472.824118
549.498811	48305.243562
549.857408	47723.796877
550.215949	48562.854085
550.574434	48514.338020
550.932864	48255.757075
551.291237	48978.794647
551.649555	48580.979553
552.007817	48812.081169
552.366022	48450.690932
552.724173	48604.050394
553.082267	48995.649745
553.440305	49276.578126
553.798288	48564.941123
554.156215	48889.843488
554.514086	49096.729921
554.871902	48805.580601
555.229661	48835.280559
555.587365	48637.841248
555.945014	48747.781252
556.302606	48682.231128
556.660143	48875.985356
557.017625	48959.557604
557.375050	48743.014841
557.732421	49093.377554
558.089735	49053.295340
558.446994	48961.216144
558.804197	49430.482032
559.161345	49339.723619
559.518437	48588.695039
559.875474	48890.196369
560.232455	49071.904759
560.589381	49225.100383
560.946251	48914.189740
561.303065	49574.101985
561.659825	49350.587305
562.016528	49024.674189
562.373177	48749.409545
562.729770	49227.447040
563.086307	48735.533769
563.442789	49179.931645
563.799216	49216.913549
564.155587	49001.068986
564.511904	49032.394716
564.868164	49092.487790
565.224370	49331.609882
565.580520	49056.312470
565.936615	49258.714797
566.292654	48956.127099
566.648638	49219.308098
567.004567	49158.484056
567.360441	49208.734277
567.716260	49048.269309
568.072023	49335.204224
568.427732	49292.079674
568.783385	48835.222586
569.138982	49241.716026
569.494525	49185.053457
569.850013	48921.385987
570.205445	48899.484695
570.560823	48837.453297
570.916145	48702.597390
571.271412	48746.825953
571.626625	48462.988827
571.981782	48503.000465
572.336884	48175.506947
572.691931	48501.596504
573.046923	48087.190973
573.401860	47923.227444
573.756743	47888.057834
574.111570	47998.512035
574.466342	47830.482816
574.821059	47943.820557
575.175722	47441.522508
575.530330	47468.031416
575.884882	47172.937393
576.239380	47110.389277
576.593823	47084.525637
576.948211	47006.440685
577.302544	46515.878442
577.656823	46509.433327
578.011047	46754.209072
578.365216	46474.389746
578.719330	46230.846563
579.073389	46088.817094
579.427394	46167.645617
579.781344	46121.478730
580.135239	45762.057063
580.489080	45831.461149
580.842866	45296.924922
581.196597	45746.802532
581.550273	45674.542633
581.903895	45549.411112
582.257463	45954.036805
582.610975	45316.935782
582.964434	45606.328259
583.317837	45215.285956
583.671186	45059.199230
584.024481	45268.432320
584.377721	44779.450479
584.730906	45068.548049
585.084037	45101.113903
585.437113	44805.515765
585.790135	44807.380992
586.143103	44400.396039
586.496016	44508.687586
586.848874	44532.065937
587.201679	44552.946396
587.554428	44026.937280
587.907124	44197.925657
588.259765	43948.648161
588.612352	44177.105691
588.964884	43555.725507
589.317362	43843.335936
589.669786	43783.585660
590.022155	43534.988720
590.374470	43953.979181
590.726731	43477.559896
591.078937	42951.054226
591.431090	43057.188159
591.783188	42703.853686
592.135232	42367.679300
592.487222	42635.798109
592.839157	42711.027247
593.191038	42359.865512
593.542866	42113.819395
593.894639	41520.175639
594.246358	41795.757876
594.598022	41760.774789
594.949633	41347.921933
595.301190	41308.064050
595.652692	41135.722123
596.004141	41461.801598
596.355535	40470.128499
596.706876	40379.372606
597.058162	40227.729657
597.409395	40686.832579
597.760573	40772.663264
598.111698	40359.175223
598.462768	40344.185352
598.813785	40384.902752
599.164748	39845.521975
599.515657	40207.507068
599.866511	39709.927540
600.217312	40312.272328
600.568060	39276.607599
600.918753	40032.573989
601.269392	39988.012709
601.619978	39637.115634
601.970510	39851.755362
602.320988	40013.873829
602.671412	40309.255197
603.021783	40063.529194
603.372100	39699.696518
603.722363	39797.363833
604.072572	39874.236388
604.422728	39872.703877
604.772830	39698.136281
605.122878	39789.328233
605.472872	39717.174198
605.822813	39989.711578
606.172701	39812.557870
606.522534	40065.003732
606.872314	40303.541049
607.222041	40081.843706
607.571714	40459.836983
607.921333	39892.117360
608.270899	40176.645125
608.620411	40539.313294
608.969870	40316.600158
609.319276	40315.619654
609.668627	40373.434127
610.017926	40851.973217
610.367171	41000.916628
610.716362	41077.675757
611.065500	41020.627540
611.414585	41213.497045
611.763616	41496.673780
612.112594	41426.795826
612.461518	41641.123002
612.810389	41944.824795
613.159207	41814.475680
613.507971	41888.752041
613.856682	42345.657020
614.205340	42236.077458
614.553945	42938.347998
614.902496	42380.892164
615.250994	42859.562325
615.599439	42925.051955
615.947830	43118.796100
616.296169	43180.812374
616.644454	43292.272286
616.992686	43462.685971
617.340864	43979.888191
617.688990	43700.928381
618.037063	44311.079396
618.385082	44260.330100
618.733048	44571.606227
619.080961	44568.785701
619.428821	44572.140589
619.776628	44685.193505
620.124382	44512.944840
620.472083	44631.359023
620.819731	44763.873314
621.167326	44414.977577
621.514868	44411.451290
621.862357	43948.542297
622.209793	43988.188451
622.557176	43647.058611
622.904506	43370.926889
623.251783	43036.831979
623.599007	42804.175168
623.946179	42596.371244
624.293297	42534.319682
624.640363	41946.959724
624.987376	41918.290682
625.334336	41685.215454
625.681243	41340.231652
626.028097	41300.366208
626.374899	41149.940698
626.721647	41133.700621
627.068343	41024.985617
627.414987	40784.956118
627.761577	40567.021996
628.108115	40896.607593
628.454600	40344.704591
628.801032	40542.585003
629.147412	40498.767294
629.493739	40479.411783
629.840014	40131.637703
630.186236	40492.087765
630.532405	40073.921533
630.878521	40299.674484
631.224585	40157.783648
631.570597	39865.598371
631.916556	40034.595492
632.262462	39963.769801
632.608316	39987.133028
632.954117	39881.780474
633.299866	39852.428356
633.645562	39793.880395
633.991206	39294.624683
634.336797	38846.067855
634.682336	38851.681180
635.027823	38607.238150
635.373257	38406.799353
635.718639	38195.753968
636.063968	38047.193684
636.409245	37455.856256
636.754470	37509.847014
637.099642	37268.451362
637.444762	36789.713146
637.789829	36938.948943
638.134845	36591.169822
638.479808	36519.746754
638.824719	36442.233973
639.169577	36039.962499
639.514383	36123.980889
639.859137	35806.499102
640.203839	36053.997071
640.548489	35683.366399
640.893086	35761.539572
641.237632	35506.484913
641.582125	35618.179239
641.926566	35548.528137
642.270955	35511.261407
642.615292	35525.847985
642.959576	35497.826732
643.303809	35494.958315
643.647990	35654.778016
643.992118	35601.737515
644.336195	35596.305672
644.680219	35668.805026
645.024192	35988.399057
645.368112	36501.858220
645.711981	36503.047932
646.055797	37387.931749
646.399562	37307.689183
646.743274	38274.776575
647.086935	38695.554125
647.430544	38598.763971
647.774101	38693.557828
648.117606	38943.531003
648.461059	39218.833456
648.804460	38822.926438
649.147810	38201.727735
649.491108	37957.067936
649.834354	37590.404652
650.177548	36759.995544
650.520690	36322.957752
650.863781	36346.225198
651.206820	36188.989089
651.549807	35744.187920
651.892742	35259.034836
652.235626	35071.657668
652.578458	34937.177327
652.921238	34334.930842
653.263967	34668.748488
653.606644	34346.820403
653.949269	34283.750527
654.291843	33881.312695
654.634365	34272.922129
654.976836	33884.332347
655.319255	33874.504617
655.661622	33872.442785
656.003938	33662.897143
656.346203	33530.627349
656.688416	33751.203035
657.030577	33537.037176
657.372687	33377.761920
657.714746	33631.077380
658.056753	33768.093421
658.398708	33208.699264
658.740612	33249.177209
659.082465	33520.718961
659.424266	33372.791342
659.766016	33503.276568
660.107715	33362.630897
660.449362	33488.067407
660.790958	33450.062148
661.132503	33462.733089
661.473996	33514.117570
661.815438	33624.523880
662.156829	33818.862882
662.498168	33587.562140
662.839456	33603.461939
663.180693	33750.645988
663.521879	33922.229221
663.863013	33878.015781
664.204097	33869.415572
664.545129	34311.285310
664.886110	34268.763177
665.227040	34362.258937
665.567918	34461.282322
665.908746	34519.253071
666.249522	34681.154767
666.590248	34688.114080
666.930922	34793.038136
667.271545	34765.601656
667.612118	34831.295452
667.952639	34603.483190
668.293109	34668.589692
668.633528	34573.705094
668.973896	34493.119729
669.314213	34542.517996
669.654480	34260.929224
669.994695	34292.176816
670.334859	34179.033159
670.674973	34078.507510
671.015035	34217.098912
671.355047	34172.764484
671.695008	34108.124289
672.034918	34010.310781
672.374777	34112.850371
672.714585	33938.176911
673.054342	34151.455527
673.394049	33924.838018
673.733705	34200.032086
674.073310	33866.300139
674.412864	33931.376394
674.752368	33544.188052
675.091820	33852.797409
675.431223	33415.583177
675.770574	33128.355875
676.109875	32983.183247
676.449125	32704.760320
676.788324	32628.613691
677.127473	32080.892326
677.466571	32013.688704
677.805619	31670.486950
678.144616	31674.817301
678.483562	31578.069997
678.822458	31258.533940
679.161303	31194.579342
679.500098	31102.235485
679.838842	31002.360145
680.177535	31156.952169
680.516179	31430.880907
680.854771	31688.599816
681.193314	32537.888045
681.531805	33678.867519
681.870247	34453.771003
682.208638	35153.830996
682.546978	35348.986664
682.885268	35450.323939
683.223508	34923.775420
683.561697	34579.986372
683.899836	34395.681787
684.237925	33894.744850
684.575963	33736.969337
684.913951	33278.360448
685.251889	33427.835701
685.589776	33418.948147
685.927614	33423.190278
686.265401	33557.539548
686.603137	33649.986748
686.940824	34161.903318
687.278460	34546.994540
687.616046	34660.559133
687.953582	35259.365031
688.291068	35124.670442
688.628504	35395.692955
688.965889	35326.223334
689.303224	34948.840037
689.640510	34601.202067
689.977745	33857.357132
690.314930	33030.519681
690.652065	32527.397404
690.989150	31798.502011
691.326185	30878.163759
691.663170	30186.676247
692.000105	29437.449880
692.336990	28758.794626
692.673825	28311.944229
693.010610	27786.023333
693.347345	27209.332977
693.684030	26558.971199
694.020665	26281.362418
694.357251	25606.614058
694.693786	25563.441617
695.030272	25330.187428
695.366707	24779.088490
695.703093	24500.537013
696.039429	24501.154555
696.375716	24219.848088
696.711952	24197.755231
697.048139	24043.324524
697.384276	23859.302244
697.720363	23985.638601
698.056400	23786.049238
698.392388	23559.608169
698.728326	23527.564074
699.064214	23322.547909
699.400053	23266.066821
699.735842	22895.683166
700.071581	22622.699644
700.407270	22335.532836
700.742910	22136.762660
701.078501	21865.518336
701.414042	21592.635637
701.749533	21294.872324
702.084974	20941.918458
702.420366	21152.147176
702.755709	20714.322965
703.091002	20407.369627
703.426246	20422.833367
703.761440	20335.394553
704.096584	20060.732327
704.431679	20015.646768
704.766725	19914.541386
705.101721	19862.257059
705.436668	19952.201326
705.771565	19629.272573
706.106413	19968.070878
706.441212	19976.119081
706.775961	20094.276165
707.110661	20158.744961
707.445311	20531.596261
707.779913	20357.593274
708.114465	20600.065213
708.448967	20894.871890
708.783421	21586.107343
709.117825	21852.411336
709.452180	22076.871232
709.786485	22466.645686
710.120742	23272.012862
710.454949	23297.248878
710.789107	23751.356017
711.123216	24450.291833
711.457275	24566.835748
711.791286	25099.620175
712.125247	25153.000953
712.459159	24849.773028
712.793023	25509.934810
713.126837	24407.043774
713.460602	24669.284597
713.794318	24278.864876
714.127985	23907.830912
714.461602	22980.934119
714.795171	22956.555099
715.128691	21938.171446
715.462162	21404.741751
715.795584	20984.911938
716.128957	20715.754652
716.462281	20332.775674
716.795556	20085.776780
717.128782	19578.556044
717.461960	19034.880205
717.795088	18964.755234
718.128167	18566.889729
718.461198	18098.755580
718.794180	17973.384604
719.127113	17601.786031
719.459997	17402.272285
719.792833	17044.063016
720.125619	17029.456273
720.458357	16701.682970
720.791046	16527.085127
721.123686	16372.150305
721.456278	16132.995446
721.788821	16098.821464
722.121315	15832.570403
722.453761	15913.334729
722.786158	15833.311453
723.118506	15850.156468
723.450805	15719.298197
723.783056	15867.697163
724.115259	15770.024807
724.447412	15696.857500
724.779518	15939.392453
725.111574	15954.858713
725.443582	16165.631876
725.775542	16150.352139
726.107453	16616.114425
726.439315	16492.875857
726.771129	16904.896923
727.102895	17257.765089
727.434612	17470.211915
727.766281	17590.501408
728.097901	17837.056681
728.429473	17885.786994
728.760996	17871.530611
729.092471	17959.269373
729.423897	17825.025967
729.755276	17691.821038
730.086606	17814.240418
730.417887	18349.187500
730.749120	18854.432103
731.080305	19027.220172
731.411442	19352.603967
731.742530	19416.445139
732.073570	19510.863430
732.404562	19808.195725
732.735506	19611.396641
733.066401	19324.665893
733.397249	18792.027659
733.728048	18157.790012
734.058798	17332.722006
734.389501	16640.422869
734.720156	16185.766244
735.050762	15665.216698
735.381320	15315.088399
735.711831	15067.038424
736.042293	14732.222630
736.372707	14744.906173
736.703073	14538.657445
737.033391	14726.553852
737.363661	14694.277865
737.693883	14795.370643
738.024056	14962.986488
738.354182	15142.812008
738.684260	15419.548668
739.014290	15644.696682
739.344272	15825.043960
739.674207	16106.428565
740.004093	16210.263732
740.333931	16205.658637
740.663722	16244.934267
740.993464	16230.362812
741.323159	16055.195319
741.652806	15781.831190
741.982405	15563.957562
742.311956	15229.529936
742.641460	15106.185504
742.970915	14802.249298
743.300323	14469.732269
743.629683	14268.852371
743.958996	13986.487262
744.288260	13712.520715
744.617477	13418.427361
744.946647	13351.049819
745.275768	13083.369591
745.604842	12898.313875
745.933869	12731.280283
746.262847	12679.994105
746.591778	12601.349584
746.920662	12500.793688
747.249498	12493.940240
747.578286	12619.175104
747.907027	12763.510900
748.235720	12982.014673
748.564365	13006.302952
748.892963	12909.273343
749.221514	12969.769710
749.550017	12826.459788
749.878473	12776.925411
750.206881	12560.765775
750.535242	12467.363277
750.863555	12386.732541
751.191821	12279.935697
751.520039	12300.642237
751.848210	12202.644726
752.176334	12242.512692
752.504411	12145.364616
752.832440	11988.819145
753.160421	12046.134543
753.488356	11934.218408
753.816243	11845.189110
754.144082	11693.611696
754.471875	11636.475258
754.799620	11580.599109
755.127318	11553.026518
755.454969	11522.782116
755.782572	11472.504168
756.110129	11476.864766
756.437638	11394.741849
756.765100	11387.149872
757.092515	11389.859492
757.419882	11414.533419
757.747203	11414.427555
758.074477	11486.432876
758.401703	11441.370002
758.728882	11607.710435
759.056014	11643.921043
759.383099	11753.936664
759.710138	11855.594052
760.037129	11944.928339
760.364073	11964.306534
760.690970	11947.587547
761.017820	11953.339504
761.344623	12133.432205
761.671379	12467.874954
761.998088	13127.719142
762.324751	14706.157344
762.651366	17611.805324
762.977935	21216.862989
763.304456	23363.086348
763.630931	23761.302213
763.957359	22556.494171
764.283740	20663.961838
764.610074	18796.899935
764.936362	16692.495467
765.262602	15176.988510
765.588796	13724.180904
765.914943	12711.491234
766.241044	11862.815504
766.567097	11238.017417
766.893104	10692.584736
767.219064	10346.973310
767.544978	9966.711514
767.870845	9654.381786
768.196665	9461.577816
768.522438	9269.845092
768.848165	9102.317467
769.173846	8938.416953
769.499479	8814.888519
769.825066	8664.717587
770.150607	8480.690266
770.476101	8417.988394
770.801548	8307.317423
771.126949	8168.973038
771.452303	8083.389369
771.777611	7922.818537
772.102872	7899.702326
772.428087	7787.851725
772.753256	7658.236098
773.078378	7571.314003
773.403453	7430.754031
773.728482	7318.003584
774.053465	7257.335818
774.378401	7173.423291
774.703291	7075.226656
775.028135	6982.570248
775.352932	6942.805626
775.677683	6857.937801
776.002388	6773.019565
776.327046	6774.156345
776.651658	6688.560073
776.976224	6609.494616
777.300743	6597.952895
777.625216	6533.189191
777.949643	6494.773078
778.274024	6498.790878
778.598359	6428.975938
778.922647	6427.284631
779.246889	6395.301031
779.571086	6401.317648
779.895236	6406.174799
780.219339	6401.703296
780.543397	6401.058028
780.867409	6454.607685
781.191374	6444.147291
781.515294	6413.819709
781.839167	6465.778882
782.162995	6433.739829
782.486776	6388.770216
782.810511	6347.694894
783.134201	6273.151352
783.457844	6263.681545
783.781441	6209.063163
784.104993	6168.638151
784.428498	6141.935159
784.751958	6126.168950
785.075372	6100.194405
785.398739	6063.351132
785.722061	6084.443320
786.045337	6085.315439
786.368568	6197.034970
786.691752	6217.428958
787.014891	6472.521425
787.337983	6751.062819
787.661030	7189.252514
787.984031	7606.362625
788.306987	7862.972479
788.629897	7941.896784
788.952760	7851.324893
789.275579	7685.191147
789.598351	7379.210753
789.921078	7116.440609
790.243759	6839.945923
790.566395	6641.223639
790.888984	6448.704494
791.211529	6308.409182
791.534027	6148.123175
791.856480	6012.183421
792.178888	5955.604030
792.501249	5887.752620
792.823566	5781.981651
793.145836	5777.507627
793.468062	5755.901241
793.790241	5716.446651
794.112375	5761.222179
794.434464	5859.680955
794.756507	5891.783023
795.078505	6014.348596
795.400457	6229.638633
795.722364	6466.953471
796.044226	6656.518499
796.366042	6809.202447
796.687812	6751.423262
797.009538	6778.794207
797.331218	6692.721546
797.652852	6624.436596
797.974442	6505.084758
798.295986	6433.981804
798.617484	6300.408871
798.938938	6194.839548
799.260346	6128.576101
799.581709	5994.047870
799.903026	5940.362102
800.224299	5868.268561
800.545526	5751.306230
800.866708	5688.745510
801.187845	5643.569210
801.508936	5562.204987
801.829983	5533.109968
802.150984	5426.429070
802.471940	5402.128188
802.792851	5384.456423
803.113717	5358.728894
803.434538	5337.208209
803.755314	5302.575482
804.076045	5297.075583
804.396731	5261.195170
804.717372	5274.952479
805.037967	5276.903406
805.358518	5308.650072
805.679024	5367.319021
805.999485	5370.928487
806.319901	5385.845261
806.640272	5402.115585
806.960598	5453.479902
807.280879	5445.940856
807.601115	5477.253983
807.921306	5443.405156
808.241453	5435.472900
808.561554	5446.964210
808.881611	5419.779788
809.201623	5417.967493
809.521590	5364.548907
809.841513	5348.139951
810.161390	5366.058732
810.481223	5279.297954
810.801011	5261.918576
811.120755	5243.359568
811.440453	5189.653636
811.760107	5153.377493
812.079716	5134.352178
812.399281	5080.623560
812.718801	5074.377571
813.038276	5036.432806
813.357707	5004.015666
813.677093	5024.732288
813.996434	4967.868072
814.315731	4988.312472
814.634983	4989.451772
814.954191	4996.239686
815.273354	5055.634561
815.592473	5094.390951
815.911547	5167.654040
816.230577	5217.763109
816.549562	5310.575793
816.868502	5359.704358
817.187399	5417.107977
817.506250	5498.714175
817.825058	5524.603021
818.143821	5677.420558
818.462539	5855.186766
818.781213	6084.970120
819.099843	6449.982426
819.418429	7082.826195
819.736970	7706.462296
820.055466	8406.416425
820.373919	9332.317591
820.692327	10814.565535
821.010691	13588.692332
821.329011	19924.545556
821.647286	29438.647154
821.965517	39532.148729
822.283704	44640.856557
822.601847	45915.038439
822.919945	41328.009375
823.237999	36289.260159
823.556010	31209.808667
823.873976	26608.639167
824.191897	22475.795380
824.509775	19474.050404
824.827609	16757.649860
825.145398	15236.088477
825.463144	14534.984965
825.780845	14862.392784
826.098502	16151.211655
826.416116	18577.214012
826.733685	20780.558685
827.051210	21205.515351
827.368692	19732.379292
827.686129	17189.417125
828.003522	14751.379014
828.320872	12578.649268
828.638177	10967.819133
828.955439	9745.185570
829.272656	8697.787556
829.589830	7862.022222
829.906960	7137.845348
830.224046	6615.271779
830.541088	6213.002825
830.858086	5953.116221
831.175041	5753.657928
831.491952	5700.337644
831.808819	5738.889868
832.125642	5991.209700
832.442421	6557.381688
832.759157	7687.361364
833.075849	9462.172672
833.392497	11275.251380
833.709101	12324.917913
834.025662	12029.082841
834.342179	10968.482045
834.658653	9676.882977
834.975083	8594.101104
835.291469	7706.245527
835.607811	6985.050496
835.924110	6471.056970
836.240366	5981.752495
836.556578	5533.687180
836.872746	5187.075085
837.188871	4914.283127
837.504952	4694.632493
837.820990	4530.240466
838.136984	4415.909617
838.452935	4371.179459
838.768842	4413.255449
839.084706	4707.169842
839.400526	5464.119257
839.716303	6349.892837
840.032037	6892.545323
840.347727	6711.146963
840.663373	6106.256393
840.978977	5543.852667
841.294537	5111.165391
841.610054	4785.393426
841.925527	4547.130852
842.240957	4343.649718
842.556344	4163.229342
842.871687	4005.889889
843.186987	3857.672405
843.502244	3737.642532
843.817458	3653.672032
844.132629	3580.661001
844.447756	3535.537633
844.762840	3488.365036
845.077881	3446.858695
845.392879	3414.123963
845.707833	3391.330386
846.022745	3364.846684
846.337613	3350.076103
846.652438	3326.382680
846.967221	3320.189623
847.281960	3297.239770
847.596656	3290.802216
847.911309	3279.661266
848.225919	3263.844646
848.540485	3253.701845
848.855009	3245.676328
849.169490	3234.893300
849.483928	3229.509347
849.798323	3220.790672
850.112675	3213.342367
850.426984	3210.496636
850.741251	3206.539330
851.055474	3198.697815
851.369654	3205.871377
851.683792	3201.478011
851.997887	3206.703167
852.311938	3206.105791
852.625947	3206.504042
852.939914	3195.186651
853.253837	3202.473639
853.567718	3202.057744
853.881555	3196.295705
854.195350	3202.755944
854.509103	3196.066333
854.822812	3197.329142
855.136479	3192.555169
855.450103	3195.242104
855.763685	3187.937472
856.077224	3191.766228
856.390720	3197.019111
856.704173	3210.254660
857.017584	3213.498643
857.330953	3220.251268
857.644278	3225.496589
857.957561	3228.370047
858.270802	3227.797876
858.584000	3226.787124
858.897155	3220.415106
859.210268	3210.526882
859.523339	3198.264276
859.836367	3195.428627
860.149352	3192.585416
860.462295	3185.459745
860.775195	3178.709640
861.088054	3175.841223
861.400869	3177.532531
861.713642	3172.796367
862.026373	3181.731812
862.339062	3183.839014
862.651708	3193.797813
862.964312	3210.804146
863.276873	3218.345712
863.589392	3252.567585
863.901869	3272.459978
864.214303	3296.145839
864.526696	3316.441525
864.839045	3331.254955
865.151353	3344.866071
865.463619	3346.650639
865.775842	3347.623582
866.088023	3351.827904
866.400162	3346.559898
866.712258	3347.162316
867.024313	3346.413705
867.336325	3344.114939
867.648296	3344.581246
867.960224	3341.460771
868.272110	3346.506966
868.583954	3346.791792
868.895755	3353.867051
869.207515	3350.300435
869.519233	3371.231305
869.830909	3378.001575
870.142542	3391.380797
870.454134	3394.702918
870.765684	3405.327149
871.077191	3425.211981
871.388657	3437.726645
871.700081	3455.897484
872.011463	3477.808859
872.322803	3493.401148
872.634101	3511.093078
872.945357	3533.193496
873.256571	3566.218095
873.567744	3575.945001
873.878874	3586.423040
874.189963	3600.276130
874.501010	3600.306377
874.812015	3597.097683
875.122979	3612.579066
875.433900	3612.256432
875.744780	3614.487143
876.055618	3622.358905
876.366415	3622.300932
876.677169	3626.285964
876.987882	3644.698778
877.298554	3666.622756
877.609183	3701.837736
877.919771	3754.011158
878.230317	3826.797858
878.540822	3926.799227
878.851285	4086.114812
879.161707	4315.636026
879.472087	4700.024007
879.782425	5341.835988
880.092722	6554.530916
880.402977	8501.086774
880.713191	10856.966680
881.023363	13170.851255
881.333494	14425.833902
881.643583	14850.062121
881.953631	14412.842848
882.263637	13593.781377
882.573602	12584.764188
882.883526	11646.003039
883.193408	10711.541995
883.503248	9807.567328
883.813048	8988.037030
884.122806	8230.626350
884.432522	7470.228786
884.742197	6818.609240
885.051831	6254.904896
885.361424	5766.893477
885.670975	5376.766143
885.980485	5053.996186
886.289954	4784.062562
886.599382	4571.494748
886.908768	4389.607397
887.218113	4222.588929
887.527417	4092.754011
887.836680	3969.326401
888.145901	3869.292264
888.455082	3793.410296
888.764221	3727.245152
889.073319	3666.078312
889.382376	3632.247128
889.691392	3609.181329
890.000366	3604.233436
890.309300	3596.056685
890.618193	3597.127930
890.927044	3592.379163
891.235855	3603.005915
891.544625	3618.003348
891.853353	3648.250271
892.162041	3709.270918
892.470687	3806.219868
892.779293	3927.174793
893.087858	4102.044858
893.396381	4390.197212
893.704864	4805.207682
894.013306	5381.139344
894.321707	5940.558707
894.630068	6283.768022
894.938387	6311.270037
895.246665	6127.043590
895.554903	5811.416948
895.863100	5477.742975
896.171256	5207.801789
896.479371	4967.628617
896.787446	4745.500255
897.095480	4556.603180
897.403473	4402.580806
897.711425	4256.858693
898.019336	4137.837050
898.327207	4019.478320
898.635038	3913.634253
898.942827	3807.258346
899.250576	3720.139645
899.558284	3633.278044
899.865952	3577.205290
900.173579	3515.322606
900.481165	3469.009525
900.788711	3428.264399
901.096216	3396.406828
901.403681	3369.270297
901.711105	3357.042978
902.018489	3358.146991
902.325832	3390.044892
902.633135	3454.564099
902.940397	3632.279896
903.247619	4053.526273
903.554800	4817.109846
903.861941	5774.180465
904.169041	6451.582993
904.476101	6633.435056
904.783121	6354.008939
905.090100	5951.056910
905.397039	5546.128747
905.703938	5188.789078
906.010796	4873.444740
906.317614	4622.352429
906.624391	4384.195718
906.931129	4191.200184
907.237826	4009.383409
907.544483	3840.083819
907.851099	3666.007735
908.157675	3507.433200
908.464211	3364.849205
908.770707	3262.647372
909.077163	3186.427647
909.383578	3124.043368
909.689954	3079.358580
909.996289	3050.689538
910.302584	3030.477032
910.608839	3019.615866
910.915054	3004.406705
911.221229	3000.900582
911.527363	3006.201355
911.833458	3010.168743
912.139513	3023.532842
912.445527	3041.819628
912.751502	3074.322467
913.057436	3118.800568
913.363331	3178.064372
913.669186	3265.266252
913.975000	3390.110427
914.280775	3582.279211
914.586510	3854.592260
914.892205	4238.594592
915.197859	4742.576386
915.503475	5317.517462
915.809050	5801.238858
916.114585	6082.595737
916.420081	6130.398478
916.725536	6070.265075
917.030952	5826.784906
917.336328	5625.005161
917.641665	5421.907155
917.946961	5191.425601
918.252218	4994.034181
918.557435	4763.547586
918.862612	4571.431734
919.167750	4398.701638
919.472848	4210.432186
919.777906	4038.917009
920.082925	3881.252402
920.387904	3729.178434
920.692843	3616.483440
920.997743	3514.117770
921.302603	3420.337185
921.607423	3355.510467
921.912204	3290.492185
922.216946	3242.477716
922.521647	3192.706404
922.826310	3148.543375
923.130932	3110.820421
923.435516	3072.689133
923.740059	3046.991852
924.044564	3011.981038
924.349028	2987.145794
924.653454	2959.437092
924.957840	2932.731579
925.262186	2914.109557
925.566493	2892.339334
925.870761	2865.318749
926.174989	2851.427850
926.479178	2840.712877
926.783328	2820.182778
927.087438	2809.465285
927.391509	2797.376598
927.695541	2783.954526
927.999533	2777.998403
928.303486	2766.970879
928.607400	2761.302102
928.911275	2756.671802
929.215110	2749.964547
929.518906	2744.147055
929.822663	2746.523959
930.126381	2746.402971
930.430060	2751.489496
930.733699	2750.672829
931.037299	2754.133581
931.340861	2750.690473
931.644383	2758.516864
931.947866	2755.837491
932.251309	2751.970926
932.554714	2750.445977
932.858080	2749.601583
933.161407	2746.314751
933.464694	2740.484657
933.767943	2738.939543
934.071153	2734.757906
934.374323	2730.321691
934.677455	2729.663820
934.980548	2727.957389
935.283602	2723.904302
935.586617	2721.348437
935.889593	2724.761298
936.192530	2726.724827
936.495428	2732.617936
936.798287	2740.666138
937.101108	2754.090731
937.403890	2776.672580
937.706632	2802.959676
938.009336	2837.446210
938.312002	2866.994933
938.614628	2888.182903
938.917216	2911.417581
939.219765	2916.241965
939.522275	2927.277051
939.824747	2930.392484
940.127179	2924.353182
940.429573	2916.841862
940.731929	2916.360432
941.034246	2906.220151
941.336524	2905.559760
941.638763	2899.081877
941.940964	2892.296484
942.243126	2873.732435
942.545250	2864.116434
942.847335	2850.074300
943.149381	2835.701971
943.451389	2824.649241
943.753359	2810.667601
944.055290	2799.700570
944.357182	2792.300157
944.659036	2786.880916
944.960851	2781.854886
945.262628	2778.676438
945.564367	2780.738270
945.866067	2778.830193
946.167729	2779.263733
946.469352	2775.024122
946.770937	2773.935233
947.072484	2769.831734
947.373992	2769.970366
947.675462	2765.088008
947.976893	2755.298087
948.278286	2754.962851
948.579641	2751.421440
948.880958	2750.572006
949.182236	2749.788106
949.483476	2746.821387
949.784678	2744.152096
950.085841	2744.888105
950.386967	2749.152921
950.688054	2753.480751
950.989103	2761.019797
951.290114	2771.477671
951.591087	2780.760955
951.892021	2793.709159
952.192917	2808.061324
952.493776	2816.406954
952.794596	2821.102789
953.095378	2824.172852
953.396122	2819.703869
953.696828	2817.566420
953.997496	2810.027374
954.298126	2802.301806
954.598718	2795.501289
954.899272	2782.520318
955.199788	2772.352311
955.500266	2761.627256
955.800706	2747.527149
956.101108	2730.049468
956.401472	2718.903477
956.701798	2703.827907
957.002087	2691.378777
957.302337	2684.976512
957.602550	2671.690551
957.902724	2659.826195
958.202861	2652.703045
958.502960	2645.474030
958.803022	2637.355252
959.103045	2627.600619
959.403031	2622.065432
959.702979	2616.167282
960.002889	2615.335492
960.302762	2607.378031
960.602596	2602.641867
960.902393	2601.563060
961.202153	2597.015939
961.501875	2595.647266
961.801559	2593.043510
962.101205	2587.979671
962.400814	2585.317941
962.700385	2586.043867
962.999918	2588.461101
963.299414	2583.185533
963.598873	2582.547827
963.898293	2578.540110
964.197677	2578.595563
964.497022	2577.289904
964.796331	2577.678073
965.095601	2574.544996
965.394835	2574.741601
965.694030	2573.299831
965.993189	2572.901579
966.292309	2572.420149
966.591393	2571.043914
966.890439	2570.068451
967.189447	2567.923440
967.488419	2570.554922
967.787353	2572.538616
968.086249	2575.432239
968.385108	2574.476940
968.683930	2573.047773
968.982714	2575.631364
969.281462	2573.738411
969.580172	2579.243351
969.878844	2577.042887
970.177480	2583.614031
970.476078	2587.457911
970.774639	2590.500248
971.073162	2590.396904
971.371649	2591.803386
971.670098	2592.415886
971.968510	2592.925042
972.266885	2592.501586
972.565223	2599.108018
972.863524	2602.936774
973.161788	2599.796135
973.460014	2603.892073
973.758204	2602.742690
974.056356	2602.460385
974.354471	2604.658328
974.652550	2603.324943
974.950591	2601.875611
975.248595	2603.594645
975.546563	2602.266301
975.844493	2602.835951
976.142386	2600.857298
976.440243	2596.738675
976.738062	2598.296392
977.035845	2590.656523
977.333590	2589.315576
977.631299	2587.173086
977.928971	2584.614700
978.226606	2585.254927
978.524204	2581.395924
978.821765	2580.972467
979.119290	2579.742425
979.416777	2581.141345
979.714228	2582.099165
980.011642	2583.440112
980.309020	2587.077304
980.606360	2589.325659
980.903664	2600.191866
981.200931	2616.315996
981.498162	2630.711011
981.795356	2664.345590
982.092513	2699.537885
982.389633	2742.934657
982.686717	2785.953344
982.983764	2816.056594
983.280775	2833.599809
983.577749	2833.312464
983.874686	2822.116061
984.171587	2806.967394
984.468451	2790.815537
984.765279	2773.307609
985.062070	2757.370002
985.358824	2735.312433
985.655543	2713.035574
985.952224	2693.304498
986.248869	2668.502021
986.545478	2643.961684
986.842050	2622.098200
987.138586	2599.473501
987.435086	2589.181986
987.731549	2576.236303
988.027975	2571.434604
988.324366	2565.801114
988.620719	2562.748696
988.917037	2556.800134
989.213318	2555.895247
989.509563	2553.896429
989.805772	2551.953065
990.101944	2548.295707
990.398080	2548.928372
990.694180	2545.339071
990.990244	2549.956768
991.286271	2549.140101
991.582262	2549.944165
991.878217	2548.323434
992.174136	2549.467776
992.470019	2551.275029
992.765865	2551.781665
993.061676	2554.982798
993.357450	2556.495144
993.653188	2560.054199
993.948890	2567.744479
994.244556	2577.075655
994.540186	2585.219639
994.835780	2594.550815
995.131337	2608.819801
995.426859	2626.042903
995.722345	2643.727270
996.017795	2665.071516
996.313208	2679.184226
996.608586	2685.344516
996.903928	2689.332069
997.199234	2687.333251
997.494504	2685.833508
997.789738	2678.102898
998.084936	2671.289779
998.380099	2655.034578
998.675225	2644.886736
998.970316	2634.169243
999.265371	2620.623662
999.560390	2605.842999
999.855373	2593.857656
1000.150320	2584.670153
1000.445232	2577.176478
1000.740108	2569.826476
1001.034948	2560.180228
1001.329752	2553.195709
1001.624521	2552.593291
1001.919254	2543.826725
1002.213951	2545.792775
1002.508613	2541.848072
1002.803239	2540.940664
1003.097829	2535.450847
1003.392384	2539.564429
1003.686903	2534.745086
1003.981386	2536.451517
1004.275834	2532.627801
1004.570246	2535.496218
1004.864623	2531.801052
1005.158964	2528.899868
1005.453270	2530.495393
1005.747540	2532.090918
1006.041775	2528.693181
1006.335974	2530.394570
1006.630138	2528.476411
1006.924266	2529.749303
1007.218359	2529.010773
1007.512416	2524.690505
1007.806438	2526.202851
1008.100425	2529.114117
1008.394376	2527.669827
1008.688292	2528.514220
1008.982172	2527.284178
1009.276017	2525.323169
1009.569827	2529.356093
1009.863602	2530.276103
1010.157341	2527.841226
1010.451045	2527.183355
1010.744714	2524.967768
1011.038347	2523.742768
1011.331945	2523.019362
1011.625508	2524.209074
1011.919036	2522.603467
1012.212528	2522.641276
1012.505986	2523.480628
1012.799408	2523.253776
1013.092795	2523.067253
1013.386147	2525.035824
1013.679464	2522.858045
1013.972745	2525.093797
1014.265992	2520.004752
1014.559204	2522.928621
1014.852380	2522.779907
1015.145521	2521.693539
1015.438628	2523.546163
1015.731699	2522.187572
1016.024736	2522.280833
1016.317737	2522.968951
1016.610703	2523.795700
1016.903635	2518.968795
1017.196531	2521.111285
1017.489393	2521.010462
1017.782219	2518.525173
1018.075011	2521.360823
1018.367768	2524.020031
1018.660490	2524.206554
1018.953177	2524.206554
1019.245829	2524.206554
