Dividing Wavelength (nm)	Counts (n)	Blue Motor Position (mm): 0.000000	Red Motor Position (mm): 38.400000	
326.493990	2124.790893
326.888308	2124.790893
327.282561	2124.790893
327.676750	2094.349886
328.070874	2092.981213
328.464933	2095.363158
328.858929	2102.241812
329.252859	2111.409151
329.646726	2124.589247
330.040528	2137.577780
330.434265	2154.450522
330.827938	2169.112718
331.221547	2188.246418
331.615091	2209.560416
332.008571	2226.473487
332.401986	2246.186919
332.795338	2266.936308
333.188625	2286.193516
333.581847	2304.071968
333.975006	2321.741213
334.368100	2340.343070
334.761129	2357.319156
335.154095	2372.215765
335.546996	2396.589744
335.939833	2413.684297
336.332606	2430.499066
336.725315	2441.887032
337.117960	2455.609053
337.510540	2459.183231
337.903056	2470.505663
338.295508	2477.144862
338.687896	2488.679022
339.080220	2493.551297
339.472480	2502.030518
339.864676	2505.639984
340.256807	2513.373114
340.648875	2512.871519
341.040879	2516.975019
341.432818	2519.525842
341.824694	2518.986439
342.216506	2523.437778
342.608253	2520.150946
342.999937	2523.926770
343.391557	2520.473579
343.783113	2521.174300
344.174605	2520.176151
344.566033	2517.779083
344.957397	2516.531397
345.348697	2512.982425
345.739934	2513.214318
346.131106	2509.425891
346.522215	2507.883298
346.913260	2505.035046
347.304241	2503.613440
347.695159	2503.051352
348.086012	2505.057731
348.476802	2498.710918
348.867528	2499.726711
349.258191	2497.319560
349.648789	2496.245794
350.039324	2495.897954
350.429796	2495.149343
350.820203	2490.975268
351.210548	2490.914774
351.600828	2489.568786
351.991045	2490.985350
352.381198	2488.525267
352.771288	2488.898312
353.161314	2492.515340
353.551276	2490.471152
353.941175	2489.367140
354.331010	2488.598364
354.720782	2486.294556
355.110490	2486.909577
355.500135	2488.290853
355.889717	2491.217243
356.279235	2488.300936
356.668689	2490.493838
357.058080	2489.838488
357.447408	2489.803199
357.836672	2485.278764
358.225873	2487.365802
358.615010	2488.386635
359.004084	2491.834784
359.393095	2493.326966
359.782043	2494.778818
360.170927	2494.438540
360.559748	2494.720845
360.948505	2496.207985
361.337199	2496.490290
361.725830	2495.287975
362.114398	2499.736793
362.502903	2499.197390
362.891344	2496.898623
363.279722	2498.766371
363.668037	2500.147647
364.056289	2499.141937
364.444478	2504.407422
364.832603	2500.407267
365.220665	2503.633605
365.608665	2505.239213
365.996601	2504.389778
366.384474	2505.420694
366.772284	2505.274501
367.160031	2506.960767
367.547715	2508.213493
367.935336	2510.603000
368.322893	2514.729185
368.710388	2521.154135
369.097820	2526.356606
369.485189	2529.371216
369.872495	2534.697195
370.259738	2539.120808
370.646918	2545.676828
371.034035	2554.791234
371.421090	2565.092832
371.808081	2578.497260
372.195010	2583.856007
372.581875	2599.496187
372.968678	2609.205449
373.355418	2621.886471
373.742096	2641.962867
374.128710	2654.490134
374.515262	2669.739624
374.901751	2682.879392
375.288177	2700.566280
375.674540	2719.047150
376.060841	2736.761765
376.447079	2757.435537
376.833254	2777.711057
377.219367	2786.956533
377.605417	2828.293995
377.991404	2837.264728
378.377329	2858.961854
378.763191	2878.544217
379.148991	2913.905390
379.534727	2938.196190
379.920402	2965.473873
380.306013	2980.937613
380.691563	3031.202958
381.077049	3050.162738
381.462474	3064.953483
381.847835	3106.540482
382.233134	3132.426807
382.618371	3130.284316
383.003545	3198.660006
383.388657	3207.618137
383.773706	3237.938157
384.158693	3253.797627
384.543618	3279.641102
384.928480	3313.671411
385.313280	3364.823999
385.698017	3360.765870
386.082692	3412.558685
386.467305	3419.417174
386.851856	3450.853810
387.236344	3474.645535
387.620770	3504.574866
388.005133	3529.052188
388.389435	3558.071590
388.773674	3569.474680
389.157851	3613.330198
389.541965	3627.470635
389.926018	3595.638269
390.310008	3659.582785
390.693936	3678.885363
391.077802	3720.626117
391.461606	3707.272100
391.845348	3774.546298
392.229027	3773.691823
392.612645	3787.008031
392.996200	3865.466028
393.379694	3899.735792
393.763125	3970.437975
394.146494	3937.773819
394.529801	3997.831605
394.913047	4045.135272
395.296230	4013.295344
395.679351	4064.268972
396.062410	4086.533228
396.445408	4071.714756
396.828343	4105.505610
397.211217	4131.286071
397.594028	4047.562588
397.976778	4114.022639
398.359466	4140.390395
398.742092	4168.681350
399.124656	4094.536059
399.507158	4171.456505
399.889598	4194.184547
400.271977	4259.270885
400.654294	4233.261051
401.036549	4240.653903
401.418742	4209.623081
401.800874	4309.173267
402.182944	4331.709745
402.564952	4394.623345
402.946898	4385.259402
403.328783	4380.210686
403.710606	4292.129125
404.092367	4488.976101
404.474067	4448.309113
404.855705	4460.339826
405.237282	4385.697982
405.618797	4496.086648
406.000250	4529.627965
406.381642	4611.105614
406.762972	4569.765632
407.144240	4581.083023
407.525447	4582.260132
407.906593	4639.482269
408.287677	4682.979865
408.668700	4611.864308
409.049661	4664.488913
409.430560	4706.355696
409.811399	4634.607474
410.192176	4795.571516
410.572891	4735.869131
410.953545	4836.241025
411.334138	4715.586048
411.714669	4779.432262
412.095139	4680.174463
412.475547	4815.758817
412.855894	4800.683246
413.236180	4811.446109
413.616405	4763.048512
413.996568	4853.075958
414.376670	4793.640754
414.756711	4747.060492
415.136691	4781.310092
415.516609	4860.584757
415.896466	4894.123553
416.276262	4927.604376
416.655997	4909.811624
417.035670	5090.685703
417.415283	5185.393861
417.794834	5126.722392
418.174324	5084.066668
418.553753	4988.138552
418.933121	5174.232746
419.312428	5237.453856
419.691674	5177.449002
420.070859	5302.056243
420.449983	5215.771854
420.829045	5328.408875
421.208047	5237.559721
421.586988	5309.640659
421.965867	5320.947967
422.344686	5449.658707
422.723444	5306.757119
423.102141	5128.509481
423.480777	5429.625162
423.859352	5190.238409
424.237866	5453.658862
424.616319	5441.043375
424.994712	5554.302978
425.373044	5432.314617
425.751314	5578.157718
426.129524	5380.746134
426.507673	5571.422737
426.885762	5657.137476
427.263789	5587.088122
427.641756	5473.205937
428.019662	5591.128607
428.397508	5598.927272
428.775292	5546.378285
429.153016	5644.516947
429.530679	5567.561213
429.908282	5648.882586
430.285824	5526.874060
430.663305	5798.020082
431.040726	5531.733733
431.418086	5530.334812
431.795385	5644.413603
432.172624	5649.895858
432.549802	5643.536443
432.926920	5658.977497
433.303977	5668.049053
433.680974	5708.461463
434.057910	5723.635336
434.434786	5727.965687
434.811601	5694.888156
435.188355	5930.650319
435.565050	5805.143232
435.941683	5788.716632
436.318257	6002.557337
436.694770	5984.920861
437.071222	6016.143247
437.447614	5951.427434
437.823946	5868.220670
438.200218	6021.650708
438.576429	5879.762391
438.952580	5982.758206
439.328670	6030.659249
439.704700	5933.753149
440.080670	5924.512714
440.456580	6195.817532
440.832429	6072.279016
441.208218	5919.040542
441.583947	6078.492238
441.959616	6079.888637
442.335224	6007.648903
442.710773	6146.424306
443.086261	6166.548592
443.461689	5963.805988
443.837057	6114.609584
444.212365	6268.571464
444.587612	6161.479712
444.962800	6311.060829
445.337927	6294.077182
445.712995	5910.745323
446.088002	6486.868549
446.462949	6310.765922
446.837837	6246.312249
447.212664	6416.297436
447.587431	6559.040228
447.962139	7098.368072
448.336786	8028.471039
448.711374	7770.469827
449.085901	6841.773342
449.460369	6763.572443
449.834776	6701.707403
450.209124	7085.727379
450.583412	7239.207828
450.957640	7385.771815
451.331808	7150.198696
451.705917	6703.660850
452.079965	6624.645804
452.453954	6838.718402
452.827883	6715.068981
453.201752	6806.210522
453.575562	6607.216015
453.949311	6815.440874
454.323001	6699.655653
454.696632	6776.508043
455.070202	6917.045330
455.443713	7067.652322
455.817164	7169.576891
456.190556	7244.284270
456.563888	7327.057496
456.937160	7372.193467
457.310373	7027.267638
457.683526	7048.402676
458.056619	6940.648013
458.429653	6928.524038
458.802628	6867.667228
459.175542	6971.129349
459.548398	7329.000861
459.921194	7488.437433
460.293930	7486.070612
460.666607	8017.236828
461.039224	8332.003953
461.411782	8454.375442
461.784280	8476.929565
462.156719	8365.227678
462.529099	8238.621620
462.901419	7834.805032
463.273680	7728.078764
463.645882	7742.095692
464.018024	7603.249712
464.390106	7770.215248
464.762130	8156.841501
465.134094	8621.812326
465.505999	9648.592021
465.877845	10863.610921
466.249631	11516.095025
466.621358	11134.353650
466.993026	10504.489203
467.364634	10249.444627
467.736184	9886.032888
468.107674	9551.638030
468.479105	9584.309748
468.850477	9354.050005
469.221790	9116.271381
469.593043	8797.821692
469.964238	8657.884303
470.335373	8669.350407
470.706449	8726.673367
471.077467	8708.676448
471.448425	10011.401343
471.819324	11087.410426
472.190164	11119.157092
472.560945	9865.863231
472.931667	9069.257580
473.302330	8938.744628
473.672934	8591.121782
474.043479	8943.836193
474.413965	8883.324703
474.784393	8769.306406
475.154761	8927.036548
475.525070	9009.741718
475.895321	8829.172628
476.265513	9014.417388
476.635645	9184.407616
477.005719	9182.234879
477.375734	9294.297208
477.745691	9531.130616
478.115588	9666.777984
478.485427	9904.478470
478.855207	10447.476274
479.224928	11255.351425
479.594591	11892.676779
479.964194	11700.785258
480.333739	11644.341979
480.703226	11563.338198
481.072653	11644.609160
481.442022	11889.921789
481.811333	12075.141343
482.180584	11879.723534
482.549777	11585.118504
482.918912	11415.208934
483.287988	11437.609301
483.657005	11446.287647
484.025964	11128.798299
484.394864	11260.034657
484.763706	11226.503422
485.132489	10987.900569
485.501213	10951.689961
485.869879	11019.697647
486.238487	10867.490089
486.607036	10981.084929
486.975527	10760.342885
487.343959	10942.177304
487.712333	10987.600621
488.080648	10921.390106
488.448905	10967.735954
488.817104	10910.760833
489.185244	11177.556339
489.553326	11329.741212
489.921350	11862.041687
490.289315	12925.972165
490.657222	13265.791305
491.025070	13180.489941
491.392861	13051.229715
491.760593	12668.422136
492.128267	12321.268117
492.495883	11999.292142
492.863440	11659.225986
493.230939	11320.019346
493.598380	11260.639595
493.965763	11126.212187
494.333088	11025.736949
494.700354	10948.912285
495.067563	11005.708445
495.434713	10834.334420
495.801805	10957.807401
496.168839	10886.076823
496.535815	10821.678603
496.902733	10821.222379
497.269593	10757.721485
497.636395	10860.697134
498.003139	10846.702891
498.369825	10712.640966
498.736453	10868.515964
499.103023	10796.104830
499.469535	10819.520990
499.835989	10807.349124
500.202385	10774.672364
500.568723	10622.880702
500.935003	10841.230719
501.301226	10660.109623
501.667390	10912.467264
502.033497	11009.958138
502.399546	10869.998063
502.765537	10776.396439
503.131470	10851.002995
503.497345	11024.902638
503.863163	10636.272527
504.228923	10950.863212
504.594625	11011.949394
504.960269	10757.434139
505.325856	10979.706174
505.691385	10772.996181
506.056856	10929.435788
506.422270	10954.999479
506.787625	10836.202168
507.152924	10965.139760
507.518164	10934.900398
507.883347	10859.020951
508.248472	10774.732858
508.613540	11007.142653
508.978550	10898.480582
509.343503	10868.659637
509.708398	10986.582308
510.073236	11099.909967
510.438016	11095.342681
510.802738	11043.912830
511.167403	11098.344688
511.532010	10999.404482
511.896561	11230.843855
512.261053	11301.641820
512.625488	11170.841522
512.989866	11152.370734
513.354186	11136.864145
513.718449	11044.827799
514.082655	11240.258210
514.446803	11124.213369
514.810894	11244.036555
515.174927	11119.940991
515.538904	11149.474591
515.902822	11298.256685
516.266684	11180.177739
516.630488	11123.051383
516.994235	11180.762512
517.357925	11240.099414
517.721558	11336.075421
518.085133	11346.780312
518.448651	11351.012360
518.812112	11241.750392
519.175516	11256.425191
519.538863	11376.785259
519.902152	11284.703543
520.265385	11449.476177
520.628560	11360.459482
520.991678	11334.008548
521.354739	11401.222252
521.717743	11334.323620
522.080690	11316.598923
522.443580	11441.455701
522.806413	11401.363405
523.169189	11429.183012
523.531908	11489.676858
523.894569	11308.248252
524.257174	11311.492235
524.619722	11425.238309
524.982213	11374.904909
525.344647	11423.423494
525.707025	11369.737726
526.069345	11468.466204
526.431608	11390.308154
526.793815	11502.239414
527.155964	11280.632811
527.518057	11346.147647
527.880093	11286.893924
528.242072	11360.714061
528.603995	11263.170254
528.965860	11184.951711
529.327669	11231.675646
529.689421	11187.699140
530.051117	11152.400981
530.412755	11270.210226
530.774337	11147.299333
531.135862	11126.466765
531.497331	11147.611885
531.858743	11001.063022
532.220098	11163.609987
532.581396	11041.178004
532.942638	11024.123780
533.303824	10974.589403
533.664953	10994.280149
534.026025	10914.277038
534.387040	11010.167346
534.747999	11004.475883
535.108902	11068.876623
535.469748	10825.484675
535.830537	10925.579305
536.191270	10905.359237
536.551947	10923.267936
536.912567	10924.437483
537.273131	10846.339928
537.633638	10824.859572
537.994089	10804.599174
538.354483	10755.084961
538.714821	10907.872252
539.075103	10908.888044
539.435328	10868.876406
539.795497	10702.160408
540.155609	10852.727070
540.515665	10938.255286
540.875665	10682.257932
541.235609	10743.568445
541.595496	10737.939997
541.955328	10888.161340
542.315102	10773.396953
542.674821	10722.148582
543.034483	10722.642616
543.394090	10724.323840
543.753640	10648.204938
544.113134	10867.757270
544.472571	10720.255629
544.831953	10856.374345
545.191278	10669.458443
545.550548	10686.474857
545.909761	10824.375621
546.268918	10794.441249
546.628019	10873.234484
546.987064	10731.278112
547.346053	10649.258539
547.704986	10746.981306
548.063863	10735.220294
548.422684	10727.739222
548.781449	10634.556014
549.140158	10737.216591
549.498811	10608.024421
549.857408	10461.999838
550.215949	10681.519403
550.574434	10528.038954
550.932864	10619.072110
551.291237	10676.742910
551.649555	10613.826789
552.007817	10621.207038
552.366022	10589.044477
552.724173	10569.368853
553.082267	10555.853520
553.440305	10676.352220
553.798288	10476.926695
554.156215	10623.775506
554.514086	10593.793244
554.871902	10435.589233
555.229661	10467.973606
555.587365	10438.235839
555.945014	10330.327420
556.302606	10433.691239
556.660143	10327.249796
557.017625	10472.790428
557.375050	10359.311534
557.732421	10482.900462
558.089735	10392.018541
558.446994	10378.251149
558.804197	10407.583103
559.161345	10394.115661
559.518437	10250.236089
559.875474	10318.276542
560.232455	10337.075005
560.589381	10283.227920
560.946251	10254.498384
561.303065	10356.707778
561.659825	10277.604513
562.016528	10204.381753
562.373177	10087.414381
562.729770	10175.997537
563.086307	10081.440614
563.442789	10166.033696
563.799216	10023.726964
564.155587	10061.631400
564.511904	10002.748202
564.868164	9977.779367
565.224370	9980.368000
565.580520	9896.349609
565.936615	9894.496985
566.292654	9744.726825
566.648638	9859.516419
567.004567	9791.125605
567.360441	9766.796997
567.716260	9665.225308
568.072023	9740.623326
568.427732	9668.557511
568.783385	9575.573428
569.138982	9619.491961
569.494525	9622.239389
569.850013	9491.053443
570.205445	9538.246205
570.560823	9437.833982
570.916145	9335.957304
571.271412	9372.399805
571.626625	9306.637953
571.981782	9272.504300
572.336884	9223.005211
572.691931	9224.028565
573.046923	9139.269125
573.401860	9079.627233
573.756743	9002.278289
574.111570	9016.393520
574.466342	8990.078697
574.821059	8983.469744
575.175722	8874.361531
575.530330	8855.069035
575.884882	8830.947114
576.239380	8743.460410
576.593823	8708.462199
576.948211	8689.585599
577.302544	8576.504956
577.656823	8556.471411
578.011047	8537.211682
578.365216	8485.063467
578.719330	8403.769820
579.073389	8374.861323
579.427394	8319.829567
579.781344	8276.783154
580.135239	8210.476858
580.489080	8188.971295
580.842866	8083.422137
581.196597	8060.711739
581.550273	8068.709529
581.903895	8008.903801
582.257463	8041.131897
582.610975	7910.054335
582.964434	7913.056342
583.317837	7817.541601
583.671186	7784.950541
584.024481	7748.533246
584.377721	7657.618557
584.730906	7612.502750
585.084037	7606.382789
585.437113	7543.834673
585.790135	7524.320367
586.143103	7422.146260
586.496016	7380.965075
586.848874	7388.683081
587.201679	7355.124120
587.554428	7237.115750
587.907124	7251.994715
588.259765	7207.927469
588.612352	7171.568147
588.964884	7065.033442
589.317362	7040.021758
589.669786	7016.908067
590.022155	7029.964656
590.374470	7004.839545
590.726731	6951.131092
591.078937	6812.206974
591.431090	6858.552822
591.783188	6751.133395
592.135232	6716.730041
592.487222	6699.154058
592.839157	6697.611465
593.191038	6630.896835
593.542866	6569.004069
593.894639	6471.735005
594.246358	6481.179607
594.598022	6464.296783
594.949633	6374.564244
595.301190	6326.718653
595.652692	6323.348642
596.004141	6359.455906
596.355535	6207.245827
596.706876	6162.346791
597.058162	6089.053455
597.409395	6110.576661
597.760573	6124.555781
598.111698	6045.875972
598.462768	6002.567420
598.813785	5965.414116
599.164748	5911.299850
599.515657	5886.101642
599.866511	5799.658457
600.217312	5855.610223
600.568060	5749.435962
600.918753	5782.034583
601.269392	5739.280557
601.619978	5664.671480
601.970510	5666.135935
602.320988	5650.848636
602.671412	5647.516434
603.021783	5592.237661
603.372100	5550.680909
603.722363	5522.674779
604.072572	5487.454758
604.422728	5474.221729
604.772830	5404.747067
605.122878	5378.649014
605.472872	5361.839286
605.822813	5347.222461
606.172701	5298.169513
606.522534	5309.824661
606.872314	5289.080313
607.222041	5245.411318
607.571714	5249.350979
607.921333	5205.187951
608.270899	5178.071585
608.620411	5197.550603
608.969870	5130.200788
609.319276	5104.402683
609.668627	5086.042801
610.017926	5080.621040
610.367171	5069.217950
610.716362	5040.659813
611.065500	5011.713508
611.414585	4993.094006
611.763616	4975.061799
612.112594	4934.286426
612.461518	4915.089712
612.810389	4922.941309
613.159207	4871.055233
613.507971	4825.992359
613.856682	4847.989434
614.205340	4810.793280
614.553945	4818.811235
614.902496	4752.656173
615.250994	4752.895628
615.599439	4727.465527
615.947830	4709.345100
616.296169	4680.426521
616.644454	4664.524201
616.992686	4642.779184
617.340864	4640.424965
617.688990	4583.079320
618.037063	4600.932566
618.385082	4557.311462
618.733048	4560.671391
619.080961	4525.461452
619.428821	4511.099204
619.776628	4487.972911
620.124382	4453.095688
620.472083	4420.355915
620.819731	4410.989451
621.167326	4354.276470
621.514868	4336.647555
621.862357	4281.527579
622.209793	4266.487296
622.557176	4221.295873
622.904506	4185.513763
623.251783	4149.953463
623.599007	4111.870067
623.946179	4090.707303
624.293297	4057.037436
624.640363	4021.567878
624.987376	3995.457222
625.334336	3964.091162
625.681243	3930.829629
626.028097	3912.797422
626.374899	3891.866551
626.721647	3864.432592
627.068343	3836.812110
627.414987	3808.989982
627.761577	3784.132052
628.108115	3782.551651
628.454600	3740.364755
628.801032	3729.654823
629.147412	3715.582442
629.493739	3696.365564
629.840014	3664.926408
630.186236	3665.533867
630.532405	3624.433340
630.878521	3624.813947
631.224585	3602.380812
631.570597	3570.157757
631.916556	3565.686253
632.262462	3550.968605
632.608316	3529.989843
632.954117	3511.882018
633.299866	3495.266375
633.645562	3480.009323
633.991206	3452.136783
634.336797	3428.377825
634.682336	3403.711460
635.027823	3382.926782
635.373257	3369.159391
635.718639	3342.186698
636.063968	3332.006087
636.409245	3302.563228
636.754470	3287.540590
637.099642	3270.937550
637.444762	3248.786720
637.789829	3240.922520
638.134845	3219.724468
638.479808	3206.073023
638.824719	3196.951055
639.169577	3179.881708
639.514383	3171.959535
639.859137	3148.314003
640.203839	3145.841317
640.548489	3134.876807
640.893086	3119.503809
641.237632	3107.284052
641.582125	3101.668206
641.926566	3085.481061
642.270955	3085.488623
642.615292	3071.690985
642.959576	3067.597568
643.303809	3061.071794
643.647990	3050.387069
643.992118	3043.790719
644.336195	3028.821013
644.680219	3023.492513
645.024192	3017.102851
645.368112	3020.717358
645.711981	3017.523787
646.055797	3023.991587
646.399562	3013.876512
646.743274	3021.236597
647.086935	3025.937473
647.430544	3020.205681
647.774101	3016.387007
648.117606	3008.953825
648.461059	3002.032321
648.804460	2990.435147
649.147810	2974.837817
649.491108	2959.757205
649.834354	2949.616924
650.177548	2933.843154
650.520690	2919.193561
650.863781	2909.796850
651.206820	2904.173443
651.549807	2893.090466
651.892742	2879.605379
652.235626	2872.424256
652.578458	2868.663555
652.921238	2851.637058
653.263967	2853.792151
653.606644	2845.018023
653.949269	2840.412929
654.291843	2832.238698
654.634365	2830.814572
654.976836	2820.104641
655.319255	2819.376194
655.661622	2811.980821
656.003938	2805.916313
656.346203	2799.014973
656.688416	2798.715025
657.030577	2791.453243
657.372687	2784.798920
657.714746	2775.462703
658.056753	2780.113167
658.398708	2766.812083
658.740612	2766.305447
659.082465	2763.167328
659.424266	2760.969385
659.766016	2754.446132
660.107715	2754.730957
660.449362	2753.271543
660.790958	2751.708786
661.132503	2748.802561
661.473996	2746.453383
661.815438	2738.841241
662.156829	2737.066754
662.498168	2735.226733
662.839456	2729.600806
663.180693	2728.625342
663.521879	2727.594426
663.863013	2724.839436
664.204097	2720.884651
664.545129	2720.998077
664.886110	2717.010524
665.227040	2718.359032
665.567918	2713.942982
665.908746	2714.106819
666.249522	2711.281252
666.590248	2708.185984
666.930922	2707.523072
667.271545	2706.366128
667.612118	2706.038452
667.952639	2703.394367
668.293109	2698.131403
668.633528	2693.594364
668.973896	2690.587316
669.314213	2689.372398
669.654480	2684.777386
669.994695	2685.377283
670.334859	2683.053312
670.674973	2678.417971
671.015035	2678.365038
671.355047	2673.165088
671.695008	2672.212310
672.034918	2668.043276
672.374777	2668.756599
672.714585	2668.716270
673.054342	2665.074036
673.394049	2665.963800
673.733705	2664.375837
674.073310	2663.826351
674.412864	2659.944662
674.752368	2657.393838
675.091820	2657.948365
675.431223	2653.129022
675.770574	2649.844711
676.109875	2640.891621
676.449125	2641.627630
676.788324	2640.417753
677.127473	2638.539923
677.466571	2633.355096
677.805619	2635.961373
678.144616	2633.128244
678.483562	2632.495580
678.822458	2629.528861
679.161303	2632.152781
679.500098	2628.661782
679.838842	2627.981226
680.177535	2628.324025
680.516179	2627.066257
680.854771	2621.374794
681.193314	2626.123561
681.531805	2631.247894
681.870247	2636.604120
682.208638	2635.802577
682.546978	2635.177473
682.885268	2631.280662
683.223508	2629.322173
683.561697	2626.231946
683.899836	2623.665999
684.237925	2622.609877
684.575963	2622.950155
684.913951	2619.998559
685.251889	2620.578292
685.589776	2621.084928
685.927614	2622.718262
686.265401	2622.191461
686.603137	2620.359002
686.940824	2621.084928
687.278460	2621.904115
687.616046	2620.641306
687.953582	2623.449229
688.291068	2622.355299
688.628504	2622.879579
688.965889	2622.037706
689.303224	2618.965123
689.640510	2617.503188
689.977745	2614.672580
690.314930	2609.749893
690.652065	2609.318875
690.989150	2606.969697
691.326185	2602.856116
691.663170	2599.226485
692.000105	2598.840837
692.336990	2598.112390
692.673825	2596.380753
693.010610	2596.839498
693.347345	2592.355392
693.684030	2588.279619
694.020665	2591.193406
694.357251	2585.663260
694.693786	2586.918508
695.030272	2587.004207
695.366707	2586.242993
695.703093	2583.901377
696.039429	2584.322313
696.375716	2585.285174
696.711952	2583.866089
697.048139	2586.275761
697.384276	2583.551017
697.720363	2584.337437
698.056400	2582.782241
698.392388	2581.272415
698.728326	2583.150245
699.064214	2580.833835
699.400053	2581.395924
699.735842	2580.153279
700.071581	2580.816191
700.407270	2576.891653
700.742910	2578.570357
701.078501	2575.439800
701.414042	2577.052970
701.749533	2577.761252
702.084974	2576.190932
702.420366	2576.256467
702.755709	2573.423339
703.091002	2572.054666
703.426246	2572.561302
703.761440	2574.537434
704.096584	2570.993503
704.431679	2572.538616
704.766725	2569.748338
705.101721	2571.681620
705.436668	2570.948132
705.771565	2573.120870
706.106413	2571.908472
706.441212	2568.782957
706.775961	2570.718760
707.110661	2569.725652
707.445311	2573.088102
707.779913	2572.498287
708.114465	2571.956363
708.448967	2573.083061
708.783421	2572.344532
709.117825	2573.798905
709.452180	2574.517269
709.786485	2576.221179
710.120742	2576.475758
710.454949	2575.210428
710.789107	2572.556260
711.123216	2572.334450
711.457275	2577.877198
711.791286	2577.499112
712.125247	2576.397620
712.459159	2579.122363
712.793023	2582.444484
713.126837	2576.997517
713.460602	2576.523648
713.794318	2576.894173
714.127985	2577.272260
714.461602	2573.977866
714.795171	2575.535582
715.128691	2572.798236
715.462162	2572.846127
715.795584	2570.756568
716.128957	2572.316806
716.462281	2570.391085
716.795556	2570.607854
717.128782	2569.491239
717.461960	2569.561815
717.795088	2566.726166
718.128167	2567.036197
718.461198	2563.227605
718.794180	2565.629715
719.127113	2563.731721
719.459997	2563.547718
719.792833	2564.969324
720.125619	2566.007802
720.458357	2565.443192
720.791046	2564.810527
721.123686	2563.845147
721.456278	2562.446226
721.788821	2561.269117
722.121315	2563.701474
722.453761	2562.441185
722.786158	2559.971020
723.118506	2563.376319
723.450805	2563.434292
723.783056	2560.714590
724.115259	2562.279868
724.447412	2562.179045
724.779518	2563.958572
725.111574	2559.877758
725.443582	2564.359344
725.775542	2563.555280
726.107453	2565.677606
726.439315	2563.031000
726.771129	2568.354459
727.102895	2565.609550
727.434612	2563.545198
727.766281	2565.312122
728.097901	2562.915054
728.429473	2561.122923
728.760996	2561.669889
729.092471	2559.587892
729.423897	2566.988306
729.755276	2565.417987
730.086606	2564.150136
730.417887	2567.719273
730.749120	2566.713563
731.080305	2565.995199
731.411442	2567.643656
731.742530	2569.229099
732.073570	2568.460323
732.404562	2570.542319
732.735506	2569.105591
733.066401	2568.417473
733.397249	2569.821434
733.728048	2566.388409
734.058798	2565.342369
734.389501	2560.530588
734.720156	2564.908830
735.050762	2561.533778
735.381320	2560.233160
735.711831	2561.044786
736.042293	2559.426575
736.372707	2560.528067
736.703073	2559.754250
737.033391	2559.305587
737.363661	2560.966648
737.693883	2558.809034
738.024056	2564.243398
738.354182	2562.720969
738.684260	2564.192986
739.014290	2559.313149
739.344272	2561.324570
739.674207	2562.967986
740.004093	2563.661144
740.333931	2562.380691
740.663722	2563.164591
740.993464	2562.020249
741.323159	2562.297512
741.652806	2562.221895
741.982405	2560.283571
742.311956	2559.925649
742.641460	2562.121072
742.970915	2559.038406
743.300323	2560.321380
743.629683	2556.129661
743.958996	2557.609239
744.288260	2556.641338
744.617477	2554.776111
744.946647	2554.697973
745.275768	2556.260731
745.604842	2551.393497
745.933869	2553.077242
746.262847	2551.227138
746.591778	2554.755946
746.920662	2556.117058
747.249498	2558.695608
747.578286	2556.553118
747.907027	2556.409445
748.235720	2555.444064
748.564365	2559.224929
748.892963	2556.424568
749.221514	2556.905998
749.550017	2556.865669
749.878473	2557.573951
750.206881	2557.216029
750.535242	2556.280895
750.863555	2555.257541
751.191821	2555.670916
751.520039	2557.210988
751.848210	2556.260731
752.176334	2557.470607
752.504411	2555.484393
752.832440	2554.211502
753.160421	2555.282747
753.488356	2557.243756
753.816243	2557.568910
754.144082	2555.693601
754.471875	2555.610422
754.799620	2554.244269
755.127318	2552.205122
755.454969	2551.156562
755.782572	2554.171172
756.110129	2555.164280
756.437638	2556.459856
756.765100	2555.386090
757.092515	2553.692263
757.419882	2554.632438
757.747203	2553.808209
758.074477	2557.057233
758.401703	2553.659495
758.728882	2555.111348
759.056014	2554.498847
759.383099	2555.744012
759.710138	2556.270813
760.037129	2556.285936
760.364073	2556.898437
760.690970	2557.498334
761.017820	2556.595967
761.344623	2557.178221
761.671379	2556.500185
761.998088	2551.975750
762.324751	2557.568910
762.651366	2561.513613
762.977935	2577.398289
763.304456	2580.223855
763.630931	2585.325503
763.957359	2577.834348
764.283740	2574.255129
764.610074	2569.014850
764.936362	2563.537636
765.262602	2560.283571
765.588796	2559.993705
765.914943	2554.335010
766.241044	2556.023796
766.567097	2555.302911
766.893104	2555.436502
767.219064	2551.622869
767.544978	2552.421892
767.870845	2550.599515
768.196665	2551.179247
768.522438	2551.602704
768.848165	2549.639175
769.173846	2550.377704
769.499479	2551.411141
769.825066	2548.688918
770.150607	2550.833928
770.476101	2546.347302
770.801548	2552.500030
771.126949	2547.040460
771.452303	2550.712941
771.777611	2547.857127
772.102872	2545.359235
772.428087	2546.243958
772.753256	2549.238403
773.078378	2545.447456
773.403453	2545.606252
773.728482	2544.640871
774.053465	2546.259081
774.378401	2546.740512
774.703291	2546.279246
775.028135	2546.667415
775.352932	2548.141952
775.677683	2548.567930
776.002388	2545.865871
776.327046	2546.861499
776.651658	2544.134235
776.976224	2544.817311
777.300743	2547.156407
777.625216	2546.717826
777.949643	2545.384441
778.274024	2546.289328
778.598359	2541.038967
778.922647	2542.904193
779.246889	2542.417722
779.571086	2538.530993
779.895236	2542.999975
780.219339	2544.560213
780.543397	2543.940151
780.867409	2547.889895
781.191374	2544.048535
781.515294	2545.959133
781.839167	2544.199770
782.162995	2547.305121
782.486776	2542.894111
782.810511	2545.838145
783.134201	2546.256561
783.457844	2545.792775
783.781441	2545.568443
784.104993	2547.073228
784.428498	2544.363607
784.751958	2543.446118
785.075372	2543.083154
785.398739	2542.465613
785.722061	2545.346632
786.045337	2544.335881
786.368568	2547.526932
786.691752	2545.336550
787.014891	2544.754297
787.337983	2548.081458
787.661030	2548.187323
787.984031	2544.991231
788.306987	2549.883671
788.629897	2549.545914
788.952760	2547.214380
789.275579	2549.876109
789.598351	2549.770245
789.921078	2545.802857
790.243759	2548.903167
790.566395	2544.703885
790.888984	2543.410829
791.211529	2546.911911
791.534027	2545.951571
791.856480	2544.144317
792.178888	2546.889226
792.501249	2544.272867
792.823566	2546.049873
793.145836	2546.037271
793.468062	2545.974256
793.790241	2545.233207
794.112375	2546.891746
794.434464	2545.313865
794.756507	2544.555171
795.078505	2547.113557
795.400457	2543.173895
795.722364	2540.537372
796.044226	2543.574667
796.366042	2543.652805
796.687812	2545.770089
797.009538	2545.460058
797.331218	2546.856458
797.652852	2550.798640
797.974442	2546.909390
798.295986	2546.826211
798.617484	2543.849410
798.938938	2545.618855
799.260346	2544.787064
799.581709	2544.073741
799.903026	2544.885367
800.224299	2545.228165
800.545526	2542.392516
800.866708	2544.794626
801.187845	2542.342105
801.508936	2543.766231
801.829983	2542.241282
802.150984	2540.948226
802.471940	2544.943340
802.792851	2542.531148
803.113717	2542.637012
803.434538	2542.999975
803.755314	2545.858310
804.076045	2544.280428
804.396731	2545.069369
804.717372	2541.626261
805.037967	2543.057949
805.358518	2544.295552
805.679024	2544.595501
805.999485	2541.280942
806.319901	2543.143648
806.640272	2542.296734
806.960598	2542.498381
807.280879	2544.842517
807.601115	2547.186654
807.921306	2543.791437
808.241453	2544.676159
808.561554	2540.829759
808.881611	2545.770089
809.201623	2547.000131
809.521590	2546.112888
809.841513	2542.584080
810.161390	2544.366128
810.481223	2545.407126
810.801011	2542.420243
811.120755	2543.362938
811.440453	2543.219266
811.760107	2542.977290
812.079716	2537.154757
812.399281	2537.321116
812.718801	2539.687937
813.038276	2537.442103
813.357707	2544.514842
813.677093	2543.373021
813.996434	2545.109698
814.315731	2544.295552
814.634983	2542.551313
814.954191	2543.683052
815.273354	2543.085675
815.592473	2540.968390
815.911547	2545.613814
816.230577	2543.539379
816.549562	2543.433515
816.868502	2544.446787
817.187399	2545.865871
817.506250	2549.175389
817.825058	2546.874102
818.143821	2545.495347
818.462539	2547.708413
818.781213	2547.070707
819.099843	2549.737478
819.418429	2550.778476
819.736970	2551.219577
820.055466	2555.476831
820.373919	2560.623849
820.692327	2562.307595
821.010691	2572.052145
821.329011	2589.502099
821.647286	2627.887965
821.965517	2668.111332
822.283704	2694.285002
822.601847	2700.788091
822.919945	2681.606500
823.237999	2659.516164
823.556010	2637.733338
823.873976	2616.996552
824.191897	2602.054572
824.509775	2591.808427
824.827609	2581.718557
825.145398	2577.201684
825.463144	2574.597928
825.780845	2575.676735
826.098502	2582.746953
826.416116	2592.327666
826.733685	2603.866867
827.051210	2608.930706
827.368692	2604.249995
827.686129	2594.316401
828.003522	2583.460276
828.320872	2570.154151
828.638177	2560.714590
828.955439	2558.481359
829.272656	2554.612273
829.589830	2547.789072
829.906960	2551.171686
830.224046	2546.609442
830.541088	2547.400903
830.858086	2547.206818
831.175041	2544.182126
831.491952	2547.945347
831.808819	2548.918290
832.125642	2547.794113
832.442421	2551.469114
832.759157	2553.407438
833.075849	2562.589899
833.392497	2569.934860
833.709101	2575.853175
834.025662	2578.676221
834.342179	2569.501321
834.658653	2565.990158
834.975083	2559.562686
835.291469	2561.110321
835.607811	2549.495502
835.924110	2550.551624
836.240366	2545.439894
836.556578	2543.136087
836.872746	2546.135573
837.188871	2541.732125
837.504952	2543.161292
837.820990	2543.430994
838.136984	2541.021323
838.452935	2541.593493
838.768842	2541.701878
839.084706	2541.318751
839.400526	2545.258412
839.716303	2548.139432
840.032037	2555.179403
840.347727	2557.664692
840.663373	2553.674619
840.978977	2547.118598
841.294537	2545.873433
841.610054	2540.915458
841.925527	2542.720191
842.240957	2541.706919
842.556344	2541.875798
842.871687	2540.088709
843.186987	2538.314223
843.502244	2537.099305
843.817458	2538.725077
844.132629	2537.245498
844.447756	2540.847403
844.762840	2535.425642
845.077881	2535.886907
845.392879	2535.115611
845.707833	2536.063348
846.022745	2533.235260
846.337613	2534.863553
846.652438	2536.315405
846.967221	2536.791794
847.281960	2537.832793
847.596656	2535.629808
847.911309	2535.992772
848.225919	2534.954294
848.540485	2537.308513
848.855009	2535.042514
849.169490	2537.941177
849.483928	2536.479243
849.798323	2537.318595
850.112675	2536.874973
850.426984	2536.146527
850.741251	2536.600231
851.055474	2537.172402
851.369654	2535.652494
851.683792	2539.004861
851.997887	2534.548481
852.311938	2536.113759
852.625947	2535.662576
852.939914	2536.839685
853.253837	2539.728267
853.567718	2533.956145
853.881555	2536.817000
854.195350	2536.164171
854.509103	2536.295241
854.822812	2537.225334
855.136479	2535.917154
855.450103	2533.290713
855.763685	2537.643749
856.077224	2535.370189
856.390720	2537.164840
856.704173	2536.822041
857.017584	2536.403626
857.330953	2537.832793
857.644278	2536.776671
857.957561	2538.972093
858.270802	2536.149047
858.584000	2539.042670
858.897155	2535.753317
859.210268	2538.253729
859.523339	2535.307175
859.836367	2536.373379
860.149352	2536.960673
860.462295	2536.025539
860.775195	2534.735004
861.088054	2533.608306
861.400869	2535.039993
861.713642	2532.988244
862.026373	2536.532175
862.339062	2536.895138
862.651708	2535.367668
862.964312	2536.711136
863.276873	2537.563091
863.589392	2535.992772
863.901869	2536.925385
864.214303	2535.344983
864.526696	2537.585776
864.839045	2537.547967
865.151353	2541.114584
865.463619	2539.967721
865.775842	2538.964532
866.088023	2537.588297
866.400162	2541.754810
866.712258	2536.864891
867.024313	2538.707433
867.336325	2536.156609
867.648296	2537.086702
867.960224	2537.172402
868.272110	2538.233564
868.583954	2538.732639
868.895755	2537.363965
869.207515	2538.452855
869.519233	2537.807587
869.830909	2536.912782
870.142542	2539.735828
870.454134	2538.619213
870.765684	2540.880170
871.077191	2536.748945
871.388657	2540.625592
871.700081	2538.581404
872.011463	2541.041487
872.322803	2539.871939
872.634101	2540.625592
872.945357	2538.868750
873.256571	2540.320602
873.567744	2538.883873
873.878874	2540.514687
874.189963	2540.038298
874.501010	2543.902342
874.812015	2540.754141
875.122979	2541.507794
875.433900	2538.717515
875.744780	2540.595345
876.055618	2541.908566
876.366415	2539.972763
876.677169	2543.864533
876.987882	2537.023688
877.298554	2536.617875
877.609183	2538.331867
877.919771	2538.888914
878.230317	2539.093081
878.540822	2546.236396
878.851285	2547.105995
879.161707	2546.102806
879.472087	2551.113712
879.782425	2554.640000
880.092722	2560.482697
880.402977	2572.810839
880.713191	2593.358582
881.023363	2613.414812
881.333494	2629.493573
881.643583	2630.753861
881.953631	2629.750671
882.263637	2624.870834
882.573602	2617.082252
882.883526	2605.391816
883.193408	2593.840012
883.503248	2587.178127
883.813048	2580.914493
884.122806	2576.168247
884.432522	2567.326063
884.742197	2561.148129
885.051831	2562.267265
885.361424	2553.294012
885.670975	2553.450287
885.980485	2549.016593
886.289954	2549.692107
886.599382	2547.221942
886.908768	2546.954761
887.218113	2544.547610
887.527417	2546.299411
887.836680	2543.297403
888.145901	2543.695655
888.455082	2542.349667
888.764221	2544.494678
889.073319	2541.225489
889.382376	2541.976621
889.691392	2540.449152
890.000366	2540.461754
890.309300	2541.684234
890.618193	2541.621220
890.927044	2539.100643
891.235855	2540.781868
891.544625	2545.041643
891.853353	2545.800336
892.162041	2542.790768
892.470687	2546.175902
892.779293	2548.940975
893.087858	2542.901673
893.396381	2546.248999
893.704864	2553.783003
894.013306	2550.614638
894.321707	2565.770867
894.630068	2570.254974
894.938387	2572.722618
895.246665	2571.026270
895.554903	2567.825137
895.863100	2558.683005
896.171256	2561.440516
896.479371	2554.758467
896.787446	2552.691594
897.095480	2548.439380
897.403473	2548.179761
897.711425	2544.592980
898.019336	2545.591128
898.327207	2545.528114
898.635038	2546.251520
898.942827	2544.903011
899.250576	2543.534338
899.558284	2541.754810
899.865952	2543.186498
900.173579	2544.550130
900.481165	2538.999820
900.788711	2542.435366
901.096216	2541.454862
901.403681	2542.790768
901.711105	2540.940664
902.018489	2540.502084
902.325832	2543.075593
902.633135	2540.892773
902.940397	2543.531817
903.247619	2548.157076
903.554800	2549.470296
903.861941	2564.258521
904.169041	2577.945254
904.476101	2584.188723
904.783121	2580.833835
905.090100	2577.325192
905.397039	2567.424366
905.703938	2562.693243
906.010796	2559.134188
906.317614	2551.499361
906.624391	2547.650440
906.931129	2547.912580
907.237826	2543.486447
907.544483	2540.423946
907.851099	2540.630633
908.157675	2539.924872
908.464211	2539.327495
908.770707	2532.312729
909.077163	2535.380271
909.383578	2532.673172
909.689954	2534.591331
909.996289	2531.929602
910.302584	2535.108049
910.608839	2537.527803
910.915054	2535.856660
911.221229	2534.747607
911.527363	2537.691640
911.833458	2537.222813
912.139513	2537.179963
912.445527	2539.398071
912.751502	2541.444779
913.057436	2537.696682
913.363331	2540.600386
913.669186	2539.924872
913.975000	2542.221117
914.280775	2543.990562
914.586510	2548.194884
914.892205	2549.797971
915.197859	2556.497665
915.503475	2563.174673
915.809050	2573.360324
916.114585	2576.745459
916.420081	2578.948443
916.725536	2582.721747
917.030952	2576.241344
917.336328	2566.706001
917.641665	2564.742472
917.946961	2561.649724
918.252218	2558.564538
918.557435	2552.285781
918.862612	2551.300235
919.167750	2547.272353
919.472848	2546.117929
919.777906	2543.970398
920.082925	2545.160110
920.387904	2541.530479
920.692843	2541.888401
920.997743	2540.365972
921.302603	2539.231713
921.607423	2541.563247
921.912204	2537.580735
922.216946	2537.210210
922.521647	2537.984027
922.826310	2538.329346
923.130932	2538.951929
923.435516	2535.856660
923.740059	2538.725077
924.044564	2533.515044
924.349028	2537.729449
924.653454	2530.056813
924.957840	2535.579397
925.262186	2533.159643
925.566493	2531.743079
925.870761	2528.945238
926.174989	2532.229550
926.479178	2530.205527
926.783328	2534.586290
927.087438	2534.399767
927.391509	2533.265507
927.695541	2533.245343
927.999533	2533.018491
928.303486	2533.595703
928.607400	2534.719880
928.911275	2535.942360
929.215110	2535.528985
929.518906	2532.945394
929.822663	2534.538399
930.126381	2532.277441
930.430060	2533.641073
930.733699	2534.674510
931.037299	2530.500434
931.340861	2533.515044
931.644383	2532.547143
931.947866	2531.957328
932.251309	2534.740045
932.554714	2532.090918
932.858080	2533.000847
933.161407	2533.925898
933.464694	2529.459436
933.767943	2535.682741
934.071153	2529.862728
934.374323	2532.141330
934.677455	2536.118800
934.980548	2533.575538
935.283602	2532.340456
935.586617	2533.573018
935.889593	2532.466484
936.192530	2531.304498
936.495428	2530.913809
936.798287	2531.344828
937.101108	2531.707791
937.403890	2531.813655
937.706632	2533.807431
938.009336	2536.093595
938.312002	2535.937319
938.614628	2534.611495
938.917216	2535.917154
939.219765	2533.827596
939.522275	2536.471681
939.824747	2533.903213
940.127179	2533.714170
940.429573	2531.813655
940.731929	2532.484128
941.034246	2530.860877
941.336524	2531.014632
941.638763	2534.251053
941.940964	2535.355066
942.243126	2535.236598
942.545250	2533.578059
942.847335	2532.053110
943.149381	2536.378420
943.451389	2531.014632
943.753359	2535.039993
944.055290	2531.715352
944.357182	2532.975641
944.659036	2533.462112
944.960851	2531.818696
945.262628	2532.416073
945.564367	2531.440610
945.866067	2531.528830
946.167729	2532.675692
946.469352	2531.296937
946.770937	2530.505476
947.072484	2531.370033
947.373992	2530.631504
947.675462	2530.513037
947.976893	2533.953625
948.278286	2530.878521
948.579641	2532.501772
948.880958	2527.541277
949.182236	2534.220806
949.483476	2532.413552
949.784678	2535.798687
950.085841	2533.237781
950.386967	2532.758871
950.688054	2532.322812
950.989103	2532.403470
951.290114	2532.262318
951.591087	2531.488501
951.892021	2530.946577
952.192917	2533.915816
952.493776	2532.889941
952.794596	2532.113604
953.095378	2530.339118
953.396122	2533.673841
953.696828	2534.021680
953.997496	2531.753161
954.298126	2531.680064
954.598718	2534.372041
954.899272	2531.591844
955.199788	2530.571011
955.500266	2533.895652
955.800706	2530.089580
956.101108	2527.269055
956.401472	2528.370547
956.701798	2527.311905
957.002087	2530.041689
957.302337	2531.105373
957.602550	2531.322143
957.902724	2528.554549
958.202861	2528.126051
958.502960	2527.780732
958.803022	2531.818696
959.103045	2529.126720
959.403031	2531.705270
959.702979	2528.544467
960.002889	2530.439941
960.302762	2527.773170
960.602596	2529.824920
960.902393	2529.169570
961.202153	2528.816689
961.501875	2527.049765
961.801559	2528.138654
962.101205	2527.057326
962.400814	2528.264683
962.700385	2528.284847
962.999918	2527.387522
963.299414	2527.090094
963.598873	2529.968593
963.898293	2529.305681
964.197677	2530.339117
964.497022	2528.577234
964.796331	2526.419620
965.095601	2528.428520
965.394835	2529.925743
965.694030	2527.697553
965.993189	2529.648479
966.292309	2528.574714
966.591393	2528.988088
966.890439	2528.052954
967.189447	2529.323325
967.488419	2529.378778
967.787353	2529.530012
968.086249	2527.621936
968.385108	2526.225536
968.683930	2526.863242
968.982714	2525.784435
969.281462	2528.582275
969.580172	2529.063706
969.878844	2529.625794
970.177480	2525.572707
970.476078	2526.966586
970.774639	2528.569672
971.073162	2524.579599
971.371649	2524.143539
971.670098	2524.604805
971.968510	2528.796524
972.266885	2524.400638
972.565223	2526.520443
972.863524	2528.516740
973.161788	2530.749972
973.460014	2528.604961
973.758204	2530.868439
974.056356	2527.954652
974.354471	2528.032790
974.652550	2528.181504
974.950591	2525.736544
975.248595	2529.051103
975.546563	2527.944569
975.844493	2527.979858
976.142386	2527.828623
976.440243	2527.180835
976.738062	2528.945238
977.035845	2527.821061
977.333590	2528.499096
977.631299	2527.982378
977.928971	2530.876000
978.226606	2528.730989
978.524204	2530.565969
978.821765	2529.923222
979.119290	2527.190917
979.416777	2526.931297
979.714228	2527.294261
980.011642	2529.648479
980.309020	2528.247039
980.606360	2527.662265
980.903664	2526.507841
981.200931	2528.743592
981.498162	2528.345341
981.795356	2528.259642
982.092513	2529.303160
982.389633	2526.903571
982.686717	2529.189734
982.983764	2531.216278
983.280775	2531.498583
983.577749	2528.892306
983.874686	2528.393232
984.171587	2528.713345
984.468451	2531.738038
984.765279	2530.215609
985.062070	2528.625125
985.358824	2529.514889
985.655543	2529.189734
985.952224	2526.838036
986.248869	2529.285516
986.545478	2524.204033
986.842050	2524.186389
987.138586	2524.927439
987.435086	2524.811492
987.731549	2523.765453
988.027975	2527.884076
988.324366	2525.791997
988.620719	2525.860052
988.917037	2528.839374
989.213318	2527.057326
989.509563	2527.168232
989.805772	2524.723272
990.101944	2527.246370
990.398080	2527.180835
990.694180	2526.255783
990.990244	2524.874507
991.286271	2526.840557
991.582262	2526.028931
991.878217	2527.775691
992.174136	2525.912984
992.470019	2525.676050
992.765865	2526.371729
993.061676	2525.638242
993.357450	2528.410876
993.653188	2526.689322
993.948890	2528.499096
994.244556	2523.846111
994.540186	2527.873993
994.835780	2526.487676
995.131337	2530.021525
995.426859	2525.928108
995.722345	2527.563962
996.017795	2524.541791
996.313208	2527.541277
996.608586	2526.462470
996.903928	2527.974816
997.199234	2525.371060
997.494504	2526.336441
997.789738	2528.443644
998.084936	2528.552028
998.380099	2526.296112
998.675225	2528.068078
998.970316	2525.602953
999.265371	2528.201668
999.560390	2526.059178
999.855373	2526.270906
1000.150320	2527.574045
1000.445232	2528.398273
1000.740108	2523.972140
1001.034948	2527.942049
1001.329752	2526.187727
1001.624521	2526.868283
1001.919254	2523.112623
1002.213951	2524.234280
1002.508613	2521.242355
1002.803239	2524.554393
1003.097829	2522.086749
1003.392384	2528.415917
1003.686903	2526.018849
1003.981386	2528.778880
1004.275834	2522.144722
1004.570246	2526.359127
1004.864623	2524.685463
1005.158964	2526.568334
1005.453270	2523.848632
1005.747540	2527.448016
1006.041775	2528.206709
1006.335974	2527.122861
1006.630138	2523.689836
1006.924266	2524.524147
1007.218359	2526.883407
1007.512416	2526.177645
1007.806438	2524.511544
1008.100425	2523.241173
1008.394376	2522.401821
1008.688292	2528.226874
1008.982172	2524.347706
1009.276017	2526.177645
1009.569827	2526.812830
1009.863602	2525.986081
1010.157341	2527.279137
1010.451045	2524.919877
1010.744714	2524.055319
1011.038347	2525.076153
1011.331945	2526.288550
1011.625508	2523.815864
1011.919036	2524.957686
1012.212528	2526.006246
1012.505986	2525.260155
1012.799408	2528.448685
1013.092795	2525.393746
1013.386147	2527.445495
1013.679464	2523.987264
1013.972745	2524.410721
1014.265992	2525.872655
1014.559204	2527.087573
1014.852380	2524.826616
1015.145521	2523.974661
1015.438628	2523.503313
1015.731699	2527.422810
1016.024736	2524.748478
1016.317737	2525.275278
1016.610703	2527.183355
1016.903635	2522.762263
1017.196531	2523.218488
1017.489393	2523.309228
1017.782219	2521.970802
1018.075011	2524.456091
1018.367768	2527.823582
1018.660490	2526.132275
1018.953177	2526.132275
1019.245829	2526.132275
