Dividing Wavelength (nm)	Counts (n)	Blue Motor Position (mm): 0.000000	Red Motor Position (mm): 8.900000	
326.493990	2129.839609
326.888308	2129.839609
327.282561	2129.839609
327.676750	2096.230236
328.070874	2095.458940
328.464933	2098.861719
328.858929	2103.872626
329.252859	2112.924017
329.646726	2125.279885
330.040528	2139.354787
330.434265	2155.022693
330.827938	2173.443069
331.221547	2191.369412
331.615091	2210.513194
332.008571	2229.629249
332.401986	2249.970305
332.795338	2268.151227
333.188625	2288.275513
333.581847	2306.448872
333.975006	2323.583754
334.368100	2341.487412
334.761129	2361.883921
335.154095	2375.973946
335.546996	2395.422717
335.939833	2409.568195
336.332606	2422.985226
336.725315	2434.925199
337.117960	2446.194698
337.510540	2453.015379
337.903056	2465.010805
338.295508	2475.239306
338.687896	2483.411016
339.080220	2491.323107
339.472480	2493.798314
339.864676	2498.819303
340.256807	2503.580673
340.648875	2509.766169
341.040879	2508.072341
341.432818	2515.205574
341.824694	2511.661643
342.216506	2512.397651
342.608253	2516.725482
342.999937	2512.316993
343.391557	2516.077693
343.783113	2510.209790
344.174605	2513.645337
344.566033	2506.749038
344.957397	2509.917403
345.348697	2503.381547
345.739934	2505.531599
346.131106	2503.825169
346.522215	2502.761485
346.913260	2497.455671
347.304241	2498.327791
347.695159	2494.461226
348.086012	2495.575321
348.476802	2493.009373
348.867528	2492.429641
349.258191	2489.566265
349.648789	2488.205154
350.039324	2487.108703
350.429796	2486.261789
350.820203	2486.332365
351.210548	2483.945379
351.600828	2485.016624
351.991045	2481.749956
352.381198	2482.579226
352.771288	2482.685090
353.161314	2479.312558
353.551276	2482.864051
353.941175	2480.560244
354.331010	2481.389514
354.720782	2478.853813
355.110490	2481.376911
355.500135	2479.451190
355.889717	2480.719040
356.279235	2481.444966
356.668689	2484.436891
357.058080	2480.046046
357.447408	2482.213742
357.836672	2480.121663
358.225873	2480.550162
358.615010	2479.841879
359.004084	2482.004534
359.393095	2483.910091
359.782043	2482.201139
360.170927	2483.489154
360.559748	2486.922180
360.948505	2490.193889
361.337199	2488.578199
361.725830	2489.752788
362.114398	2490.876965
362.502903	2487.474186
362.891344	2491.701194
363.279722	2488.416882
363.668037	2490.385453
364.056289	2490.176245
364.444478	2492.099445
364.832603	2492.217912
365.220665	2493.016935
365.608665	2492.162459
365.996601	2493.705053
366.384474	2494.650269
366.772284	2496.656648
367.160031	2496.064313
367.547715	2500.208141
367.935336	2500.641680
368.322893	2502.257370
368.710388	2506.665859
369.097820	2513.355470
369.485189	2516.188599
369.872495	2524.859383
370.259738	2527.863911
370.646918	2538.047042
371.034035	2543.529297
371.421090	2553.442726
371.808081	2565.070147
372.195010	2570.900241
372.581875	2585.111254
372.968678	2598.193048
373.355418	2607.004985
373.742096	2626.917543
374.128710	2638.663431
374.515262	2654.792603
374.901751	2671.312464
375.288177	2682.718075
375.674540	2702.063503
376.060841	2722.916236
376.447079	2737.268401
376.833254	2758.295053
377.219367	2763.081629
377.605417	2797.089253
377.991404	2803.100829
378.377329	2821.372491
378.763191	2834.081240
379.148991	2860.325487
379.534727	2879.479351
379.920402	2895.094325
380.306013	2901.650345
380.691563	2934.347269
381.077049	2944.522838
381.462474	2950.216821
381.847835	2969.486632
382.233134	2975.974597
382.618371	2962.519757
383.003545	2999.952845
383.388657	2993.646362
383.773706	2997.878410
384.158693	2997.283554
384.543618	2998.863956
384.928480	3004.568022
385.313280	3014.209228
385.698017	2994.856239
386.082692	3004.862929
386.467305	2988.895074
386.851856	2985.512460
387.236344	2974.794967
387.620770	2967.104687
388.005133	2957.168573
388.389435	2946.761110
388.773674	2928.650765
389.157851	2920.723551
389.541965	2904.067578
389.926018	2873.114894
390.310008	2873.046838
390.693936	2855.037316
391.077802	2844.155986
391.461606	2816.822849
391.845348	2811.832107
392.229027	2790.233283
392.612645	2775.288783
392.996200	2771.344080
393.379694	2758.453850
393.763125	2748.016141
394.146494	2721.870196
394.529801	2713.096068
394.913047	2698.743903
395.296230	2680.036181
395.679351	2668.638132
396.062410	2653.010555
396.445408	2636.314254
396.828343	2628.976854
397.211217	2611.317692
397.594028	2593.696339
397.976778	2587.110072
398.359466	2578.461972
398.742092	2569.090467
399.124656	2563.114179
399.507158	2560.414641
399.889598	2555.295350
400.271977	2549.122457
400.654294	2545.810419
401.036549	2541.754810
401.418742	2536.680889
401.800874	2533.814993
402.182944	2534.515713
402.564952	2530.245856
402.946898	2528.241997
403.328783	2525.421472
403.710606	2524.672861
404.092367	2523.445340
404.474067	2522.774866
404.855705	2521.938035
405.237282	2520.675226
405.618797	2520.488703
406.000250	2522.608508
406.381642	2522.714372
406.762972	2519.288908
407.144240	2521.111285
407.525447	2521.655730
407.906593	2518.464680
408.287677	2519.697242
408.668700	2519.425019
409.049661	2518.389062
409.430560	2518.625997
409.811399	2520.834022
410.192176	2521.159176
410.572891	2520.163548
410.953545	2518.996521
411.334138	2519.853517
411.714669	2519.427540
412.095139	2521.688497
412.475547	2519.929135
412.855894	2518.862931
413.236180	2519.298991
413.616405	2518.436953
413.996568	2519.137674
414.376670	2520.304701
414.756711	2520.881913
415.136691	2517.965605
415.516609	2517.557272
415.896466	2521.922911
416.276262	2522.767304
416.655997	2519.450225
417.035670	2518.230266
417.415283	2523.294105
417.794834	2516.163393
418.174324	2519.727489
418.553753	2518.956192
418.933121	2524.539270
419.312428	2520.095493
419.691674	2523.601615
420.070859	2521.191944
420.449983	2522.467356
420.829045	2523.808303
421.208047	2523.238652
421.586988	2522.855525
421.965867	2523.737727
422.344686	2523.079856
422.723444	2524.390556
423.102141	2523.863755
423.480777	2526.543129
423.859352	2525.391225
424.237866	2525.771832
424.616319	2523.881399
424.994712	2524.647655
425.373044	2523.720083
425.751314	2526.079342
426.129524	2524.201513
426.507673	2524.735875
426.885762	2525.534898
427.263789	2526.502799
427.641756	2522.618590
428.019662	2526.149919
428.397508	2523.783097
428.775292	2527.616894
429.153016	2524.942562
429.530679	2525.915505
429.908282	2527.100176
430.285824	2528.305012
430.663305	2527.505989
431.040726	2526.376771
431.418086	2526.081863
431.795385	2526.192768
432.172624	2527.596730
432.549802	2528.262162
432.926920	2526.580937
433.303977	2527.027079
433.680974	2527.327028
434.057910	2526.182686
434.434786	2527.324507
434.811601	2525.797038
435.188355	2528.088242
435.565050	2526.220495
435.941683	2525.713859
436.318257	2526.812830
436.694770	2524.526667
437.071222	2524.577079
437.447614	2521.436440
437.823946	2525.466842
438.200218	2526.013807
438.576429	2529.086391
438.952580	2525.565145
439.328670	2527.526154
439.704700	2526.696884
440.080670	2529.567821
440.456580	2524.987933
440.832429	2530.681916
441.208218	2526.722090
441.583947	2531.395239
441.959616	2528.640249
442.335224	2527.745444
442.710773	2527.352234
443.086261	2531.241484
443.461689	2529.454395
443.837057	2528.607481
444.212365	2530.429858
444.587612	2531.798532
444.962800	2530.129910
445.337927	2529.875331
445.712995	2531.483459
446.088002	2530.344159
446.462949	2527.715197
446.837837	2531.680064
447.212664	2532.063192
447.587431	2529.802235
447.962139	2530.946577
448.336786	2536.396064
448.711374	2533.479756
449.085901	2532.612678
449.460369	2531.034797
449.834776	2529.409025
450.209124	2531.848943
450.583412	2533.094108
450.957640	2531.294416
451.331808	2533.532688
451.705917	2533.749458
452.079965	2532.196783
452.453954	2531.969931
452.827883	2533.436907
453.201752	2532.690816
453.575562	2530.755013
453.949311	2531.987575
454.323001	2532.461443
454.696632	2533.812473
455.070202	2533.865405
455.443713	2533.033614
455.817164	2530.865918
456.190556	2530.883562
456.563888	2530.737369
456.937160	2529.618232
457.310373	2532.239632
457.683526	2534.543440
458.056619	2531.100332
458.429653	2531.523789
458.802628	2532.673172
459.175542	2531.985054
459.548398	2535.181146
459.921194	2534.969417
460.293930	2533.371372
460.666607	2532.902544
461.039224	2537.464788
461.411782	2535.614685
461.784280	2537.283307
462.156719	2539.226672
462.529099	2538.162988
462.901419	2534.447658
463.273680	2536.353214
463.645882	2533.883049
464.018024	2536.383461
464.390106	2533.474715
464.762130	2537.603420
465.134094	2534.543440
465.505999	2536.930426
465.877845	2538.266332
466.249631	2539.950077
466.621358	2540.323123
466.993026	2542.415202
467.364634	2542.594162
467.736184	2540.411343
468.107674	2540.401261
468.479105	2536.688451
468.850477	2537.424459
469.221790	2538.185673
469.593043	2536.627957
469.964238	2537.676517
470.335373	2538.273894
470.706449	2534.740045
471.077467	2534.059489
471.448425	2537.495035
471.819324	2539.819007
472.190164	2538.896476
472.560945	2538.180632
472.931667	2537.696682
473.302330	2536.179294
473.672934	2535.017308
474.043479	2534.094777
474.413965	2536.428831
474.784393	2533.799870
475.154761	2536.496887
475.525070	2535.788605
475.895321	2534.770292
476.265513	2530.626463
476.635645	2540.043339
477.005719	2536.454037
477.375734	2538.470499
477.745691	2538.462937
478.115588	2539.788760
478.485427	2538.798174
478.855207	2538.712474
479.224928	2541.243133
479.594591	2540.204656
479.964194	2543.098278
480.333739	2542.241282
480.703226	2543.766231
481.072653	2542.127856
481.442022	2541.396888
481.811333	2541.293545
482.180584	2540.744059
482.549777	2542.478216
482.918912	2539.428318
483.287988	2542.619368
483.657005	2540.388658
484.025964	2542.165664
484.394864	2539.947557
484.763706	2540.570139
485.132489	2542.037115
485.501213	2539.939995
485.869879	2542.135418
486.238487	2539.009902
486.607036	2542.929399
486.975527	2539.272042
487.343959	2542.261446
487.712333	2540.005530
488.080648	2538.704912
488.448905	2543.267157
488.817104	2538.485622
489.185244	2541.222969
489.553326	2541.848072
489.921350	2543.637681
490.289315	2545.558361
490.657222	2545.679349
491.025070	2542.591642
491.392861	2544.850079
491.760593	2542.861344
492.128267	2544.008206
492.495883	2543.393185
492.863440	2542.193391
493.230939	2542.624409
493.598380	2543.133566
493.965763	2537.179963
494.333088	2539.488812
494.700354	2537.903369
495.067563	2541.669111
495.434713	2537.888245
495.801805	2538.750283
496.168839	2544.580377
496.535815	2545.064328
496.902733	2541.530479
497.269593	2542.321940
497.636395	2541.389327
498.003139	2544.623227
498.369825	2542.853782
498.736453	2543.065510
499.103023	2539.977804
499.469535	2540.920499
499.835989	2542.324461
500.202385	2542.011909
500.568723	2541.744728
500.935003	2545.155069
501.301226	2542.064841
501.667390	2541.858154
502.033497	2542.579039
502.399546	2545.021478
502.765537	2542.558874
503.131470	2540.865047
503.497345	2542.795809
503.863163	2544.673638
504.228923	2542.427804
504.594625	2541.843031
504.960269	2541.500232
505.325856	2545.717157
505.691385	2541.291024
506.056856	2543.940151
506.422270	2541.858154
506.787625	2543.405788
507.152924	2541.832948
507.518164	2542.815973
507.883347	2538.800694
508.248472	2542.145500
508.613540	2543.814122
508.978550	2543.017619
509.343503	2544.277908
509.708398	2543.168854
510.073236	2543.458720
510.438016	2546.823691
510.802738	2540.877650
511.167403	2545.772610
511.532010	2542.251364
511.896561	2546.914431
512.261053	2544.567774
512.625488	2538.795653
512.989866	2541.233051
513.354186	2541.258257
513.718449	2539.902186
514.082655	2543.862013
514.446803	2545.200439
514.810894	2544.701365
515.174927	2547.093392
515.538904	2542.107691
515.902822	2543.607434
516.266684	2542.873947
516.630488	2543.746066
516.994235	2544.086344
517.357925	2544.613145
517.721558	2543.095757
518.085133	2544.635830
518.448651	2545.157589
518.812112	2544.232537
519.175516	2544.850079
519.538863	2546.463248
519.902152	2543.970397
520.265385	2545.137425
520.628560	2544.610624
520.991678	2542.304296
521.354739	2546.037271
521.717743	2542.624409
522.080690	2545.296221
522.443580	2542.551313
522.806413	2545.162630
523.169189	2546.216232
523.531908	2544.368649
523.894569	2544.114070
524.257174	2546.564071
524.619722	2544.542568
524.982213	2545.989380
525.344647	2545.570964
525.707025	2546.024668
526.069345	2545.026519
526.431608	2546.569112
526.793815	2544.555171
527.155964	2544.282949
527.518057	2547.637837
527.880093	2543.942671
528.242072	2546.715306
528.603995	2547.206818
528.965860	2546.677497
529.327669	2544.136756
529.689421	2545.293700
530.051117	2545.306303
530.412755	2542.821014
530.774337	2546.576674
531.135862	2547.726057
531.497331	2545.291180
531.858743	2539.430838
532.220098	2542.626930
532.581396	2540.184491
532.942638	2542.536189
533.303824	2543.887218
533.664953	2545.873433
534.026025	2545.797816
534.387040	2547.274874
534.747999	2546.254040
535.108902	2547.816798
535.469748	2543.650284
535.830537	2545.996941
536.191270	2546.465769
536.551947	2546.702703
536.912567	2543.889739
537.273131	2546.712785
537.633638	2546.359904
537.994089	2546.795964
538.354483	2545.213042
538.714821	2544.172044
539.075103	2544.320758
539.435328	2547.446273
539.795497	2545.281098
540.155609	2546.299411
540.515665	2545.283618
540.875665	2546.417878
541.235609	2544.189688
541.595496	2547.141283
541.955328	2547.133722
542.315102	2542.929399
542.674821	2545.351674
543.034483	2547.080789
543.394090	2542.999975
543.753640	2546.080120
544.113134	2545.364277
544.472571	2547.796633
544.831953	2544.905532
545.191278	2546.760676
545.550548	2545.344112
545.909761	2544.161961
546.268918	2545.291180
546.628019	2545.565923
546.987064	2547.017775
547.346053	2545.369318
547.704986	2543.730943
548.063863	2546.949719
548.422684	2545.384441
548.781449	2546.778320
549.140158	2544.217414
549.498811	2545.457538
549.857408	2544.315717
550.215949	2544.451828
550.574434	2542.994934
550.932864	2544.252702
551.291237	2542.516025
551.649555	2547.705892
552.007817	2544.277908
552.366022	2546.052394
552.724173	2540.872608
553.082267	2546.160779
553.440305	2546.979966
553.798288	2546.233876
554.156215	2544.988711
554.514086	2545.253371
554.871902	2546.203629
555.229661	2545.442414
555.587365	2549.326623
555.945014	2548.724206
556.302606	2547.274874
556.660143	2545.674307
557.017625	2547.461397
557.375050	2545.865871
557.732421	2546.405275
558.089735	2546.858979
558.446994	2548.078938
558.804197	2549.540873
559.161345	2543.983000
559.518437	2545.664225
559.875474	2545.328988
560.232455	2546.828732
560.589381	2545.109698
560.946251	2549.621531
561.303065	2549.266130
561.659825	2546.667415
562.016528	2545.099616
562.373177	2545.422250
562.729770	2545.384441
563.086307	2546.090203
563.442789	2544.824873
563.799216	2546.538865
564.155587	2547.685728
564.511904	2545.780172
564.868164	2547.095913
565.224370	2547.267312
565.580520	2548.242775
565.936615	2546.884184
566.292654	2546.422919
566.648638	2544.204811
567.004567	2547.025337
567.360441	2546.155738
567.716260	2545.477702
568.072023	2546.813608
568.427732	2540.227341
568.783385	2541.475026
569.138982	2541.147351
569.494525	2543.685572
569.850013	2543.055428
570.205445	2546.223793
570.560823	2545.633978
570.916145	2544.313196
571.271412	2544.782023
571.626625	2547.542055
571.981782	2545.951571
572.336884	2547.786551
572.691931	2546.309493
573.046923	2544.512322
573.401860	2546.798485
573.756743	2545.339071
574.111570	2545.392003
574.466342	2546.700182
574.821059	2547.259750
575.175722	2547.622713
575.530330	2547.922662
575.884882	2547.295038
576.239380	2549.140101
576.593823	2549.054401
576.948211	2544.053577
577.302544	2550.108002
577.656823	2547.307641
578.011047	2545.031560
578.365216	2544.414019
578.719330	2547.625234
579.073389	2545.056766
579.427394	2544.983669
579.781344	2547.597508
580.135239	2546.433001
580.489080	2546.652291
580.842866	2544.817311
581.196597	2549.840821
581.550273	2545.170192
581.903895	2545.976777
582.257463	2543.340253
582.610975	2544.754297
582.964434	2544.242620
583.317837	2545.397044
583.671186	2549.619010
584.024481	2541.603576
584.377721	2546.632127
584.730906	2546.921993
585.084037	2547.340409
585.437113	2547.252189
585.790135	2546.145655
586.143103	2550.065152
586.496016	2546.856458
586.848874	2540.998637
587.201679	2544.391334
587.554428	2544.570295
587.907124	2547.385779
588.259765	2542.319420
588.612352	2546.490974
588.964884	2547.743701
589.317362	2546.317055
589.669786	2546.982487
590.022155	2546.490974
590.374470	2545.351674
590.726731	2548.661191
591.078937	2547.224462
591.431090	2547.370656
591.783188	2547.176571
592.135232	2545.117260
592.487222	2546.090203
592.839157	2546.513660
593.191038	2544.865202
593.542866	2544.411498
593.894639	2544.797147
594.246358	2545.709596
594.598022	2545.535676
594.949633	2544.857641
595.301190	2544.187167
595.652692	2545.828063
596.004141	2542.979811
596.355535	2550.032385
596.706876	2546.483413
597.058162	2546.443083
597.409395	2544.363608
597.760573	2547.816798
598.111698	2542.261446
598.462768	2544.512322
598.813785	2545.860830
599.164748	2545.734801
599.515657	2544.444266
599.866511	2543.998124
600.217312	2547.053063
600.568060	2543.773792
600.918753	2545.591128
601.269392	2545.767569
601.619978	2543.420912
601.970510	2546.606921
602.320988	2545.303783
602.671412	2544.986190
603.021783	2545.933927
603.372100	2545.762528
603.722363	2545.397044
604.072572	2548.154555
604.422728	2547.098433
604.772830	2537.535365
605.122878	2542.180788
605.472872	2542.337064
605.822813	2540.345808
606.172701	2542.125335
606.522534	2545.399565
606.872314	2544.542568
607.222041	2544.812270
607.571714	2543.723381
607.921333	2542.987372
608.270899	2541.618699
608.620411	2543.438556
608.969870	2546.372507
609.319276	2545.344112
609.668627	2548.683876
610.017926	2552.815102
610.367171	2553.493137
610.716362	2552.182437
611.065500	2547.829401
611.414585	2550.841490
611.763616	2547.403423
612.112594	2545.334030
612.461518	2548.330996
612.810389	2548.711603
613.159207	2547.216901
613.507971	2545.835624
613.856682	2547.264792
614.205340	2545.548279
614.553945	2546.042312
614.902496	2547.607590
615.250994	2545.820501
615.599439	2546.803526
615.947830	2546.107847
616.296169	2545.064328
616.644454	2545.931406
616.992686	2543.337733
617.340864	2548.638506
617.688990	2542.647095
618.037063	2546.995090
618.385082	2546.695141
618.733048	2545.747404
619.080961	2546.664894
619.428821	2546.488454
619.776628	2545.555840
620.124382	2545.112219
620.472083	2544.504760
620.819731	2544.681200
621.167326	2541.638864
621.514868	2544.719009
621.862357	2545.263453
622.209793	2545.424770
622.557176	2545.838145
622.904506	2542.763041
623.251783	2540.580222
623.599007	2544.091385
623.946179	2538.886394
624.293297	2539.566950
624.640363	2543.582229
624.987376	2542.934440
625.334336	2542.321940
625.681243	2543.526776
626.028097	2543.269677
626.374899	2543.695655
626.721647	2544.182126
627.068343	2542.899152
627.414987	2542.657177
627.761577	2543.887218
628.108115	2543.229348
628.454600	2545.583567
628.801032	2542.006868
629.147412	2542.357228
629.493739	2543.441076
629.840014	2544.754297
630.186236	2544.003165
630.532405	2544.598021
630.878521	2542.087527
631.224585	2541.480067
631.570597	2543.594832
631.916556	2543.806560
632.262462	2543.998124
632.608316	2544.981149
632.954117	2540.381096
633.299866	2545.470141
633.645562	2542.795809
633.991206	2541.369162
634.336797	2540.549975
634.682336	2541.510314
635.027823	2543.786395
635.373257	2542.553833
635.718639	2541.202804
636.063968	2540.870088
636.409245	2541.714481
636.754470	2541.679193
637.099642	2543.670449
637.444762	2542.425284
637.789829	2540.890253
638.134845	2540.980993
638.479808	2541.240613
638.824719	2540.708771
639.169577	2541.003678
639.514383	2541.462423
639.859137	2540.607948
640.203839	2542.843700
640.548489	2544.857641
640.893086	2538.210879
641.237632	2537.890766
641.582125	2539.289686
641.926566	2536.204500
642.270955	2543.357897
642.615292	2543.950233
642.959576	2539.599717
643.303809	2544.305634
643.647990	2542.039636
643.992118	2540.058462
644.336195	2539.645087
644.680219	2541.787578
645.024192	2543.453679
645.368112	2539.846734
645.711981	2544.575336
646.055797	2542.505942
646.399562	2541.543082
646.743274	2540.189532
647.086935	2541.820345
647.430544	2543.196580
647.774101	2542.823535
648.117606	2541.086857
648.461059	2541.555685
648.804460	2542.387475
649.147810	2539.221631
649.491108	2541.371683
649.834354	2542.962167
650.177548	2540.905376
650.520690	2542.079965
650.863781	2536.335570
651.206820	2544.819832
651.549807	2540.101312
651.892742	2542.528628
652.235626	2541.139790
652.578458	2540.431507
652.921238	2540.726415
653.263967	2540.907897
653.606644	2540.726415
653.949269	2540.229861
654.291843	2540.887732
654.634365	2539.466127
654.976836	2540.353370
655.319255	2540.814635
655.661622	2542.573998
656.003938	2537.593338
656.346203	2542.246323
656.688416	2541.109543
657.030577	2539.952598
657.372687	2543.302445
657.714746	2539.617361
658.056753	2541.777496
658.398708	2537.084181
658.740612	2539.151054
659.082465	2533.943543
659.424266	2538.410005
659.766016	2538.412525
660.107715	2542.135418
660.449362	2540.592824
660.790958	2542.601724
661.132503	2540.517207
661.473996	2541.757331
661.815438	2541.275901
662.156829	2540.958308
662.498168	2537.789943
662.839456	2539.549306
663.180693	2539.176260
663.521879	2539.987886
663.863013	2539.037628
664.204097	2540.542413
664.545129	2542.596683
664.886110	2540.053421
665.227040	2537.515200
665.567918	2542.747918
665.908746	2540.527289
666.249522	2542.140459
666.590248	2540.751621
666.930922	2540.313040
667.271545	2540.093750
667.612118	2543.045346
667.952639	2540.560057
668.293109	2541.835469
668.633528	2542.954605
668.973896	2539.995448
669.314213	2538.276414
669.654480	2540.456713
669.994695	2539.410674
670.334859	2539.065355
670.674973	2538.112577
671.015035	2541.880839
671.355047	2539.236754
671.695008	2541.356559
672.034918	2540.184491
672.374777	2539.801363
672.714585	2539.650129
673.054342	2542.198432
673.394049	2539.703061
673.733705	2540.033256
674.073310	2540.257588
674.412864	2541.787578
674.752368	2539.708102
675.091820	2539.365303
675.431223	2538.488143
675.770574	2538.001671
676.109875	2535.816331
676.449125	2536.910262
676.788324	2536.088553
677.127473	2539.967721
677.466571	2537.822710
677.805619	2537.502597
678.144616	2542.647095
678.483562	2539.682896
678.822458	2539.849254
679.161303	2541.727084
679.500098	2537.820190
679.838842	2541.593493
680.177535	2539.438400
680.516179	2540.562578
680.854771	2538.379758
681.193314	2538.528472
681.531805	2539.773637
681.870247	2543.945192
682.208638	2539.035108
682.546978	2541.608617
682.885268	2539.690458
683.223508	2538.687268
683.561697	2539.249357
683.899836	2541.200283
684.237925	2537.553009
684.575963	2537.406815
684.913951	2537.439583
685.251889	2543.310006
685.589776	2538.878832
685.927614	2540.192053
686.265401	2540.068544
686.603137	2539.705581
686.940824	2537.215251
687.278460	2540.156765
687.616046	2538.195756
687.953582	2537.298430
688.291068	2543.093237
688.628504	2542.488298
688.965889	2540.008051
689.303224	2541.467465
689.640510	2542.004348
689.977745	2538.967052
690.314930	2540.237423
690.652065	2539.385468
690.989150	2539.067875
691.326185	2540.935623
691.663170	2539.990407
692.000105	2540.255067
692.336990	2538.694830
692.673825	2538.926723
693.010610	2540.706250
693.347345	2537.686599
693.684030	2536.602751
694.020665	2537.303472
694.357251	2535.476053
694.693786	2538.233564
695.030272	2538.374717
695.366707	2540.779347
695.703093	2539.514017
696.039429	2539.393030
696.375716	2542.175747
696.711952	2540.078627
697.048139	2541.028884
697.384276	2539.357742
697.720363	2537.636188
698.056400	2541.011240
698.392388	2539.793802
698.728326	2540.905376
699.064214	2538.301620
699.400053	2538.697351
699.735842	2537.840354
700.071581	2539.390509
700.407270	2535.198790
700.742910	2537.515200
701.078501	2540.434028
701.414042	2536.512010
701.749533	2536.751465
702.084974	2538.430169
702.420366	2538.969573
702.755709	2540.474357
703.091002	2538.941847
703.426246	2538.210879
703.761440	2539.677855
704.096584	2538.331867
704.431679	2538.712474
704.766725	2539.803884
705.101721	2537.608461
705.436668	2539.519059
705.771565	2538.339429
706.106413	2536.766589
706.441212	2537.432021
706.775961	2540.481919
707.110661	2540.292876
707.445311	2539.324974
707.779913	2539.617361
708.114465	2538.767927
708.448967	2535.579397
708.783421	2536.151568
709.117825	2541.596014
709.452180	2538.112577
709.786485	2536.590148
710.120742	2539.105684
710.454949	2539.146013
710.789107	2536.050745
711.123216	2533.729293
711.457275	2535.584438
711.791286	2535.329860
712.125247	2540.096271
712.459159	2537.008564
712.793023	2538.130221
713.126837	2539.403112
713.460602	2539.632485
713.794318	2539.748431
714.127985	2538.286497
714.461602	2539.655170
714.795171	2538.546116
715.128691	2537.114428
715.462162	2538.344470
715.795584	2537.096784
716.128957	2540.265149
716.462281	2539.239275
716.795556	2539.544264
717.128782	2538.977135
717.461960	2540.423946
717.795088	2537.757175
718.128167	2537.172402
718.461198	2538.974614
718.794180	2537.910931
719.127113	2536.885056
719.459997	2538.689789
719.792833	2536.862371
720.125619	2536.963194
720.458357	2537.442103
720.791046	2539.105684
721.123686	2538.553678
721.456278	2540.214738
721.788821	2535.909592
722.121315	2536.857329
722.453761	2539.125849
722.786158	2538.735159
723.118506	2538.596527
723.450805	2537.374048
723.783056	2535.581918
724.115259	2538.586445
724.447412	2536.358255
724.779518	2537.232895
725.111574	2536.801877
725.443582	2537.177443
725.775542	2536.403626
726.107453	2539.236754
726.439315	2536.441434
726.771129	2541.727084
727.102895	2537.212731
727.434612	2537.870601
727.766281	2538.006712
728.097901	2533.502442
728.429473	2533.575538
728.760996	2535.675179
729.092471	2532.453882
729.423897	2537.991589
729.755276	2534.913965
730.086606	2536.373379
730.417887	2535.544109
730.749120	2537.023687
731.080305	2537.411856
731.411442	2539.239275
731.742530	2538.783050
732.073570	2538.788091
732.404562	2539.536703
732.735506	2537.684079
733.066401	2535.471012
733.397249	2536.028060
733.728048	2537.479912
734.058798	2538.478060
734.389501	2540.028215
734.720156	2535.597041
735.050762	2537.258101
735.381320	2538.357073
735.711831	2539.380427
736.042293	2539.730787
736.372707	2536.829603
736.703073	2537.363965
737.033391	2535.609644
737.363661	2536.943029
737.693883	2538.142824
738.024056	2537.800025
738.354182	2538.306661
738.684260	2535.418080
739.014290	2536.345652
739.344272	2535.856660
739.674207	2536.189377
740.004093	2537.379089
740.333931	2536.325488
740.663722	2538.538554
740.993464	2534.447658
741.323159	2536.615354
741.652806	2538.112577
741.982405	2537.512679
742.311956	2537.737011
742.641460	2537.381609
742.970915	2538.062165
743.300323	2538.072248
743.629683	2536.446475
743.958996	2536.597710
744.288260	2535.465971
744.617477	2533.550333
744.946647	2532.043027
745.275768	2532.819365
745.604842	2535.062679
745.933869	2531.574200
746.262847	2532.012781
746.591778	2533.880528
746.920662	2536.864891
747.249498	2536.239788
747.578286	2536.784233
747.907027	2536.209541
748.235720	2538.092412
748.564365	2538.112577
748.892963	2537.542926
749.221514	2536.028060
749.550017	2534.493028
749.878473	2536.869932
750.206881	2534.626619
750.535242	2536.953111
750.863555	2537.895807
751.191821	2538.117618
751.520039	2537.202648
751.848210	2537.800025
752.176334	2538.258770
752.504411	2535.155940
752.832440	2537.978986
753.160421	2534.651825
753.488356	2535.730632
753.816243	2540.194573
754.144082	2536.650642
754.471875	2535.934798
754.799620	2533.658717
755.127318	2537.505118
755.454969	2538.253729
755.782572	2535.017308
756.110129	2537.401774
756.437638	2537.210210
756.765100	2537.162319
757.092515	2537.316074
757.419882	2534.747607
757.747203	2535.801208
758.074477	2537.084181
758.401703	2535.415559
758.728882	2537.038811
759.056014	2535.216434
759.383099	2532.937832
759.710138	2537.585776
760.037129	2533.419263
760.364073	2538.898997
760.690970	2535.191228
761.017820	2536.312885
761.344623	2535.299613
761.671379	2535.279448
761.998088	2532.607637
762.324751	2533.444468
762.651366	2533.305837
762.977935	2536.146527
763.304456	2535.889428
763.630931	2539.869419
763.957359	2536.514531
764.283740	2538.296579
764.610074	2536.388502
764.936362	2539.758513
765.262602	2536.587628
765.588796	2537.195087
765.914943	2533.822555
766.241044	2539.080478
766.567097	2536.454037
766.893104	2536.050745
767.219064	2533.605785
767.544978	2537.895807
767.870845	2535.327339
768.196665	2536.819521
768.522438	2536.375899
768.848165	2534.079654
769.173846	2533.431865
769.499479	2536.789274
769.825066	2534.674510
770.150607	2535.902031
770.476101	2534.838347
770.801548	2536.270035
771.126949	2535.912113
771.452303	2536.464119
771.777611	2533.590662
772.102872	2534.024201
772.428087	2532.645445
772.753256	2535.055117
773.078378	2533.862884
773.403453	2535.002185
773.728482	2536.184335
774.053465	2535.105528
774.378401	2536.859850
774.703291	2534.808100
775.028135	2534.760209
775.352932	2538.152906
775.677683	2536.801877
776.002388	2535.914634
776.327046	2535.004705
776.651658	2534.062010
776.976224	2533.462112
777.300743	2536.128883
777.625216	2535.942360
777.949643	2535.002185
778.274024	2532.322812
778.598359	2533.878007
778.922647	2532.128727
779.246889	2531.765764
779.571086	2529.678726
779.895236	2534.820703
780.219339	2534.873635
780.543397	2534.840868
780.867409	2535.433203
781.191374	2533.928419
781.515294	2534.785415
781.839167	2535.987730
782.162995	2535.244160
782.486776	2536.529654
782.810511	2534.220806
783.134201	2534.782895
783.457844	2536.161650
783.781441	2532.451361
784.104993	2535.435724
784.428498	2535.241640
784.751958	2533.346166
785.075372	2532.451361
785.398739	2535.720549
785.722061	2537.230375
786.045337	2535.765920
786.368568	2534.528316
786.691752	2534.853471
787.014891	2535.357586
787.337983	2533.419262
787.661030	2532.705939
787.984031	2534.921526
788.306987	2535.087884
788.629897	2534.243491
788.952760	2537.429500
789.275579	2533.184849
789.598351	2535.317257
789.921078	2535.849099
790.243759	2535.289531
790.566395	2532.645445
790.888984	2533.683923
791.211529	2534.694674
791.534027	2536.030580
791.856480	2534.543440
792.178888	2534.606454
792.501249	2533.835158
792.823566	2535.415559
793.145836	2533.454551
793.468062	2533.399098
793.790241	2532.587472
794.112375	2537.031249
794.434464	2534.561084
794.756507	2534.485467
795.078505	2533.898172
795.400457	2532.559746
795.722364	2532.332894
796.044226	2532.935312
796.366042	2529.855167
796.687812	2533.159643
797.009538	2532.532019
797.331218	2536.020498
797.652852	2534.046886
797.974442	2535.859181
798.295986	2535.150899
798.617484	2534.503111
798.938938	2535.269366
799.260346	2533.746937
799.581709	2535.390354
799.903026	2535.629808
800.224299	2533.646114
800.545526	2533.832637
800.866708	2534.177956
801.187845	2535.607123
801.508936	2533.394057
801.829983	2533.111752
802.150984	2532.562266
802.471940	2531.380116
802.792851	2532.589993
803.113717	2534.026722
803.434538	2534.477905
803.755314	2534.561084
804.076045	2534.389685
804.396731	2534.001516
804.717372	2530.507996
805.037967	2533.240302
805.358518	2531.705270
805.679024	2535.425642
805.999485	2535.090405
806.319901	2534.306506
806.640272	2534.031763
806.960598	2533.504962
807.280879	2531.632173
807.601115	2533.280631
807.921306	2534.455220
808.241453	2535.655014
808.561554	2531.551515
808.881611	2534.326670
809.201623	2536.799356
809.521590	2533.414221
809.841513	2536.731301
810.161390	2531.730476
810.481223	2532.965559
810.801011	2532.942873
811.120755	2534.989582
811.440453	2535.188708
811.760107	2534.808100
812.079716	2529.202337
812.399281	2530.278624
812.718801	2528.736031
813.038276	2528.536905
813.357707	2533.462112
813.677093	2534.326670
813.996434	2534.462781
814.315731	2534.109901
814.634983	2534.485467
814.954191	2533.983872
815.273354	2534.490508
815.592473	2531.848943
815.911547	2533.520086
816.230577	2534.898841
816.549562	2532.199303
816.868502	2533.406660
817.187399	2532.068233
817.506250	2533.794828
817.825058	2533.520086
818.143821	2532.678213
818.462539	2534.349355
818.781213	2534.167874
819.099843	2533.008408
819.418429	2532.574869
819.736970	2534.649304
820.055466	2535.518903
820.373919	2535.097967
820.692327	2535.352545
821.010691	2535.884387
821.329011	2536.746424
821.647286	2544.167003
821.965517	2542.309337
822.283704	2545.765048
822.601847	2546.090203
822.919945	2541.885880
823.237999	2540.096271
823.556010	2539.579552
823.873976	2538.536034
824.191897	2539.433359
824.509775	2535.919675
824.827609	2536.322967
825.145398	2537.701723
825.463144	2538.725077
825.780845	2537.845396
826.098502	2536.887576
826.416116	2536.733821
826.733685	2537.321116
827.051210	2538.548637
827.368692	2538.132741
827.686129	2539.982845
828.003522	2534.866074
828.320872	2529.681247
828.638177	2531.412883
828.955439	2530.092101
829.272656	2533.436907
829.589830	2529.547656
829.906960	2534.566125
830.224046	2534.185518
830.541088	2534.190559
830.858086	2531.760723
831.175041	2535.556712
831.491952	2534.732483
831.808819	2534.732483
832.125642	2533.096629
832.442421	2535.763399
832.759157	2534.838347
833.075849	2534.341794
833.392497	2536.874973
833.709101	2538.226003
834.025662	2536.267514
834.342179	2537.079140
834.658653	2535.135775
834.975083	2534.341794
835.291469	2535.899510
835.607811	2534.112421
835.924110	2535.594520
836.240366	2531.617050
836.556578	2533.557894
836.872746	2532.658048
837.188871	2531.790970
837.504952	2532.080836
837.820990	2533.847761
838.136984	2530.926412
838.452935	2533.268028
838.768842	2534.034283
839.084706	2530.104704
839.400526	2530.026566
839.716303	2531.889272
840.032037	2533.401618
840.347727	2535.440765
840.663373	2532.095960
840.978977	2533.653676
841.294537	2533.721732
841.610054	2534.122503
841.925527	2531.959848
842.240957	2532.781557
842.556344	2534.994623
842.871687	2534.493028
843.186987	2533.615868
843.502244	2533.870446
843.817458	2530.555887
844.132629	2531.115455
844.447756	2533.547812
844.762840	2528.718387
845.077881	2528.045393
845.392879	2528.594878
845.707833	2530.881042
846.022745	2528.728469
846.337613	2529.620753
846.652438	2533.368851
846.967221	2532.317770
847.281960	2532.121165
847.596656	2533.966228
847.911309	2532.524458
848.225919	2530.311391
848.540485	2533.562935
848.855009	2532.756351
849.169490	2530.908768
849.483928	2534.631660
849.798323	2529.961031
850.112675	2533.121834
850.426984	2531.980013
850.741251	2530.800383
851.055474	2534.984541
851.369654	2533.215096
851.683792	2531.473377
851.997887	2532.378264
852.311938	2533.363810
852.625947	2532.232071
852.939914	2531.488501
853.253837	2533.615867
853.567718	2532.400949
853.881555	2534.278779
854.195350	2533.905734
854.509103	2534.200641
854.822812	2533.729293
855.136479	2531.848943
855.450103	2531.521268
855.763685	2533.376413
856.077224	2529.451874
856.390720	2529.701412
856.704173	2532.350538
857.017584	2530.376926
857.330953	2530.160157
857.644278	2531.493542
857.957561	2537.084181
858.270802	2533.290713
858.584000	2530.455064
858.897155	2531.501103
859.210268	2531.952287
859.523339	2534.190559
859.836367	2532.577390
860.149352	2531.843902
860.462295	2534.382123
860.775195	2527.258972
861.088054	2529.698891
861.400869	2530.497914
861.713642	2527.503468
862.026373	2534.233409
862.339062	2534.044366
862.651708	2532.544622
862.964312	2528.705784
863.276873	2533.164684
863.589392	2531.024714
863.901869	2530.747451
864.214303	2530.049251
864.526696	2532.196783
864.839045	2530.752492
865.151353	2531.475898
865.463619	2530.497914
865.775842	2531.680064
866.088023	2532.310209
866.400162	2532.388347
866.712258	2529.346010
867.024313	2532.824406
867.336325	2532.947915
867.648296	2532.433717
867.960224	2530.797863
868.272110	2530.898686
868.583954	2532.950435
868.895755	2530.636546
869.207515	2529.769467
869.519233	2530.568490
869.830909	2533.646114
870.142542	2528.282327
870.454134	2532.723583
870.765684	2531.697708
871.077191	2533.608306
871.388657	2532.148892
871.700081	2532.030425
872.011463	2532.499252
872.322803	2532.589993
872.634101	2533.043697
872.945357	2530.898686
873.256571	2529.872811
873.567744	2534.107380
873.878874	2531.102852
874.189963	2531.440610
874.501010	2530.873480
874.812015	2532.746268
875.122979	2531.715352
875.433900	2532.259797
875.744780	2533.351207
876.055618	2532.378264
876.366415	2534.563604
876.677169	2533.688964
876.987882	2530.029087
877.298554	2528.675537
877.609183	2529.477080
877.919771	2525.892820
878.230317	2528.395753
878.540822	2533.814993
878.851285	2531.627132
879.161707	2533.988913
879.472087	2533.225178
879.782425	2535.329860
880.092722	2532.418593
880.402977	2534.278779
880.713191	2535.067720
881.023363	2536.239788
881.333494	2538.147865
881.643583	2539.763555
881.953631	2538.898997
882.263637	2539.304810
882.573602	2539.763555
882.883526	2532.199303
883.193408	2535.665097
883.503248	2533.704088
883.813048	2533.104190
884.122806	2532.630322
884.432522	2534.341794
884.742197	2530.132430
885.051831	2531.690147
885.361424	2533.807431
885.670975	2531.785929
885.980485	2531.548994
886.289954	2534.132586
886.599382	2530.747451
886.908768	2532.784077
887.218113	2530.366844
887.527417	2531.869108
887.836680	2529.666123
888.145901	2532.305167
888.455082	2530.359282
888.764221	2534.029242
889.073319	2529.961031
889.382376	2530.709642
889.691392	2530.351720
890.000366	2532.917668
890.309300	2531.969931
890.618193	2534.447658
890.927044	2533.421783
891.235855	2530.016484
891.544625	2530.112266
891.853353	2530.394570
892.162041	2531.869108
892.470687	2531.712832
892.779293	2529.484642
893.087858	2530.535723
893.396381	2526.706966
893.704864	2529.998840
894.013306	2529.151926
894.321707	2533.903213
894.630068	2533.676361
894.938387	2534.982020
895.246665	2532.027904
895.554903	2532.607637
895.863100	2529.928263
896.171256	2531.503624
896.479371	2532.012781
896.787446	2533.373892
897.095480	2531.259128
897.403473	2532.184180
897.711425	2531.022194
898.019336	2531.690147
898.327207	2531.334745
898.635038	2533.076464
898.942827	2531.206196
899.250576	2531.296937
899.558284	2529.477080
899.865952	2527.763088
900.173579	2532.685775
900.481165	2531.722914
900.788711	2531.478418
901.096216	2532.128727
901.403681	2529.945908
901.711105	2531.654859
902.018489	2529.222502
902.325832	2532.736186
902.633135	2533.308357
902.940397	2529.545136
903.247619	2529.540095
903.554800	2529.628315
903.861941	2532.773995
904.169041	2533.497400
904.476101	2530.908768
904.783121	2532.194262
905.090100	2534.210724
905.397039	2534.160312
905.703938	2530.961700
906.010796	2534.235929
906.317614	2533.356248
906.624391	2529.494724
906.931129	2530.404653
907.237826	2533.545291
907.544483	2531.506145
907.851099	2532.577390
908.157675	2531.478418
908.464211	2529.771988
908.770707	2525.131606
909.077163	2528.665454
909.383578	2527.195958
909.689954	2527.266534
909.996289	2525.315608
910.302584	2531.072605
910.608839	2530.349200
910.915054	2529.988757
911.221229	2529.267872
911.527363	2530.775177
911.833458	2528.277286
912.139513	2532.423635
912.445527	2531.296937
912.751502	2530.139992
913.057436	2529.466998
913.363331	2531.279293
913.669186	2528.914992
913.975000	2529.245187
914.280775	2533.416742
914.586510	2527.765608
914.892205	2530.371885
915.197859	2533.270548
915.503475	2533.023532
915.809050	2531.249046
916.114585	2532.474046
916.420081	2532.481608
916.725536	2532.839530
917.030952	2536.350693
917.336328	2535.229037
917.641665	2530.739889
917.946961	2530.477749
918.252218	2528.519261
918.557435	2533.938501
918.862612	2532.085877
919.167750	2530.928933
919.472848	2529.658562
919.777906	2529.915661
920.082925	2531.468336
920.387904	2529.489683
920.692843	2529.358613
920.997743	2530.150074
921.302603	2531.712832
921.607423	2530.571011
921.912204	2529.368695
922.216946	2530.674354
922.521647	2531.596885
922.826310	2529.459436
923.130932	2530.863398
923.435516	2529.134282
923.740059	2531.329704
924.044564	2531.727955
924.349028	2530.893644
924.653454	2525.290402
924.957840	2527.417769
925.262186	2527.097656
925.566493	2528.491535
925.870761	2524.171266
926.174989	2529.948428
926.479178	2528.090763
926.783328	2532.605116
927.087438	2529.204858
927.391509	2530.026566
927.695541	2530.051772
927.999533	2530.361803
928.303486	2528.272244
928.607400	2530.392050
928.911275	2529.061185
929.215110	2531.357431
929.518906	2527.861390
929.822663	2530.379447
930.126381	2529.945907
930.430060	2530.543284
930.733699	2529.870290
931.037299	2528.995650
931.340861	2530.402132
931.644383	2529.237625
931.947866	2530.175280
932.251309	2529.993798
932.554714	2527.634538
932.858080	2531.559077
933.161407	2527.390043
933.464694	2529.207378
933.767943	2529.038500
934.071153	2530.835671
934.374323	2530.424817
934.677455	2530.011442
934.980548	2529.635877
935.283602	2528.468849
935.586617	2527.760567
935.889593	2529.978675
936.192530	2526.676719
936.495428	2526.114631
936.798287	2530.215609
937.101108	2529.882893
937.403890	2527.967255
937.706632	2529.144364
938.009336	2532.221988
938.312002	2528.307532
938.614628	2527.810979
938.917216	2531.395239
939.219765	2530.069416
939.522275	2531.543953
939.824747	2530.702081
940.127179	2527.377440
940.429573	2525.053468
940.731929	2525.832326
941.034246	2524.067922
941.336524	2529.106555
941.638763	2529.494724
941.940964	2529.474560
942.243126	2527.697553
942.545250	2530.699560
942.847335	2528.332738
943.149381	2531.075126
943.451389	2530.205527
943.753359	2527.372398
944.055290	2527.006915
944.357182	2530.071936
944.659036	2528.990609
944.960851	2530.843233
945.262628	2527.430372
945.564367	2525.744106
945.866067	2531.135620
946.167729	2528.781401
946.469352	2527.969775
946.770937	2529.852646
947.072484	2528.262162
947.373992	2528.839374
947.675462	2528.075639
947.976893	2529.373737
948.278286	2526.003725
948.579641	2528.922553
948.880958	2526.931297
949.182236	2529.560259
949.483476	2528.862059
949.784678	2530.603778
950.085841	2529.676206
950.386967	2529.371216
950.688054	2528.118489
950.989103	2529.461957
951.290114	2526.475073
951.591087	2529.046062
951.892021	2528.057995
952.192917	2527.906761
952.493776	2529.792152
952.794596	2530.235774
953.095378	2529.381298
953.396122	2530.540764
953.696828	2528.234436
953.997496	2532.305167
954.298126	2526.815351
954.598718	2530.913809
954.899272	2527.783253
955.199788	2528.652852
955.500266	2531.473377
955.800706	2526.522964
956.101108	2526.288550
956.401472	2527.435413
956.701798	2526.540608
957.002087	2524.040196
957.302337	2526.046575
957.602550	2529.925743
957.902724	2527.591689
958.202861	2527.891637
958.502960	2525.958355
958.803022	2531.349869
959.103045	2529.035979
959.403031	2529.000691
959.702979	2528.231915
960.002889	2527.974816
960.302762	2528.088242
960.602596	2530.694519
960.902393	2527.609333
961.202153	2528.635208
961.501875	2527.372398
961.801559	2529.114117
962.101205	2529.217461
962.400814	2524.756040
962.700385	2529.136802
962.999918	2527.518592
963.299414	2530.707122
963.598873	2528.234436
963.898293	2526.648993
964.197677	2528.751154
964.497022	2526.417100
964.796331	2528.395753
965.095601	2527.977337
965.394835	2530.041689
965.694030	2528.557070
965.993189	2527.873993
966.292309	2529.235105
966.591393	2527.334590
966.890439	2528.138654
967.189447	2529.028417
967.488419	2528.100845
967.787353	2528.191586
968.086249	2529.509848
968.385108	2528.373067
968.683930	2530.923891
968.982714	2527.805938
969.281462	2526.533046
969.580172	2528.173942
969.878844	2528.776360
970.177480	2528.199148
970.476078	2528.640249
970.774639	2531.612009
971.073162	2527.747964
971.371649	2525.479445
971.670098	2525.156811
971.968510	2526.888448
972.266885	2524.060360
972.565223	2529.245187
972.863524	2527.372398
973.161788	2529.280475
973.460014	2530.903727
973.758204	2527.921884
974.056356	2528.486493
974.354471	2528.080681
974.652550	2530.480270
974.950591	2529.610671
975.248595	2529.192255
975.546563	2528.093283
975.844493	2528.320135
976.142386	2527.753006
976.440243	2528.105886
976.738062	2526.800228
977.035845	2528.005063
977.333590	2530.374406
977.631299	2525.469363
977.928971	2530.447502
978.226606	2524.935001
978.524204	2527.213602
978.821765	2528.534384
979.119290	2528.516740
979.416777	2529.409025
979.714228	2526.724610
980.011642	2526.747295
980.309020	2528.748633
980.606360	2527.924405
980.903664	2527.190917
981.200931	2527.546318
981.498162	2527.775691
981.795356	2526.548170
982.092513	2525.736544
982.389633	2527.266534
982.686717	2529.688809
982.983764	2527.511030
983.280775	2527.546318
983.577749	2528.289888
983.874686	2531.102852
984.171587	2529.136802
984.468451	2528.892306
984.765279	2527.972296
985.062070	2526.717048
985.358824	2527.521113
985.655543	2527.707635
985.952224	2530.223171
986.248869	2526.449867
986.545478	2522.563138
986.842050	2525.522295
987.138586	2525.431554
987.435086	2523.994825
987.731549	2522.545494
988.027975	2525.464322
988.324366	2527.032121
988.620719	2527.901720
988.917037	2525.870135
989.213318	2528.914992
989.509563	2528.204189
989.805772	2526.462470
990.101944	2526.250742
990.398080	2528.413397
990.694180	2526.568334
990.990244	2527.022038
991.286271	2525.955834
991.582262	2526.248221
991.878217	2527.931967
992.174136	2526.583458
992.470019	2527.354754
992.765865	2524.955165
993.061676	2528.196627
993.357450	2529.986237
993.653188	2527.548839
993.948890	2526.565814
994.244556	2528.186545
994.540186	2528.201668
994.835780	2528.544467
995.131337	2526.870804
995.426859	2526.326359
995.722345	2527.873993
996.017795	2525.446678
996.313208	2526.522964
996.608586	2528.332738
996.903928	2528.443644
997.199234	2528.511699
997.494504	2528.420958
997.789738	2527.107738
998.084936	2526.543129
998.380099	2527.369878
998.675225	2527.410207
998.970316	2526.820392
999.265371	2528.836854
999.560390	2526.974147
999.855373	2529.867770
1000.150320	2527.833664
1000.445232	2526.306194
1000.740108	2528.400794
1001.034948	2526.865762
1001.329752	2526.890968
1001.624521	2528.768798
1001.919254	2522.603467
1002.213951	2523.510875
1002.508613	2519.218332
1002.803239	2525.698735
1003.097829	2523.193282
1003.392384	2529.497245
1003.686903	2527.702594
1003.981386	2528.998171
1004.275834	2528.844415
1004.570246	2529.492204
1004.864623	2524.017511
1005.158964	2526.394415
1005.453270	2529.852646
1005.747540	2526.757378
1006.041775	2527.148067
1006.335974	2524.566996
1006.630138	2524.907274
1006.924266	2527.233767
1007.218359	2527.805938
1007.512416	2529.232584
1007.806438	2529.923222
1008.100425	2528.688140
1008.394376	2524.345186
1008.688292	2527.405166
1008.982172	2526.563293
1009.276017	2525.920546
1009.569827	2527.019518
1009.863602	2528.879703
1010.157341	2524.980371
1010.451045	2527.309384
1010.744714	2525.671009
1011.038347	2525.734023
1011.331945	2530.392050
1011.625508	2525.804600
1011.919036	2526.346524
1012.212528	2527.107738
1012.505986	2526.467511
1012.799408	2528.554549
1013.092795	2526.838036
1013.386147	2529.731658
1013.679464	2526.104548
1013.972745	2525.633200
1014.265992	2525.625639
1014.559204	2527.362316
1014.852380	2527.470701
1015.145521	2526.976668
1015.438628	2528.287368
1015.731699	2529.875331
1016.024736	2526.830474
1016.317737	2529.335928
1016.610703	2525.978519
1016.903635	2522.973992
1017.196531	2524.446009
1017.489393	2524.894671
1017.782219	2522.696728
1018.075011	2524.330062
1018.367768	2526.220495
1018.660490	2526.921215
1018.953177	2526.921215
1019.245829	2526.921215
