Dividing Wavelength (nm)	Counts (n)	Blue Motor Position (mm): 0.000000	Red Motor Position (mm): 31.000000	
326.493990	2145.003400
326.888308	2145.003400
327.282561	2145.003400
327.676750	2118.902826
328.070874	2122.272837
328.464933	2125.869700
328.858929	2133.945629
329.252859	2146.523308
329.646726	2160.300781
330.040528	2176.356856
330.434265	2194.409228
330.827938	2213.820191
331.221547	2233.470609
331.615091	2250.834863
332.008571	2273.746907
332.401986	2292.089146
332.795338	2311.444656
333.188625	2333.315702
333.581847	2353.422344
333.975006	2369.254088
334.368100	2389.716131
334.761129	2407.589542
335.154095	2422.523960
335.546996	2443.033895
335.939833	2460.907306
336.332606	2471.730663
336.725315	2484.368836
337.117960	2491.605412
337.510540	2500.266114
337.903056	2509.231806
338.295508	2514.603156
338.687896	2520.420647
339.080220	2533.094108
339.472480	2536.398584
339.864676	2537.941177
340.256807	2543.403268
340.648875	2544.358566
341.040879	2549.311500
341.432818	2548.101623
341.824694	2550.453321
342.216506	2547.111036
342.608253	2547.700851
342.999937	2548.877961
343.391557	2545.545758
343.783113	2545.334030
344.174605	2544.368649
344.566033	2542.543751
344.957397	2542.430325
345.348697	2543.355377
345.739934	2538.299099
346.131106	2538.495704
346.522215	2533.719211
346.913260	2533.189890
347.304241	2535.045035
347.695159	2527.778211
348.086012	2529.371216
348.476802	2528.867101
348.867528	2526.540608
349.258191	2521.635565
349.648789	2524.864424
350.039324	2519.084742
350.429796	2522.779907
350.820203	2518.557941
351.210548	2517.958044
351.600828	2518.315966
351.991045	2518.245389
352.381198	2516.798578
352.771288	2519.934176
353.161314	2518.552900
353.551276	2515.858403
353.941175	2516.206243
354.331010	2519.356964
354.720782	2516.385204
355.110490	2515.679442
355.500135	2516.087776
355.889717	2518.809999
356.279235	2518.487365
356.668689	2520.115657
357.058080	2519.546007
357.447408	2515.578619
357.836672	2516.924607
358.225873	2518.867972
358.615010	2515.702127
359.004084	2523.087418
359.393095	2522.764784
359.782043	2524.829136
360.170927	2521.355781
360.559748	2524.937521
360.948505	2521.887623
361.337199	2525.260155
361.725830	2525.945752
362.114398	2529.028417
362.502903	2528.983047
362.891344	2526.820392
363.279722	2526.931298
363.668037	2527.460619
364.056289	2528.851977
364.444478	2527.095135
364.832603	2527.453057
365.220665	2527.654703
365.608665	2527.997502
365.996601	2529.988757
366.384474	2530.583613
366.772284	2529.063706
367.160031	2531.528830
367.547715	2532.133768
367.935336	2528.491535
368.322893	2532.617719
368.710388	2528.771319
369.097820	2533.129396
369.485189	2532.637884
369.872495	2533.610826
370.259738	2532.670651
370.646918	2532.562266
371.034035	2535.067720
371.421090	2535.123173
371.808081	2535.791125
372.195010	2536.416228
372.581875	2536.577545
372.968678	2538.162988
373.355418	2538.616692
373.742096	2538.747762
374.128710	2539.062834
374.515262	2540.726415
374.901751	2542.299255
375.288177	2543.380582
375.674540	2544.101467
376.060841	2545.830583
376.447079	2546.702703
376.833254	2550.521377
377.219367	2547.652960
377.605417	2551.993394
377.991404	2550.400389
378.377329	2558.985474
378.763191	2555.875082
379.148991	2566.058213
379.534727	2566.920250
379.920402	2570.708678
380.306013	2575.074317
380.691563	2581.516911
381.077049	2582.484813
381.462474	2588.917325
381.847835	2593.252718
382.233134	2599.760847
382.618371	2602.175560
383.003545	2609.046652
383.388657	2616.280708
383.773706	2621.800772
384.158693	2626.373098
384.543618	2635.573204
384.928480	2642.487147
385.313280	2649.643064
385.698017	2657.391318
386.082692	2666.742658
386.467305	2670.621826
386.851856	2680.573064
387.236344	2689.642100
387.620770	2696.548480
388.005133	2706.872763
388.389435	2716.957592
388.773674	2723.838767
389.157851	2733.084243
389.541965	2740.986252
389.926018	2743.703433
390.310008	2758.232039
390.693936	2769.897269
391.077802	2776.899432
391.461606	2785.111471
391.845348	2795.103038
392.229027	2803.814152
392.612645	2818.635144
392.996200	2828.788028
393.379694	2841.504339
393.763125	2857.804910
394.146494	2865.744727
394.529801	2875.517004
394.913047	2895.464849
395.296230	2894.708676
395.679351	2899.074316
396.062410	2917.577871
396.445408	2915.606780
396.828343	2925.777307
397.211217	2934.730397
397.594028	2927.677823
397.976778	2942.539144
398.359466	2954.093469
398.742092	2953.599436
399.124656	2968.180973
399.507158	2980.985504
399.889598	2987.458345
400.271977	3000.222547
400.654294	3006.045080
401.036549	3022.862369
401.418742	3025.982843
401.800874	3049.542676
402.182944	3056.854869
402.564952	3084.772779
402.946898	3074.917323
403.328783	3084.573654
403.710606	3099.591251
404.092367	3123.458594
404.474067	3147.759476
404.855705	3140.631284
405.237282	3141.057262
405.618797	3172.370389
406.000250	3194.390149
406.381642	3226.570355
406.762972	3227.568503
407.144240	3216.588870
407.525447	3237.779360
407.906593	3237.905389
408.287677	3264.109307
408.668700	3284.951957
409.049661	3279.794857
409.430560	3292.962351
409.811399	3299.631797
410.192176	3321.114674
410.572891	3327.181703
410.953545	3367.818444
411.334138	3333.964576
411.714669	3385.389386
412.095139	3332.064061
412.475547	3382.825959
412.855894	3374.961759
413.236180	3403.414032
413.616405	3383.652708
413.996568	3408.702202
414.376670	3413.314858
414.756711	3406.978127
415.136691	3433.587858
415.516609	3453.046712
415.896466	3461.379739
416.276262	3490.492403
416.655997	3520.038605
417.035670	3527.217208
417.415283	3591.164245
417.794834	3612.488326
418.174324	3593.692383
418.553753	3596.008794
418.933121	3639.405567
419.312428	3633.043630
419.691674	3625.360912
420.070859	3662.541942
420.449983	3641.565701
420.829045	3693.913043
421.208047	3678.482071
421.586988	3726.347826
421.965867	3754.157352
422.344686	3764.012807
422.723444	3800.626708
423.102141	3707.264538
423.480777	3807.278510
423.859352	3775.831793
424.237866	3874.235116
424.616319	3861.554093
424.994712	3917.228596
425.373044	3908.346083
425.751314	3970.589210
426.129524	3907.176535
426.507673	4005.416021
426.885762	3982.022547
427.263789	4005.839478
427.641756	4011.498173
428.019662	4037.719735
428.397508	4042.503790
428.775292	4078.250612
429.153016	4084.350408
429.530679	4097.969085
429.908282	4104.880507
430.285824	4091.367694
430.663305	4157.890760
431.040726	4115.519862
431.418086	4105.122482
431.795385	4182.047969
432.172624	4215.571643
432.549802	4183.424204
432.926920	4198.698901
433.303977	4198.275444
433.680974	4233.190475
434.057910	4258.983539
434.434786	4263.041668
434.811601	4258.169393
435.188355	4363.285012
435.565050	4333.776618
435.941683	4333.423737
436.318257	4420.575205
436.694770	4424.454373
437.071222	4483.382941
437.447614	4418.042025
437.823946	4418.407509
438.200218	4436.192699
438.576429	4419.831635
438.952580	4444.666879
439.328670	4450.272642
439.704700	4491.302593
440.080670	4458.356132
440.456580	4518.789485
440.832429	4549.361562
441.208218	4455.689362
441.583947	4504.996888
441.959616	4522.192263
442.335224	4549.487591
442.710773	4569.632042
443.086261	4624.472234
443.461689	4578.164195
443.837057	4587.729784
444.212365	4663.349612
444.587612	4664.219211
444.962800	4635.192247
445.337927	4675.584493
445.712995	4562.140887
446.088002	4753.155247
446.462949	4774.466725
446.837837	4792.382986
447.212664	4778.555101
447.587431	5004.832333
447.962139	5300.569103
448.336786	5640.176514
448.711374	5627.941633
449.085901	5276.343838
449.460369	5210.234146
449.834776	5147.547398
450.209124	5376.735896
450.583412	5387.019850
450.957640	5516.063306
451.331808	5375.825968
451.705917	5225.203852
452.079965	5213.258838
452.453954	5257.016054
452.827883	5218.559612
453.201752	5223.164706
453.575562	5255.962453
453.949311	5390.541096
454.323001	5394.458072
454.696632	5391.549327
455.070202	5540.906112
455.443713	5571.294187
455.817164	5660.454555
456.190556	5735.151852
456.563888	5706.901226
456.937160	5785.810407
457.310373	5630.265605
457.683526	5682.497000
458.056619	5677.425599
458.429653	5656.217465
458.802628	5704.622624
459.175542	5737.349795
459.548398	5872.608994
459.921194	6057.006840
460.293930	6119.439010
460.666607	6373.132557
461.039224	6582.350523
461.411782	6712.639145
461.784280	6626.274097
462.156719	6633.838348
462.529099	6591.348983
462.901419	6447.686181
463.273680	6318.872097
463.645882	6310.448329
464.018024	6309.235932
464.390106	6376.530294
464.762130	6633.740046
465.134094	7014.652151
465.505999	7641.562482
465.877845	8346.013320
466.249631	8705.780305
466.621358	8633.469995
466.993026	8438.841127
467.364634	8220.700318
467.736184	7947.500026
468.107674	7789.724514
468.479105	7700.181018
468.850477	7634.744321
469.221790	7466.997406
469.593043	7243.762511
469.964238	7150.241545
470.335373	7122.058975
470.706449	7271.451048
471.077467	7451.238759
471.448425	8109.275694
471.819324	8692.791772
472.190164	8734.530006
472.560945	8252.825071
472.931667	7782.419882
473.302330	7587.745644
473.672934	7468.192160
474.043479	7538.959877
474.413965	7444.970084
474.784393	7395.236581
475.154761	7554.658030
475.525070	7563.822848
475.895321	7509.519539
476.265513	7605.122501
476.635645	7768.806246
477.005719	7754.320490
477.375734	7844.426074
477.745691	7955.291129
478.115588	8154.194896
478.485427	8386.768528
478.855207	8852.445115
479.224928	9283.672977
479.594591	9659.997632
479.964194	9673.003809
480.333739	9761.942365
480.703226	9755.361139
481.072653	9850.394451
481.442022	9961.463673
481.811333	10112.693247
482.180584	9955.313465
482.549777	9889.786027
482.918912	9827.023662
483.287988	9814.148555
483.657005	9721.691273
484.025964	9630.534608
484.394864	9690.884781
484.763706	9643.878542
485.132489	9559.073732
485.501213	9543.393223
485.869879	9597.119320
486.238487	9534.540957
486.607036	9611.962997
486.975527	9553.576353
487.343959	9595.501109
487.712333	9645.123707
488.080648	9672.013222
488.448905	9770.063664
488.817104	9764.941852
489.185244	9930.445453
489.553326	10126.248910
489.921350	10577.560728
490.289315	11176.507779
490.657222	11459.387086
491.025070	11618.909358
491.392861	11539.677543
491.760593	11370.198992
492.128267	11117.347318
492.495883	10877.814372
492.863440	10638.450305
493.230939	10406.723586
493.598380	10215.890708
493.965763	10186.072283
494.333088	10045.832424
494.700354	9959.449732
495.067563	9927.864383
495.434713	9920.020347
495.801805	9952.840779
496.168839	9894.418847
496.535815	9850.865799
496.902733	9875.993430
497.269593	9817.972270
497.636395	9809.840889
498.003139	9902.469570
498.369825	9807.993306
498.736453	9879.592814
499.103023	9809.472884
499.469535	9794.563672
499.835989	9816.170057
500.202385	9766.471842
500.568723	9764.483107
500.935003	9804.509868
501.301226	9751.595397
501.667390	9879.784378
502.033497	9943.660838
502.399546	9850.641467
502.765537	9757.624617
503.131470	9819.335902
503.497345	9880.207835
503.863163	9642.860229
504.228923	9740.293130
504.594625	9806.284355
504.960269	9699.507675
505.325856	9799.632552
505.691385	9662.813116
506.056856	9688.018885
506.422270	9735.882121
506.787625	9652.143514
507.152924	9659.523763
507.518164	9676.746865
507.883347	9528.310090
508.248472	9552.376559
508.613540	9607.788922
508.978550	9632.858580
509.343503	9575.515455
509.708398	9573.529240
510.073236	9638.615578
510.438016	9605.573335
510.802738	9493.301797
511.167403	9555.088700
511.532010	9554.448473
511.896561	9593.141849
512.261053	9697.665133
512.625488	9578.756917
512.989866	9518.414305
513.354186	9449.068193
513.718449	9406.546060
514.082655	9460.259555
514.446803	9372.064568
514.810894	9406.503211
515.174927	9341.280762
515.538904	9273.588148
515.902822	9338.861008
516.266684	9197.784318
516.630488	9202.394453
516.994235	9134.132189
517.357925	9154.967278
517.721558	9132.892065
518.085133	9119.492678
518.448651	9081.580681
518.812112	8982.532090
519.175516	8920.125126
519.538863	8928.611908
519.902152	8864.707722
520.265385	8869.065799
520.628560	8814.094537
520.991678	8718.320176
521.354739	8682.699383
521.717743	8654.562182
522.080690	8573.500428
522.443580	8585.861338
522.806413	8524.901185
523.169189	8452.237993
523.531908	8413.305162
523.894569	8317.354360
524.257174	8253.452694
524.619722	8238.568687
524.982213	8151.472672
525.344647	8081.587157
525.707025	8018.308073
526.069345	7996.111873
526.431608	7913.368894
526.793815	7880.535859
527.155964	7756.757888
527.518057	7689.735748
527.880093	7599.884742
528.242072	7579.689880
528.603995	7470.095195
528.965860	7400.713795
529.327669	7340.761873
529.689421	7252.516475
530.051117	7185.879982
530.412755	7125.890252
530.774337	7058.580766
531.135862	6965.047197
531.497331	6923.457678
531.858743	6831.678431
532.220098	6797.242309
532.581396	6697.485436
532.942638	6595.374344
533.303824	6556.673406
533.664953	6478.525439
534.026025	6396.047121
534.387040	6361.018664
534.747999	6285.096366
535.108902	6232.973356
535.469748	6124.520493
535.830537	6070.643161
536.191270	6015.253483
536.551947	5929.079999
536.912567	5879.815323
537.273131	5830.177602
537.633638	5725.992076
537.994089	5683.331311
538.354483	5599.716213
538.714821	5574.943983
539.075103	5536.028796
539.435328	5453.540395
539.795497	5392.093771
540.155609	5333.399617
540.515665	5297.075583
540.875665	5204.361202
541.235609	5170.892982
541.595496	5107.134988
541.955328	5089.412812
542.315102	5002.097507
542.674821	4931.604532
543.034483	4885.228437
543.394090	4828.061752
543.753640	4774.343217
544.113134	4770.663175
544.472571	4676.451571
544.831953	4674.193134
545.191278	4594.936113
545.550548	4536.559552
545.909761	4506.554604
546.268918	4464.455928
546.628019	4430.604580
546.987064	4366.274416
547.346053	4295.912511
547.704986	4284.499339
548.063863	4221.265626
548.422684	4189.937375
548.781449	4140.339983
549.140158	4113.354687
549.498811	4064.964651
549.857408	4010.111856
550.215949	3993.927231
550.574434	3953.603042
550.932864	3903.549425
551.291237	3893.968712
551.649555	3848.888194
552.007817	3822.585974
552.366022	3777.152575
552.724173	3748.871702
553.082267	3725.596694
553.440305	3704.365875
553.798288	3655.320489
554.156215	3629.817292
554.514086	3607.011112
554.871902	3570.573652
555.229661	3543.142213
555.587365	3512.053418
555.945014	3488.785972
556.302606	3456.578040
556.660143	3435.316974
557.017625	3415.170002
557.375050	3388.000704
557.732421	3368.025132
558.089735	3344.021678
558.446994	3321.492761
558.804197	3303.732776
559.161345	3281.702934
559.518437	3249.396699
559.875474	3233.091087
560.232455	3216.435115
560.589381	3195.703370
560.946251	3173.761747
561.303065	3163.618946
561.659825	3143.963487
562.016528	3124.212246
562.373177	3100.924636
562.729770	3089.491299
563.086307	3069.450192
563.442789	3059.680436
563.799216	3043.727705
564.155587	3025.773635
564.511904	3014.226872
564.868164	3001.200531
565.224370	2991.569406
565.580520	2974.232878
565.936615	2965.728452
566.292654	2949.871502
566.648638	2942.549226
567.004567	2928.073553
567.360441	2918.860844
567.716260	2907.687127
568.072023	2901.173956
568.427732	2885.072511
568.783385	2873.755120
569.138982	2868.769419
569.494525	2856.920187
569.850013	2848.241841
570.205445	2843.354442
570.560823	2836.196004
570.916145	2828.268789
571.271412	2820.886019
571.626625	2813.447797
571.981782	2806.596869
572.336884	2800.696198
572.691931	2791.755712
573.046923	2787.627007
573.401860	2783.183230
573.756743	2771.311312
574.111570	2771.205448
574.466342	2765.208996
574.821059	2760.155239
575.175722	2754.105854
575.530330	2748.459762
575.884882	2742.599421
576.239380	2738.916858
576.593823	2733.485015
576.948211	2730.460322
577.302544	2726.576113
577.656823	2723.901781
578.011047	2723.168293
578.365216	2718.144783
578.719330	2712.876778
579.073389	2711.838300
579.427394	2704.344625
579.781344	2702.739017
580.135239	2700.258770
580.489080	2698.953111
580.842866	2696.276258
581.196597	2696.296423
581.550273	2694.968079
581.903895	2689.528674
582.257463	2689.750484
582.610975	2688.381811
582.964434	2685.180678
583.317837	2685.147911
583.671186	2682.813857
584.024481	2679.655574
584.377721	2677.626509
584.730906	2676.646005
585.084037	2675.617610
585.437113	2672.048473
585.790135	2673.044101
586.143103	2670.089984
586.496016	2669.729542
586.848874	2664.181752
587.201679	2661.484735
587.554428	2660.111020
587.907124	2661.794766
588.259765	2658.339055
588.612352	2661.109169
588.964884	2659.344765
589.317362	2663.002122
589.669786	2658.717141
590.022155	2660.471463
590.374470	2658.525577
590.726731	2659.211174
591.078937	2655.473159
591.431090	2653.101296
591.783188	2650.184988
592.135232	2651.803199
592.487222	2651.341933
592.839157	2652.811430
593.191038	2651.725061
593.542866	2650.021151
593.894639	2646.371356
594.246358	2647.457724
594.598022	2647.533342
594.949633	2645.864720
595.301190	2645.461427
595.652692	2642.696354
596.004141	2645.118629
596.355535	2642.713998
596.706876	2641.509163
597.058162	2641.181488
597.409395	2645.418577
597.760573	2640.619399
598.111698	2640.788278
598.462768	2641.887249
598.813785	2638.250057
599.164748	2642.577887
599.515657	2638.718884
599.866511	2638.726446
600.217312	2638.933133
600.568060	2638.691158
600.918753	2636.228554
601.269392	2637.269552
601.619978	2636.087402
601.970510	2636.833492
602.320988	2634.882566
602.671412	2636.420118
603.021783	2637.198976
603.372100	2633.723101
603.722363	2636.074799
604.072572	2633.009777
604.422728	2633.990282
604.772830	2628.956690
605.122878	2630.254787
605.472872	2629.367544
605.822813	2631.850312
606.172701	2629.917029
606.522534	2631.900723
606.872314	2632.687143
607.222041	2633.541619
607.571714	2635.991620
607.921333	2632.006588
608.270899	2633.768471
608.620411	2630.839561
608.969870	2631.215127
609.319276	2632.074643
609.668627	2632.576238
610.017926	2630.159005
610.367171	2631.245373
610.716362	2632.089767
611.065500	2633.196300
611.414585	2632.175466
611.763616	2633.468522
612.112594	2630.514406
612.461518	2631.255456
612.810389	2631.242853
613.159207	2630.615229
613.507971	2629.183542
613.856682	2629.087760
614.205340	2628.586165
614.553945	2630.872328
614.902496	2632.767802
615.250994	2631.943573
615.599439	2628.981895
615.947830	2630.937863
616.296169	2631.023563
616.644454	2632.072123
616.992686	2631.053810
617.340864	2631.051289
617.688990	2628.303860
618.037063	2632.019191
618.385082	2630.002729
618.733048	2631.943573
619.080961	2631.157153
619.428821	2629.866618
619.776628	2631.522637
620.124382	2631.550363
620.472083	2630.713532
620.819731	2629.380147
621.167326	2630.317801
621.514868	2629.337297
621.862357	2630.007770
622.209793	2629.944756
622.557176	2628.916360
622.904506	2626.179014
623.251783	2625.306894
623.599007	2625.841257
623.946179	2622.335134
624.293297	2622.967799
624.640363	2622.045268
624.987376	2625.889147
625.334336	2625.848818
625.681243	2625.218674
626.028097	2621.888992
626.374899	2622.367902
626.721647	2624.218005
627.068343	2622.801441
627.414987	2622.375463
627.761577	2622.786317
628.108115	2622.262037
628.454600	2621.087448
628.801032	2619.829681
629.147412	2621.939403
629.493739	2621.185751
629.840014	2622.136008
630.186236	2622.914867
630.532405	2620.858076
630.878521	2618.178703
631.224585	2620.054012
631.570597	2617.072169
631.916556	2621.152983
632.262462	2618.894547
632.608316	2620.008642
632.954117	2620.091821
633.299866	2619.421347
633.645562	2617.651902
633.991206	2620.490072
634.336797	2617.505709
634.682336	2617.699793
635.027823	2618.791203
635.373257	2617.644340
635.718639	2615.537138
636.063968	2618.181223
636.409245	2615.469082
636.754470	2615.653085
637.099642	2616.512601
637.444762	2614.692745
637.789829	2616.643671
638.134845	2616.792385
638.479808	2615.562344
638.824719	2615.907663
639.169577	2611.186622
639.514383	2614.816253
639.859137	2612.346088
640.203839	2611.536982
640.548489	2614.213835
640.893086	2610.387599
641.237632	2606.843668
641.582125	2609.356683
641.926566	2606.679831
642.270955	2612.837600
642.615292	2611.282404
642.959576	2611.708382
643.303809	2611.347939
643.647990	2613.021602
643.992118	2610.422887
644.336195	2613.545882
644.680219	2611.479009
645.024192	2613.893722
645.368112	2610.533793
645.711981	2612.242744
646.055797	2613.165275
646.399562	2610.758124
646.743274	2613.929010
647.086935	2613.399689
647.430544	2614.874226
647.774101	2614.964967
648.117606	2612.520007
648.461059	2614.748197
648.804460	2617.709875
649.147810	2613.422374
649.491108	2611.647888
649.834354	2611.393310
650.177548	2611.751232
650.520690	2610.730398
650.863781	2610.427929
651.206820	2610.511108
651.549807	2610.077568
651.892742	2610.632095
652.235626	2607.970366
652.578458	2606.596652
652.921238	2609.283587
653.263967	2609.142434
653.606644	2605.492639
653.949269	2607.897269
654.291843	2606.596652
654.634365	2608.744183
654.976836	2608.144286
655.319255	2608.482043
655.661622	2606.732763
656.003938	2609.336519
656.346203	2607.312496
656.688416	2607.844337
657.030577	2606.664707
657.372687	2607.945160
657.714746	2607.196549
658.056753	2605.157402
658.398708	2604.655807
658.740612	2603.181270
659.082465	2604.902824
659.424266	2601.454675
659.766016	2602.591455
660.107715	2608.774430
660.449362	2602.266301
660.790958	2608.356014
661.132503	2606.024481
661.473996	2608.343412
661.815438	2607.809049
662.156829	2608.590428
662.498168	2604.628081
662.839456	2605.711929
663.180693	2605.036415
663.521879	2607.730911
663.863013	2609.114708
664.204097	2609.177722
664.545129	2607.718308
664.886110	2606.032042
665.227040	2608.739142
665.567918	2608.993720
665.908746	2607.761158
666.249522	2608.421549
666.590248	2607.630088
666.930922	2608.776951
667.271545	2606.286621
667.612118	2607.572115
667.952639	2607.214193
668.293109	2608.784512
668.633528	2607.095726
668.973896	2607.015067
669.314213	2604.176898
669.654480	2606.337032
669.994695	2605.863164
670.334859	2607.814090
670.674973	2606.241250
671.015035	2605.689244
671.355047	2605.636312
671.695008	2609.323916
672.034918	2603.834099
672.374777	2607.625047
672.714585	2605.127155
673.054342	2607.788885
673.394049	2603.947525
673.733705	2606.705037
674.073310	2607.120932
674.412864	2605.396857
674.752368	2604.428956
675.091820	2606.077413
675.431223	2605.782505
675.770574	2606.747886
676.109875	2600.244798
676.449125	2602.664552
676.788324	2601.578183
677.127473	2599.952411
677.466571	2601.207658
677.805619	2604.262597
678.144616	2605.681682
678.483562	2604.000457
678.822458	2603.892073
679.161303	2605.366610
679.500098	2604.789398
679.838842	2604.383585
680.177535	2600.723708
680.516179	2605.906014
680.854771	2603.990375
681.193314	2603.377875
681.531805	2602.170519
681.870247	2605.200252
682.208638	2605.492639
682.546978	2607.380551
682.885268	2608.713936
683.223508	2602.561208
683.561697	2608.308123
683.899836	2608.038422
684.237925	2604.156733
684.575963	2604.396188
684.913951	2605.722012
685.251889	2604.156733
685.589776	2603.143461
685.927614	2605.520365
686.265401	2603.642536
686.603137	2606.571446
686.940824	2606.314347
687.278460	2606.873915
687.616046	2606.009357
687.953582	2606.515993
688.291068	2606.190839
688.628504	2606.616816
688.965889	2604.295365
689.303224	2606.790736
689.640510	2609.097064
689.977745	2606.576487
690.314930	2603.206476
690.652065	2604.766713
690.989150	2603.791250
691.326185	2603.675303
691.663170	2602.916609
692.000105	2604.431476
692.336990	2597.971237
692.673825	2600.383430
693.010610	2602.004161
693.347345	2595.664910
693.684030	2595.135588
694.020665	2595.458222
694.357251	2593.933273
694.693786	2595.342276
695.030272	2595.778336
695.366707	2600.670775
695.703093	2596.605085
696.039429	2598.046855
696.375716	2596.055599
696.711952	2595.170877
697.048139	2596.703387
697.384276	2595.622060
697.720363	2595.170877
698.056400	2596.244642
698.392388	2595.208685
698.728326	2598.054417
699.064214	2594.258428
699.400053	2593.754312
699.735842	2595.223809
700.071581	2594.845722
700.407270	2593.903026
700.742910	2595.460743
701.078501	2595.165835
701.414042	2596.408480
701.749533	2594.810434
702.084974	2592.710793
702.420366	2592.607450
702.755709	2594.392018
703.091002	2590.011256
703.426246	2592.599888
703.761440	2592.733479
704.096584	2591.206009
704.431679	2592.763726
704.766725	2591.687439
705.101721	2593.945876
705.436668	2589.096286
705.771565	2592.297419
706.106413	2592.897316
706.441212	2588.304825
706.775961	2592.748602
707.110661	2594.059302
707.445311	2591.442943
707.779913	2590.858169
708.114465	2594.364292
708.448967	2594.976792
708.783421	2594.470156
709.117825	2593.164497
709.452180	2594.969230
709.786485	2596.113572
710.120742	2595.740527
710.454949	2594.150043
710.789107	2592.652820
711.123216	2592.448653
711.457275	2591.974785
711.791286	2593.056113
712.125247	2594.139961
712.459159	2599.246649
712.793023	2598.808069
713.126837	2597.908223
713.460602	2599.339911
713.794318	2599.012236
714.127985	2597.981320
714.461602	2592.380598
714.795171	2595.727924
715.128691	2595.201123
715.462162	2597.502410
715.795584	2596.562235
716.128957	2596.489138
716.462281	2591.884044
716.795556	2595.193562
717.128782	2594.586103
717.461960	2594.026535
717.795088	2592.083170
718.128167	2592.783890
718.461198	2591.924373
718.794180	2592.930084
719.127113	2588.229208
719.459997	2591.478231
719.792833	2589.567634
720.125619	2587.951944
720.458357	2587.445308
720.791046	2591.004363
721.123686	2590.409507
721.456278	2589.602922
721.788821	2591.170721
722.121315	2590.449836
722.453761	2586.875658
722.786158	2585.612849
723.118506	2589.164342
723.450805	2589.648292
723.783056	2588.035123
724.115259	2587.117633
724.447412	2590.172572
724.779518	2589.292891
725.111574	2590.623756
725.443582	2590.596029
725.775542	2586.399269
726.107453	2589.121492
726.439315	2590.893457
726.771129	2591.397573
727.102895	2590.613673
727.434612	2591.137953
727.766281	2591.798345
728.097901	2586.242993
728.429473	2586.154773
728.760996	2589.076122
729.092471	2586.984043
729.423897	2589.519743
729.755276	2594.465115
730.086606	2592.214240
730.417887	2590.714497
730.749120	2592.922522
731.080305	2593.756833
731.411442	2592.221802
731.742530	2595.306988
732.073570	2594.926381
732.404562	2593.550146
732.735506	2593.497213
733.066401	2593.320773
733.397249	2595.191041
733.728048	2592.826740
734.058798	2593.081318
734.389501	2593.073757
734.720156	2591.992429
735.050762	2594.044179
735.381320	2589.701225
735.711831	2587.853642
736.042293	2585.895153
736.372707	2588.143508
736.703073	2587.737695
737.033391	2588.440936
737.363661	2588.796337
737.693883	2589.418920
738.024056	2593.265320
738.354182	2588.466142
738.684260	2587.997315
739.014290	2590.447315
739.344272	2587.331882
739.674207	2589.567634
740.004093	2589.242480
740.333931	2590.575865
740.663722	2593.555187
740.993464	2588.491348
741.323159	2588.821543
741.652806	2592.171390
741.982405	2589.542428
742.311956	2590.069229
742.641460	2587.377253
742.970915	2587.084866
743.300323	2588.135946
743.629683	2591.490834
743.958996	2586.177458
744.288260	2586.167376
744.617477	2588.030082
744.946647	2583.220821
745.275768	2584.977663
745.604842	2582.918352
745.933869	2583.551017
746.262847	2582.794844
746.591778	2589.655854
746.920662	2585.786769
747.249498	2588.163673
747.578286	2584.985225
747.907027	2587.084866
748.235720	2588.597212
748.564365	2587.049578
748.892963	2588.357757
749.221514	2589.920515
749.550017	2587.455391
749.878473	2586.323652
750.206881	2586.326172
750.535242	2587.561255
750.863555	2585.819536
751.191821	2583.939186
751.520039	2585.045719
751.848210	2586.734506
752.176334	2585.443970
752.504411	2587.341965
752.832440	2585.088569
753.160421	2587.712489
753.488356	2586.963878
753.816243	2586.921028
754.144082	2586.033785
754.471875	2585.436408
754.799620	2583.906418
755.127318	2582.525142
755.454969	2582.638568
755.782572	2586.280802
756.110129	2586.185020
756.437638	2585.217118
756.765100	2585.393559
757.092515	2585.464135
757.419882	2584.226532
757.747203	2586.399269
758.074477	2584.866758
758.401703	2584.833991
758.728882	2586.122005
759.056014	2587.263827
759.383099	2584.581933
759.710138	2584.980184
760.037129	2584.506316
760.364073	2585.446491
760.690970	2586.142170
761.017820	2588.458580
761.344623	2587.079825
761.671379	2584.110585
761.998088	2584.886923
762.324751	2581.973136
762.651366	2590.739702
762.977935	2597.605754
763.304456	2598.639190
763.630931	2604.373503
763.957359	2601.563060
764.283740	2603.181270
764.610074	2599.196238
764.936362	2596.625249
765.262602	2594.971751
765.588796	2591.170721
765.914943	2586.041347
766.241044	2585.635534
766.567097	2584.922211
766.893104	2583.881213
767.219064	2585.779207
767.544978	2584.445822
767.870845	2579.278639
768.196665	2583.898857
768.522438	2582.426840
768.848165	2583.172930
769.173846	2582.051274
769.499479	2580.450707
769.825066	2584.584453
770.150607	2581.186716
770.476101	2579.568505
770.801548	2582.872982
771.126949	2579.220666
771.452303	2578.272929
771.777611	2580.944740
772.102872	2580.806109
772.428087	2580.740574
772.753256	2580.465831
773.078378	2581.456417
773.403453	2579.326530
773.728482	2577.554564
774.053465	2579.117322
774.378401	2577.967939
774.703291	2575.976683
775.028135	2578.076324
775.352932	2581.151428
775.677683	2577.766293
776.002388	2576.208576
776.327046	2578.260326
776.651658	2580.319637
776.976224	2576.649677
777.300743	2576.737897
777.625216	2576.322002
777.949643	2577.105902
778.274024	2577.027764
778.598359	2575.283525
778.922647	2573.975345
779.246889	2574.328226
779.571086	2573.788823
779.895236	2574.209759
780.219339	2575.747311
780.543397	2575.558268
780.867409	2577.917527
781.191374	2576.856365
781.515294	2576.868967
781.839167	2576.296797
782.162995	2577.892322
782.486776	2575.921231
782.810511	2577.612538
783.134201	2577.998186
783.457844	2579.036664
783.781441	2577.332754
784.104993	2577.105902
784.428498	2577.869637
784.751958	2576.453072
785.075372	2577.544482
785.398739	2577.196642
785.722061	2577.995665
786.045337	2578.247723
786.368568	2577.554564
786.691752	2575.633885
787.014891	2577.574729
787.337983	2576.153124
787.661030	2576.770665
787.984031	2577.907445
788.306987	2579.306365
788.629897	2580.566654
788.952760	2579.500450
789.275579	2576.874009
789.598351	2581.584967
789.921078	2578.358628
790.243759	2579.997003
790.566395	2578.131777
790.888984	2577.327712
791.211529	2578.807291
791.534027	2574.812177
791.856480	2579.550861
792.178888	2575.530541
792.501249	2575.981724
792.823566	2577.204204
793.145836	2576.077506
793.468062	2575.601117
793.790241	2577.277301
794.112375	2576.637074
794.434464	2575.001220
794.756507	2574.066086
795.078505	2576.639595
795.400457	2574.595407
795.722364	2573.423339
796.044226	2572.647001
796.366042	2574.449214
796.687812	2573.549368
797.009538	2576.536251
797.331218	2579.076993
797.652852	2579.442477
797.974442	2577.292424
798.295986	2578.207394
798.617484	2578.305696
798.938938	2578.328382
799.260346	2575.318813
799.581709	2576.669842
799.903026	2577.035326
800.224299	2576.984914
800.545526	2573.748493
800.866708	2579.626479
801.187845	2575.666652
801.508936	2576.352249
801.829983	2575.757393
802.150984	2576.773186
802.471940	2573.879563
802.792851	2574.323185
803.113717	2574.744121
803.434538	2575.399471
803.755314	2575.480130
804.076045	2573.990469
804.396731	2576.337126
804.717372	2575.485171
805.037967	2575.953998
805.358518	2574.776889
805.679024	2575.603638
805.999485	2575.845613
806.319901	2575.621282
806.640272	2575.104564
806.960598	2573.773699
807.280879	2575.976683
807.601115	2575.210428
807.921306	2575.585994
808.241453	2574.292938
808.561554	2576.551375
808.881611	2574.378637
809.201623	2576.561457
809.521590	2576.959708
809.841513	2574.504666
810.161390	2574.232444
810.481223	2575.961560
810.801011	2576.379976
811.120755	2574.978535
811.440453	2575.192784
811.760107	2575.419636
812.079716	2573.022567
812.399281	2569.781105
812.718801	2572.563822
813.038276	2571.066599
813.357707	2574.605489
813.677093	2575.051632
813.996434	2574.663463
814.315731	2572.654563
814.634983	2574.355952
814.954191	2574.958370
815.273354	2573.186405
815.592473	2574.058524
815.911547	2575.729667
816.230577	2576.483319
816.549562	2574.965932
816.868502	2577.642785
817.187399	2576.669842
817.506250	2577.078175
817.825058	2575.747311
818.143821	2576.412743
818.462539	2578.310737
818.781213	2575.754872
819.099843	2577.708320
819.418429	2578.663618
819.736970	2582.263002
820.055466	2585.668302
820.373919	2587.573858
820.692327	2587.712489
821.010691	2596.700867
821.329011	2607.763679
821.647286	2632.601444
821.965517	2656.362922
822.283704	2674.788340
822.601847	2687.620597
822.919945	2684.187571
823.237999	2675.153823
823.556010	2666.286434
823.873976	2653.297901
824.191897	2639.286014
824.509775	2634.254942
824.827609	2623.446708
825.145398	2615.471603
825.463144	2609.969184
825.780845	2610.579163
826.098502	2609.291148
826.416116	2612.885491
826.733685	2624.192799
827.051210	2624.454939
827.368692	2622.592233
827.686129	2617.775410
828.003522	2609.681838
828.320872	2605.999275
828.638177	2599.140785
828.955439	2594.737337
829.272656	2586.744588
829.589830	2584.372725
829.906960	2583.099834
830.224046	2583.155286
830.541088	2582.986408
830.858086	2582.585636
831.175041	2580.349884
831.491952	2578.030953
831.808819	2579.797878
832.125642	2581.544638
832.442421	2578.769482
832.759157	2584.254258
833.075849	2588.864393
833.392497	2593.459405
833.709101	2598.530806
834.025662	2600.519541
834.342179	2598.349324
834.658653	2593.386308
834.975083	2591.785742
835.291469	2594.976792
835.607811	2586.079156
835.924110	2584.193764
836.240366	2582.560430
836.556578	2579.666808
836.872746	2580.549010
837.188871	2580.163362
837.504952	2578.766962
837.820990	2575.404512
838.136984	2572.004254
838.452935	2574.497105
838.768842	2572.379820
839.084706	2577.894842
839.400526	2574.766806
839.716303	2577.602455
840.032037	2580.879205
840.347727	2581.262333
840.663373	2578.777044
840.978977	2579.432394
841.294537	2576.387537
841.610054	2576.455593
841.925527	2573.708164
842.240957	2574.673545
842.556344	2573.587176
842.871687	2573.599779
843.186987	2572.576425
843.502244	2573.085582
843.817458	2570.902762
844.132629	2568.667010
844.447756	2572.654563
844.762840	2565.939746
845.077881	2570.149109
845.392879	2566.421176
845.707833	2565.765826
846.022745	2566.368244
846.337613	2570.875036
846.652438	2566.552246
846.967221	2568.397308
847.281960	2568.934191
847.596656	2570.302865
847.911309	2569.380333
848.225919	2568.059551
848.540485	2566.983265
848.855009	2569.428224
849.169490	2570.428893
849.483928	2566.280024
849.798323	2568.152812
850.112675	2568.866136
850.426984	2567.562998
850.741251	2569.581980
851.055474	2567.467216
851.369654	2566.786660
851.683792	2568.914027
851.997887	2570.393605
852.311938	2568.853533
852.625947	2568.843451
852.939914	2570.136507
853.253837	2570.915365
853.567718	2569.481157
853.881555	2570.159192
854.195350	2568.780436
854.509103	2568.619119
854.822812	2570.438976
855.136479	2567.260528
855.450103	2570.814542
855.763685	2563.887996
856.077224	2568.185580
856.390720	2568.717422
856.704173	2569.798749
857.017584	2568.321691
857.330953	2569.524006
857.644278	2569.806311
857.957561	2569.322360
858.270802	2568.130127
858.584000	2568.702298
858.897155	2568.717422
859.210268	2568.094839
859.523339	2569.420663
859.836367	2567.318502
860.149352	2568.160374
860.462295	2570.461661
860.775195	2565.168449
861.088054	2565.904458
861.400869	2566.108625
861.713642	2562.592420
862.026373	2567.154664
862.339062	2565.894376
862.651708	2568.989644
862.964312	2570.512072
863.276873	2571.129614
863.589392	2569.287072
863.901869	2568.009140
864.214303	2568.780436
864.526696	2568.399829
864.839045	2568.339335
865.151353	2572.150447
865.463619	2569.702967
865.775842	2570.459140
866.088023	2569.692885
866.400162	2570.194480
866.712258	2565.889334
867.024313	2570.922927
867.336325	2566.438820
867.648296	2570.184397
867.960224	2568.031825
868.272110	2569.821434
868.583954	2566.088460
868.895755	2571.457289
869.207515	2568.969479
869.519233	2567.762123
869.830909	2570.383523
870.142542	2569.246743
870.454134	2568.694737
870.765684	2573.093143
871.077191	2570.837227
871.388657	2572.052145
871.700081	2568.581311
872.011463	2571.842937
872.322803	2570.900241
872.634101	2570.708677
872.945357	2569.413101
873.256571	2575.165057
873.567744	2571.091805
873.878874	2569.385375
874.189963	2571.154820
874.501010	2570.605334
874.812015	2569.014850
875.122979	2571.941240
875.433900	2570.391085
875.744780	2569.745817
876.055618	2571.215313
876.366415	2570.791857
876.677169	2573.554409
876.987882	2566.577452
877.298554	2569.360169
877.609183	2567.230281
877.919771	2568.485529
878.230317	2568.402350
878.540822	2576.730336
878.851285	2573.667835
879.161707	2574.852506
879.472087	2576.720253
879.782425	2578.096488
880.092722	2584.750812
880.402977	2592.967892
880.713191	2601.641197
881.023363	2613.896242
881.333494	2623.091307
881.643583	2627.956021
881.953631	2628.346710
882.263637	2627.824951
882.573602	2624.218005
882.883526	2619.867489
883.193408	2619.350771
883.503248	2612.565378
883.813048	2612.159565
884.122806	2608.812239
884.432522	2603.597165
884.742197	2596.902513
885.051831	2594.641555
885.361424	2591.992429
885.670975	2588.531677
885.980485	2585.529670
886.289954	2586.227870
886.599382	2578.991293
886.908768	2579.071952
887.218113	2578.706468
887.527417	2579.455079
887.836680	2576.667321
888.145901	2575.477609
888.455082	2572.505849
888.764221	2572.306723
889.073319	2569.763461
889.382376	2572.951991
889.691392	2571.865622
890.000366	2573.100705
890.309300	2575.356621
890.618193	2573.529203
890.927044	2571.545509
891.235855	2571.301013
891.544625	2572.780592
891.853353	2569.899572
892.162041	2572.641960
892.470687	2572.286559
892.779293	2574.580284
893.087858	2570.370920
893.396381	2571.868143
893.704864	2575.616241
894.013306	2576.397620
894.321707	2583.384659
894.630068	2586.595874
894.938387	2592.920001
895.246665	2589.159301
895.554903	2587.397417
895.863100	2587.914136
896.171256	2583.583784
896.479371	2582.232755
896.787446	2581.811819
897.095480	2581.317786
897.403473	2577.274780
897.711425	2579.203022
898.019336	2576.994996
898.327207	2575.961560
898.635038	2576.485840
898.942827	2573.473750
899.250576	2572.344532
899.558284	2573.738411
899.865952	2573.788822
900.173579	2573.856878
900.481165	2571.474933
900.788711	2572.573904
901.096216	2571.525344
901.403681	2571.376630
901.711105	2572.483164
902.018489	2569.090467
902.325832	2570.736404
902.633135	2572.334450
902.940397	2574.628175
903.247619	2572.800756
903.554800	2577.352918
903.861941	2582.580595
904.169041	2587.460432
904.476101	2591.115268
904.783121	2591.619384
905.090100	2591.896647
905.397039	2588.360278
905.703938	2587.042016
906.010796	2584.017324
906.317614	2579.170254
906.624391	2581.491706
906.931129	2580.309555
907.237826	2579.805440
907.544483	2576.805953
907.851099	2577.912486
908.157675	2572.014336
908.464211	2574.088771
908.770707	2569.334963
909.077163	2568.099880
909.383578	2568.556105
909.689954	2564.598799
909.996289	2562.930177
910.302584	2569.322360
910.608839	2568.546023
910.915054	2567.540312
911.221229	2568.165415
911.527363	2569.264387
911.833458	2569.148440
912.139513	2568.460323
912.445527	2566.678275
912.751502	2569.244222
913.057436	2569.975190
913.363331	2569.087947
913.669186	2568.188101
913.975000	2570.227247
914.280775	2572.483164
914.586510	2573.975345
914.892205	2573.304872
915.197859	2577.552044
915.503475	2581.940368
915.809050	2586.164855
916.114585	2587.757860
916.420081	2590.873293
916.725536	2594.003849
917.030952	2592.045361
917.336328	2590.119640
917.641665	2590.822881
917.946961	2588.892119
918.252218	2585.065884
918.557435	2586.782397
918.862612	2580.095306
919.167750	2582.265523
919.472848	2581.640420
919.777906	2579.792837
920.082925	2577.199163
920.387904	2576.546334
920.692843	2575.097002
920.997743	2573.234296
921.302603	2572.470561
921.607423	2572.180694
921.912204	2571.837896
922.216946	2571.477453
922.521647	2571.099367
922.826310	2569.397978
923.130932	2571.759758
923.435516	2569.203893
923.740059	2569.796229
924.044564	2565.481001
924.349028	2569.133317
924.653454	2562.234498
924.957840	2564.397153
925.262186	2563.787173
925.566493	2563.583007
925.870761	2561.135526
926.174989	2567.202555
926.479178	2567.837740
926.783328	2567.832699
927.087438	2563.514951
927.391509	2564.790363
927.695541	2566.337997
927.999533	2566.529561
928.303486	2565.057544
928.607400	2566.824468
928.911275	2565.226423
929.215110	2563.893038
929.518906	2565.518810
929.822663	2562.398335
930.126381	2563.940928
930.430060	2564.187945
930.733699	2566.206927
931.037299	2566.794222
931.340861	2566.496793
931.644383	2563.598130
931.947866	2562.471432
932.251309	2566.242215
932.554714	2563.048644
932.858080	2566.065775
933.161407	2563.744323
933.464694	2565.249108
933.767943	2562.133675
934.071153	2565.904458
934.374323	2566.892524
934.677455	2565.755744
934.980548	2565.216340
935.283602	2567.043759
935.586617	2564.019066
935.889593	2562.327759
936.192530	2564.505538
936.495428	2564.782801
936.798287	2564.830692
937.101108	2567.499983
937.403890	2561.443037
937.706632	2564.344221
938.009336	2565.428069
938.312002	2567.855384
938.614628	2568.742628
938.917216	2565.753223
939.219765	2564.545867
939.522275	2564.283727
939.824747	2567.774726
940.127179	2564.039231
940.429573	2563.840105
940.731929	2561.811041
941.034246	2560.190310
941.336524	2563.646021
941.638763	2566.887483
941.940964	2568.079716
942.243126	2567.794891
942.545250	2565.896896
942.847335	2565.309602
943.149381	2563.580486
943.451389	2566.670713
943.753359	2566.708522
944.055290	2564.266083
944.357182	2567.799932
944.659036	2564.939077
944.960851	2564.066957
945.262628	2565.511248
945.564367	2564.896227
945.866067	2564.003943
946.167729	2565.712894
946.469352	2563.008315
946.770937	2567.018553
947.072484	2565.498645
947.373992	2564.041752
947.675462	2565.652400
947.976893	2566.277503
948.278286	2563.830023
948.579641	2567.157185
948.880958	2564.374468
949.182236	2563.267934
949.483476	2562.244580
949.784678	2567.338666
950.085841	2563.872873
950.386967	2564.629046
950.688054	2565.952349
950.989103	2563.935887
951.290114	2563.451937
951.591087	2565.612071
951.892021	2567.293296
952.192917	2563.918243
952.493776	2565.339849
952.794596	2565.075188
953.095378	2567.729356
953.396122	2566.395970
953.696828	2567.018553
953.997496	2567.016032
954.298126	2564.077040
954.598718	2564.034190
954.899272	2566.027966
955.199788	2563.111659
955.500266	2567.396639
955.800706	2559.986143
956.101108	2560.696946
956.401472	2560.180228
956.701798	2560.175187
957.002087	2560.250804
957.302337	2564.959242
957.602550	2563.968655
957.902724	2563.741803
958.202861	2563.575445
958.502960	2564.192986
958.803022	2566.332956
959.103045	2560.074363
959.403031	2564.687019
959.702979	2562.786504
960.002889	2567.502504
960.302762	2563.681309
960.602596	2562.491597
960.902393	2565.342369
961.202153	2563.295661
961.501875	2562.897410
961.801559	2562.582337
962.101205	2561.939590
962.400814	2563.333469
962.700385	2564.127451
962.999918	2562.577296
963.299414	2563.036041
963.598873	2561.926987
963.898293	2559.600495
964.197677	2561.412790
964.497022	2563.600651
964.796331	2562.093346
965.095601	2564.503017
965.394835	2561.022100
965.694030	2561.165773
965.993189	2562.655434
966.292309	2561.775753
966.591393	2560.737275
966.890439	2559.517316
967.189447	2562.804148
967.488419	2563.227605
967.787353	2566.363203
968.086249	2563.227605
968.385108	2560.707028
968.683930	2562.226936
968.982714	2560.238201
969.281462	2563.656103
969.580172	2564.044272
969.878844	2561.037224
970.177480	2560.394477
970.476078	2562.214333
970.774639	2562.942780
971.073162	2560.160063
971.371649	2557.450443
971.670098	2559.459343
971.968510	2560.883469
972.266885	2555.890206
972.565223	2561.533777
972.863524	2560.651576
973.161788	2561.057388
973.460014	2560.545711
973.758204	2560.911195
974.056356	2562.776422
974.354471	2561.727862
974.652550	2560.800290
974.950591	2562.221895
975.248595	2556.885834
975.546563	2561.324570
975.844493	2562.756257
976.142386	2561.362378
976.440243	2562.930177
976.738062	2560.896072
977.035845	2559.781977
977.333590	2562.826833
977.631299	2562.662996
977.928971	2562.988150
978.226606	2561.889179
978.524204	2559.844991
978.821765	2561.987481
979.119290	2562.128634
979.416777	2561.586710
979.714228	2561.753068
980.011642	2562.070660
980.309020	2564.336659
980.606360	2562.489076
980.903664	2563.404046
981.200931	2562.116031
981.498162	2562.887327
981.795356	2564.301371
982.092513	2564.989488
982.389633	2563.119220
982.686717	2562.952862
982.983764	2562.773901
983.280775	2564.445044
983.577749	2563.519992
983.874686	2566.872359
984.171587	2564.049313
984.468451	2564.303892
984.765279	2563.416648
985.062070	2564.515620
985.358824	2566.877401
985.655543	2563.772050
985.952224	2565.753223
986.248869	2565.919581
986.545478	2561.795917
986.842050	2559.613098
987.138586	2559.403890
987.435086	2558.524209
987.731549	2557.374826
988.027975	2561.122923
988.324366	2560.669220
988.620719	2562.998233
988.917037	2560.296174
989.213318	2560.898592
989.509563	2561.311967
989.805772	2562.655434
990.101944	2561.120403
990.398080	2561.990002
990.694180	2560.828016
990.990244	2558.529250
991.286271	2559.920608
991.582262	2562.839436
991.878217	2563.424210
992.174136	2561.967317
992.470019	2559.895403
992.765865	2563.280537
993.061676	2560.986812
993.357450	2561.390105
993.653188	2561.110321
993.948890	2562.257183
994.244556	2561.621998
994.540186	2562.494117
994.835780	2558.645196
995.131337	2562.315156
995.426859	2561.127965
995.722345	2559.038406
996.017795	2561.599313
996.313208	2564.823130
996.608586	2563.774570
996.903928	2563.328428
997.199234	2561.185938
997.494504	2560.281051
997.789738	2565.208779
998.084936	2563.764488
998.380099	2561.702656
998.675225	2561.561504
998.970316	2562.988150
999.265371	2563.348593
999.560390	2561.463201
999.855373	2562.466391
1000.150320	2561.165773
1000.445232	2561.712738
1000.740108	2561.047306
1001.034948	2561.982440
1001.329752	2560.273489
1001.624521	2562.481514
1001.919254	2556.424568
1002.213951	2555.345761
1002.508613	2557.563869
1002.803239	2559.020762
1003.097829	2556.391801
1003.392384	2559.343396
1003.686903	2561.332131
1003.981386	2560.896072
1004.275834	2559.837429
1004.570246	2562.642831
1004.864623	2560.901113
1005.158964	2558.972871
1005.453270	2561.364899
1005.747540	2561.362378
1006.041775	2558.756102
1006.335974	2561.649724
1006.630138	2560.477656
1006.924266	2561.332131
1007.218359	2559.955896
1007.512416	2562.095866
1007.806438	2559.910526
1008.100425	2559.058571
1008.394376	2559.451781
1008.688292	2560.505382
1008.982172	2560.933880
1009.276017	2559.993705
1009.569827	2557.032027
1009.863602	2561.536298
1010.157341	2559.497151
1010.451045	2559.940773
1010.744714	2559.242573
1011.038347	2559.671071
1011.331945	2559.388767
1011.625508	2558.312480
1011.919036	2560.157543
1012.212528	2558.872048
1012.505986	2558.677964
1012.799408	2559.971020
1013.092795	2558.801472
1013.386147	2561.813562
1013.679464	2559.514795
1013.972745	2559.575289
1014.265992	2559.262738
1014.559204	2560.099569
1014.852380	2561.679971
1015.145521	2560.850701
1015.438628	2561.158212
1015.731699	2560.238201
1016.024736	2558.067984
1016.317737	2559.381205
1016.610703	2559.497151
1016.903635	2557.185782
1017.196531	2557.800803
1017.489393	2556.417006
1017.782219	2554.113199
1018.075011	2558.080587
1018.367768	2561.019580
1018.660490	2559.875238
1018.953177	2559.875238
1019.245829	2559.875238
