Dividing Wavelength (nm)	Counts (n)	Blue Motor Position (mm): 36.000000	Red Motor Position (mm): 0.000000	
326.493990	2231.040773
326.888308	2231.040773
327.282561	2231.040773
327.676750	2190.787159
328.070874	2188.448064
328.464933	2190.688857
328.858929	2193.499300
329.252859	2198.936184
329.646726	2206.933975
330.040528	2220.918136
330.434265	2233.185783
330.827938	2253.103382
331.221547	2269.522420
331.615091	2287.209309
332.008571	2304.245888
332.401986	2323.356902
332.795338	2340.280056
333.188625	2361.231091
333.581847	2382.943341
333.975006	2398.195352
334.368100	2416.252765
334.761129	2438.529624
335.154095	2451.195523
335.546996	2479.453711
335.939833	2517.975688
336.332606	2532.816845
336.725315	2546.090203
337.117960	2559.171997
337.510540	2571.079202
337.903056	2578.794688
338.295508	2592.723396
338.687896	2602.788060
339.080220	2606.321909
339.472480	2617.031840
339.864676	2618.302211
340.256807	2627.093983
340.648875	2629.193624
341.040879	2630.796711
341.432818	2634.292751
341.824694	2635.605972
342.216506	2638.761734
342.608253	2636.031949
342.999937	2638.517238
343.391557	2636.183184
343.783113	2639.323822
344.174605	2634.259983
344.566033	2637.110756
344.957397	2636.271404
345.348697	2632.780405
345.739934	2630.716052
346.131106	2632.672020
346.522215	2629.947276
346.913260	2627.789662
347.304241	2625.800927
347.695159	2625.470732
348.086012	2621.873868
348.476802	2619.592746
348.867528	2616.517642
349.258191	2615.383383
349.648789	2612.565378
350.039324	2608.615634
350.429796	2613.555965
350.820203	2611.448762
351.210548	2612.184771
351.600828	2607.267125
351.991045	2608.532455
352.381198	2608.802157
352.771288	2607.433483
353.161314	2607.042794
353.551276	2605.043976
353.941175	2603.324943
354.331010	2604.812083
354.720782	2604.733945
355.110490	2603.125817
355.500135	2603.214037
355.889717	2602.339397
356.279235	2605.202773
356.668689	2604.796960
357.058080	2605.411981
357.447408	2603.307299
357.836672	2604.691096
358.225873	2603.841661
358.615010	2606.606734
359.004084	2603.556836
359.393095	2608.552619
359.782043	2609.003803
360.170927	2609.086982
360.559748	2606.455499
360.948505	2607.612444
361.337199	2611.267281
361.725830	2609.530603
362.114398	2609.026488
362.502903	2611.161417
362.891344	2610.755604
363.279722	2611.894904
363.668037	2612.535131
364.056289	2614.533948
364.444478	2614.387755
364.832603	2613.883640
365.220665	2614.397837
365.608665	2615.096037
365.996601	2617.346912
366.384474	2614.060080
366.772284	2616.053856
367.160031	2618.070318
367.547715	2616.973867
367.935336	2619.628034
368.322893	2617.117540
368.710388	2616.252982
369.097820	2614.034874
369.485189	2614.906994
369.872495	2618.342540
370.259738	2620.134670
370.646918	2621.468056
371.034035	2617.034361
371.421090	2621.475617
371.808081	2622.398148
372.195010	2619.648199
372.581875	2620.323714
372.968678	2622.471245
373.355418	2622.456122
373.742096	2624.913684
374.128710	2623.862604
374.515262	2623.915536
374.901751	2620.608539
375.288177	2622.796400
375.674540	2625.213633
376.060841	2624.601133
376.447079	2624.948972
376.833254	2626.703294
377.219367	2628.276134
377.605417	2627.734210
377.991404	2624.028962
378.377329	2628.077008
378.763191	2625.790845
379.148991	2628.853346
379.534727	2630.718573
379.920402	2628.553397
380.306013	2628.122379
380.691563	2632.961886
381.077049	2631.555404
381.462474	2631.515075
381.847835	2632.026752
382.233134	2634.827113
382.618371	2635.616054
383.003545	2632.331742
383.388657	2636.069758
383.773706	2632.815693
384.158693	2635.623616
384.543618	2635.495066
384.928480	2635.500107
385.313280	2636.646970
385.698017	2640.632002
386.082692	2638.446662
386.467305	2638.870119
386.851856	2643.976807
387.236344	2640.296765
387.620770	2640.384985
388.005133	2638.857516
388.389435	2641.181488
388.773674	2639.583442
389.157851	2643.354225
389.541965	2643.603762
389.926018	2643.495377
390.310008	2643.865902
390.693936	2647.104843
391.077802	2648.024854
391.461606	2648.483599
391.845348	2651.336892
392.229027	2649.713641
392.612645	2651.863693
392.996200	2651.641882
393.379694	2650.414361
393.763125	2651.606594
394.146494	2652.009886
394.529801	2653.197078
394.913047	2654.510298
395.296230	2655.510968
395.679351	2655.321924
396.062410	2658.006339
396.445408	2656.519198
396.828343	2658.762512
397.211217	2656.768735
397.594028	2659.667399
397.976778	2660.017759
398.359466	2662.122441
398.742092	2664.927843
399.124656	2662.366937
399.507158	2667.781136
399.889598	2672.507218
400.271977	2676.925789
400.654294	2683.814526
401.036549	2688.843077
401.418742	2700.462936
401.800874	2712.639843
402.182944	2726.235835
402.564952	2746.990266
402.946898	2767.159922
403.328783	2788.357974
403.710606	2810.793629
404.092367	2857.237780
404.474067	2898.449213
404.855705	2932.575303
405.237282	2970.583083
405.618797	3045.918086
406.000250	3099.228288
406.381642	3188.192050
406.762972	3256.570261
407.144240	3327.451405
407.525447	3395.650655
407.906593	3476.099908
408.287677	3584.696444
408.668700	3642.858757
409.049661	3751.271291
409.430560	3842.218747
409.811399	3875.437431
410.192176	4047.310530
410.572891	4134.535094
410.953545	4300.857883
411.334138	4289.084268
411.714669	4448.964463
412.095139	4443.215027
412.475547	4641.952435
412.855894	4763.081279
413.236180	4943.761274
413.616405	4877.744844
413.996568	5081.326801
414.376670	5175.886244
414.756711	5206.012180
415.136691	5347.981154
415.516609	5555.134769
415.896466	5644.837060
416.276262	5855.655594
416.655997	5921.142703
417.035670	6143.094624
417.415283	6468.758204
417.794834	6579.739206
418.174324	6570.861734
418.553753	6590.499549
418.933121	6919.417193
419.312428	7066.036632
419.691674	6966.657846
420.070859	7421.886641
420.449983	7228.419759
420.829045	7600.832479
421.208047	7474.581822
421.586988	7792.474463
421.965867	7862.468364
422.344686	8025.020369
422.723444	8090.169721
423.102141	7578.243069
423.480777	8299.712843
423.859352	7894.630925
424.237866	8519.774331
424.616319	8435.065303
424.994712	8843.751645
425.373044	8474.502249
425.751314	8939.127755
426.129524	8823.773552
426.507673	8992.248914
426.885762	9152.121546
427.263789	9083.498840
427.641756	9019.468624
428.019662	9135.193352
428.397508	9376.578921
428.775292	9101.765461
429.153016	9483.748811
429.530679	9327.480603
429.908282	9388.740705
430.285824	9110.504301
430.663305	9784.239389
431.040726	9246.958253
431.418086	9245.854240
431.795385	9569.148478
432.172624	9652.330037
432.549802	9578.610723
432.926920	9670.115227
433.303977	9543.995641
433.680974	9755.119164
434.057910	9830.701183
434.434786	9900.679960
434.811601	9754.693186
435.188355	10317.653960
435.565050	10042.618688
435.941683	9979.516045
436.318257	10468.777670
436.694770	10584.041132
437.071222	10667.298308
437.447614	10517.646615
437.823946	10404.046734
438.200218	10557.328057
438.576429	10363.672132
438.952580	10601.934707
439.328670	10665.402834
439.704700	10442.346900
440.080670	10428.791237
440.456580	11002.819864
440.832429	10748.425597
441.208218	10350.857519
441.583947	10688.798829
441.959616	10824.287401
442.335224	10623.702410
442.710773	10780.202510
443.086261	10972.033538
443.461689	10264.714282
443.837057	10898.011755
444.212365	11188.309120
444.587612	10828.408544
444.962800	11070.114227
445.337927	10851.025681
445.712995	10415.280945
446.088002	11504.870896
446.462949	11157.164871
446.837837	11132.836263
447.212664	11126.907866
447.587431	11636.820578
447.962139	12358.401257
448.336786	14617.874137
448.711374	15162.563248
449.085901	13022.207792
449.460369	12627.755148
449.834776	12076.096641
450.209124	12939.505143
450.583412	13346.381711
450.957640	14298.549808
451.331808	13462.900420
451.705917	12441.403855
452.079965	11751.431210
452.453954	12657.727328
452.827883	12280.152467
453.201752	12570.865727
453.575562	12089.397726
453.949311	12502.631189
454.323001	12463.796660
454.696632	12688.942153
455.070202	12980.560300
455.443713	13223.982496
455.817164	13677.608204
456.190556	13673.030836
456.563888	14033.959808
456.937160	14211.925141
457.310373	13553.195047
457.683526	13631.700936
458.056619	13182.466073
458.429653	13320.893637
458.802628	12767.574070
459.175542	13130.572435
459.548398	14091.681019
459.921194	14411.983332
460.293930	14481.289115
460.666607	15360.511716
461.039224	16402.230870
461.411782	17096.730471
461.784280	16973.186913
462.156719	17019.079058
462.529099	16717.055969
462.901419	15646.365303
463.273680	15427.879175
463.645882	15298.495441
464.018024	15038.513055
464.390106	15257.412558
464.762130	15984.062117
465.134094	16738.243938
465.505999	18726.578359
465.877845	21991.499292
466.249631	24814.006042
466.621358	24508.139073
466.993026	23067.838570
467.364634	22508.847705
467.736184	21046.262781
468.107674	20235.181456
468.479105	20374.861747
468.850477	19833.121711
469.221790	19419.477393
469.593043	18742.329444
469.964238	18185.196245
470.335373	17844.699070
470.706449	18282.329197
471.077467	17838.581630
471.448425	19670.950312
471.819324	23697.395506
472.190164	25723.636883
472.560945	22158.532883
472.931667	19801.889242
473.302330	19159.580707
473.672934	18687.930353
474.043479	19008.588067
474.413965	18819.433892
474.784393	18448.750288
475.154761	19150.151229
475.525070	19124.227095
475.895321	18801.885636
476.265513	19389.414473
476.635645	19965.066351
477.005719	19755.855946
477.375734	19935.469737
477.745691	20424.249931
478.115588	20937.764547
478.485427	21466.480762
478.855207	22522.751207
479.224928	24294.011023
479.594591	26502.628743
479.964194	26545.339919
480.333739	26745.836690
480.703226	26310.638919
481.072653	26000.088719
481.442022	26568.458650
481.811333	27475.568915
482.180584	27400.269200
482.549777	26458.899254
482.918912	26099.054131
483.287988	26231.354172
483.657005	25889.158128
484.025964	25642.723843
484.394864	25559.280144
484.763706	25238.330043
485.132489	24664.150182
485.501213	24858.400963
485.869879	24769.664053
486.238487	24589.689819
486.607036	24734.181891
486.975527	24421.713532
487.343959	24759.291879
487.712333	24697.086561
488.080648	24359.495611
488.448905	24839.070659
488.817104	24580.935856
489.185244	25257.864515
489.553326	25229.750000
489.921350	26231.205458
490.289315	28508.904630
490.657222	30296.482660
491.025070	30792.408691
491.392861	30576.072614
491.760593	29718.857170
492.128267	28820.468102
492.495883	27770.176466
492.863440	26897.746820
493.230939	26035.018874
493.598380	25889.609312
493.965763	25498.317471
494.333088	25035.652974
494.700354	24963.430883
495.067563	24825.383926
495.434713	24583.012811
495.801805	24729.624688
496.168839	24542.348343
496.535815	24379.012438
496.902733	24593.367341
497.269593	24275.131902
497.636395	24457.909017
498.003139	24418.025928
498.369825	24158.061186
498.736453	24358.341187
499.103023	24245.482355
499.469535	24245.431944
499.835989	24456.517658
500.202385	24491.344469
500.568723	23993.553212
500.935003	24240.171500
501.301226	23852.612633
501.667390	24698.729977
502.033497	24924.477887
502.399546	24656.260776
502.765537	24227.107349
503.131470	24613.433654
503.497345	24740.430402
503.863163	23968.380211
504.228923	24556.352669
504.594625	24766.493167
504.960269	24303.785820
505.325856	24796.740090
505.691385	24196.094171
506.056856	24803.041532
506.422270	24762.384627
506.787625	24335.222455
507.152924	24747.150260
507.518164	24783.383553
507.883347	24593.339615
508.248472	24272.213073
508.613540	25062.270266
508.978550	24849.707493
509.343503	24829.893238
509.708398	25097.510452
510.073236	25246.652988
510.438016	25456.538908
510.802738	25130.572859
511.167403	25382.728854
511.532010	25093.011222
511.896561	25864.471598
512.261053	25825.367368
512.625488	25659.236143
512.989866	25557.583796
513.354186	25408.342957
513.718449	25516.014441
514.082655	25895.409159
514.446803	25623.091070
514.810894	26093.458450
515.174927	25578.370994
515.538904	25613.959019
515.902822	26105.151406
516.266684	25868.181887
516.630488	25767.227740
516.994235	25730.634005
517.357925	26039.845779
517.721558	26221.367646
518.085133	26318.341802
518.448651	26237.350625
518.812112	25972.924461
519.175516	26165.131055
519.538863	26323.987895
519.902152	26112.503929
520.265385	26386.014252
520.628560	26185.439343
520.991678	26187.344899
521.354739	26259.153615
521.717743	26338.352663
522.080690	26110.663908
522.443580	26451.564375
522.806413	26433.380933
523.169189	26542.436214
523.531908	26586.800889
523.894569	26200.280500
524.257174	26276.137262
524.619722	26445.744363
524.982213	26138.276828
525.344647	26198.445520
525.707025	26339.668404
526.069345	26305.794370
526.431608	26281.503571
526.793815	26446.533303
527.155964	25922.162563
527.518057	26091.711690
527.880093	26013.886357
528.242072	26253.779745
528.603995	25952.956451
528.965860	25757.659630
529.327669	25798.981968
529.689421	25784.564268
530.051117	25623.227181
530.412755	25810.536293
530.774337	25607.208914
531.135862	25476.769059
531.497331	25667.082699
531.858743	25233.936678
532.220098	25713.846962
532.581396	25392.140688
532.942638	25315.532794
533.303824	25420.227477
533.664953	25434.536792
534.026025	25089.535347
534.387040	25331.727501
534.747999	25390.101542
535.108902	25543.829008
535.469748	25047.378697
535.830537	25227.678085
536.191270	25353.313722
536.551947	25207.349633
536.912567	24856.230747
537.273131	25226.422838
537.633638	24920.311374
537.994089	25136.745752
538.354483	24655.986033
538.714821	25156.560007
539.075103	25206.538007
539.435328	24979.403779
539.795497	24549.501741
540.155609	24946.369098
540.515665	25247.018472
540.875665	24470.491737
541.235609	24777.218222
541.595496	24746.888120
541.955328	25091.342600
542.315102	25011.495764
542.674821	24547.502923
543.034483	24438.198105
543.394090	24592.762402
543.753640	24396.842999
544.113134	25016.055488
544.472571	24622.613595
544.831953	24919.366157
545.191278	24554.870570
545.550548	24453.371978
545.909761	24657.463092
546.268918	24878.588264
546.628019	24844.555434
546.987064	24552.564242
547.346053	24293.746362
547.704986	24433.219966
548.063863	24573.522839
548.422684	24590.894655
548.781449	24112.559731
549.140158	24523.953173
549.498811	24094.671197
549.857408	23843.505789
550.215949	24258.934674
550.574434	23965.234531
550.932864	24162.157123
551.291237	24333.160623
551.649555	24194.291958
552.007817	24237.348453
552.366022	24090.229940
552.724173	24155.659076
553.082267	24094.325878
553.440305	24579.446195
553.798288	23821.806142
554.156215	24337.254040
554.514086	24426.432052
554.871902	23810.597136
555.229661	24098.174799
555.587365	23947.388846
555.945014	23824.001564
556.302606	24065.639192
556.660143	24029.771382
557.017625	24270.998155
557.375050	23789.076451
557.732421	24180.189331
558.089735	23984.116172
558.446994	24054.183170
558.804197	24079.908178
559.161345	24016.682026
559.518437	23784.972951
559.875474	23974.308608
560.232455	24151.721935
560.589381	23979.768177
560.946251	23965.685714
561.303065	24283.900989
561.659825	24374.460276
562.016528	23983.213806
562.373177	23710.184913
562.729770	24068.794954
563.086307	23934.831332
563.442789	24103.785603
563.799216	23921.681482
564.155587	23928.471916
564.511904	23915.576645
564.868164	23851.763199
565.224370	23832.624458
565.580520	23752.328960
565.936615	23878.650193
566.292654	23575.003853
566.648638	23851.586758
567.004567	23696.407440
567.360441	23635.008707
567.716260	23343.710673
568.072023	23688.626419
568.427732	23446.628349
568.783385	23222.778433
569.138982	23462.170227
569.494525	23499.636082
569.850013	23245.879521
570.205445	23348.484646
570.560823	23152.633298
570.916145	22908.356627
571.271412	23088.219955
571.626625	22842.025124
571.981782	22955.551909
572.336884	22772.255555
572.691931	22913.130599
573.046923	22637.865955
573.401860	22506.165811
573.756743	22523.973687
574.111570	22426.155138
574.466342	22356.355322
574.821059	22444.699022
575.175722	22150.225062
575.530330	22138.191827
575.884882	22148.443014
576.239380	22054.990104
576.593823	21966.162452
576.948211	21925.871030
577.302544	21779.140686
577.656823	21643.188328
578.011047	21744.409656
578.365216	21620.793002
578.719330	21490.285091
579.073389	21385.159389
579.427394	21538.614633
579.781344	21299.817696
580.135239	21182.429387
580.489080	21148.779685
580.842866	20916.601783
581.196597	21110.706371
581.550273	21094.819175
581.903895	20978.890280
582.257463	21291.401489
582.610975	20817.800209
582.964434	21140.882718
583.317837	20826.415541
583.671186	20913.456103
584.024481	20896.326263
584.377721	20659.490334
584.730906	20734.079247
585.084037	20744.244733
585.437113	20656.200981
585.790135	20867.332066
586.143103	20317.115330
586.496016	20345.633137
586.848874	20575.295503
587.201679	20502.743217
587.554428	20184.152376
587.907124	20519.174858
588.259765	20283.140473
588.612352	20366.435458
588.964884	19937.841599
589.317362	20107.962898
589.669786	20163.884417
590.022155	20176.194915
590.374470	20396.621888
590.726731	20175.519400
591.078937	19952.529001
591.431090	20045.014010
591.783188	19796.717018
592.135232	19764.042779
592.487222	19863.061123
592.839157	19877.556961
593.191038	19759.566235
593.542866	19643.647423
593.894639	19358.466829
594.246358	19585.333876
594.598022	19486.678495
594.949633	19237.443849
595.301190	19208.820177
595.652692	19376.403254
596.004141	19612.246075
596.355535	18934.871274
596.706876	18946.957441
597.058162	18846.225104
597.409395	19076.283201
597.760573	19142.135794
598.111698	18913.227080
598.462768	18853.905302
598.813785	18826.340273
599.164748	18642.260020
599.515657	18673.280760
599.866511	18477.615935
600.217312	18835.885698
600.568060	18351.307305
600.918753	18660.007402
601.269392	18559.801866
601.619978	18349.147171
601.970510	18542.175472
602.320988	18487.678078
602.671412	18701.828814
603.021783	18613.215412
603.372100	18337.509667
603.722363	18492.028594
604.072572	18432.003575
604.422728	18566.493998
604.772830	18329.058172
605.122878	18278.011449
605.472872	18271.026930
605.822813	18256.573942
606.172701	18225.850630
606.522534	18420.882790
606.872314	18446.781718
607.222041	18284.668292
607.571714	18490.168408
607.921333	18317.788673
608.270899	18399.898987
608.620411	18581.483869
608.969870	18350.641873
609.319276	18343.370008
609.668627	18372.500316
610.017926	18513.254372
610.367171	18613.701883
610.716362	18685.369447
611.065500	18482.057192
611.414585	18633.770717
611.763616	18603.624617
612.112594	18545.769815
612.461518	18520.891720
612.810389	18704.253609
613.159207	18565.561385
613.507971	18493.394747
613.856682	18745.701976
614.205340	18676.655812
614.553945	18824.500252
614.902496	18571.940965
615.250994	18803.972673
615.599439	18741.850535
615.947830	18720.007215
616.296169	18786.404252
616.644454	18747.330269
616.992686	18722.963852
617.340864	18935.009906
617.688990	18687.683337
618.037063	18859.879070
618.385082	18710.862562
618.733048	18989.963524
619.080961	18869.129587
619.428821	18899.338701
619.776628	18789.497000
620.124382	18706.343167
620.472083	18765.002034
620.819731	18780.254045
621.167326	18463.334346
621.514868	18510.668260
621.862357	18279.977499
622.209793	18287.967727
622.557176	18118.564794
622.904506	17945.920398
623.251783	17865.440897
623.599007	17611.192824
623.946179	17561.822283
624.293297	17495.979773
624.640363	17249.419459
624.987376	17275.325949
625.334336	17066.155873
625.681243	16917.318326
626.028097	16929.664112
626.374899	16841.660689
626.721647	16710.134465
627.068343	16543.617591
627.414987	16481.135010
627.761577	16450.608303
628.108115	16487.295300
628.454600	16214.304216
628.801032	16317.242057
629.147412	16247.248157
629.493739	16252.415339
629.840014	16070.245683
630.186236	16174.030438
630.532405	15928.765701
630.878521	16135.727751
631.224585	16028.600712
631.570597	15840.134654
631.916556	15884.776592
632.262462	15857.388003
632.608316	15770.975065
632.954117	15718.645367
633.299866	15713.115222
633.645562	15628.519619
633.991206	15379.413522
634.336797	15258.274595
634.682336	15231.654782
635.027823	15109.842861
635.373257	14980.557430
635.718639	14892.473349
636.063968	14834.343804
636.409245	14587.715434
636.754470	14610.017499
637.099642	14461.880672
637.444762	14237.085540
637.789829	14273.386889
638.134845	14109.617444
638.479808	14149.003979
638.824719	14077.827928
639.169577	13934.845682
639.514383	13986.809896
639.859137	13806.066886
640.203839	13894.327408
640.548489	13736.579622
640.893086	13722.857601
641.237632	13594.562756
641.582125	13741.593049
641.926566	13570.808839
642.270955	13590.360954
642.615292	13546.296228
642.959576	13553.762177
643.303809	13586.769132
643.647990	13515.272968
643.992118	13583.283174
644.336195	13346.706865
644.680219	13562.677458
645.024192	13481.484634
645.368112	13731.530906
645.711981	13774.708389
646.055797	13960.696719
646.399562	13927.490638
646.743274	14196.005177
647.086935	14469.835613
647.430544	14435.457464
647.774101	14472.036077
648.117606	14614.841883
648.461059	14587.733078
648.804460	14582.835597
649.147810	14297.082832
649.491108	14200.796794
649.834354	14223.870155
650.177548	13909.024892
650.520690	13722.754257
650.863781	13636.666473
651.206820	13690.392570
651.549807	13518.539635
651.892742	13320.697032
652.235626	13255.782094
652.578458	13252.253286
652.921238	12945.761215
653.263967	13141.476451
653.606644	12970.001603
653.949269	12949.428654
654.291843	12752.871545
654.634365	12916.724169
654.976836	12763.188267
655.319255	12763.402516
655.661622	12719.337790
656.003938	12645.222746
656.346203	12568.710633
656.688416	12651.672902
657.030577	12607.787137
657.372687	12519.529137
657.714746	12493.219355
658.056753	12686.885362
658.398708	12498.497443
658.740612	12496.634736
659.082465	12609.365019
659.424266	12574.452508
659.766016	12602.680449
660.107715	12506.454904
660.449362	12585.003643
660.790958	12539.040922
661.132503	12486.174342
661.473996	12552.994836
661.815438	12565.688462
662.156829	12596.278183
662.498168	12565.081003
662.839456	12566.976477
663.180693	12582.997263
663.521879	12674.688290
663.863013	12657.528203
664.204097	12627.467802
664.545129	12751.956576
664.886110	12721.185373
665.227040	12811.971512
665.567918	12810.254999
665.908746	12845.011235
666.249522	12833.000686
666.590248	12875.769835
666.930922	12995.918175
667.271545	12971.282056
667.612118	13054.778687
667.952639	12955.377216
668.293109	12982.135660
668.633528	12930.660438
668.973896	12906.535997
669.314213	12983.093480
669.654480	12726.181156
669.994695	12796.795119
670.334859	12814.126606
670.674973	12769.391406
671.015035	12799.880305
671.355047	12743.096748
671.695008	12718.314436
672.034918	12718.657234
672.374777	12762.258174
672.714585	12673.463290
673.054342	12708.963095
673.394049	12656.966114
673.733705	12762.409408
674.073310	12667.330726
674.412864	12675.275585
674.752368	12533.692258
675.091820	12570.366652
675.431223	12549.302191
675.770574	12422.759147
676.109875	12336.903256
676.449125	12301.118626
676.788324	12248.678023
677.127473	12079.592682
677.466571	12065.542986
677.805619	11965.367697
678.144616	11885.495656
678.483562	11858.311233
678.822458	11725.108825
679.161303	11704.868593
679.500098	11692.149762
679.838842	11642.191927
680.177535	11676.043275
680.516179	11734.334137
680.854771	11685.891169
681.193314	11893.165771
681.531805	12063.902090
681.870247	12482.184269
682.208638	12898.956622
682.546978	13211.828274
682.885268	13246.332451
683.223508	12941.420781
683.561697	12792.797484
683.899836	12681.887058
684.237925	12479.129330
684.575963	12403.023030
684.913951	12324.222234
685.251889	12276.084256
685.589776	12370.958771
685.927614	12294.774333
686.265401	12262.483222
686.603137	12314.291161
686.940824	12464.157103
687.278460	12589.943973
687.616046	12639.952220
687.953582	12803.048670
688.291068	12733.271539
688.628504	12961.744193
688.965889	12981.281185
689.303224	12943.326338
689.640510	12822.073985
689.977745	12514.235925
690.314930	12290.917851
690.652065	12199.257071
690.989150	11898.816905
691.326185	11680.144254
691.663170	11475.987605
692.000105	11231.663043
692.336990	11117.453182
692.673825	10858.521876
693.010610	10747.954249
693.347345	10535.928359
693.684030	10339.220016
694.020665	10283.308578
694.357251	10079.640922
694.693786	10017.874184
695.030272	9854.903763
695.366707	9738.677440
695.703093	9668.870062
696.039429	9670.435341
696.375716	9584.213966
696.711952	9456.110685
697.048139	9504.757820
697.384276	9459.949524
697.720363	9476.252615
698.056400	9409.971524
698.392388	9354.486065
698.728326	9324.574378
699.064214	9260.927290
699.400053	9297.921798
699.735842	9117.115774
700.071581	9074.197911
700.407270	9001.186880
700.742910	8924.004294
701.078501	8831.952824
701.414042	8701.442392
701.749533	8636.446796
702.084974	8500.103749
702.420366	8620.395762
702.755709	8497.923450
703.091002	8364.489149
703.426246	8392.207933
703.761440	8340.137855
704.096584	8300.539592
704.431679	8234.518120
704.766725	8215.729740
705.101721	8169.872884
705.436668	8215.152528
705.771565	8109.288297
706.106413	8188.759567
706.441212	8228.945125
706.775961	8192.507665
707.110661	8232.592400
707.445311	8365.421762
707.779913	8270.030529
708.114465	8398.995847
708.448967	8429.623377
708.783421	8580.006038
709.117825	8760.310467
709.452180	8795.477556
709.786485	8879.095175
710.120742	9171.348507
710.454949	9167.028238
710.789107	9272.980689
711.123216	9490.660233
711.457275	9652.340119
711.791286	9808.615888
712.125247	9808.338625
712.459159	9802.982399
712.793023	10042.898472
713.126837	9616.926013
713.460602	9767.817830
713.794318	9600.539743
714.127985	9627.681315
714.461602	9298.730903
714.795171	9249.148634
715.128691	8994.371240
715.462162	8755.455835
715.795584	8694.919139
716.128957	8542.139410
716.462281	8379.340388
716.795556	8428.862163
717.128782	8220.440698
717.461960	7958.396480
717.795088	8029.254939
718.128167	7934.493849
718.461198	7765.242150
718.794180	7710.989252
719.127113	7698.061213
719.459997	7540.305865
719.792833	7310.033519
720.125619	7379.306535
720.458357	7232.205666
720.791046	7221.304171
721.123686	7218.077832
721.456278	7058.343831
721.788821	7078.276554
722.121315	6975.991542
722.453761	7038.685852
722.786158	6972.994576
723.118506	6993.522155
723.450805	6960.114428
723.783056	7022.034921
724.115259	6938.003927
724.447412	6933.600479
724.779518	6983.190310
725.111574	6987.523182
725.443582	7065.930768
725.775542	7045.004938
726.107453	7238.897797
726.439315	7142.248796
726.771129	7209.762449
727.102895	7379.777883
727.434612	7493.748289
727.766281	7523.675099
728.097901	7600.819876
728.429473	7593.961386
728.760996	7576.690393
729.092471	7553.110396
729.423897	7497.622416
729.755276	7505.090885
730.086606	7428.278824
730.417887	7531.012498
730.749120	7741.599138
731.080305	7931.605268
731.411442	8041.336064
731.742530	8041.323461
732.073570	8153.166500
732.404562	8234.210610
732.735506	8085.360460
733.066401	8226.104435
733.397249	8151.447467
733.728048	7908.496619
734.058798	7572.193684
734.389501	7343.378232
734.720156	7166.181674
735.050762	6935.075017
735.381320	6846.912798
735.711831	6787.076822
736.042293	6682.293919
736.372707	6698.735642
736.703073	6565.732360
737.033391	6599.349294
737.363661	6612.423527
737.693883	6645.221274
738.024056	6733.108750
738.354182	6773.049812
738.684260	6806.190357
739.014290	6926.457164
739.344272	7033.627054
739.674207	7063.337094
740.004093	7134.621530
740.333931	7146.145608
740.663722	7153.369581
740.993464	7229.937147
741.323159	7215.895012
741.652806	6963.383616
741.982405	6994.021229
742.311956	7036.833228
742.641460	6866.774944
742.970915	6677.693866
743.300323	6667.321692
743.629683	6619.390401
743.958996	6485.512479
744.288260	6391.868005
744.617477	6344.662640
744.946647	6337.829356
745.275768	6176.585530
745.604842	6131.217666
745.933869	6113.629080
746.262847	6072.392442
746.591778	6063.489764
746.920662	6026.434763
747.249498	6013.294995
747.578286	6062.254681
747.907027	6137.960209
748.235720	6194.642943
748.564365	6172.862638
748.892963	6206.386311
749.221514	6352.393250
749.550017	6177.712228
749.878473	6056.805194
750.206881	6115.675788
750.535242	6058.105812
750.863555	5984.782229
751.191821	6007.233008
751.520039	6001.100444
751.848210	5908.232308
752.176334	5939.121978
752.504411	5986.213917
752.832440	5905.815074
753.160421	5840.514488
753.488356	5887.006529
753.816243	5919.660603
754.144082	5770.248365
754.471875	5743.074025
754.799620	5781.785046
755.127318	5797.301717
755.454969	5750.512248
755.782572	5717.475046
756.110129	5761.043218
756.437638	5742.683336
756.765100	5680.225960
757.092515	5685.317526
757.419882	5739.232666
757.747203	5715.231733
758.074477	5779.415703
758.401703	5763.851141
758.728882	5717.056630
759.056014	5776.310353
759.383099	5903.947327
759.710138	5913.278503
760.037129	5901.827522
760.364073	5901.635958
760.690970	5988.978989
761.017820	5966.102233
761.344623	5923.953146
761.671379	6028.420977
761.998088	6147.974461
762.324751	6406.643627
762.651366	7021.049375
762.977935	8350.323507
763.304456	9991.519032
763.630931	10880.468540
763.957359	10461.079828
764.283740	9512.095219
764.610074	8653.279209
764.936362	7651.790983
765.262602	7064.274749
765.588796	6529.990579
765.914943	6192.407191
766.241044	6025.454258
766.567097	5818.698895
766.893104	5563.190533
767.219064	5386.213265
767.544978	5319.281866
767.870845	5241.517026
768.196665	5135.791427
768.522438	5067.312393
768.848165	5033.667733
769.173846	4961.672494
769.499479	4918.195063
769.825066	4868.660685
770.150607	4810.737827
770.476101	4781.378147
770.801548	4780.664824
771.126949	4698.415878
771.452303	4646.975945
771.777611	4609.275676
772.102872	4626.347543
772.428087	4593.118778
772.753256	4548.577663
773.078378	4501.029500
773.403453	4428.376390
773.728482	4412.557250
774.053465	4370.398080
774.378401	4357.888457
774.703291	4354.946943
775.028135	4283.360038
775.352932	4232.635948
775.677683	4226.571440
776.002388	4242.662803
776.327046	4251.928444
776.651658	4180.119728
776.976224	4114.483905
777.300743	4123.762149
777.625216	4145.618071
777.949643	4136.153305
778.274024	4094.934310
778.598359	4050.481416
778.922647	4077.875046
779.246889	4065.539342
779.571086	4059.684042
779.895236	4043.007905
780.219339	4030.407541
780.543397	4028.358312
780.867409	4079.281528
781.191374	4090.936675
781.515294	4027.324876
781.839167	4018.283566
782.162995	4042.105539
782.486776	4026.591388
782.810511	4040.043707
783.134201	4032.474414
783.457844	3988.717199
783.781441	3934.093776
784.104993	3941.408491
784.428498	3961.918425
784.751958	3953.827373
785.075372	3935.122172
785.398739	3894.989546
785.722061	3910.619643
786.045337	3953.885346
786.368568	3983.761745
786.691752	3893.068866
787.014891	3948.682876
787.337983	4077.386054
787.661030	4240.890838
787.984031	4400.017379
788.306987	4568.217998
788.629897	4652.027181
788.952760	4604.226960
789.275579	4538.467629
789.598351	4471.334583
789.921078	4325.176409
790.243759	4129.806492
790.566395	4111.181949
790.888984	4105.611474
791.211529	3998.514681
791.534027	3936.697532
791.856480	3923.456942
792.178888	3862.048126
792.501249	3817.290242
792.823566	3830.157787
793.145836	3854.234338
793.468062	3799.953714
793.790241	3756.272116
794.112375	3788.830408
794.434464	3854.012527
794.756507	3877.068244
795.078505	3854.194008
795.400457	3894.709762
795.722364	4031.783776
796.044226	4138.003408
796.366042	4210.787588
796.687812	4183.353628
797.009538	4193.556924
797.331218	4152.161489
797.652852	4128.752891
797.974442	4105.185497
798.295986	4102.924539
798.617484	4021.499822
798.938938	3935.162501
799.260346	3978.319819
799.581709	3971.468891
799.903026	3894.727406
800.224299	3863.525184
800.545526	3853.977239
800.866708	3814.689006
801.187845	3759.425357
801.508936	3791.262764
801.829983	3786.042650
802.150984	3708.499621
802.471940	3701.210113
802.792851	3709.459961
803.113717	3709.192780
803.434538	3711.698233
803.755314	3654.622289
804.076045	3629.363588
804.396731	3651.557268
804.717372	3672.152902
805.037967	3660.467507
805.358518	3650.077689
805.679024	3678.603058
805.999485	3689.257537
806.319901	3696.539484
806.640272	3709.762430
806.960598	3722.982856
807.280879	3695.526212
807.601115	3709.293603
807.921306	3726.431005
808.241453	3766.891306
808.561554	3736.934249
808.881611	3674.237419
809.201623	3712.436762
809.521590	3723.403793
809.841513	3697.477138
810.161390	3726.942683
810.481223	3702.402346
810.801011	3648.041063
811.120755	3643.239364
811.440453	3678.030887
811.760107	3675.442255
812.079716	3632.252169
812.399281	3605.153447
812.718801	3627.526087
813.038276	3601.188579
813.357707	3599.623301
813.677093	3616.775827
813.996434	3560.254410
814.315731	3570.921492
814.634983	3578.589087
814.954191	3594.125923
815.273354	3619.873616
815.592473	3614.608131
815.911547	3623.346971
816.230577	3663.945903
816.549562	3715.012792
816.868502	3756.778752
817.187399	3779.531999
817.506250	3780.325981
817.825058	3751.982094
818.143821	3850.398020
818.462539	3950.285962
818.781213	3995.757170
819.099843	4054.572312
819.418429	4308.394408
819.736970	4549.429618
820.055466	4801.386487
820.373919	5170.973640
820.692327	5581.104273
821.010691	6046.990067
821.329011	7473.956719
821.647286	10288.773189
821.965517	14926.332258
822.283704	18952.447257
822.601847	21040.087367
822.919945	19171.228293
823.237999	16550.110598
823.556010	14045.002455
823.873976	11925.875298
824.191897	9825.544083
824.509775	8475.807908
824.827609	7347.600198
825.145398	6813.046326
825.463144	6697.437545
825.780845	6814.107489
826.098502	7015.504106
826.416116	7927.864732
826.733685	9269.625801
827.051210	10373.255366
827.368692	10373.295695
827.686129	9074.644053
828.003522	7568.838796
828.320872	6548.204268
828.638177	5841.671433
828.955439	5276.187562
829.272656	4777.657776
829.589830	4496.038757
829.906960	4318.638033
830.224046	4133.363026
830.541088	4006.835106
830.858086	3960.879947
831.175041	3881.547309
831.491952	3872.624467
831.808819	3879.979510
832.125642	3951.967187
832.442421	4105.341772
832.759157	4390.156882
833.075849	4952.469868
833.392497	5835.117933
833.709101	6616.940401
834.025662	6939.980060
834.342179	6547.977416
834.658653	5881.988061
834.975083	5224.382144
835.291469	4647.666583
835.607811	4243.315633
835.924110	4099.375567
836.240366	3897.247983
836.556578	3694.442364
836.872746	3586.057556
837.188871	3544.294117
837.504952	3477.271977
837.820990	3396.036303
838.136984	3354.167000
838.452935	3375.949825
838.768842	3369.164432
839.084706	3393.513205
839.400526	3561.013104
839.716303	3906.064961
840.032037	4446.297692
840.347727	4695.411351
840.663373	4402.490065
840.978977	4015.243750
841.294537	3707.067933
841.610054	3481.650219
841.925527	3372.322715
842.240957	3304.342756
842.556344	3249.900815
842.871687	3190.725230
843.186987	3139.350831
843.502244	3103.775409
843.817458	3071.764082
844.132629	3041.935574
844.447756	3046.477654
844.762840	3029.385622
845.077881	2999.789008
845.392879	2981.832418
845.707833	2978.215390
846.022745	2976.902169
846.337613	2977.151706
846.652438	2965.854481
846.967221	2962.786938
847.281960	2948.956533
847.596656	2941.203238
847.911309	2942.869340
848.225919	2940.227775
848.540485	2933.328956
848.855009	2933.843154
849.169490	2921.346133
849.483928	2914.948909
849.798323	2913.302972
850.112675	2911.452869
850.426984	2923.423089
850.741251	2915.808426
851.055474	2909.754000
851.369654	2904.178484
851.683792	2909.680903
851.997887	2914.827921
852.311938	2917.701379
852.625947	2905.219482
852.939914	2911.175605
853.253837	2916.158786
853.567718	2898.880231
853.881555	2898.194634
854.195350	2914.306162
854.509103	2908.140831
854.822812	2901.476425
855.136479	2898.010632
855.450103	2902.277969
855.763685	2893.720610
856.077224	2888.805485
856.390720	2905.726118
856.704173	2913.557551
857.017584	2904.367527
857.330953	2902.252763
857.644278	2912.894639
857.957561	2921.842687
858.270802	2923.962492
858.584000	2924.365784
858.897155	2910.875657
859.210268	2910.598393
859.523339	2909.375913
859.836367	2907.598907
860.149352	2902.015829
860.462295	2899.522978
860.775195	2906.472209
861.088054	2906.631005
861.400869	2887.487223
861.713642	2886.831873
862.026373	2902.507341
862.339062	2904.445665
862.651708	2909.469175
862.964312	2913.040832
863.276873	2904.425500
863.589392	2917.119126
863.901869	2927.045158
864.214303	2947.577777
864.526696	2966.464460
864.839045	2957.894499
865.151353	2959.507668
865.463619	2959.996660
865.775842	2960.546146
866.088023	2979.775627
866.400162	2984.360556
866.712258	2956.651854
867.024313	2947.222376
867.336325	2956.961885
867.648296	2976.219093
867.960224	2970.058803
868.272110	2955.207564
868.583954	2961.521609
868.895755	2973.378403
869.207515	2958.854838
869.519233	2965.869604
869.830909	2977.096254
870.142542	2983.566575
870.454134	2987.027327
870.765684	2987.236535
871.077191	2986.253510
871.388657	2998.042248
871.700081	3010.836696
872.011463	3019.739374
872.322803	3020.503109
872.634101	3021.627286
872.945357	3038.663866
873.256571	3065.883576
873.567744	3053.192471
873.878874	3049.951009
874.189963	3072.522775
874.501010	3074.365317
874.812015	3064.925757
875.122979	3064.492217
875.433900	3060.844942
875.744780	3066.354924
876.055618	3072.328691
876.366415	3073.009247
876.677169	3083.903180
876.987882	3080.513004
877.298554	3073.606623
877.609183	3094.792072
877.919771	3121.830301
878.230317	3149.234013
878.540822	3199.234698
878.851285	3238.318764
879.161707	3284.294087
879.472087	3391.151425
879.782425	3629.030872
880.092722	4075.465374
880.402977	4611.307261
880.713191	5254.576135
881.023363	6440.119409
881.333494	7739.073520
881.643583	8268.427442
881.953631	7962.058878
882.263637	7309.708365
882.573602	6711.850204
882.883526	6129.521317
883.193408	5550.083533
883.503248	5090.668059
883.813048	4783.482829
884.122806	4468.133450
884.432522	4154.132580
884.742197	3914.682813
885.051831	3720.421950
885.361424	3584.290632
885.670975	3510.178108
885.980485	3422.502361
886.289954	3344.170392
886.599382	3300.733289
886.908768	3262.354985
887.218113	3214.884960
887.527417	3157.304901
887.836680	3109.913013
888.145901	3103.724997
888.455082	3092.251331
888.764221	3038.338711
889.073319	3011.171933
889.382376	3012.139835
889.691392	3016.724764
890.000366	3012.759897
890.309300	3001.082064
890.618193	3015.734177
890.927044	3032.634646
891.235855	3026.668440
891.544625	3013.851306
891.853353	3025.698018
892.162041	3045.355997
892.470687	3086.106164
892.779293	3139.244967
893.087858	3187.571988
893.396381	3263.678288
893.704864	3385.512894
894.013306	3635.922129
894.321707	3938.706432
894.630068	4141.053306
894.938387	4134.792193
895.246665	4093.585802
895.554903	3966.193323
895.863100	3762.134978
896.171256	3593.715069
896.479371	3450.137966
896.787446	3326.586847
897.095480	3223.659088
897.403473	3160.115344
897.711425	3122.533542
898.019336	3110.485184
898.327207	3081.584249
898.635038	3048.118550
898.942827	3032.480890
899.250576	3021.254241
899.558284	2988.174189
899.865952	2968.317084
900.173579	2947.827314
900.481165	2942.604679
900.788711	2926.803182
901.096216	2902.719070
901.403681	2892.651886
901.711105	2900.430386
902.018489	2895.769839
902.325832	2897.410735
902.633135	2909.068403
902.940397	2941.735080
903.247619	3027.532998
903.554800	3227.989439
903.861941	3583.347936
904.169041	4016.398175
904.476101	4313.788443
904.783121	4263.802882
905.090100	4009.113707
905.397039	3728.273547
905.703938	3477.511431
906.010796	3290.615694
906.317614	3178.492870
906.624391	3082.065680
906.931129	3007.413753
907.237826	2948.200360
907.544483	2900.563977
907.851099	2870.775798
908.157675	2849.149248
908.464211	2828.740137
908.770707	2815.290339
909.077163	2801.182670
909.383578	2785.492078
909.689954	2774.777106
909.996289	2775.729884
910.302584	2774.033536
910.608839	2778.719288
910.915054	2771.860798
911.221229	2761.513830
911.527363	2763.731938
911.833458	2772.337187
912.139513	2773.506735
912.445527	2779.241047
912.751502	2789.948458
913.057436	2799.284675
913.363331	2810.909576
913.669186	2835.800273
913.975000	2869.195397
914.280775	2932.610592
914.586510	3003.239677
914.892205	3086.640527
915.197859	3216.546020
915.503475	3414.880136
915.809050	3634.888693
916.114585	3779.373203
916.420081	3797.665030
916.725536	3735.842840
917.030952	3612.379941
917.336328	3482.202225
917.641665	3349.864375
917.946961	3246.087182
918.252218	3177.656039
918.557435	3096.501024
918.862612	3035.732435
919.167750	2986.271154
919.472848	2944.061573
919.777906	2918.991914
920.082925	2893.350085
920.387904	2862.168028
920.692843	2846.013651
920.997743	2831.784994
921.302603	2817.412664
921.607423	2810.302117
921.912204	2797.232926
922.216946	2784.435957
922.521647	2775.213166
922.826310	2768.205962
923.130932	2760.878645
923.435516	2752.288518
923.740059	2744.000862
924.044564	2734.979717
924.349028	2733.089284
924.653454	2723.808520
924.957840	2718.432129
925.262186	2714.989021
925.566493	2710.756972
925.870761	2705.262115
926.174989	2700.294058
926.479178	2695.346165
926.783328	2690.042871
927.087438	2692.076977
927.391509	2690.627645
927.695541	2683.449042
927.999533	2679.600121
928.303486	2681.576253
928.607400	2678.838907
928.911275	2678.201201
929.215110	2676.698937
929.518906	2675.204235
929.822663	2676.162054
930.126381	2678.342353
930.430060	2677.324040
930.733699	2674.349759
931.037299	2676.804801
931.340861	2680.298321
931.644383	2680.802436
931.947866	2678.538958
932.251309	2676.338495
932.554714	2675.015192
932.858080	2672.703823
933.161407	2673.641477
933.464694	2672.366065
933.767943	2669.653925
934.071153	2670.707526
934.374323	2670.450427
934.677455	2671.105777
934.980548	2668.481856
935.283602	2668.653256
935.586617	2668.330622
935.889593	2670.372289
936.192530	2668.307937
936.495428	2670.110149
936.798287	2668.988492
937.101108	2673.986796
937.403890	2676.890501
937.706632	2682.977694
938.009336	2688.890968
938.312002	2698.141485
938.614628	2707.336550
938.917216	2712.274360
939.219765	2712.866695
939.522275	2714.593291
939.824747	2709.821838
940.127179	2705.483926
940.429573	2706.040973
940.731929	2700.394881
941.034246	2697.556711
941.336524	2693.150743
941.638763	2691.827440
941.940964	2690.506658
942.243126	2687.981039
942.545250	2690.383149
942.847335	2687.320648
943.149381	2680.426870
943.451389	2679.280008
943.753359	2677.550892
944.055290	2674.140552
944.357182	2673.732218
944.659036	2672.635767
944.960851	2672.408915
945.262628	2669.684172
945.564367	2672.943277
945.866067	2669.966476
946.167729	2675.579801
946.469352	2671.975376
946.770937	2670.669717
947.072484	2668.688544
947.373992	2668.827175
947.675462	2666.717452
947.976893	2661.043634
948.278286	2660.602533
948.579641	2661.847698
948.880958	2658.712100
949.182236	2662.613953
949.483476	2663.554128
949.784678	2660.567245
950.085841	2661.751916
950.386967	2662.646721
950.688054	2659.979950
950.989103	2665.497493
951.290114	2663.680157
951.591087	2666.944304
951.892021	2668.191990
952.192917	2672.688699
952.493776	2674.415294
952.794596	2673.613751
953.095378	2674.140552
953.396122	2673.502846
953.696828	2672.270283
953.997496	2671.597289
954.298126	2669.316167
954.598718	2666.147802
954.899272	2663.118069
955.199788	2662.082112
955.500266	2656.473828
955.800706	2654.152377
956.101108	2653.328148
956.401472	2653.370998
956.701798	2649.151552
957.002087	2647.866058
957.302337	2648.715492
957.602550	2646.419247
957.902724	2644.649802
958.202861	2642.257774
958.502960	2641.541930
958.803022	2640.621920
959.103045	2639.260808
959.403031	2640.740387
959.702979	2637.995478
960.002889	2639.956487
960.302762	2636.772999
960.602596	2635.986579
960.902393	2639.475057
961.202153	2637.458596
961.501875	2639.129738
961.801559	2638.232413
962.101205	2636.800725
962.400814	2634.801907
962.700385	2634.413739
962.999918	2631.520116
963.299414	2630.796711
963.598873	2631.419293
963.898293	2630.315281
964.197677	2635.217803
964.497022	2632.813172
964.796331	2633.014818
965.095601	2630.002729
965.394835	2634.592700
965.694030	2634.171763
965.993189	2631.018522
966.292309	2632.374592
966.591393	2635.424490
966.890439	2632.702267
967.189447	2630.471556
967.488419	2633.324849
967.787353	2633.569345
968.086249	2632.261166
968.385108	2629.826289
968.683930	2632.518265
968.982714	2633.279479
969.281462	2636.047072
969.580172	2631.318470
969.878844	2634.575056
970.177480	2632.989613
970.476078	2634.537247
970.774639	2634.527165
971.073162	2636.132772
971.371649	2630.905096
971.670098	2632.588841
971.968510	2632.697226
972.266885	2632.099849
972.565223	2634.862401
972.863524	2634.199490
973.161788	2632.850981
973.460014	2635.973976
973.758204	2634.721249
974.056356	2632.856022
974.354471	2634.259983
974.652550	2633.599592
974.950591	2633.105559
975.248595	2634.615385
975.546563	2632.954325
975.844493	2630.821917
976.142386	2633.050107
976.440243	2630.428707
976.738062	2633.047586
977.035845	2635.381640
977.333590	2633.425672
977.631299	2629.528861
977.928971	2625.647172
978.226606	2627.295629
978.524204	2628.656741
978.821765	2626.592388
979.119290	2628.618932
979.416777	2631.396608
979.714228	2634.118831
980.011642	2630.945425
980.309020	2631.308388
980.606360	2630.776546
980.903664	2631.235291
981.200931	2630.083387
981.498162	2630.340486
981.795356	2635.124541
982.092513	2633.735703
982.389633	2638.670993
982.686717	2639.354069
982.983764	2644.024698
983.280775	2649.582571
983.577749	2648.629792
983.874686	2648.660039
984.171587	2643.636530
984.468451	2645.577374
984.765279	2640.445479
985.062070	2637.612351
985.358824	2637.619912
985.655543	2636.788122
985.952224	2633.576907
986.248869	2632.944242
986.545478	2631.111783
986.842050	2631.923409
987.138586	2630.786628
987.435086	2631.177318
987.731549	2627.827471
988.027975	2631.651186
988.324366	2627.920732
988.620719	2630.527009
988.917037	2629.256638
989.213318	2629.632204
989.509563	2627.988788
989.805772	2627.265382
990.101944	2627.923253
990.398080	2627.860239
990.694180	2625.551390
990.990244	2626.156329
991.286271	2627.804786
991.582262	2626.194137
991.878217	2630.733696
992.174136	2628.485342
992.470019	2627.688839
992.765865	2625.324538
993.061676	2623.078704
993.357450	2625.075001
993.653188	2624.369240
993.948890	2626.738582
994.244556	2627.028448
994.540186	2627.376288
994.835780	2629.143212
995.131337	2629.110445
995.426859	2628.422327
995.722345	2630.400980
996.017795	2629.549025
996.313208	2634.033132
996.608586	2630.872328
996.903928	2632.810652
997.199234	2632.717390
997.494504	2634.096146
997.789738	2630.650517
998.084936	2631.202524
998.380099	2630.741258
998.675225	2630.837040
998.970316	2629.871659
999.265371	2629.707822
999.560390	2627.930815
999.855373	2628.797893
1000.150320	2630.330404
1000.445232	2629.173459
1000.740108	2625.753036
1001.034948	2627.971144
1001.329752	2627.852677
1001.624521	2625.750516
1001.919254	2626.166411
1002.213951	2625.379991
1002.508613	2626.380660
1002.803239	2626.930146
1003.097829	2626.242028
1003.392384	2627.772018
1003.686903	2625.659775
1003.981386	2623.998715
1004.275834	2625.934518
1004.570246	2624.512912
1004.864623	2625.737913
1005.158964	2625.306894
1005.453270	2625.594240
1005.747540	2625.558952
1006.041775	2627.472070
1006.335974	2626.506689
1006.630138	2625.627007
1006.924266	2625.954682
1007.218359	2624.243211
1007.512416	2622.418313
1007.806438	2623.078704
1008.100425	2621.831019
1008.394376	2620.759773
1008.688292	2622.935031
1008.982172	2624.747326
1009.276017	2624.245731
1009.569827	2625.059878
1009.863602	2624.449898
1010.157341	2624.097017
1010.451045	2624.344034
1010.744714	2625.995012
1011.038347	2623.943262
1011.331945	2624.954013
1011.625508	2621.165586
1011.919036	2626.766308
1012.212528	2625.944600
1012.505986	2625.495938
1012.799408	2623.013169
1013.092795	2624.119702
1013.386147	2624.918725
1013.679464	2623.073663
1013.972745	2624.084414
1014.265992	2624.412089
1014.559204	2625.233797
1014.852380	2626.042903
1015.145521	2624.810341
1015.438628	2625.460649
1015.731699	2626.630197
1016.024736	2624.734723
1016.317737	2622.100720
1016.610703	2621.755401
1016.903635	2624.344034
1017.196531	2625.647172
1017.489393	2623.545011
1017.782219	2623.456791
1018.075011	2623.557614
1018.367768	2621.591564
1018.660490	2623.192130
1018.953177	2623.192130
1019.245829	2623.192130
