Dividing Wavelength (nm)	Counts (n)	Blue Motor Position (mm): 0.000000	Red Motor Position (mm): 5.000000	
326.493990	2087.347723
326.888308	2087.347723
327.282561	2087.347723
327.676750	2064.178580
328.070874	2066.321071
328.464933	2073.242575
328.858929	2082.367063
329.252859	2093.830647
329.646726	2106.698192
330.040528	2127.278703
330.434265	2143.397792
330.827938	2163.738848
331.221547	2182.933041
331.615091	2205.590507
332.008571	2225.581203
332.401986	2244.230952
332.795338	2263.934301
333.188625	2284.202260
333.581847	2306.504325
333.975006	2322.593168
334.368100	2339.130673
334.761129	2356.061388
335.154095	2372.389685
335.546996	2387.999618
335.939833	2403.511248
336.332606	2415.811664
336.725315	2426.083015
337.117960	2436.377051
337.510540	2442.126487
337.903056	2451.674432
338.295508	2459.349589
338.687896	2463.485856
339.080220	2471.670169
339.472480	2477.021354
339.864676	2482.889257
340.256807	2483.554689
340.648875	2485.341778
341.040879	2486.803713
341.432818	2486.067704
341.824694	2485.518219
342.216506	2487.597695
342.608253	2486.266830
342.999937	2485.631645
343.391557	2484.893116
343.783113	2485.359422
344.174605	2481.215594
344.566033	2482.100316
344.957397	2480.577888
345.348697	2478.899184
345.739934	2478.379945
346.131106	2472.791826
346.522215	2474.034470
346.913260	2468.910137
347.304241	2467.841413
347.695159	2468.388378
348.086012	2465.671196
348.476802	2466.853347
348.867528	2464.108438
349.258191	2461.113993
349.648789	2463.155660
350.039324	2461.149281
350.429796	2465.517441
350.820203	2456.672736
351.210548	2460.272120
351.600828	2459.117696
351.991045	2459.062243
352.381198	2458.318673
352.771288	2456.342541
353.161314	2457.502006
353.551276	2457.312963
353.941175	2458.023766
354.331010	2458.409414
354.720782	2456.259362
355.110490	2456.952520
355.500135	2458.628704
355.889717	2458.979064
356.279235	2457.547377
356.668689	2461.476956
357.058080	2460.662810
357.447408	2457.209619
357.836672	2459.599126
358.225873	2456.839094
358.615010	2456.740792
359.004084	2464.804117
359.393095	2462.034003
359.782043	2462.613736
360.170927	2463.080043
360.559748	2464.902420
360.948505	2463.624488
361.337199	2466.755044
361.725830	2466.250929
362.114398	2465.610702
362.502903	2467.118007
362.891344	2466.560960
363.279722	2467.347380
363.668037	2467.854016
364.056289	2470.051959
364.444478	2469.008440
364.832603	2469.152113
365.220665	2469.540282
365.608665	2467.962400
365.996601	2472.035653
366.384474	2471.014819
366.772284	2469.305868
367.160031	2470.482977
367.547715	2471.009778
367.935336	2470.208234
368.322893	2474.576394
368.710388	2472.353245
369.097820	2475.670325
369.485189	2474.856178
369.872495	2474.888946
370.259738	2474.089923
370.646918	2478.503453
371.034035	2478.836169
371.421090	2481.757518
371.808081	2484.691469
372.195010	2486.654999
372.581875	2489.435195
372.968678	2493.820999
373.355418	2503.565549
373.742096	2507.583349
374.128710	2515.865965
374.515262	2529.015815
374.901751	2538.324305
375.288177	2552.535318
375.674540	2570.927968
376.060841	2585.708631
376.447079	2605.958946
376.833254	2626.622635
377.219367	2644.415388
377.605417	2671.899759
377.991404	2691.832481
378.377329	2720.015052
378.763191	2745.137642
379.148991	2780.425719
379.534727	2813.684731
379.920402	2842.716736
380.306013	2875.627909
380.691563	2917.124167
381.077049	2947.376131
381.462474	2975.868733
381.847835	3016.104702
382.233134	3052.277502
382.618371	3080.129877
383.003545	3119.639920
383.388657	3153.619817
383.773706	3192.855118
384.158693	3218.312945
384.543618	3251.486257
384.928480	3273.289248
385.313280	3311.665032
385.698017	3341.375072
386.082692	3379.667676
386.467305	3385.727143
386.851856	3419.049170
387.236344	3466.670430
387.620770	3466.579689
388.005133	3485.196670
388.389435	3514.941999
388.773674	3513.084333
389.157851	3531.998743
389.541965	3550.383831
389.926018	3521.329141
390.310008	3549.499108
390.693936	3556.518915
391.077802	3554.099161
391.461606	3557.466652
391.845348	3550.938358
392.229027	3545.589693
392.612645	3564.284812
392.996200	3556.919687
393.379694	3555.104871
393.763125	3567.982499
394.146494	3539.333622
394.529801	3523.020448
394.913047	3525.079759
395.296230	3477.599652
395.679351	3437.545164
396.062410	3435.473249
396.445408	3364.246787
396.828343	3345.871781
397.211217	3315.995383
397.594028	3252.764190
397.976778	3230.136971
398.359466	3206.579659
398.742092	3158.088800
399.124656	3130.193575
399.507158	3108.055348
399.889598	3071.582600
400.271977	3044.579660
400.654294	3005.883763
401.036549	2977.640698
401.418742	2943.648198
401.800874	2926.599016
402.182944	2896.382339
402.564952	2878.808877
402.946898	2836.715242
403.328783	2808.928402
403.710606	2789.194806
404.092367	2768.689912
404.474067	2754.904877
404.855705	2723.470762
405.237282	2700.168029
405.618797	2687.189578
406.000250	2676.114163
406.381642	2660.579848
406.762972	2645.998310
407.144240	2626.630197
407.525447	2615.630399
407.906593	2600.741352
408.287677	2593.557707
408.668700	2582.562951
409.049661	2575.497774
409.430560	2567.797411
409.811399	2564.135013
410.192176	2555.781821
410.572891	2552.074052
410.953545	2548.071376
411.334138	2542.163144
411.714669	2541.180119
412.095139	2533.454551
412.475547	2534.309026
412.855894	2530.928933
413.236180	2527.218643
413.616405	2525.257634
413.996568	2526.885927
414.376670	2523.500792
414.756711	2522.754702
415.136691	2522.356450
415.516609	2521.580113
415.896466	2521.461646
416.276262	2519.656913
416.655997	2516.904443
417.035670	2514.535100
417.415283	2519.354443
417.794834	2514.013341
418.174324	2516.738084
418.553753	2515.132477
418.933121	2518.247910
419.312428	2514.005779
419.691674	2515.639113
420.070859	2515.888650
420.449983	2515.714730
420.829045	2514.754390
421.208047	2514.283042
421.586988	2516.226407
421.965867	2514.807323
422.344686	2515.651716
422.723444	2516.944772
423.102141	2513.904956
423.480777	2516.506191
423.859352	2515.066942
424.237866	2515.205574
424.616319	2516.047446
424.994712	2517.216994
425.373044	2520.153466
425.751314	2518.550379
426.129524	2515.397137
426.507673	2519.704803
426.885762	2516.803619
427.263789	2522.260668
427.641756	2517.315297
428.019662	2520.559279
428.397508	2518.237828
428.775292	2517.133815
429.153016	2518.472241
429.530679	2520.196316
429.908282	2520.599608
430.285824	2519.707324
430.663305	2520.856707
431.040726	2519.661954
431.418086	2520.889475
431.795385	2520.453415
432.172624	2520.876872
432.549802	2523.082377
432.926920	2520.975174
433.303977	2520.050122
433.680974	2522.858045
434.057910	2524.511544
434.434786	2520.682787
434.811601	2521.857376
435.188355	2523.150432
435.565050	2526.094466
435.941683	2523.813344
436.318257	2523.052130
436.694770	2523.722603
437.071222	2522.391738
437.447614	2522.290915
437.823946	2520.907119
438.200218	2523.392407
438.576429	2527.493386
438.952580	2524.609846
439.328670	2525.592871
439.704700	2524.506502
440.080670	2525.950793
440.456580	2527.221164
440.832429	2527.493386
441.208218	2525.983561
441.583947	2525.381143
441.959616	2525.716379
442.335224	2524.551873
442.710773	2527.284178
443.086261	2529.401463
443.461689	2526.374250
443.837057	2525.504651
444.212365	2528.057995
444.587612	2528.181504
444.962800	2528.196627
445.337927	2531.304498
445.712995	2527.231246
446.088002	2529.562780
446.462949	2529.507327
446.837837	2530.724766
447.212664	2530.283665
447.587431	2532.889941
447.962139	2539.987886
448.336786	2540.781868
448.711374	2538.180632
449.085901	2535.521424
449.460369	2535.143337
449.834776	2533.809952
450.209124	2537.149716
450.583412	2536.965714
450.957640	2535.380271
451.331808	2536.113759
451.705917	2531.584282
452.079965	2536.557381
452.453954	2534.987061
452.827883	2533.998995
453.201752	2532.232071
453.575562	2532.998326
453.949311	2533.262987
454.323001	2533.537730
454.696632	2532.204344
455.070202	2537.968904
455.443713	2533.759540
455.817164	2532.156453
456.190556	2530.455064
456.563888	2534.820703
456.937160	2530.016484
457.310373	2531.985054
457.683526	2538.425128
458.056619	2533.401618
458.429653	2535.624767
458.802628	2529.643438
459.175542	2536.116280
459.548398	2535.148378
459.921194	2538.394881
460.293930	2540.875129
460.666607	2538.818338
461.039224	2541.195242
461.411782	2537.076620
461.784280	2543.199101
462.156719	2541.502753
462.529099	2537.308513
462.901419	2539.433359
463.273680	2537.996630
463.645882	2536.885056
464.018024	2535.380271
464.390106	2535.496218
464.762130	2541.560726
465.134094	2547.131201
465.505999	2551.491799
465.877845	2557.079918
466.249631	2558.393139
466.621358	2555.088662
466.993026	2554.866852
467.364634	2552.394166
467.736184	2549.278732
468.107674	2546.755635
468.479105	2546.342260
468.850477	2546.543907
469.221790	2546.022147
469.593043	2540.149203
469.964238	2541.492670
470.335373	2540.953267
470.706449	2544.058618
471.077467	2543.362938
471.448425	2548.981304
471.819324	2552.290822
472.190164	2550.526418
472.560945	2546.901828
472.931667	2542.120294
473.302330	2539.536703
473.672934	2540.237423
474.043479	2541.147351
474.413965	2538.689789
474.784393	2533.968748
475.154761	2538.160468
475.525070	2534.485467
475.895321	2534.694674
476.265513	2532.721063
476.635645	2540.149203
477.005719	2537.331198
477.375734	2539.861857
477.745691	2538.490663
478.115588	2538.220962
478.485427	2539.367824
478.855207	2543.330171
479.224928	2541.245654
479.594591	2547.206818
479.964194	2545.364277
480.333739	2544.623227
480.703226	2543.143648
481.072653	2546.864020
481.442022	2547.335368
481.811333	2544.628268
482.180584	2546.538865
482.549777	2544.250182
482.918912	2544.782023
483.287988	2543.945192
483.657005	2543.312527
484.025964	2540.363452
484.394864	2538.346990
484.763706	2542.715150
485.132489	2539.370345
485.501213	2540.532331
485.869879	2537.338760
486.238487	2540.996117
486.607036	2541.119625
486.975527	2540.161806
487.343959	2536.653163
487.712333	2540.953267
488.080648	2541.076775
488.448905	2540.681045
488.817104	2536.920344
489.185244	2542.306817
489.553326	2539.249357
489.921350	2541.394368
490.289315	2542.649615
490.657222	2546.039791
491.025070	2545.029040
491.392861	2546.642209
491.760593	2546.090203
492.128267	2545.180274
492.495883	2540.466796
492.863440	2541.974101
493.230939	2541.104502
493.598380	2537.023687
493.965763	2534.094777
494.333088	2535.017308
494.700354	2535.783564
495.067563	2536.733821
495.434713	2532.799201
495.801805	2537.676517
496.168839	2538.929244
496.535815	2540.590304
496.902733	2536.859850
497.269593	2538.931764
497.636395	2534.233409
498.003139	2534.382123
498.369825	2535.261804
498.736453	2537.051414
499.103023	2537.595858
499.469535	2535.287010
499.835989	2535.528985
500.202385	2535.947401
500.568723	2533.623429
500.935003	2536.000333
501.301226	2534.472864
501.667390	2535.327339
502.033497	2534.424973
502.399546	2534.331711
502.765537	2532.947915
503.131470	2534.089736
503.497345	2536.784233
503.863163	2532.935312
504.228923	2533.888090
504.594625	2532.249715
504.960269	2533.870446
505.325856	2535.728111
505.691385	2532.484128
506.056856	2534.200641
506.422270	2532.615198
506.787625	2532.615198
507.152924	2534.301464
507.518164	2531.244005
507.883347	2533.739376
508.248472	2533.633512
508.613540	2533.809952
508.978550	2529.572862
509.343503	2533.252904
509.708398	2534.631660
510.073236	2536.529654
510.438016	2533.522606
510.802738	2530.084539
511.167403	2532.915147
511.532010	2532.819365
511.896561	2533.630991
512.261053	2534.193080
512.625488	2530.802904
512.989866	2527.354754
513.354186	2529.177132
513.718449	2528.690660
514.082655	2531.236443
514.446803	2530.510517
514.810894	2532.383305
515.174927	2534.576207
515.538904	2532.151412
515.902822	2534.540919
516.266684	2533.918337
516.630488	2531.536392
516.994235	2532.985723
517.357925	2533.338604
517.721558	2534.853471
518.085133	2531.803573
518.448651	2534.392205
518.812112	2531.158305
519.175516	2536.617875
519.538863	2534.004036
519.902152	2530.757533
520.265385	2533.923378
520.628560	2531.153264
520.991678	2534.142668
521.354739	2531.294416
521.717743	2529.928263
522.080690	2530.129910
522.443580	2531.236443
522.806413	2532.879859
523.169189	2532.138809
523.531908	2532.380785
523.894569	2530.361803
524.257174	2531.327184
524.619722	2531.445651
524.982213	2532.889941
525.344647	2531.380116
525.707025	2532.095960
526.069345	2530.928933
526.431608	2531.354910
526.793815	2530.608819
527.155964	2533.008408
527.518057	2531.289375
527.880093	2531.085208
528.242072	2531.468336
528.603995	2532.164015
528.965860	2532.209386
529.327669	2530.959179
529.689421	2533.023532
530.051117	2531.148223
530.412755	2530.812986
530.774337	2529.855167
531.135862	2531.049920
531.497331	2528.733510
531.858743	2524.481297
532.220098	2528.194107
532.581396	2528.529343
532.942638	2525.499610
533.303824	2528.423479
533.664953	2529.126720
534.026025	2531.304498
534.387040	2530.906247
534.747999	2528.673016
535.108902	2530.767616
535.469748	2529.015815
535.830537	2530.016484
536.191270	2529.653521
536.551947	2528.252080
536.912567	2531.324663
537.273131	2527.851308
537.633638	2527.208561
537.994089	2532.597554
538.354483	2525.955834
538.714821	2530.848274
539.075103	2529.098994
539.435328	2532.582431
539.795497	2527.856349
540.155609	2529.678726
540.515665	2531.221319
540.875665	2528.955321
541.235609	2530.888603
541.595496	2529.250228
541.955328	2530.218130
542.315102	2528.715866
542.674821	2528.627646
543.034483	2528.947759
543.394090	2526.369209
543.753640	2529.577903
544.113134	2528.305012
544.472571	2528.499096
544.831953	2528.186545
545.191278	2530.757533
545.550548	2528.935156
545.909761	2530.545805
546.268918	2524.937521
546.628019	2529.318284
546.987064	2528.572193
547.346053	2532.249715
547.704986	2528.453726
548.063863	2529.827440
548.422684	2526.359127
548.781449	2528.748633
549.140158	2524.534229
549.498811	2528.299971
549.857408	2528.665454
550.215949	2525.124044
550.574434	2525.277799
550.932864	2525.713859
551.291237	2524.728313
551.649555	2527.984899
552.007817	2526.966586
552.366022	2526.553211
552.724173	2527.700073
553.082267	2529.114117
553.440305	2529.199817
553.798288	2528.642769
554.156215	2528.211751
554.514086	2528.400794
554.871902	2525.791997
555.229661	2529.225023
555.587365	2527.248890
555.945014	2528.496576
556.302606	2525.161853
556.660143	2526.286030
557.017625	2524.846780
557.375050	2528.642769
557.732421	2525.071112
558.089735	2526.228057
558.446994	2525.146729
558.804197	2529.340969
559.161345	2526.880886
559.518437	2529.136802
559.875474	2526.366688
560.232455	2528.199148
560.589381	2527.556401
560.946251	2530.210568
561.303065	2526.701925
561.659825	2526.913653
562.016528	2526.323838
562.373177	2527.097656
562.729770	2529.270393
563.086307	2524.559435
563.442789	2528.549508
563.799216	2529.199817
564.155587	2527.967255
564.511904	2526.540608
564.868164	2526.964065
565.224370	2526.286030
565.580520	2526.091945
565.936615	2526.959024
566.292654	2525.459281
566.648638	2526.989271
567.004567	2526.875845
567.360441	2526.497758
567.716260	2526.722090
568.072023	2524.894671
568.427732	2521.910308
568.783385	2524.163704
569.138982	2522.386697
569.494525	2522.777387
569.850013	2524.503982
570.205445	2526.517923
570.560823	2526.638911
570.916145	2526.787625
571.271412	2525.093797
571.626625	2527.861390
571.981782	2525.935670
572.336884	2530.868439
572.691931	2524.405679
573.046923	2524.597243
573.401860	2525.905423
573.756743	2528.209230
574.111570	2526.656555
574.466342	2526.389373
574.821059	2524.975330
575.175722	2526.167563
575.530330	2524.761081
575.884882	2524.055319
576.239380	2526.318797
576.593823	2525.373581
576.948211	2524.435926
577.302544	2525.567665
577.656823	2527.949611
578.011047	2524.965248
578.365216	2526.328880
578.719330	2525.935670
579.073389	2526.175124
579.427394	2525.166894
579.781344	2527.432892
580.135239	2525.817203
580.489080	2526.487676
580.842866	2527.364837
581.196597	2529.305681
581.550273	2526.543129
581.903895	2525.600433
582.257463	2527.206040
582.610975	2526.477594
582.964434	2525.779394
583.317837	2526.490197
583.671186	2523.694877
584.024481	2526.041534
584.377721	2527.304343
584.730906	2525.595392
585.084037	2527.750485
585.437113	2523.208405
585.790135	2525.033303
586.143103	2524.705628
586.496016	2522.520288
586.848874	2522.321162
587.201679	2521.063394
587.554428	2519.835873
587.907124	2525.013138
588.259765	2522.371574
588.612352	2525.187058
588.964884	2526.787625
589.317362	2524.977850
589.669786	2525.078673
590.022155	2527.354754
590.374470	2525.522295
590.726731	2524.476256
591.078937	2526.313756
591.431090	2526.686802
591.783188	2522.593385
592.135232	2524.607326
592.487222	2523.490710
592.839157	2523.883920
593.191038	2523.578930
593.542866	2520.871831
593.894639	2525.597912
594.246358	2522.217819
594.598022	2525.819723
594.949633	2525.076153
595.301190	2525.348375
595.652692	2524.433406
596.004141	2522.787469
596.355535	2523.281502
596.706876	2526.404497
597.058162	2521.504495
597.409395	2524.582120
597.760573	2522.157325
598.111698	2523.899043
598.462768	2522.797551
598.813785	2523.286543
599.164748	2526.142357
599.515657	2522.278313
599.866511	2523.846111
600.217312	2522.578261
600.568060	2524.065402
600.918753	2527.836185
601.269392	2525.923067
601.619978	2524.539270
601.970510	2524.801410
602.320988	2524.531708
602.671412	2525.464322
603.021783	2523.762932
603.372100	2524.604805
603.722363	2523.823426
604.072572	2520.460977
604.422728	2525.008097
604.772830	2520.221522
605.122878	2519.588857
605.472872	2523.336955
605.822813	2517.441325
606.172701	2521.413755
606.522534	2523.410052
606.872314	2523.107582
607.222041	2523.576410
607.571714	2524.151101
607.921333	2522.729496
608.270899	2522.590864
608.620411	2523.367202
608.969870	2524.093128
609.319276	2524.766122
609.668627	2524.650175
610.017926	2523.485669
610.367171	2523.730165
610.716362	2522.815195
611.065500	2523.110103
611.414585	2524.032634
611.763616	2522.976512
612.112594	2523.904085
612.461518	2524.193951
612.810389	2520.551717
613.159207	2523.145391
613.507971	2521.829650
613.856682	2524.060360
614.205340	2522.641276
614.553945	2524.574558
614.902496	2524.201513
615.250994	2522.699249
615.599439	2522.910977
615.947830	2522.747140
616.296169	2523.987264
616.644454	2522.868127
616.992686	2526.074301
617.340864	2523.347037
617.688990	2522.656399
618.037063	2522.943745
618.385082	2522.386697
618.733048	2525.923067
619.080961	2525.239990
619.428821	2523.525998
619.776628	2524.138498
620.124382	2523.974661
620.472083	2523.667150
620.819731	2523.583971
621.167326	2523.289064
621.514868	2526.439785
621.862357	2523.102541
622.209793	2524.274609
622.557176	2525.018180
622.904506	2522.454753
623.251783	2518.530215
623.599007	2522.812675
623.946179	2520.372756
624.293297	2522.111954
624.640363	2523.979702
624.987376	2520.889475
625.334336	2525.068591
625.681243	2526.137316
626.028097	2523.352078
626.374899	2522.265710
626.721647	2520.740761
627.068343	2523.904085
627.414987	2523.667150
627.761577	2522.462315
628.108115	2521.292767
628.454600	2522.608508
628.801032	2519.916532
629.147412	2523.999867
629.493739	2519.641789
629.840014	2520.932324
630.186236	2522.638755
630.532405	2521.849814
630.878521	2523.699918
631.224585	2525.171935
631.570597	2519.891326
631.916556	2523.019362
632.262462	2523.231091
632.608316	2523.563807
632.954117	2521.562469
633.299866	2523.808303
633.645562	2519.430061
633.991206	2519.402334
634.336797	2518.089114
634.682336	2522.111954
635.027823	2520.682787
635.373257	2523.967099
635.718639	2521.050792
636.063968	2520.556758
636.409245	2520.939886
636.754470	2518.333610
637.099642	2521.597757
637.444762	2522.243024
637.789829	2518.757067
638.134845	2520.949968
638.479808	2520.990298
638.824719	2522.011131
639.169577	2520.327386
639.514383	2520.652540
639.859137	2522.391738
640.203839	2522.686646
640.548489	2522.185051
640.893086	2520.468538
641.237632	2515.203053
641.582125	2518.910822
641.926566	2515.533249
642.270955	2518.681449
642.615292	2518.862931
642.959576	2521.227232
643.303809	2519.939217
643.647990	2518.671367
643.992118	2521.380987
644.336195	2519.845956
644.680219	2520.569361
645.024192	2521.345699
645.368112	2519.966943
645.711981	2521.270082
646.055797	2521.486851
646.399562	2518.961233
646.743274	2522.071625
647.086935	2521.438960
647.430544	2521.391069
647.774101	2517.769000
648.117606	2517.895029
648.461059	2520.690349
648.804460	2522.691687
649.147810	2520.957530
649.491108	2521.595236
649.834354	2522.225380
650.177548	2519.490554
650.520690	2519.117509
650.863781	2519.183044
651.206820	2520.944927
651.549807	2518.154649
651.892742	2521.895185
652.235626	2516.733043
652.578458	2519.654392
652.921238	2515.011489
653.263967	2520.743281
653.606644	2518.137005
653.949269	2517.595081
654.291843	2516.856552
654.634365	2518.825122
654.976836	2516.312107
655.319255	2518.522653
655.661622	2518.802437
656.003938	2519.634227
656.346203	2519.057015
656.688416	2518.925945
657.030577	2516.601973
657.372687	2519.263702
657.714746	2516.549041
658.056753	2522.253107
658.398708	2516.526356
658.740612	2518.477282
659.082465	2514.618279
659.424266	2516.100378
659.766016	2514.121726
660.107715	2517.287570
660.449362	2518.754546
660.790958	2517.700945
661.132503	2517.436284
661.473996	2521.471728
661.815438	2521.176820
662.156829	2519.435102
662.498168	2518.784793
662.839456	2515.840759
663.180693	2518.351254
663.521879	2518.585667
663.863013	2517.058198
664.204097	2518.421830
664.545129	2520.105575
664.886110	2521.232273
665.227040	2521.098683
665.567918	2518.424350
665.908746	2520.355112
666.249522	2521.638086
666.590248	2519.878723
666.930922	2518.749505
667.271545	2519.256141
667.612118	2519.651871
667.952639	2520.019876
668.293109	2519.462828
668.633528	2516.657426
668.973896	2518.399145
669.314213	2517.020389
669.654480	2518.089114
669.994695	2518.716737
670.334859	2516.889319
670.674973	2517.960564
671.015035	2517.272447
671.355047	2518.139525
671.695008	2518.096675
672.034918	2517.534587
672.374777	2521.363343
672.714585	2520.571882
673.054342	2516.808661
673.394049	2517.194309
673.733705	2517.118692
674.073310	2515.215656
674.412864	2521.018024
674.752368	2517.443846
675.091820	2520.874351
675.431223	2516.901922
675.770574	2519.750174
676.109875	2516.019720
676.449125	2516.042405
676.788324	2512.357322
677.127473	2513.892353
677.466571	2514.976201
677.805619	2517.315297
678.144616	2515.437467
678.483562	2517.176665
678.822458	2517.703465
679.161303	2518.182375
679.500098	2519.170441
679.838842	2517.801768
680.177535	2517.194309
680.516179	2518.237828
680.854771	2515.092148
681.193314	2519.513240
681.531805	2516.327230
681.870247	2516.939731
682.208638	2517.519463
682.546978	2521.794362
682.885268	2517.564834
683.223508	2516.460821
683.561697	2519.215812
683.899836	2516.465862
684.237925	2519.288908
684.575963	2521.075997
684.913951	2517.776562
685.251889	2517.544669
685.589776	2516.027282
685.927614	2518.331089
686.265401	2516.488547
686.603137	2518.784793
686.940824	2515.215656
687.278460	2520.302180
687.616046	2517.365708
687.953582	2518.510050
688.291068	2520.080369
688.628504	2518.752025
688.965889	2518.187416
689.303224	2516.027282
689.640510	2517.660616
689.977745	2518.003414
690.314930	2517.743795
690.652065	2517.552231
690.989150	2515.487878
691.326185	2519.856038
691.663170	2516.901922
692.000105	2519.301511
692.336990	2516.332272
692.673825	2518.071470
693.010610	2517.423681
693.347345	2515.192971
693.684030	2512.090141
694.020665	2513.710872
694.357251	2511.754904
694.693786	2514.046108
695.030272	2514.419154
695.366707	2515.714730
695.703093	2514.179699
696.039429	2516.095337
696.375716	2518.237828
696.711952	2513.569719
697.048139	2516.309586
697.384276	2517.852179
697.720363	2514.388907
698.056400	2514.600635
698.392388	2518.071470
698.728326	2515.208094
699.064214	2516.150790
699.400053	2516.717920
699.735842	2514.663650
700.071581	2516.009638
700.407270	2515.180368
700.742910	2516.982580
701.078501	2515.961747
701.414042	2517.272447
701.749533	2515.334123
702.084974	2514.179699
702.420366	2513.975532
702.755709	2516.329751
703.091002	2513.647857
703.426246	2516.662467
703.761440	2515.528208
704.096584	2517.244720
704.431679	2513.577281
704.766725	2515.321520
705.101721	2512.745491
705.436668	2513.574760
705.771565	2514.787158
706.106413	2515.245903
706.441212	2516.551562
706.775961	2515.739936
707.110661	2515.334123
707.445311	2515.525687
707.779913	2516.912004
708.114465	2516.997704
708.448967	2514.378824
708.783421	2516.296983
709.117825	2514.582991
709.452180	2512.659791
709.786485	2515.954185
710.120742	2515.991994
710.454949	2517.474093
710.789107	2515.661798
711.123216	2511.916221
711.457275	2513.557116
711.791286	2510.822290
712.125247	2513.816736
712.459159	2514.449401
712.793023	2516.586850
713.126837	2515.092148
713.460602	2516.428053
713.794318	2515.190450
714.127985	2515.994514
714.461602	2514.116684
714.795171	2516.944772
715.128691	2513.158865
715.462162	2515.535769
715.795584	2512.533762
716.128957	2514.109123
716.462281	2511.356653
716.795556	2513.952847
717.128782	2514.512415
717.461960	2514.398989
717.795088	2513.408402
718.128167	2515.465193
718.461198	2515.659277
718.794180	2513.524349
719.127113	2515.066942
719.459997	2516.317148
719.792833	2514.164575
720.125619	2513.209277
720.458357	2512.848834
720.791046	2514.056191
721.123686	2511.996879
721.456278	2518.358815
721.788821	2515.210615
722.121315	2519.009124
722.453761	2512.982425
722.786158	2514.872857
723.118506	2513.297497
723.450805	2512.513598
723.783056	2516.246572
724.115259	2513.496623
724.447412	2515.439987
724.779518	2515.704648
725.111574	2510.837414
725.443582	2515.949144
725.775542	2514.880419
726.107453	2516.806140
726.439315	2513.892353
726.771129	2517.453928
727.102895	2516.150790
727.434612	2515.366891
727.766281	2514.159534
728.097901	2511.580984
728.429473	2510.718947
728.760996	2513.423526
729.092471	2509.758607
729.423897	2512.632065
729.755276	2515.261026
730.086606	2514.351098
730.417887	2514.250275
730.749120	2515.233300
731.080305	2516.854031
731.411442	2512.306910
731.742530	2513.814215
732.073570	2513.128618
732.404562	2512.967301
732.735506	2514.981242
733.066401	2513.995697
733.397249	2516.508712
733.728048	2514.371263
734.058798	2514.182219
734.389501	2516.155831
734.720156	2514.096520
735.050762	2514.736746
735.381320	2514.141890
735.711831	2513.448732
736.042293	2512.188443
736.372707	2515.795389
736.703073	2514.837569
737.033391	2511.712054
737.363661	2513.473937
737.693883	2513.806653
738.024056	2519.868641
738.354182	2512.558968
738.684260	2513.592404
739.014290	2513.113495
739.344272	2513.166427
739.674207	2512.516118
740.004093	2517.590039
740.333931	2512.601818
740.663722	2517.716068
740.993464	2511.926303
741.323159	2514.956037
741.652806	2514.421674
741.982405	2515.785306
742.311956	2512.979904
742.641460	2512.165758
742.970915	2511.233144
743.300323	2513.300017
743.629683	2514.028464
743.958996	2516.365039
744.288260	2513.718433
744.617477	2515.019051
744.946647	2510.386231
745.275768	2510.570233
745.604842	2510.320696
745.933869	2512.458145
746.262847	2508.997393
746.591778	2514.489730
746.920662	2511.626354
747.249498	2514.658608
747.578286	2512.692558
747.907027	2514.968639
748.235720	2511.333967
748.564365	2513.887312
748.892963	2512.110305
749.221514	2515.291273
749.550017	2513.226921
749.878473	2514.046108
750.206881	2515.843280
750.535242	2512.755573
750.863555	2511.742301
751.191821	2513.630213
751.520039	2511.210459
751.848210	2513.350429
752.176334	2511.417147
752.504411	2512.397651
752.832440	2512.798423
753.160421	2512.223731
753.488356	2513.736077
753.816243	2512.223731
754.144082	2511.956550
754.471875	2515.066942
754.799620	2512.624503
755.127318	2512.879081
755.454969	2512.201046
755.782572	2512.828670
756.110129	2511.134842
756.437638	2512.390089
756.765100	2512.148114
757.092515	2514.199863
757.419882	2512.432939
757.747203	2511.742301
758.074477	2511.054183
758.401703	2513.408402
758.728882	2513.123577
759.056014	2513.398320
759.383099	2510.918072
759.710138	2515.220697
760.037129	2511.712054
760.364073	2514.270440
760.690970	2511.701972
761.017820	2512.959740
761.344623	2512.470748
761.671379	2511.296159
761.998088	2509.226765
762.324751	2511.235665
762.651366	2509.993021
762.977935	2515.089627
763.304456	2511.654081
763.630931	2513.864627
763.957359	2514.996366
764.283740	2514.320851
764.610074	2513.844462
764.936362	2513.426046
765.262602	2513.544513
765.588796	2512.367404
765.914943	2511.517970
766.241044	2512.601818
766.567097	2514.013341
766.893104	2511.003772
767.219064	2510.683659
767.544978	2513.826818
767.870845	2513.549555
768.196665	2508.233658
768.522438	2511.059225
768.848165	2511.888494
769.173846	2509.987979
769.499479	2509.814060
769.825066	2510.033350
770.150607	2514.678773
770.476101	2509.083092
770.801548	2511.326406
771.126949	2510.885305
771.452303	2511.835562
771.777611	2511.810357
772.102872	2511.833042
772.428087	2508.604183
772.753256	2510.469410
773.078378	2514.015861
773.403453	2511.286077
773.728482	2511.157527
774.053465	2509.728360
774.378401	2512.488392
774.703291	2511.265912
775.028135	2512.793382
775.352932	2511.306241
775.677683	2508.931858
776.002388	2511.696931
776.327046	2510.610562
776.651658	2513.504184
776.976224	2511.155007
777.300743	2513.189112
777.625216	2508.573936
777.949643	2513.274812
778.274024	2511.374297
778.598359	2509.249450
778.922647	2504.304078
779.246889	2512.929493
779.571086	2504.551095
779.895236	2509.350273
780.219339	2510.555109
780.543397	2509.970335
780.867409	2511.021416
781.191374	2508.531086
781.515294	2510.567712
781.839167	2511.722136
782.162995	2508.931858
782.486776	2510.734070
782.810511	2511.976715
783.134201	2508.707526
783.457844	2510.555109
783.781441	2511.124760
784.104993	2512.458145
784.428498	2510.890346
784.751958	2510.111488
785.075372	2509.917403
785.398739	2510.701303
785.722061	2509.879595
786.045337	2513.103413
786.368568	2510.794564
786.691752	2510.086282
787.014891	2512.193484
787.337983	2511.472599
787.661030	2514.270440
787.984031	2509.206601
788.306987	2511.903618
788.629897	2511.822959
788.952760	2513.957888
789.275579	2509.962774
789.598351	2511.991838
789.921078	2508.475633
790.243759	2510.648371
790.566395	2509.493946
790.888984	2513.176509
791.211529	2507.006137
791.534027	2508.657115
791.856480	2510.217352
792.178888	2508.735253
792.501249	2513.032836
792.823566	2510.736591
793.145836	2512.138032
793.468062	2509.937568
793.790241	2511.936385
794.112375	2510.996210
794.434464	2509.483864
794.756507	2510.862620
795.078505	2510.829852
795.400457	2506.968328
795.722364	2505.274501
796.044226	2506.968328
796.366042	2507.848010
796.687812	2507.376662
797.009538	2508.531086
797.331218	2510.484533
797.652852	2509.877074
797.974442	2510.255161
798.295986	2506.524707
798.617484	2510.575274
798.938938	2510.343381
799.260346	2511.603669
799.581709	2510.166940
799.903026	2510.726508
800.224299	2512.243896
800.545526	2514.204905
800.866708	2509.420850
801.187845	2509.317506
801.508936	2509.814060
801.829983	2510.418998
802.150984	2509.975377
802.471940	2509.758607
802.792851	2509.846827
803.113717	2509.335150
803.434538	2508.087464
803.755314	2510.050994
804.076045	2512.717764
804.396731	2509.209121
804.717372	2508.725170
805.037967	2512.435460
805.358518	2510.078720
805.679024	2510.739111
805.999485	2509.151148
806.319901	2510.960922
806.640272	2510.217352
806.960598	2510.817249
807.280879	2511.149965
807.601115	2509.274656
807.921306	2511.316323
808.241453	2510.799605
808.561554	2509.390603
808.881611	2509.441014
809.201623	2508.762979
809.521590	2511.951509
809.841513	2509.720798
810.161390	2510.887825
810.481223	2508.374810
810.801011	2511.354132
811.120755	2510.025788
811.440453	2511.041581
811.760107	2510.413957
812.079716	2510.398833
812.399281	2504.483039
812.718801	2506.025633
813.038276	2505.108142
813.357707	2507.031343
813.677093	2509.897239
813.996434	2510.895387
814.315731	2506.842299
814.634983	2510.464368
814.954191	2509.632578
815.273354	2508.389934
815.592473	2510.686179
815.911547	2508.266425
816.230577	2509.718278
816.549562	2510.892867
816.868502	2508.601662
817.187399	2512.196005
817.506250	2510.759276
817.825058	2511.926303
818.143821	2508.972187
818.462539	2508.382372
818.781213	2510.406395
819.099843	2513.615090
819.418429	2509.965294
819.736970	2507.825324
820.055466	2512.367404
820.373919	2510.461848
820.692327	2511.250788
821.010691	2511.523011
821.329011	2515.896212
821.647286	2519.661954
821.965517	2520.423168
822.283704	2520.889475
822.601847	2523.546163
822.919945	2520.602129
823.237999	2521.128929
823.556010	2516.246572
823.873976	2513.481499
824.191897	2513.960409
824.509775	2512.180881
824.827609	2513.441170
825.145398	2512.942096
825.463144	2511.318844
825.780845	2513.501664
826.098502	2512.208608
826.416116	2513.852024
826.733685	2515.243382
827.051210	2515.170286
827.368692	2513.481499
827.686129	2513.718433
828.003522	2511.616272
828.320872	2508.493277
828.638177	2507.825324
828.955439	2507.457320
829.272656	2507.285921
829.589830	2506.529748
829.906960	2510.320696
830.224046	2508.606703
830.541088	2508.382372
830.858086	2507.573267
831.175041	2510.333298
831.491952	2508.551251
831.808819	2507.661487
832.125642	2509.597290
832.442421	2511.074348
832.759157	2511.427229
833.075849	2513.274812
833.392497	2511.278515
833.709101	2512.866478
834.025662	2511.122239
834.342179	2511.172651
834.658653	2510.930675
834.975083	2511.356653
835.291469	2514.555265
835.607811	2508.261384
835.924110	2508.901611
836.240366	2510.482013
836.556578	2512.390089
836.872746	2508.846158
837.188871	2508.815911
837.504952	2510.396313
837.820990	2509.022598
838.136984	2507.069151
838.452935	2507.815242
838.768842	2508.475633
839.084706	2510.993690
839.400526	2508.762979
839.716303	2510.968484
840.032037	2508.793226
840.347727	2510.895387
840.663373	2508.556292
840.978977	2510.933196
841.294537	2509.577125
841.610054	2510.464368
841.925527	2512.684997
842.240957	2511.573422
842.556344	2510.058556
842.871687	2507.636281
843.186987	2509.188957
843.502244	2506.764162
843.817458	2509.798936
844.132629	2508.273987
844.447756	2509.917403
844.762840	2503.477329
845.077881	2507.401868
845.392879	2505.619820
845.707833	2506.706188
846.022745	2503.782319
846.337613	2509.768689
846.652438	2508.828514
846.967221	2512.080058
847.281960	2506.572598
847.596656	2508.500839
847.911309	2507.658966
848.225919	2508.505880
848.540485	2505.279542
848.855009	2507.159892
849.169490	2506.113853
849.483928	2507.386744
849.798323	2507.618637
850.112675	2508.962105
850.426984	2511.591066
850.741251	2508.478154
851.055474	2509.816580
851.369654	2506.605365
851.683792	2510.449245
851.997887	2508.342043
852.311938	2507.729542
852.625947	2510.119049
852.939914	2506.683503
853.253837	2507.757269
853.567718	2506.864985
853.881555	2508.427742
854.195350	2506.466733
854.509103	2508.820952
854.822812	2509.390603
855.136479	2508.727691
855.450103	2509.652743
855.763685	2507.757269
856.077224	2507.613596
856.390720	2505.171157
856.704173	2507.459841
857.017584	2509.556961
857.330953	2509.143586
857.644278	2509.206601
857.957561	2511.762466
858.270802	2512.218690
858.584000	2507.348935
858.897155	2508.440345
859.210268	2507.963956
859.523339	2508.011847
859.836367	2508.442866
860.149352	2510.214831
860.462295	2508.400016
860.775195	2503.658811
861.088054	2504.662000
861.400869	2507.560664
861.713642	2502.595127
862.026373	2506.302896
862.339062	2507.273318
862.651708	2509.667866
862.964312	2508.992352
863.276873	2507.021260
863.589392	2507.706857
863.901869	2507.013699
864.214303	2507.414470
864.526696	2509.156189
864.839045	2505.173678
865.151353	2509.254492
865.463619	2507.406909
865.775842	2507.414470
866.088023	2508.457989
866.400162	2507.840448
866.712258	2509.292300
867.024313	2508.006806
867.336325	2506.517145
867.648296	2507.737104
867.960224	2508.304234
868.272110	2508.727691
868.583954	2506.386075
868.895755	2508.415139
869.207515	2507.661487
869.519233	2511.069307
869.830909	2509.897239
870.142542	2506.340705
870.454134	2507.999244
870.765684	2507.195180
871.077191	2508.548730
871.388657	2508.672238
871.700081	2504.803153
872.011463	2507.580828
872.322803	2504.641836
872.634101	2509.614934
872.945357	2506.547392
873.256571	2510.781961
873.567744	2508.203411
873.878874	2506.731394
874.189963	2507.321209
874.501010	2508.883967
874.812015	2508.513442
875.122979	2508.510921
875.433900	2509.178874
875.744780	2508.231137
876.055618	2506.086126
876.366415	2507.686693
876.677169	2508.619306
876.987882	2506.406240
877.298554	2503.129490
877.609183	2504.072185
877.919771	2504.208297
878.230317	2506.035715
878.540822	2510.925634
878.851285	2507.434635
879.161707	2506.978411
879.472087	2510.219873
879.782425	2509.803977
880.092722	2507.182577
880.402977	2510.242558
880.713191	2512.871519
881.023363	2513.365553
881.333494	2515.656757
881.643583	2511.807836
881.953631	2512.203567
882.263637	2510.663494
882.573602	2512.148114
882.883526	2510.938237
883.193408	2510.610562
883.503248	2510.383710
883.813048	2512.180881
884.122806	2510.343381
884.432522	2510.847496
884.742197	2508.543689
885.051831	2507.825324
885.361424	2509.105777
885.670975	2509.703154
885.980485	2506.743997
886.289954	2506.638133
886.599382	2510.439163
886.908768	2509.297341
887.218113	2509.398164
887.527417	2507.104439
887.836680	2506.222237
888.145901	2506.426404
888.455082	2506.512104
888.764221	2506.383554
889.073319	2508.102588
889.382376	2508.616786
889.691392	2507.389265
890.000366	2508.853720
890.309300	2510.640809
890.618193	2507.724501
890.927044	2510.267763
891.235855	2506.426404
891.544625	2506.474295
891.853353	2507.512773
892.162041	2506.625530
892.470687	2510.005623
892.779293	2508.495798
893.087858	2502.975734
893.396381	2505.629902
893.704864	2507.593431
894.013306	2501.034890
894.321707	2506.943123
894.630068	2508.755417
894.938387	2509.776251
895.246665	2509.130983
895.554903	2506.547392
895.863100	2508.899090
896.171256	2508.188287
896.479371	2505.758451
896.787446	2509.435973
897.095480	2507.558143
897.403473	2507.553102
897.711425	2508.949502
898.019336	2506.713750
898.327207	2507.152330
898.635038	2508.773061
898.942827	2506.686024
899.250576	2507.462361
899.558284	2508.594100
899.865952	2509.289780
900.173579	2505.271980
900.481165	2506.002947
900.788711	2508.200890
901.096216	2506.907834
901.403681	2506.837258
901.711105	2506.502022
902.018489	2506.678462
902.325832	2507.404388
902.633135	2505.619820
902.940397	2507.263236
903.247619	2508.016888
903.554800	2508.606703
903.861941	2507.328771
904.169041	2509.239368
904.476101	2506.459172
904.783121	2510.174502
905.090100	2507.447238
905.397039	2508.452948
905.703938	2507.865654
906.010796	2509.897239
906.317614	2508.657115
906.624391	2507.724501
906.931129	2505.839110
907.237826	2509.279697
907.544483	2505.917248
907.851099	2509.660304
908.157675	2508.026971
908.464211	2504.959428
908.770707	2503.605879
909.077163	2504.588904
909.383578	2505.302227
909.689954	2503.205107
909.996289	2497.748058
910.302584	2506.025632
910.608839	2506.053359
910.915054	2507.638802
911.221229	2506.078565
911.527363	2506.590242
911.833458	2506.086126
912.139513	2508.193329
912.445527	2504.853564
912.751502	2507.469923
913.057436	2504.155364
913.363331	2506.653256
913.669186	2507.817763
913.975000	2506.645694
914.280775	2507.220386
914.586510	2507.293483
914.892205	2506.408760
915.197859	2507.505211
915.503475	2506.804491
915.809050	2508.765500
916.114585	2508.805829
916.420081	2507.331291
916.725536	2508.503360
917.030952	2507.532937
917.336328	2509.511590
917.641665	2507.898421
917.946961	2507.447238
918.252218	2504.956908
918.557435	2507.222907
918.862612	2511.001251
919.167750	2506.454131
919.472848	2506.968328
919.777906	2506.305417
920.082925	2509.264574
920.387904	2503.976403
920.692843	2504.369613
920.997743	2504.397340
921.302603	2504.621671
921.607423	2508.538648
921.912204	2503.414315
922.216946	2508.034532
922.521647	2506.267608
922.826310	2506.743997
923.130932	2506.328102
923.435516	2504.495642
923.740059	2505.602176
924.044564	2507.875736
924.349028	2507.227948
924.653454	2500.583707
924.957840	2503.212669
925.262186	2502.978255
925.566493	2506.209635
925.870761	2503.139572
926.174989	2506.020591
926.479178	2506.106291
926.783328	2506.761641
927.087438	2504.714932
927.391509	2508.881446
927.695541	2507.149810
927.999533	2505.241733
928.303486	2506.098729
928.607400	2505.030005
928.911275	2504.107473
929.215110	2504.946826
929.518906	2505.123266
929.822663	2505.370283
930.126381	2503.943636
930.430060	2505.884480
930.733699	2506.260046
931.037299	2504.828358
931.340861	2506.176867
931.644383	2505.670231
931.947866	2508.447907
932.251309	2505.408091
932.554714	2503.696619
932.858080	2509.020078
933.161407	2505.607217
933.464694	2507.290962
933.767943	2504.193173
934.071153	2503.454644
934.374323	2507.686693
934.677455	2506.252484
934.980548	2503.794922
935.283602	2507.583349
935.586617	2504.273832
935.889593	2506.917917
936.192530	2504.896414
936.495428	2506.267608
936.798287	2505.392968
937.101108	2503.764675
937.403890	2505.244254
937.706632	2506.771723
938.009336	2508.906652
938.312002	2505.110663
938.614628	2505.645025
938.917216	2505.219048
939.219765	2505.128307
939.522275	2506.383554
939.824747	2507.452279
940.127179	2502.680827
940.429573	2501.962463
940.731929	2502.988337
941.034246	2499.855260
941.336524	2502.431290
941.638763	2505.854233
941.940964	2505.874398
942.243126	2504.906496
942.545250	2505.597134
942.847335	2505.665190
943.149381	2504.321722
943.451389	2505.551764
943.753359	2506.670900
944.055290	2505.191322
944.357182	2505.617299
944.659036	2505.735766
944.960851	2506.645694
945.262628	2506.449089
945.564367	2504.039418
945.866067	2505.294665
946.167729	2504.568739
946.469352	2505.014881
946.770937	2506.237361
947.072484	2505.720643
947.373992	2506.499501
947.675462	2503.121928
947.976893	2507.293483
948.278286	2506.328102
948.579641	2505.881960
948.880958	2504.525889
949.182236	2508.473113
949.483476	2506.761641
949.784678	2504.319202
950.085841	2503.124448
950.386967	2507.583349
950.688054	2503.686537
950.989103	2504.742659
951.290114	2503.691578
951.591087	2508.173164
951.892021	2504.667042
952.192917	2506.297855
952.493776	2503.401712
952.794596	2503.205107
953.095378	2502.118738
953.396122	2504.838441
953.696828	2504.775426
953.997496	2505.551764
954.298126	2503.401712
954.598718	2505.226610
954.899272	2501.319715
955.199788	2504.024294
955.500266	2501.803666
955.800706	2502.824500
956.101108	2500.722339
956.401472	2501.082781
956.701798	2502.141423
957.002087	2503.442041
957.302337	2502.441372
957.602550	2504.974552
957.902724	2505.957577
958.202861	2503.724346
958.502960	2502.368275
958.803022	2505.529079
959.103045	2506.413801
959.403031	2505.932371
959.702979	2502.544716
960.002889	2505.937412
960.302762	2505.420694
960.602596	2504.687206
960.902393	2503.573111
961.202153	2506.040756
961.501875	2505.340036
961.801559	2504.609068
962.101205	2504.374655
962.400814	2505.778616
962.700385	2506.416322
962.999918	2505.478667
963.299414	2504.407422
963.598873	2501.876763
963.898293	2505.188801
964.197677	2503.305930
964.497022	2502.695950
964.796331	2506.635612
965.095601	2505.594614
965.394835	2506.164264
965.694030	2504.518328
965.993189	2503.079078
966.292309	2504.631753
966.591393	2506.096209
966.890439	2502.375837
967.189447	2504.576301
967.488419	2504.616630
967.787353	2505.282062
968.086249	2505.985303
968.385108	2504.175529
968.683930	2502.481701
968.982714	2504.853564
969.281462	2503.424397
969.580172	2503.517658
969.878844	2503.764675
970.177480	2505.395488
970.476078	2502.658142
970.774639	2504.170488
971.073162	2502.496825
971.371649	2503.351300
971.670098	2499.172184
971.968510	2502.237205
972.266885	2500.382061
972.565223	2504.697288
972.863524	2502.131341
973.161788	2505.443379
973.460014	2503.832731
973.758204	2506.310458
974.056356	2502.975734
974.354471	2503.545385
974.652550	2504.830879
974.950591	2502.043121
975.248595	2504.467916
975.546563	2503.207628
975.844493	2504.535972
976.142386	2502.617813
976.440243	2501.455827
976.738062	2506.381034
977.035845	2502.612771
977.333590	2505.410612
977.631299	2504.278873
977.928971	2505.329953
978.226606	2504.014212
978.524204	2504.296517
978.821765	2505.418173
979.119290	2502.756444
979.416777	2504.369613
979.714228	2503.235354
980.011642	2503.726866
980.309020	2508.785664
980.606360	2503.303409
980.903664	2504.848523
981.200931	2503.363903
981.498162	2503.331136
981.795356	2504.853564
982.092513	2504.455313
982.389633	2503.237874
982.686717	2502.887514
982.983764	2507.679131
983.280775	2506.738956
983.577749	2503.200066
983.874686	2506.328102
984.171587	2504.737618
984.468451	2506.834738
984.765279	2502.494304
985.062070	2502.617812
985.358824	2501.705364
985.655543	2503.157216
985.952224	2506.207114
986.248869	2503.653770
986.545478	2499.643532
986.842050	2501.355003
987.138586	2498.347955
987.435086	2500.389623
987.731549	2499.532626
988.027975	2503.636126
988.324366	2504.823317
988.620719	2504.341887
988.917037	2503.111846
989.213318	2505.866836
989.509563	2502.748882
989.805772	2504.220899
990.101944	2501.435662
990.398080	2504.848523
990.694180	2503.925992
990.990244	2504.147803
991.286271	2500.354334
991.582262	2500.208141
991.878217	2504.225941
992.174136	2503.051352
992.470019	2502.378358
992.765865	2503.187463
993.061676	2503.568070
993.357450	2501.508759
993.653188	2502.764006
993.948890	2504.389778
994.244556	2506.428925
994.540186	2504.283914
994.835780	2503.318533
995.131337	2502.942967
995.426859	2506.214676
995.722345	2504.283914
996.017795	2503.472288
996.313208	2506.673421
996.608586	2503.658811
996.903928	2502.627895
997.199234	2503.464726
997.494504	2504.903976
997.789738	2503.560508
998.084936	2503.333656
998.380099	2503.953718
998.675225	2501.521362
998.970316	2503.938595
999.265371	2504.848523
999.560390	2505.566888
999.855373	2503.227792
1000.150320	2502.408605
1000.445232	2504.762823
1000.740108	2504.208297
1001.034948	2503.449603
1001.329752	2504.336846
1001.624521	2502.491784
1001.919254	2497.090187
1002.213951	2499.658655
1002.508613	2499.328460
1002.803239	2504.646877
1003.097829	2497.911895
1003.392384	2503.736949
1003.686903	2503.570591
1003.981386	2502.443893
1004.275834	2504.041938
1004.570246	2506.648215
1004.864623	2502.663183
1005.158964	2499.371309
1005.453270	2500.578666
1005.747540	2504.099912
1006.041775	2502.698471
1006.335974	2504.460354
1006.630138	2501.591938
1006.924266	2507.321209
1007.218359	2501.327277
1007.512416	2503.399191
1007.806438	2500.591269
1008.100425	2502.592607
1008.394376	2501.271824
1008.688292	2503.235354
1008.982172	2501.544047
1009.276017	2504.203255
1009.569827	2503.484891
1009.863602	2502.219561
1010.157341	2502.123779
1010.451045	2503.951198
1010.744714	2501.876763
1011.038347	2500.873573
1011.331945	2505.294665
1011.625508	2503.817607
1011.919036	2503.991527
1012.212528	2503.220230
1012.505986	2502.050683
1012.799408	2501.481032
1013.092795	2502.708553
1013.386147	2502.302740
1013.679464	2504.387257
1013.972745	2502.864829
1014.265992	2502.368275
1014.559204	2502.988337
1014.852380	2503.653770
1015.145521	2502.819459
1015.438628	2502.574963
1015.731699	2505.249295
1016.024736	2504.508245
1016.317737	2504.530930
1016.610703	2502.264932
1016.903635	2499.124293
1017.196531	2498.557163
1017.489393	2500.941629
1017.782219	2496.825527
1018.075011	2501.894407
1018.367768	2500.445075
1018.660490	2502.592607
1018.953177	2502.592607
1019.245829	2502.592607
