Dividing Wavelength (nm)	Counts (n)	Blue Motor Position (mm): 0.000000	Red Motor Position (mm): 23.500000	
326.493990	2082.185582
326.888308	2082.185582
327.282561	2082.185582
327.676750	2059.676830
328.070874	2057.897303
328.464933	2065.025494
328.858929	2075.178378
329.252859	2090.022055
329.646726	2102.541761
330.040528	2118.411313
330.434265	2139.107770
330.827938	2158.145688
331.221547	2175.464572
331.615091	2197.723787
332.008571	2219.587271
332.401986	2238.365569
332.795338	2260.087901
333.188625	2277.263112
333.581847	2295.350772
333.975006	2314.429019
334.368100	2331.049703
334.761129	2348.260202
335.154095	2366.720908
335.546996	2386.005842
335.939833	2407.783626
336.332606	2422.536563
336.725315	2433.412853
337.117960	2440.956939
337.510540	2447.046653
337.903056	2456.022427
338.295508	2463.299333
338.687896	2470.397278
339.080220	2477.485140
339.472480	2483.484113
339.864676	2486.319762
340.256807	2491.804538
340.648875	2491.423930
341.040879	2493.064826
341.432818	2492.033910
341.824694	2494.897285
342.216506	2493.521050
342.608253	2495.035917
342.999937	2492.817809
343.391557	2494.108345
343.783113	2490.390494
344.174605	2490.382932
344.566033	2488.079125
344.957397	2484.578043
345.348697	2485.626603
345.739934	2482.609473
346.131106	2481.291211
346.522215	2481.901191
346.913260	2478.306848
347.304241	2475.705613
347.695159	2474.614203
348.086012	2475.261991
348.476802	2472.476754
348.867528	2470.389716
349.258191	2470.861064
349.648789	2471.133286
350.039324	2467.249077
350.429796	2472.086064
350.820203	2464.693212
351.210548	2471.861733
351.600828	2466.553398
351.991045	2466.654221
352.381198	2468.201855
352.771288	2467.105404
353.161314	2468.804273
353.551276	2468.002730
353.941175	2467.667493
354.331010	2465.709005
354.720782	2468.269911
355.110490	2466.863429
355.500135	2469.482308
355.889717	2468.895014
356.279235	2467.828810
356.668689	2467.493573
357.058080	2469.008440
357.447408	2467.468367
357.836672	2464.720938
358.225873	2471.433235
358.615010	2465.840075
359.004084	2474.334419
359.393095	2472.527165
359.782043	2473.996662
360.170927	2475.723257
360.559748	2476.275263
360.948505	2476.456745
361.337199	2477.840541
361.725830	2476.877681
362.114398	2478.707620
362.502903	2479.841879
362.891344	2479.441108
363.279722	2481.820532
363.668037	2481.616366
364.056289	2480.557723
364.444478	2483.685759
364.832603	2482.765749
365.220665	2484.832622
365.608665	2486.173569
365.996601	2485.331696
366.384474	2486.654999
366.772284	2487.401090
367.160031	2490.047695
367.547715	2491.086173
367.935336	2487.915287
368.322893	2492.875783
368.710388	2492.691781
369.097820	2495.923160
369.485189	2493.450474
369.872495	2492.406955
370.259738	2497.687564
370.646918	2500.394664
371.034035	2500.140085
371.421090	2503.767196
371.808081	2505.360200
372.195010	2508.538648
372.581875	2512.332116
372.968678	2518.333610
373.355418	2525.461801
373.742096	2532.645445
374.128710	2544.529966
374.515262	2554.372818
374.901751	2568.505693
375.288177	2582.051274
375.674540	2597.930908
376.060841	2617.972015
376.447079	2635.676548
376.833254	2662.445075
377.219367	2683.721264
377.605417	2715.823332
377.991404	2739.746128
378.377329	2779.069648
378.763191	2808.492343
379.148991	2851.879033
379.534727	2896.783111
379.920402	2942.526541
380.306013	2988.431288
380.691563	3045.381203
381.077049	3097.547063
381.462474	3153.410609
381.847835	3220.006772
382.233134	3286.360960
382.618371	3345.634847
383.003545	3423.145108
383.388657	3502.626460
383.773706	3588.535283
384.158693	3658.554389
384.543618	3741.410794
384.928480	3818.595901
385.313280	3918.955191
385.698017	4020.105943
386.082692	4135.019045
386.467305	4192.374773
386.851856	4311.487156
387.236344	4458.086431
387.620770	4517.375441
388.005133	4633.054798
388.389435	4770.262403
388.773674	4851.432542
389.157851	4979.787880
389.541965	5104.737920
389.926018	5131.912259
390.310008	5306.126975
390.693936	5416.056896
391.077802	5529.127456
391.461606	5661.729967
391.845348	5767.049753
392.229027	5884.117948
392.612645	6094.903714
392.996200	6211.523247
393.379694	6377.238576
393.763125	6590.280258
394.146494	6680.002715
394.529801	6815.861811
394.913047	7047.006276
395.296230	7044.183230
395.679351	7101.347394
396.062410	7344.807399
396.445408	7251.309118
396.828343	7398.898979
397.211217	7535.925103
397.594028	7426.438803
397.976778	7625.188814
398.359466	7785.633617
398.742092	7772.698017
399.124656	7907.773213
399.507158	8097.658355
399.889598	8116.474462
400.271977	8324.348961
400.654294	8353.209567
401.036549	8557.189775
401.418742	8587.383766
401.800874	8874.724494
402.182944	8961.344120
402.564952	9310.885125
402.946898	9152.691197
403.328783	9205.477119
403.710606	9401.346110
404.092367	9652.519080
404.474067	10013.344708
404.855705	9811.380961
405.237282	9771.865877
405.618797	10185.179998
406.000250	10428.841649
406.381642	10781.508169
406.762972	10735.384132
407.144240	10554.016019
407.525447	10803.855604
407.906593	10747.056924
408.287677	11009.224650
408.668700	11152.111115
409.049661	11142.790021
409.430560	11298.120574
409.811399	11283.859150
410.192176	11433.541090
410.572891	11516.707525
410.953545	11981.310346
411.334138	11477.847791
411.714669	12059.614589
412.095139	11410.014025
412.475547	11884.376519
412.855894	11746.455591
413.236180	12063.438304
413.616405	11766.942841
413.996568	12043.470294
414.376670	12019.416428
414.756711	11906.484500
415.136691	12174.474759
415.516609	12356.581400
415.896466	12430.628388
416.276262	12720.330897
416.655997	13182.070343
417.035670	13225.963669
417.415283	13836.754910
417.794834	13919.278599
418.174324	13671.803315
418.553753	13580.155138
418.933121	14067.281834
419.312428	13891.078384
419.691674	13802.487667
420.070859	14261.676288
420.449983	13920.654834
420.829045	14471.030367
421.208047	14234.451537
421.586988	14690.365929
421.965867	14919.143573
422.344686	14921.346557
422.723444	15494.130019
423.102141	14195.624570
423.480777	15382.491147
423.859352	14882.451535
424.237866	15975.250180
424.616319	15698.813468
424.994712	16342.649473
425.373044	16134.109541
425.751314	16823.993965
426.129524	15950.235975
426.507673	17017.720467
426.885762	16757.899397
427.263789	16921.404181
427.641756	17110.452492
428.019662	17161.239596
428.397508	17210.184159
428.775292	17495.581522
429.153016	17479.379253
429.530679	17559.848672
429.908282	17580.466991
430.285824	17314.856157
430.663305	18014.540584
431.040726	17626.366697
431.418086	17469.717882
431.795385	18084.731090
432.172624	18530.227937
432.549802	18078.916119
432.926920	18283.453374
433.303977	18156.776740
433.680974	18401.227331
434.057910	18697.216158
434.434786	18729.272856
434.811601	18645.501482
435.188355	19668.495270
435.565050	19327.758640
435.941683	19268.792264
436.318257	20140.632095
436.694770	19932.825651
437.071222	20487.269395
437.447614	19553.821623
437.823946	19560.256656
438.200218	19710.974553
438.576429	19457.457447
438.952580	19729.936853
439.328670	19658.236522
439.704700	20036.154182
440.080670	19572.347863
440.456580	20124.823037
440.832429	20249.074876
441.208218	19241.297811
441.583947	19617.279667
441.959616	19683.815337
442.335224	19865.115393
442.710773	19929.725342
443.086261	20375.779237
443.461689	19687.540749
443.837057	19763.964642
444.212365	20299.524223
444.587612	20215.412571
444.962800	19750.411499
445.337927	20070.244985
445.712995	18791.823493
446.088002	20426.263872
446.462949	20504.406798
446.837837	20552.867410
447.212664	20451.951072
447.587431	22957.144914
447.962139	25435.386227
448.336786	27314.819121
448.711374	25699.910692
449.085901	22309.265904
449.460369	22148.977376
449.834776	21970.134882
450.209124	23971.704852
450.583412	23355.217107
450.957640	23589.267797
451.331808	22286.154734
451.705917	20962.488886
452.079965	20815.219138
452.453954	20938.182963
452.827883	20695.305212
453.201752	20334.973617
453.575562	20264.029459
453.949311	20931.931932
454.323001	20782.842328
454.696632	20405.257384
455.070202	21368.168180
455.443713	21273.061772
455.817164	21458.740071
456.190556	21611.562650
456.563888	20954.602001
456.937160	21013.928820
457.310373	19594.334856
457.683526	19640.627772
458.056619	19389.167456
458.429653	19117.897926
458.802628	19256.474204
459.175542	19097.902190
459.548398	19693.983344
459.921194	20426.639438
460.293930	20597.123699
460.666607	21566.093962
461.039224	22323.502122
461.411782	22204.351930
461.784280	21137.900875
462.156719	20487.339972
462.529099	19841.656384
462.901419	18786.671433
463.273680	17898.031957
463.645882	17658.362900
464.018024	17347.963934
464.390106	17516.519954
464.762130	18670.185492
465.134094	20497.386991
465.505999	22890.090006
465.877845	24800.044566
466.249631	24861.430697
466.621358	23453.002888
466.993026	21908.368144
467.364634	20484.282512
467.736184	19211.073573
468.107674	18286.289023
468.479105	17584.479749
468.850477	16933.863393
469.221790	16030.569282
469.593043	15059.864862
469.964238	14420.167645
470.335373	14100.291310
470.706449	14419.552624
471.077467	15043.508838
471.448425	16301.100283
471.819324	16950.960466
472.190164	15945.378823
472.560945	14496.122710
472.931667	13234.054721
473.302330	12581.416862
473.672934	12069.916187
474.043479	11939.199067
474.413965	11492.905717
474.784393	11148.791515
475.154761	11132.238886
475.525070	10909.072047
475.895321	10558.505167
476.265513	10470.647938
476.635645	10452.666142
477.005719	10193.490340
477.375734	10072.079191
477.745691	9993.366615
478.115588	10040.496362
478.485427	10226.908149
478.855207	10676.851295
479.224928	10960.121291
479.594591	10995.737043
479.964194	10524.802533
480.333739	10264.371484
480.703226	10026.988591
481.072653	9903.969313
481.442022	9757.077652
481.811333	9561.707735
482.180584	9122.708934
482.549777	8827.640117
482.918912	8541.448772
483.287988	8296.879714
483.657005	7991.244639
484.025964	7705.784261
484.394864	7510.865527
484.763706	7282.450846
485.132489	7009.028744
485.501213	6832.739594
485.869879	6692.580393
486.238487	6502.125601
486.607036	6374.554162
486.975527	6188.389392
487.343959	6068.044446
487.712333	5946.068688
488.080648	5811.303522
488.448905	5724.441921
488.817104	5596.447025
489.185244	5549.065220
489.553326	5568.818981
489.921350	5652.900386
490.289315	5752.387557
490.657222	5681.506413
491.025070	5588.300520
491.392861	5413.944652
491.760593	5225.662598
492.128267	5023.572822
492.495883	4849.642932
492.863440	4695.423954
493.230939	4549.548085
493.598380	4430.871762
493.965763	4343.906817
494.333088	4253.377776
494.700354	4172.613450
495.067563	4108.106845
495.434713	4052.495357
495.801805	4009.610261
496.168839	3947.871250
496.535815	3895.044999
496.902733	3854.927496
497.269593	3805.267090
497.636395	3762.477776
498.003139	3737.831575
498.369825	3692.667877
498.736453	3667.189886
499.103023	3624.158597
499.469535	3592.961416
499.835989	3565.398908
500.202385	3535.595606
500.568723	3509.353880
500.935003	3489.355622
501.301226	3464.870738
501.667390	3455.874799
502.033497	3444.718726
502.399546	3410.862336
502.765537	3376.277500
503.131470	3366.190152
503.497345	3357.985674
503.863163	3317.545537
504.228923	3311.107984
504.594625	3304.148671
504.960269	3272.873353
505.325856	3273.064917
505.691385	3249.346288
506.056856	3235.956983
506.422270	3232.211406
506.787625	3212.792881
507.152924	3205.165615
507.518164	3195.413503
507.883347	3171.102539
508.248472	3162.154491
508.613540	3161.398318
508.978550	3154.383552
509.343503	3143.666059
509.708398	3135.554842
510.073236	3131.461426
510.438016	3126.632000
510.802738	3107.682303
511.167403	3110.167592
511.532010	3101.968155
511.896561	3096.742999
512.261053	3104.224071
512.625488	3085.622214
512.989866	3075.212231
513.354186	3064.610684
513.718449	3056.481824
514.082655	3064.794687
514.446803	3054.419992
514.810894	3054.848490
515.174927	3046.238199
515.538904	3038.149668
515.902822	3038.842827
516.266684	3030.015766
516.630488	3027.386804
516.994235	3021.029909
517.357925	3022.880013
517.721558	3022.764066
518.085133	3019.368849
518.448651	3018.133767
518.812112	3009.014319
519.175516	3007.743948
519.538863	3007.449041
519.902152	3001.553412
520.265385	3003.307733
520.628560	3000.361179
520.991678	2993.472442
521.354739	2993.759788
521.717743	2992.179386
522.080690	2987.793582
522.443580	2990.782986
522.806413	2990.266268
523.169189	2985.507419
523.531908	2984.773931
523.894569	2980.173878
524.257174	2984.705875
524.619722	2979.483240
524.982213	2978.840493
525.344647	2977.590287
525.707025	2974.633650
526.069345	2970.199955
526.431608	2970.729276
526.793815	2973.300265
527.155964	2961.723255
527.518057	2962.673513
527.880093	2960.568831
528.242072	2964.112762
528.603995	2960.009263
528.965860	2959.560600
529.327669	2954.615228
529.689421	2948.515432
530.051117	2951.376287
530.412755	2947.444187
530.774337	2950.922583
531.135862	2942.791202
531.497331	2943.544854
531.858743	2939.159050
532.220098	2942.486212
532.581396	2936.988834
532.942638	2934.216199
533.303824	2936.388936
533.664953	2935.075716
534.026025	2929.903492
534.387040	2935.317691
534.747999	2932.058585
535.108902	2931.766198
535.469748	2924.847215
535.830537	2925.898295
536.191270	2925.542894
536.551947	2924.885023
536.912567	2923.123140
537.273131	2924.433840
537.633638	2919.427974
537.994089	2918.674322
538.354483	2913.860020
538.714821	2918.124836
539.075103	2918.329003
539.435328	2916.864548
539.795497	2913.345822
540.155609	2911.783064
540.515665	2914.752304
540.875665	2908.052611
541.235609	2912.670308
541.595496	2908.642426
541.955328	2910.089237
542.315102	2906.368865
542.674821	2903.838206
543.034483	2904.770819
543.394090	2900.523647
543.753640	2901.113462
544.113134	2906.746952
544.472571	2898.918040
544.831953	2904.906931
545.191278	2898.461815
545.550548	2893.685322
545.909761	2895.006104
546.268918	2897.209089
546.628019	2899.775036
546.987064	2896.866290
547.346053	2885.899260
547.704986	2893.491238
548.063863	2887.842625
548.422684	2889.785990
548.781449	2886.468910
549.140158	2889.473438
549.498811	2884.931358
549.857408	2881.684855
550.215949	2883.978580
550.574434	2881.795761
550.932864	2880.359032
551.291237	2884.550751
551.649555	2880.154865
552.007817	2881.689897
552.366022	2877.155379
552.724173	2882.811553
553.082267	2883.189640
553.440305	2885.874054
553.798288	2877.843496
554.156215	2881.747870
554.514086	2880.212838
554.871902	2879.562530
555.229661	2882.398179
555.587365	2874.796119
555.945014	2875.948022
556.302606	2873.850902
556.660143	2874.183618
557.017625	2876.016078
557.375050	2873.583721
557.732421	2876.245450
558.089735	2873.558515
558.446994	2875.574977
558.804197	2877.248640
559.161345	2876.837786
559.518437	2867.960314
559.875474	2871.032897
560.232455	2872.852754
560.589381	2871.789070
560.946251	2871.347969
561.303065	2870.914430
561.659825	2870.798484
562.016528	2869.278576
562.373177	2869.253370
562.729770	2869.384440
563.086307	2866.374871
563.442789	2868.474512
563.799216	2869.898638
564.155587	2865.616178
564.511904	2865.091898
564.868164	2865.802700
565.224370	2865.129706
565.580520	2864.781867
565.936615	2865.691795
566.292654	2862.231043
566.648638	2864.776825
567.004567	2863.251876
567.360441	2866.967207
567.716260	2862.226002
568.072023	2863.816486
568.427732	2860.040661
568.783385	2856.295084
569.138982	2856.779035
569.494525	2856.395907
569.850013	2857.303315
570.205445	2856.874817
570.560823	2859.082842
570.916145	2854.921370
571.271412	2855.997656
571.626625	2855.526308
571.981782	2851.324506
572.336884	2849.552541
572.691931	2855.175948
573.046923	2850.109588
573.401860	2847.604135
573.756743	2847.248733
574.111570	2847.278980
574.466342	2846.835359
574.821059	2846.502643
575.175722	2844.791171
575.530330	2841.658094
575.884882	2839.273628
576.239380	2838.053669
576.593823	2839.235819
576.948211	2838.033504
577.302544	2834.388750
577.656823	2832.720128
578.011047	2834.660972
578.365216	2834.192145
578.719330	2830.207113
579.073389	2829.075374
579.427394	2825.065136
579.781344	2825.095383
580.135239	2825.503716
580.489080	2825.750733
580.842866	2818.957778
581.196597	2821.375011
581.550273	2825.221412
581.903895	2820.996925
582.257463	2824.687049
582.610975	2817.470638
582.964434	2819.580361
583.317837	2818.690597
583.671186	2815.731440
584.024481	2817.906697
584.377721	2812.487457
584.730906	2814.279587
585.084037	2810.745738
585.437113	2813.178095
585.790135	2810.544092
586.143103	2807.292548
586.496016	2807.587456
586.848874	2807.922692
587.201679	2805.702064
587.554428	2799.836682
587.907124	2802.299285
588.259765	2795.828964
588.612352	2802.137968
588.964884	2800.280303
589.317362	2797.986578
589.669786	2798.059675
590.022155	2798.747792
590.374470	2799.723256
590.726731	2798.450364
591.078937	2794.576237
591.431090	2794.563635
591.783188	2788.841925
592.135232	2785.476955
592.487222	2788.005093
592.839157	2786.626338
593.191038	2787.269085
593.542866	2782.671553
593.894639	2780.725667
594.246358	2783.195833
594.598022	2781.068466
594.949633	2780.087961
595.301190	2779.079731
595.652692	2775.687034
596.004141	2775.999586
596.355535	2774.830038
596.706876	2768.084974
597.058162	2768.294182
597.409395	2769.715787
597.760573	2770.219903
598.111698	2768.034562
598.462768	2769.683020
598.813785	2767.132196
599.164748	2761.879314
599.515657	2763.409304
599.866511	2762.073398
600.217312	2763.691608
600.568060	2756.898654
600.918753	2764.626742
601.269392	2760.379570
601.619978	2759.182296
601.970510	2760.218253
602.320988	2759.820002
602.671412	2761.813779
603.021783	2758.602564
603.372100	2757.317069
603.722363	2756.417223
604.072572	2755.005700
604.422728	2756.502923
604.772830	2749.024371
605.122878	2750.183837
605.472872	2749.941861
605.822813	2749.644433
606.172701	2749.145359
606.522534	2754.504106
606.872314	2754.224322
607.222041	2748.202663
607.571714	2751.882706
607.921333	2747.567478
608.270899	2748.187540
608.620411	2749.634351
608.969870	2749.747777
609.319276	2749.480596
609.668627	2747.088568
610.017926	2747.993455
610.367171	2747.141500
610.716362	2748.908425
611.065500	2748.046387
611.414585	2747.567478
611.763616	2749.160482
612.112594	2747.633013
612.461518	2747.864906
612.810389	2747.108733
613.159207	2747.385996
613.507971	2746.339957
613.856682	2748.043867
614.205340	2745.014133
614.553945	2748.313569
614.902496	2743.471540
615.250994	2747.489340
615.599439	2745.626634
615.947830	2745.558578
616.296169	2744.530183
616.644454	2745.818197
616.992686	2743.973135
617.340864	2746.627303
617.688990	2746.339957
618.037063	2746.344998
618.385082	2747.806933
618.733048	2749.316758
619.080961	2747.053280
619.428821	2746.108064
619.776628	2745.694689
620.124382	2743.350553
620.472083	2742.841396
620.819731	2743.007754
621.167326	2737.994327
621.514868	2740.590521
621.862357	2734.848647
622.209793	2736.688668
622.557176	2731.105590
622.904506	2728.766495
623.251783	2725.958572
623.599007	2724.567213
623.946179	2721.492110
624.293297	2722.212995
624.640363	2720.693087
624.987376	2721.885320
625.334336	2716.887016
625.681243	2718.006152
626.028097	2715.230997
626.374899	2713.590101
626.721647	2709.612631
627.068343	2712.518856
627.414987	2709.869729
627.761577	2709.451314
628.108115	2709.962991
628.454600	2704.906713
628.801032	2705.690613
629.147412	2703.739686
629.493739	2704.712629
629.840014	2701.559387
630.186236	2703.245653
630.532405	2700.195755
630.878521	2700.130220
631.224585	2700.354552
631.570597	2696.190558
631.916556	2698.443954
632.262462	2694.297605
632.608316	2698.020497
632.954117	2696.077132
633.299866	2696.407328
633.645562	2694.592513
633.991206	2691.744261
634.336797	2687.781914
634.682336	2690.247038
635.027823	2685.503312
635.373257	2684.737057
635.718639	2684.716892
636.063968	2681.397292
636.409245	2677.553413
636.754470	2679.199349
637.099642	2676.114163
637.444762	2674.067455
637.789829	2677.069462
638.134845	2671.655263
638.479808	2671.224244
638.824719	2671.713236
639.169577	2669.288441
639.514383	2667.629901
639.859137	2665.729386
640.203839	2667.622340
640.548489	2665.058913
640.893086	2663.662513
641.237632	2660.408448
641.582125	2660.143788
641.926566	2657.545073
642.270955	2659.909374
642.615292	2662.460198
642.959576	2661.709066
643.303809	2660.751247
643.647990	2660.627739
643.992118	2659.349806
644.336195	2660.123623
644.680219	2658.220588
645.024192	2661.499858
645.368112	2660.037924
645.711981	2663.037410
646.055797	2663.755775
646.399562	2665.305929
646.743274	2667.342556
647.086935	2668.897752
647.430544	2665.736948
647.774101	2665.321053
648.117606	2667.012360
648.461059	2669.845488
648.804460	2664.643018
649.147810	2662.969355
649.491108	2659.795948
649.834354	2657.590443
650.177548	2655.339568
650.520690	2657.151863
650.863781	2652.443425
651.206820	2657.598005
651.549807	2651.939310
651.892742	2648.292035
652.235626	2644.990079
652.578458	2646.678866
652.921238	2646.968732
653.263967	2645.922693
653.606644	2645.156437
653.949269	2643.807929
654.291843	2642.945892
654.634365	2642.542599
654.976836	2640.800881
655.319255	2640.223668
655.661622	2639.870788
656.003938	2638.847433
656.346203	2641.194091
656.688416	2638.968421
657.030577	2637.297279
657.372687	2638.313071
657.714746	2637.483801
658.056753	2639.006230
658.398708	2627.852677
658.740612	2636.336939
659.082465	2633.402987
659.424266	2630.511886
659.766016	2632.430045
660.107715	2634.781743
660.449362	2634.333080
660.790958	2633.897020
661.132503	2632.520785
661.473996	2632.782925
661.815438	2635.028759
662.156829	2634.166722
662.498168	2633.551701
662.839456	2634.945580
663.180693	2632.782925
663.521879	2630.809314
663.863013	2631.817544
664.204097	2633.408028
664.545129	2632.745117
664.886110	2633.713018
665.227040	2634.983389
665.567918	2633.539098
665.908746	2635.076650
666.249522	2636.465488
666.590248	2633.844088
666.930922	2633.551701
667.271545	2635.389202
667.612118	2637.811476
667.952639	2631.467184
668.293109	2631.809983
668.633528	2632.235960
668.973896	2631.353758
669.314213	2630.305198
669.654480	2631.993985
669.994695	2629.906947
670.334859	2629.599437
670.674973	2628.550877
671.015035	2630.186731
671.355047	2629.453243
671.695008	2631.134468
672.034918	2629.733027
672.374777	2628.129940
672.714585	2630.461474
673.054342	2627.794704
673.394049	2629.685136
673.733705	2630.569859
674.073310	2624.805299
674.412864	2629.659931
674.752368	2629.468367
675.091820	2624.888478
675.431223	2624.613736
675.770574	2623.078704
676.109875	2617.810698
676.449125	2621.336986
676.788324	2618.372787
677.127473	2617.175513
677.466571	2615.849690
677.805619	2618.682818
678.144616	2618.334978
678.483562	2618.866820
678.822458	2616.308435
679.161303	2616.210132
679.500098	2615.506891
679.838842	2615.494288
680.177535	2611.889863
680.516179	2618.327417
680.854771	2617.626696
681.193314	2618.352622
681.531805	2621.284053
681.870247	2624.328910
682.208638	2628.167749
682.546978	2630.017852
682.885268	2627.499796
683.223508	2626.680609
683.561697	2626.234467
683.899836	2625.906792
684.237925	2623.484517
684.575963	2622.635083
684.913951	2619.441512
685.251889	2623.101389
685.589776	2621.571399
685.927614	2621.422685
686.265401	2621.556276
686.603137	2622.607356
686.940824	2624.981740
687.278460	2625.919394
687.616046	2625.362347
687.953582	2629.397791
688.291068	2624.540639
688.628504	2625.911833
688.965889	2627.376288
689.303224	2626.438633
689.640510	2624.893520
689.977745	2621.775566
690.314930	2620.316152
690.652065	2618.108127
690.989150	2613.160234
691.326185	2611.635285
691.663170	2611.599997
692.000105	2606.584049
692.336990	2605.628750
692.673825	2606.241250
693.010610	2601.865529
693.347345	2593.880341
693.684030	2594.916298
694.020665	2593.943356
694.357251	2589.716348
694.693786	2593.580392
695.030272	2594.744899
695.366707	2592.393201
695.703093	2592.461256
696.039429	2590.699373
696.375716	2588.198961
696.711952	2588.025041
697.048139	2591.657192
697.384276	2589.267685
697.720363	2589.401276
698.056400	2587.694845
698.392388	2586.409351
698.728326	2589.292891
699.064214	2585.602767
699.400053	2587.581419
699.735842	2586.694176
700.071581	2586.192582
700.407270	2582.210070
700.742910	2582.343661
701.078501	2581.894998
701.414042	2580.564133
701.749533	2578.469534
702.084974	2578.247723
702.420366	2579.644123
702.755709	2577.708320
703.091002	2576.034657
703.426246	2577.191601
703.761440	2575.802763
704.096584	2575.727146
704.431679	2576.281673
704.766725	2575.268401
705.101721	2574.391240
705.436668	2575.706982
705.771565	2575.051632
706.106413	2575.568350
706.441212	2575.964080
706.775961	2573.990469
707.110661	2575.704461
707.445311	2575.989286
707.779913	2576.702609
708.114465	2577.667990
708.448967	2580.261664
708.783421	2581.158989
709.117825	2580.100347
709.452180	2584.415575
709.786485	2582.751994
710.120742	2586.036306
710.454949	2585.930442
710.789107	2585.600246
711.123216	2585.824577
711.457275	2587.760380
711.791286	2590.964034
712.125247	2586.565627
712.459159	2590.911102
712.793023	2595.075095
713.126837	2590.280957
713.460602	2591.216091
713.794318	2591.808427
714.127985	2590.656523
714.461602	2589.050916
714.795171	2589.444126
715.128691	2583.888774
715.462162	2584.072776
715.795584	2578.729153
716.128957	2578.948443
716.462281	2576.632033
716.795556	2576.664801
717.128782	2574.300500
717.461960	2571.938719
717.795088	2574.413926
718.128167	2573.483833
718.461198	2568.331773
718.794180	2568.997206
719.127113	2567.600806
719.459997	2568.603996
719.792833	2567.016032
720.125619	2565.183573
720.458357	2565.624674
720.791046	2564.820610
721.123686	2563.300702
721.456278	2563.106618
721.788821	2563.827502
722.121315	2560.023952
722.453761	2560.122254
722.786158	2563.252811
723.118506	2564.760116
723.450805	2562.000084
723.783056	2560.583520
724.115259	2562.920095
724.447412	2562.443706
724.779518	2564.283727
725.111574	2562.748696
725.443582	2566.103583
725.775542	2565.072667
726.107453	2568.208265
726.439315	2565.029818
726.771129	2569.894531
727.102895	2570.292782
727.434612	2569.876887
727.766281	2567.631053
728.097901	2567.825137
728.429473	2565.052503
728.760996	2566.796742
729.092471	2567.106773
729.423897	2570.892680
729.755276	2571.422001
730.086606	2570.721280
730.417887	2570.310426
730.749120	2573.319995
731.080305	2574.318144
731.411442	2577.592373
731.742530	2574.809656
732.073570	2579.785275
732.404562	2577.214287
732.735506	2575.263360
733.066401	2576.435428
733.397249	2575.308730
733.728048	2573.196487
734.058798	2570.083574
734.389501	2567.815055
734.720156	2564.397153
735.050762	2562.110990
735.381320	2560.974209
735.711831	2562.191648
736.042293	2559.996226
736.372707	2559.204764
736.703073	2561.130485
737.033391	2559.482028
737.363661	2560.623849
737.693883	2560.097049
738.024056	2564.497976
738.354182	2561.891699
738.684260	2560.631411
739.014290	2562.123592
739.344272	2565.365054
739.674207	2565.891855
740.004093	2565.594427
740.333931	2566.181721
740.663722	2565.654921
740.993464	2566.108625
741.323159	2566.562328
741.652806	2565.581824
741.982405	2566.080898
742.311956	2562.829354
742.641460	2563.240208
742.970915	2561.629559
743.300323	2562.647872
743.629683	2560.185269
743.958996	2558.473797
744.288260	2555.572613
744.617477	2555.428940
744.946647	2552.956254
745.275768	2551.222097
745.604842	2550.614638
745.933869	2551.348126
746.262847	2549.931562
746.591778	2551.237221
746.920662	2550.160934
747.249498	2554.718138
747.578286	2554.151008
747.907027	2553.334341
748.235720	2554.261913
748.564365	2557.284085
748.892963	2552.681511
749.221514	2552.681511
749.550017	2556.684187
749.878473	2555.993549
750.206881	2551.660678
750.535242	2553.576316
750.863555	2551.726213
751.191821	2553.304094
751.520039	2552.167314
751.848210	2551.259906
752.176334	2552.283260
752.504411	2551.706048
752.832440	2552.053888
753.160421	2552.860472
753.488356	2551.212015
753.816243	2551.234700
754.144082	2552.469783
754.471875	2550.584391
754.799620	2548.852755
755.127318	2550.634803
755.454969	2549.041798
755.782572	2550.503733
756.110129	2549.379556
756.437638	2552.525236
756.765100	2548.207487
757.092515	2551.706048
757.419882	2549.036757
757.747203	2549.697148
758.074477	2550.342416
758.401703	2548.590615
758.728882	2549.540873
759.056014	2551.743857
759.383099	2553.432643
759.710138	2553.120092
760.037129	2554.435833
760.364073	2554.738302
760.690970	2552.109340
761.017820	2552.313507
761.344623	2553.825853
761.671379	2557.072356
761.998088	2554.052705
762.324751	2564.036710
762.651366	2575.197825
762.977935	2593.731627
763.304456	2597.590630
763.630931	2605.197732
763.957359	2602.256218
764.283740	2594.845722
764.610074	2585.925400
764.936362	2578.154462
765.262602	2569.181208
765.588796	2565.339849
765.914943	2559.862635
766.241044	2553.455328
766.567097	2551.587581
766.893104	2548.041129
767.219064	2548.071376
767.544978	2545.777651
767.870845	2542.271529
768.196665	2545.016437
768.522438	2542.803370
768.848165	2543.405788
769.173846	2540.222300
769.499479	2538.460416
769.825066	2538.979655
770.150607	2540.600386
770.476101	2538.644418
770.801548	2537.873122
771.126949	2536.769109
771.452303	2538.707433
771.777611	2534.455220
772.102872	2536.698533
772.428087	2535.700385
772.753256	2535.097967
773.078378	2535.365148
773.403453	2532.773995
773.728482	2533.860363
774.053465	2533.149561
774.378401	2532.166536
774.703291	2532.647966
775.028135	2530.384488
775.352932	2532.045548
775.677683	2526.510361
776.002388	2530.981865
776.327046	2528.577234
776.651658	2531.448171
776.976224	2530.876000
777.300743	2531.581762
777.625216	2532.063192
777.949643	2529.577903
778.274024	2531.178470
778.598359	2525.242511
778.922647	2524.433406
779.246889	2527.866432
779.571086	2524.849301
779.895236	2526.830474
780.219339	2527.309384
780.543397	2527.889117
780.867409	2529.290558
781.191374	2528.499096
781.515294	2529.204858
781.839167	2530.147554
782.162995	2531.201155
782.486776	2531.647297
782.810511	2526.679240
783.134201	2527.818541
783.457844	2527.866432
783.781441	2529.230064
784.104993	2526.959024
784.428498	2530.865918
784.751958	2528.123530
785.075372	2527.324508
785.398739	2526.646472
785.722061	2528.441123
786.045337	2529.638397
786.368568	2527.231246
786.691752	2526.898530
787.014891	2530.863398
787.337983	2532.577390
787.661030	2537.132072
787.984031	2536.481763
788.306987	2539.612320
788.629897	2537.616023
788.952760	2540.015612
789.275579	2536.219623
789.598351	2536.201979
789.921078	2532.579910
790.243759	2535.080323
790.566395	2533.255425
790.888984	2532.847092
791.211529	2529.270393
791.534027	2529.560259
791.856480	2529.683768
792.178888	2528.337779
792.501249	2526.323838
792.823566	2529.197296
793.145836	2528.869621
793.468062	2526.863242
793.790241	2526.641431
794.112375	2528.506658
794.434464	2525.560104
794.756507	2530.906247
795.078505	2529.003212
795.400457	2528.509179
795.722364	2528.592358
796.044226	2530.860877
796.366042	2529.454395
796.687812	2530.676875
797.009538	2534.919006
797.331218	2533.613347
797.652852	2531.962369
797.974442	2532.862215
798.295986	2531.412883
798.617484	2529.464477
798.938938	2527.601771
799.260346	2532.101001
799.581709	2530.855836
799.903026	2528.408356
800.224299	2527.369878
800.545526	2525.839888
800.866708	2527.185876
801.187845	2526.782583
801.508936	2525.701256
801.829983	2526.525485
802.150984	2525.736544
802.471940	2523.778056
802.792851	2524.670340
803.113717	2524.929959
803.434538	2523.336955
803.755314	2527.218643
804.076045	2526.636390
804.396731	2526.243180
804.717372	2524.826616
805.037967	2525.008097
805.358518	2521.970802
805.679024	2525.141688
805.999485	2525.282840
806.319901	2528.121010
806.640272	2527.725279
806.960598	2526.717048
807.280879	2527.984899
807.601115	2526.832995
807.921306	2525.998684
808.241453	2526.593540
808.561554	2527.223684
808.881611	2528.577234
809.201623	2526.275948
809.521590	2528.756195
809.841513	2524.398118
810.161390	2524.514064
810.481223	2524.309898
810.801011	2521.905267
811.120755	2523.730165
811.440453	2526.734692
811.760107	2525.918026
812.079716	2521.640607
812.399281	2521.819568
812.718801	2521.391069
813.038276	2522.414424
813.357707	2523.883920
813.677093	2525.655886
813.996434	2524.143539
814.315731	2525.194620
814.634983	2525.623118
814.954191	2524.597243
815.273354	2524.559435
815.592473	2524.899712
815.911547	2525.192099
816.230577	2528.385670
816.549562	2526.969106
816.868502	2525.340813
817.187399	2526.850639
817.506250	2526.006246
817.825058	2530.939015
818.143821	2529.391381
818.462539	2533.225178
818.781213	2532.247194
819.099843	2534.674510
819.418429	2539.294727
819.736970	2546.100285
820.055466	2553.014227
820.373919	2561.301884
820.692327	2571.074161
821.010691	2593.497213
821.329011	2637.566980
821.647286	2705.499049
821.965517	2778.079062
822.283704	2817.319403
822.601847	2833.287258
822.919945	2801.061682
823.237999	2764.835950
823.556010	2731.753378
823.873976	2695.935980
824.191897	2665.038748
824.509775	2643.933958
824.827609	2622.072994
825.145398	2610.501025
825.463144	2603.589603
825.780845	2605.215376
826.098502	2615.910183
826.416116	2632.470374
826.733685	2646.036119
827.051210	2652.549290
827.368692	2645.035450
827.686129	2625.629528
828.003522	2607.635129
828.320872	2585.958168
828.638177	2575.785119
828.955439	2563.683830
829.272656	2556.858107
829.589830	2547.330327
829.906960	2546.962322
830.224046	2542.581560
830.541088	2536.199459
830.858086	2536.297761
831.175041	2533.797349
831.491952	2535.017308
831.808819	2536.451517
832.125642	2535.465971
832.442421	2539.899666
832.759157	2549.850903
833.075849	2564.898748
833.392497	2579.049267
833.709101	2586.447160
834.025662	2586.021182
834.342179	2578.809812
834.658653	2569.501321
834.975083	2558.065464
835.291469	2553.722510
835.607811	2547.257230
835.924110	2538.314223
836.240366	2536.943029
836.556578	2533.394057
836.872746	2530.986906
837.188871	2528.078160
837.504952	2527.488345
837.820990	2523.094979
838.136984	2521.809485
838.452935	2522.943745
838.768842	2523.251255
839.084706	2524.458612
839.400526	2532.587472
839.716303	2541.361600
840.032037	2542.846220
840.347727	2540.716333
840.663373	2539.846734
840.978977	2534.162833
841.294537	2527.208561
841.610054	2526.291071
841.925527	2524.561955
842.240957	2524.435926
842.556344	2518.966274
842.871687	2520.455935
843.186987	2519.646830
843.502244	2515.596263
843.817458	2516.798578
844.132629	2515.336644
844.447756	2513.738598
844.762840	2508.894049
845.077881	2511.243227
845.392879	2510.804646
845.707833	2511.225583
846.022745	2509.957733
846.337613	2511.961591
846.652438	2512.548886
846.967221	2512.800943
847.281960	2510.174502
847.596656	2513.395799
847.911309	2510.320696
848.225919	2512.049811
848.540485	2513.559637
848.855009	2512.347239
849.169490	2511.331447
849.483928	2509.511590
849.798323	2513.249606
850.112675	2512.022085
850.426984	2512.876561
850.741251	2509.977897
851.055474	2511.825480
851.369654	2510.058556
851.683792	2510.212311
851.997887	2511.034019
852.311938	2511.286077
852.625947	2511.863289
852.939914	2511.049142
853.253837	2513.783968
853.567718	2509.866992
853.881555	2511.286077
854.195350	2509.735922
854.509103	2512.662312
854.822812	2510.620644
855.136479	2510.807167
855.450103	2512.503515
855.763685	2511.981756
856.077224	2509.851868
856.390720	2511.770027
856.704173	2513.146262
857.017584	2512.949657
857.330953	2511.641478
857.644278	2511.003772
857.957561	2512.269102
858.270802	2509.304903
858.584000	2511.187774
858.897155	2509.995541
859.210268	2511.485202
859.523339	2512.574091
859.836367	2510.161899
860.149352	2511.661643
860.462295	2511.281035
860.775195	2506.144100
861.088054	2506.002947
861.400869	2507.462361
861.713642	2503.371465
862.026373	2508.273987
862.339062	2510.381189
862.651708	2509.773730
862.964312	2512.180881
863.276873	2510.764317
863.589392	2512.127949
863.901869	2511.444873
864.214303	2515.760101
864.526696	2511.956550
864.839045	2511.986797
865.151353	2512.574091
865.463619	2512.735408
865.775842	2514.714061
866.088023	2513.284894
866.400162	2515.288753
866.712258	2512.138032
867.024313	2514.562827
867.336325	2512.377486
867.648296	2511.885974
867.960224	2513.486540
868.272110	2512.992507
868.583954	2514.618279
868.895755	2515.946623
869.207515	2514.492250
869.519233	2514.789678
869.830909	2513.171468
870.142542	2513.221880
870.454134	2511.931344
870.765684	2516.120543
871.077191	2514.688855
871.388657	2518.137005
871.700081	2511.031498
872.011463	2515.505522
872.322803	2511.520490
872.634101	2518.288239
872.945357	2515.858403
873.256571	2517.136336
873.567744	2516.670029
873.878874	2514.061232
874.189963	2517.474093
874.501010	2516.856552
874.812015	2513.814215
875.122979	2516.796058
875.433900	2518.545338
875.744780	2518.313445
876.055618	2518.452077
876.366415	2518.777231
876.677169	2517.811850
876.987882	2517.738753
877.298554	2514.789678
877.609183	2515.939062
877.919771	2517.098527
878.230317	2518.883095
878.540822	2526.109589
878.851285	2522.144722
879.161707	2527.304343
879.472087	2534.603934
879.782425	2543.236910
880.092722	2559.247614
880.402977	2584.977663
880.713191	2610.962291
881.023363	2640.092598
881.333494	2657.086328
881.643583	2661.920795
881.953631	2658.888541
882.263637	2650.966367
882.573602	2640.493370
882.883526	2628.056844
883.193408	2617.230966
883.503248	2605.064141
883.813048	2597.774633
884.122806	2584.125708
884.432522	2574.726477
884.742197	2563.154508
885.051831	2558.683005
885.361424	2549.308979
885.670975	2543.075593
885.980485	2540.088709
886.289954	2535.513862
886.599382	2535.024870
886.908768	2528.136133
887.218113	2528.695701
887.527417	2526.366688
887.836680	2521.645648
888.145901	2523.979702
888.455082	2523.528519
888.764221	2520.055164
889.073319	2518.464680
889.382376	2518.683970
889.691392	2516.070132
890.000366	2519.114988
890.309300	2517.985770
890.618193	2515.248423
890.927044	2519.735050
891.235855	2517.779083
891.544625	2521.113806
891.853353	2519.553569
892.162041	2519.427540
892.470687	2521.050792
892.779293	2524.546832
893.087858	2521.622962
893.396381	2529.051103
893.704864	2534.671989
894.013306	2540.633154
894.321707	2554.093034
894.630068	2557.364743
894.938387	2560.404559
895.246665	2558.083108
895.554903	2556.175031
895.863100	2550.596994
896.171256	2544.577857
896.479371	2538.808256
896.787446	2539.566950
897.095480	2534.230888
897.403473	2532.600075
897.711425	2529.257790
898.019336	2530.558408
898.327207	2526.704446
898.635038	2526.011287
898.942827	2524.897192
899.250576	2518.608353
899.558284	2516.057529
899.865952	2522.338806
900.173579	2518.958713
900.481165	2519.046933
900.788711	2516.680111
901.096216	2515.039216
901.403681	2516.037364
901.711105	2516.322189
902.018489	2514.484689
902.325832	2519.861079
902.633135	2516.793537
902.940397	2524.322500
903.247619	2527.644621
903.554800	2537.157278
903.861941	2554.350133
904.169041	2566.464026
904.476101	2569.566856
904.783121	2563.399004
905.090100	2560.465053
905.397039	2552.643703
905.703938	2546.236396
906.010796	2543.599873
906.317614	2536.897659
906.624391	2536.746424
906.931129	2531.503624
907.237826	2529.817358
907.544483	2526.200330
907.851099	2521.401152
908.157675	2516.725482
908.464211	2518.943589
908.770707	2512.763135
909.077163	2512.407733
909.383578	2508.112670
909.689954	2511.046622
909.996289	2505.826507
910.302584	2509.413288
910.608839	2509.655263
910.915054	2511.565861
911.221229	2510.378669
911.527363	2510.968484
911.833458	2511.548217
912.139513	2509.496467
912.445527	2510.139214
912.751502	2508.919255
913.057436	2511.318844
913.363331	2512.064935
913.669186	2513.400841
913.975000	2520.246727
914.280775	2518.787313
914.586510	2525.502130
914.892205	2532.680733
915.197859	2539.317413
915.503475	2553.150339
915.809050	2560.843139
916.114585	2564.019066
916.420081	2566.756413
916.725536	2567.275652
917.030952	2564.913871
917.336328	2560.548232
917.641665	2555.922973
917.946961	2550.458363
918.252218	2544.792106
918.557435	2542.402599
918.862612	2541.341436
919.167750	2540.633154
919.472848	2533.293234
919.777906	2531.548994
920.082925	2527.362316
920.387904	2525.497089
920.692843	2522.371574
920.997743	2520.992818
921.302603	2519.006604
921.607423	2518.205060
921.912204	2514.953516
922.216946	2514.378824
922.521647	2515.523166
922.826310	2514.537621
923.130932	2511.321365
923.435516	2510.333298
923.740059	2511.021416
924.044564	2510.492095
924.349028	2511.855727
924.653454	2507.921106
924.957840	2505.365241
925.262186	2504.828358
925.566493	2507.563184
925.870761	2500.578666
926.174989	2508.019409
926.479178	2507.835407
926.783328	2509.221724
927.087438	2505.329953
927.391509	2507.749707
927.695541	2504.830879
927.999533	2508.480674
928.303486	2503.812566
928.607400	2504.878770
928.911275	2500.618995
929.215110	2506.512104
929.518906	2503.918430
929.822663	2503.399191
930.126381	2504.588904
930.430060	2507.724501
930.733699	2504.518328
931.037299	2505.433297
931.340861	2503.179901
931.644383	2504.525889
931.947866	2505.438338
932.251309	2504.369613
932.554714	2505.012361
932.858080	2509.183915
933.161407	2502.091012
933.464694	2502.174191
933.767943	2502.345590
934.071153	2504.203255
934.374323	2504.636795
934.677455	2506.416322
934.980548	2501.576814
935.283602	2504.135200
935.586617	2504.442710
935.889593	2503.278204
936.192530	2504.725015
936.495428	2504.452793
936.798287	2504.951867
937.101108	2504.425066
937.403890	2507.147289
937.706632	2508.147958
938.009336	2509.655263
938.312002	2507.840448
938.614628	2510.005623
938.917216	2508.069820
939.219765	2510.240037
939.522275	2507.202742
939.824747	2509.481343
940.127179	2505.226610
940.429573	2506.262567
940.731929	2505.740807
941.034246	2506.171826
941.336524	2506.968328
941.638763	2506.370952
941.940964	2507.386744
942.243126	2507.951353
942.545250	2508.762979
942.847335	2507.656446
943.149381	2504.495642
943.451389	2506.219717
943.753359	2508.636950
944.055290	2507.013699
944.357182	2506.431445
944.659036	2505.047649
944.960851	2506.287773
945.262628	2506.353308
945.564367	2503.767196
945.866067	2504.853564
946.167729	2508.639471
946.469352	2503.431959
946.770937	2503.862977
947.072484	2505.234171
947.373992	2505.781137
947.675462	2504.084788
947.976893	2505.503873
948.278286	2503.361383
948.579641	2505.745848
948.880958	2504.803153
949.182236	2504.674603
949.483476	2504.115035
949.784678	2504.830879
950.085841	2503.318533
950.386967	2504.614109
950.688054	2505.687875
950.989103	2505.322392
951.290114	2506.103770
951.591087	2508.437825
951.892021	2504.362052
952.192917	2508.216014
952.493776	2507.916065
952.794596	2508.793226
953.095378	2505.476147
953.396122	2506.766682
953.696828	2506.897752
953.997496	2507.505211
954.298126	2506.295334
954.598718	2508.047135
954.899272	2505.070334
955.199788	2504.689727
955.500266	2505.922289
955.800706	2504.099912
956.101108	2501.796104
956.401472	2500.364417
956.701798	2498.118583
957.002087	2499.005826
957.302337	2506.048318
957.602550	2501.286948
957.902724	2502.204438
958.202861	2504.185611
958.502960	2502.436331
958.803022	2504.601507
959.103045	2502.239726
959.403031	2502.675786
959.702979	2501.851557
960.002889	2502.302740
960.302762	2502.317864
960.602596	2500.460199
960.902393	2501.125631
961.202153	2501.062617
961.501875	2498.421052
961.801559	2501.050014
962.101205	2503.358862
962.400814	2498.882318
962.700385	2500.891217
962.999918	2501.801146
963.299414	2499.598161
963.598873	2501.458347
963.898293	2500.929026
964.197677	2501.039931
964.497022	2500.253511
964.796331	2502.708553
965.095601	2499.852740
965.394835	2499.255363
965.694030	2502.080930
965.993189	2500.298882
966.292309	2498.257214
966.591393	2500.480363
966.890439	2500.003974
967.189447	2499.963645
967.488419	2500.692092
967.787353	2503.492453
968.086249	2498.010198
968.385108	2502.857267
968.683930	2499.184787
968.982714	2500.913903
969.281462	2500.465240
969.580172	2501.244098
969.878844	2499.267966
970.177480	2499.245281
970.476078	2499.575476
970.774639	2501.849037
971.073162	2502.993378
971.371649	2501.833913
971.670098	2497.541371
971.968510	2498.839468
972.266885	2495.514827
972.565223	2500.868532
972.863524	2500.729900
973.161788	2500.893738
973.460014	2500.616474
973.758204	2501.070178
974.056356	2500.326608
974.354471	2500.135044
974.652550	2499.018429
974.950591	2501.120590
975.248595	2502.925323
975.546563	2500.553460
975.844493	2502.844664
976.142386	2501.221413
976.440243	2503.545385
976.738062	2502.988337
977.035845	2501.319715
977.333590	2502.101094
977.631299	2499.860301
977.928971	2499.933398
978.226606	2500.666886
978.524204	2500.261073
978.821765	2501.624705
979.119290	2500.482884
979.416777	2501.032370
979.714228	2499.731752
980.011642	2499.333501
980.309020	2503.343739
980.606360	2500.505569
980.903664	2500.051865
981.200931	2497.785867
981.498162	2501.967504
981.795356	2502.688389
982.092513	2504.175529
982.389633	2503.709222
982.686717	2506.048318
982.983764	2506.383554
983.280775	2504.785509
983.577749	2508.405057
983.874686	2506.801970
984.171587	2504.200735
984.468451	2506.320540
984.765279	2505.975221
985.062070	2507.699296
985.358824	2504.291476
985.655543	2505.304748
985.952224	2502.585045
986.248869	2500.545898
986.545478	2498.597492
986.842050	2498.968017
987.138586	2497.304436
987.435086	2498.549601
987.731549	2497.087667
988.027975	2497.226298
988.324366	2498.284941
988.620719	2500.026659
988.917037	2498.126144
989.213318	2501.191166
989.509563	2498.602533
989.805772	2498.937770
990.101944	2496.331494
990.398080	2497.901813
990.694180	2498.350476
990.990244	2498.620177
991.286271	2496.999447
991.582262	2499.530106
991.878217	2498.473984
992.174136	2497.528768
992.470019	2499.678820
992.765865	2498.123624
993.061676	2494.632625
993.357450	2499.623367
993.653188	2498.395846
993.948890	2499.673779
994.244556	2498.849550
994.540186	2498.287461
994.835780	2501.060096
995.131337	2500.901300
995.426859	2500.132524
995.722345	2499.754437
996.017795	2501.115549
996.313208	2502.690909
996.608586	2503.235354
996.903928	2501.284427
997.199234	2503.832731
997.494504	2502.327946
997.789738	2503.552947
998.084936	2504.389778
998.380099	2502.423728
998.675225	2502.363234
998.970316	2502.748882
999.265371	2500.903820
999.560390	2499.704026
999.855373	2501.773419
1000.150320	2500.190497
1000.445232	2500.059427
1000.740108	2499.124293
1001.034948	2498.776453
1001.329752	2499.661176
1001.624521	2501.622185
1001.919254	2494.378047
1002.213951	2499.025990
1002.508613	2493.049703
1002.803239	2500.177894
1003.097829	2493.503406
1003.392384	2498.262256
1003.686903	2497.405259
1003.981386	2497.871566
1004.275834	2498.955414
1004.570246	2496.790239
1004.864623	2498.426093
1005.158964	2497.831237
1005.453270	2497.697646
1005.747540	2496.502893
1006.041775	2498.509272
1006.335974	2496.926350
1006.630138	2495.388798
1006.924266	2497.001967
1007.218359	2497.707729
1007.512416	2499.436844
1007.806438	2496.989364
1008.100425	2501.196207
1008.394376	2497.354848
1008.688292	2498.743686
1008.982172	2497.017091
1009.276017	2498.852071
1009.569827	2497.133037
1009.863602	2497.851402
1010.157341	2501.128152
1010.451045	2498.453819
1010.744714	2497.359889
1011.038347	2498.768892
1011.331945	2496.742348
1011.625508	2495.250166
1011.919036	2496.162615
1012.212528	2496.588593
1012.505986	2496.679333
1012.799408	2495.517347
1013.092795	2499.187307
1013.386147	2497.806031
1013.679464	2497.866525
1013.972745	2497.201093
1014.265992	2498.640342
1014.559204	2499.625888
1014.852380	2497.115393
1015.145521	2496.581031
1015.438628	2495.693788
1015.731699	2496.717142
1016.024736	2495.545074
1016.317737	2499.850219
1016.610703	2499.351145
1016.903635	2494.902327
1017.196531	2490.851759
1017.489393	2496.157574
1017.782219	2493.195896
1018.075011	2494.914929
1018.367768	2498.824344
1018.660490	2499.245281
1018.953177	2499.245281
1019.245829	2499.245281
