Dividing Wavelength (nm)	Counts (n)	Blue Motor Position (mm): 0.000000	Red Motor Position (mm): 17.900000	
326.493990	2128.266769
326.888308	2128.266769
327.282561	2128.266769
327.676750	2095.872314
328.070874	2093.301326
328.464933	2098.924733
328.858929	2104.530496
329.252859	2114.033071
329.646726	2126.567900
330.040528	2140.670528
330.434265	2156.804741
330.827938	2171.996258
331.221547	2191.631552
331.615091	2208.506815
332.008571	2229.392315
332.401986	2249.859400
332.795338	2271.286824
333.188625	2285.961623
333.581847	2304.636578
333.975006	2322.840184
334.368100	2344.340705
334.761129	2361.258818
335.154095	2375.769779
335.546996	2392.410628
335.939833	2411.035171
336.332606	2424.038827
336.725315	2439.729418
337.117960	2446.935748
337.510540	2456.420679
337.903056	2466.059365
338.295508	2472.970787
338.687896	2482.148207
339.080220	2490.715648
339.472480	2498.171515
339.864676	2500.170332
340.256807	2507.953874
340.648875	2508.707526
341.040879	2512.896725
341.432818	2513.345388
341.824694	2514.968639
342.216506	2514.850172
342.608253	2514.696417
342.999937	2516.057529
343.391557	2513.030316
343.783113	2513.889832
344.174605	2512.201046
344.566033	2512.319513
344.957397	2507.369100
345.348697	2506.847341
345.739934	2506.423884
346.131106	2506.186949
346.522215	2505.740807
346.913260	2501.201248
347.304241	2499.386433
347.695159	2497.629591
348.086012	2498.108500
348.476802	2497.014570
348.867528	2494.935094
349.258191	2492.104486
349.648789	2492.490134
350.039324	2487.731285
350.429796	2489.578868
350.820203	2486.536532
351.210548	2485.031747
351.600828	2487.895123
351.991045	2486.115595
352.381198	2483.877323
352.771288	2482.914463
353.161314	2485.298928
353.551276	2484.787251
353.941175	2481.926397
354.331010	2483.516881
354.720782	2480.683752
355.110490	2484.646099
355.500135	2483.247179
355.889717	2480.938330
356.279235	2484.260451
356.668689	2486.012252
357.058080	2483.663074
357.447408	2483.053094
357.836672	2480.323310
358.225873	2482.765749
358.615010	2483.968064
359.004084	2484.507467
359.393095	2486.917139
359.782043	2487.166676
360.170927	2488.893271
360.559748	2489.510813
360.948505	2490.103148
361.337199	2492.033910
361.725830	2489.926708
362.114398	2492.545587
362.502903	2493.480721
362.891344	2494.713283
363.279722	2491.474342
363.668037	2490.831595
364.056289	2495.545074
364.444478	2495.933243
364.832603	2493.125320
365.220665	2495.232522
365.608665	2497.017091
365.996601	2498.841988
366.384474	2498.443737
366.772284	2501.904489
367.160031	2502.098574
367.547715	2499.288130
367.935336	2507.870695
368.322893	2506.020591
368.710388	2508.301713
369.097820	2521.149094
369.485189	2521.446522
369.872495	2527.069929
370.259738	2533.283151
370.646918	2541.953936
371.034035	2548.373845
371.421090	2560.092007
371.808081	2568.924109
372.195010	2579.303845
372.581875	2594.974272
372.968678	2604.761672
373.355418	2612.003289
373.742096	2632.495580
374.128710	2648.365132
374.515262	2662.813079
374.901751	2682.009793
375.288177	2691.519929
375.674540	2713.320399
376.060841	2732.600292
376.447079	2747.179309
376.833254	2772.584204
377.219367	2781.844803
377.605417	2824.548418
377.991404	2830.623008
378.377329	2852.012624
378.763191	2872.141951
379.148991	2907.470357
379.534727	2932.555139
379.920402	2960.594037
380.306013	2973.479226
380.691563	3023.192564
381.077049	3044.320040
381.462474	3062.057340
381.847835	3101.340531
382.233134	3121.820219
382.618371	3120.149076
383.003545	3190.122812
383.388657	3195.289995
383.773706	3230.212588
384.158693	3246.699682
384.543618	3270.889659
384.928480	3309.305772
385.313280	3351.112060
385.698017	3352.697503
386.082692	3405.624577
386.467305	3412.714960
386.851856	3441.686472
387.236344	3466.241932
387.620770	3496.599760
388.005133	3521.936600
388.389435	3548.654715
388.773674	3562.699370
389.157851	3599.250256
389.541965	3616.359932
389.926018	3581.205445
390.310008	3654.090448
390.693936	3670.073426
391.077802	3712.630847
391.461606	3702.069629
391.845348	3763.352416
392.229027	3763.281840
392.612645	3775.526803
392.996200	3853.052187
393.379694	3894.041809
393.763125	3954.104637
394.146494	3926.741253
394.529801	3986.219307
394.913047	4034.183365
395.296230	4001.448633
395.679351	4057.284453
396.062410	4075.218358
396.445408	4058.910225
396.828343	4094.173096
397.211217	4114.398205
397.594028	4037.381977
397.976778	4106.995271
398.359466	4128.755412
398.742092	4160.068539
399.124656	4083.294286
399.507158	4160.381090
399.889598	4182.310109
400.271977	4242.889655
400.654294	4213.545099
401.036549	4226.349629
401.418742	4195.371739
401.800874	4289.016213
402.182944	4309.637053
402.564952	4374.085684
402.946898	4356.781923
403.328783	4345.157023
403.710606	4260.795834
404.092367	4445.370120
404.474067	4401.260024
404.855705	4406.787649
405.237282	4327.520546
405.618797	4423.083179
406.000250	4444.334163
406.381642	4514.068444
406.762972	4464.839056
407.144240	4462.711689
407.525447	4449.471099
407.906593	4491.166482
408.287677	4508.460160
408.668700	4427.965536
409.049661	4457.605000
409.430560	4475.677537
409.811399	4385.471130
410.192176	4506.650386
410.572891	4429.891257
410.953545	4495.776617
411.334138	4370.708111
411.714669	4399.001587
412.095139	4287.576963
412.475547	4369.183162
412.855894	4326.918128
413.236180	4304.449705
413.616405	4234.959920
413.996568	4269.625415
414.376670	4194.658416
414.756711	4129.723313
415.136691	4119.076396
415.516609	4132.301863
415.896466	4122.801809
416.276262	4107.569962
416.655997	4049.760531
417.035670	4126.360863
417.415283	4140.070281
417.794834	4060.059608
418.174324	3994.688446
418.553753	3899.428282
418.933121	3957.761994
419.312428	3943.044345
419.691674	3865.634907
420.070859	3878.777195
420.449983	3789.349647
420.829045	3796.218219
421.208047	3709.144889
421.586988	3688.632434
421.965867	3644.827328
422.344686	3647.294972
422.723444	3556.453380
423.102141	3443.786112
423.480777	3505.215092
423.859352	3384.033316
424.237866	3419.933893
424.616319	3377.706668
424.994712	3362.684029
425.373044	3290.416568
425.751314	3282.244858
426.129524	3192.598019
426.507673	3194.198585
426.885762	3182.966894
427.263789	3125.215436
427.641756	3076.175091
428.019662	3059.282185
428.397508	3027.167514
428.775292	2983.939620
429.153016	2968.468319
429.530679	2930.339552
429.908282	2911.064700
430.285824	2873.160264
430.663305	2875.973228
431.040726	2821.775783
431.418086	2801.122176
431.795385	2786.402007
432.172624	2770.303082
432.549802	2751.897829
432.926920	2735.130951
433.303977	2717.207129
433.680974	2703.469985
434.057910	2687.920546
434.434786	2676.930830
434.811601	2662.014056
435.188355	2660.284940
435.565050	2642.988741
435.941683	2634.668317
436.318257	2627.449385
436.694770	2617.420009
437.071222	2608.789554
437.447614	2598.959304
437.823946	2591.684919
438.200218	2592.972933
438.576429	2583.193095
438.952580	2579.167734
439.328670	2573.851837
439.704700	2569.390416
440.080670	2567.631053
440.456580	2565.435631
440.832429	2565.566701
441.208218	2558.110834
441.583947	2561.160732
441.959616	2554.718137
442.335224	2552.860472
442.710773	2552.041285
443.086261	2552.994063
443.461689	2551.166645
443.837057	2551.660678
444.212365	2550.327292
444.587612	2548.855276
444.962800	2548.857796
445.337927	2549.298897
445.712995	2544.192208
446.088002	2547.587425
446.462949	2547.791592
446.837837	2547.257230
447.212664	2546.251520
447.587431	2547.985677
447.962139	2548.641027
448.336786	2553.377191
448.711374	2551.809392
449.085901	2546.869061
449.460369	2549.717313
449.834776	2548.782179
450.209124	2547.048022
450.583412	2548.532642
450.957640	2548.424257
451.331808	2548.328475
451.705917	2545.984338
452.079965	2545.054246
452.453954	2545.535676
452.827883	2545.049204
453.201752	2546.553989
453.575562	2547.042981
453.949311	2543.650284
454.323001	2547.496685
454.696632	2543.302445
455.070202	2548.862837
455.443713	2545.364277
455.817164	2544.091385
456.190556	2545.497867
456.563888	2545.845707
456.937160	2543.441076
457.310373	2546.485933
457.683526	2546.664894
458.056619	2546.526263
458.429653	2546.576674
458.802628	2545.974256
459.175542	2547.753783
459.548398	2549.719833
459.921194	2547.736139
460.293930	2548.961140
460.666607	2548.918290
461.039224	2554.657644
461.411782	2552.157231
461.784280	2555.900288
462.156719	2553.694783
462.529099	2551.746377
462.901419	2551.590102
463.273680	2552.270657
463.645882	2553.031872
464.018024	2551.592622
464.390106	2552.716799
464.762130	2556.548076
465.134094	2554.539177
465.505999	2561.168294
465.877845	2565.208779
466.249631	2569.345045
466.621358	2567.978893
466.993026	2566.133830
467.364634	2565.818758
467.736184	2561.180897
468.107674	2561.372461
468.479105	2562.047975
468.850477	2560.276010
469.221790	2559.958417
469.593043	2560.855742
469.964238	2555.784342
470.335373	2562.534447
470.706449	2561.064950
471.077467	2559.287943
471.448425	2567.638615
471.819324	2572.223544
472.190164	2570.239850
472.560945	2566.489232
472.931667	2565.284396
473.302330	2563.575445
473.672934	2560.490259
474.043479	2561.314487
474.413965	2562.957903
474.784393	2555.527243
475.154761	2560.555794
475.525070	2560.429765
475.895321	2562.113510
476.265513	2558.625032
476.635645	2566.068295
477.005719	2565.571742
477.375734	2566.539643
477.745691	2563.721638
478.115588	2567.671382
478.485427	2567.701629
478.855207	2571.207752
479.224928	2574.320664
479.594591	2577.161354
479.964194	2576.662280
480.333739	2576.324523
480.703226	2577.017682
481.072653	2575.971642
481.442022	2575.505335
481.811333	2578.283011
482.180584	2576.213618
482.549777	2574.166909
482.918912	2575.563309
483.287988	2573.889646
483.657005	2575.875860
484.025964	2575.805284
484.394864	2573.781261
484.763706	2576.057342
485.132489	2573.211610
485.501213	2573.720767
485.869879	2572.941909
486.238487	2569.201372
486.607036	2571.495097
486.975527	2570.696075
487.343959	2568.402350
487.712333	2569.851681
488.080648	2570.539799
488.448905	2569.902093
488.817104	2568.667010
489.185244	2570.857392
489.553326	2569.685323
489.921350	2575.520459
490.289315	2576.584142
490.657222	2580.039853
491.025070	2580.952302
491.392861	2578.283011
491.760593	2575.686817
492.128267	2575.969122
492.495883	2575.245716
492.863440	2570.328070
493.230939	2570.204562
493.598380	2567.162226
493.965763	2565.170970
494.333088	2567.008471
494.700354	2564.724828
495.067563	2568.435117
495.434713	2564.452606
495.801805	2568.593913
496.168839	2568.674572
496.535815	2563.353634
496.902733	2566.421176
497.269593	2571.255643
497.636395	2568.704819
498.003139	2567.260528
498.369825	2569.657597
498.736453	2570.373441
499.103023	2568.949315
499.469535	2567.489901
499.835989	2569.917216
500.202385	2569.730694
500.568723	2568.389747
500.935003	2569.743297
501.301226	2567.099211
501.667390	2569.478636
502.033497	2572.848647
502.399546	2569.224058
502.765537	2568.616599
503.131470	2569.156002
503.497345	2569.249263
503.863163	2569.004767
504.228923	2571.132134
504.594625	2573.246898
504.960269	2570.459140
505.325856	2572.289079
505.691385	2568.591393
506.056856	2570.244891
506.422270	2569.400498
506.787625	2570.423852
507.152924	2569.914696
507.518164	2570.882597
507.883347	2571.399316
508.248472	2567.484860
508.613540	2570.048286
508.978550	2568.556105
509.343503	2570.590210
509.708398	2571.663976
510.073236	2570.398647
510.438016	2573.481312
510.802738	2569.823955
511.167403	2571.858061
511.532010	2569.768502
511.896561	2572.672207
512.261053	2575.399471
512.625488	2569.324881
512.989866	2567.613409
513.354186	2570.461661
513.718449	2566.322874
514.082655	2569.644994
514.446803	2573.801425
514.810894	2573.325036
515.174927	2572.316806
515.538904	2574.618092
515.902822	2571.893349
516.266684	2572.137845
516.630488	2570.900241
516.994235	2570.796898
517.357925	2573.256981
517.721558	2574.575243
518.085133	2574.176991
518.448651	2572.730180
518.812112	2571.880746
519.175516	2574.383679
519.538863	2573.163719
519.902152	2572.677248
520.265385	2573.814028
520.628560	2576.069945
520.991678	2575.633885
521.354739	2573.360324
521.717743	2572.538616
522.080690	2573.877043
522.443580	2576.228741
522.806413	2573.060376
523.169189	2572.611713
523.531908	2575.979204
523.894569	2571.916034
524.257174	2574.363514
524.619722	2573.718246
524.982213	2576.233782
525.344647	2575.137331
525.707025	2574.839903
526.069345	2574.514749
526.431608	2575.326374
526.793815	2575.311251
527.155964	2574.441652
527.518057	2572.707495
527.880093	2575.444842
528.242072	2574.633216
528.603995	2573.577094
528.965860	2572.594069
529.327669	2575.318813
529.689421	2573.410736
530.051117	2575.028946
530.412755	2569.823955
530.774337	2574.182033
531.135862	2572.319326
531.497331	2568.399829
531.858743	2569.082905
532.220098	2569.730694
532.581396	2570.199521
532.942638	2571.243040
533.303824	2574.368555
533.664953	2572.014336
534.026025	2570.927968
534.387040	2574.116497
534.747999	2574.807136
535.108902	2573.072979
535.469748	2571.298492
535.830537	2573.088102
536.191270	2572.773030
536.551947	2573.103226
536.912567	2571.182546
537.273131	2574.441652
537.633638	2572.707495
537.994089	2568.225909
538.354483	2569.173646
538.714821	2572.460478
539.075103	2571.626167
539.435328	2572.266394
539.795497	2571.858061
540.155609	2574.913000
540.515665	2573.272104
540.875665	2571.061558
541.235609	2573.771178
541.595496	2572.873853
541.955328	2576.102712
542.315102	2572.510890
542.674821	2572.324367
543.034483	2572.755386
543.394090	2573.579615
543.753640	2571.754717
544.113134	2572.291600
544.472571	2574.663463
544.831953	2573.796384
545.191278	2573.902248
545.550548	2571.021229
545.909761	2572.957032
546.268918	2572.334450
546.628019	2574.295458
546.987064	2572.589028
547.346053	2575.588514
547.704986	2572.105077
548.063863	2573.226734
548.422684	2572.962073
548.781449	2571.870663
549.140158	2571.505180
549.498811	2572.561302
549.857408	2572.329408
550.215949	2567.832699
550.574434	2569.012329
550.932864	2567.590724
551.291237	2569.768502
551.649555	2573.619944
552.007817	2572.384861
552.366022	2573.569532
552.724173	2572.707495
553.082267	2571.505180
553.440305	2570.905283
553.798288	2572.195818
554.156215	2574.234965
554.514086	2573.950139
554.871902	2569.269428
555.229661	2572.825962
555.587365	2572.069789
555.945014	2571.268246
556.302606	2571.351425
556.660143	2571.721949
557.017625	2573.007444
557.375050	2573.501477
557.732421	2571.164902
558.089735	2571.096846
558.446994	2572.415108
558.804197	2571.169943
559.161345	2572.727660
559.518437	2571.603482
559.875474	2569.173646
560.232455	2572.299162
560.589381	2569.602144
560.946251	2571.479974
561.303065	2573.889646
561.659825	2570.068451
562.016528	2569.513924
562.373177	2568.901424
562.729770	2571.772361
563.086307	2569.614747
563.442789	2571.225396
563.799216	2569.902093
564.155587	2571.122052
564.511904	2569.677762
564.868164	2569.934860
565.224370	2570.315467
565.580520	2569.347566
565.936615	2574.124059
566.292654	2568.999726
566.648638	2571.401836
567.004567	2570.406208
567.360441	2569.874367
567.716260	2571.033832
568.072023	2569.491239
568.427732	2563.441854
568.783385	2568.515776
569.138982	2569.362689
569.494525	2569.140879
569.850013	2568.286403
570.205445	2571.303534
570.560823	2570.368400
570.916145	2566.940415
571.271412	2568.261197
571.626625	2569.153482
571.981782	2570.070972
572.336884	2568.498132
572.691931	2572.256312
573.046923	2566.854715
573.401860	2569.680282
573.756743	2566.345559
574.111570	2566.295147
574.466342	2568.465364
574.821059	2569.342525
575.175722	2569.539130
575.530330	2568.694737
575.884882	2569.957546
576.239380	2566.118707
576.593823	2568.893862
576.948211	2567.275652
577.302544	2565.682647
577.656823	2566.438820
578.011047	2568.165415
578.365216	2565.460836
578.719330	2570.045766
579.073389	2567.719273
579.427394	2565.594427
579.781344	2565.589386
580.135239	2568.427555
580.489080	2567.452092
580.842866	2567.530230
581.196597	2569.110632
581.550273	2566.514437
581.903895	2568.271280
582.257463	2567.016032
582.610975	2564.906309
582.964434	2566.136351
583.317837	2565.561659
583.671186	2568.513255
584.024481	2568.233471
584.377721	2567.406722
584.730906	2567.142061
585.084037	2567.472257
585.437113	2564.808007
585.790135	2565.854046
586.143103	2568.644325
586.496016	2565.632236
586.848874	2561.029662
587.201679	2563.424210
587.554428	2562.564693
587.907124	2562.763819
588.259765	2559.693756
588.612352	2564.944118
588.964884	2564.664334
589.317362	2562.857080
589.669786	2562.710887
590.022155	2565.486042
590.374470	2562.746175
590.726731	2564.679458
591.078937	2563.464539
591.431090	2564.936556
591.783188	2564.681978
592.135232	2564.137533
592.487222	2563.290620
592.839157	2565.922102
593.191038	2562.486556
593.542866	2564.276165
593.894639	2563.479663
594.246358	2563.288099
594.598022	2563.260373
594.949633	2562.799107
595.301190	2559.386246
595.652692	2562.176525
596.004141	2561.153170
596.355535	2561.879097
596.706876	2562.650393
597.058162	2561.911864
597.409395	2563.013356
597.760573	2563.250290
598.111698	2563.033521
598.462768	2565.042421
598.813785	2564.122410
599.164748	2559.910526
599.515657	2562.894889
599.866511	2559.713921
600.217312	2560.722152
600.568060	2559.358520
600.918753	2564.301371
601.269392	2559.103941
601.619978	2561.740465
601.970510	2562.201730
602.320988	2560.354148
602.671412	2561.148129
603.021783	2560.679302
603.372100	2562.811710
603.722363	2561.145609
604.072572	2561.458160
604.422728	2561.445557
604.772830	2558.972871
605.122878	2556.762325
605.472872	2559.948335
605.822813	2555.071018
606.172701	2558.967830
606.522534	2563.961093
606.872314	2561.231308
607.222041	2559.771894
607.571714	2565.178532
607.921333	2561.248952
608.270899	2557.284085
608.620411	2563.628377
608.969870	2562.509241
609.319276	2564.629046
609.668627	2562.678119
610.017926	2565.654921
610.367171	2569.695406
610.716362	2567.812535
611.065500	2565.833882
611.414585	2566.932853
611.763616	2566.968141
612.112594	2563.416648
612.461518	2567.298337
612.810389	2563.333469
613.159207	2563.421690
613.507971	2563.199879
613.856682	2563.192317
614.205340	2562.095866
614.553945	2564.324056
614.902496	2562.098387
615.250994	2565.430589
615.599439	2562.214333
615.947830	2561.690053
616.296169	2561.513613
616.644454	2562.841957
616.992686	2561.012018
617.340864	2564.437482
617.688990	2563.164591
618.037063	2560.911195
618.385082	2564.195507
618.733048	2562.567214
619.080961	2563.804817
619.428821	2561.679971
619.776628	2563.146947
620.124382	2566.343038
620.472083	2563.562842
620.819731	2565.231464
621.167326	2560.946483
621.514868	2560.805331
621.862357	2561.309446
622.209793	2558.919939
622.557176	2559.419013
622.904506	2557.057233
623.251783	2555.716286
623.599007	2556.969013
623.946179	2556.999260
624.293297	2556.109496
624.640363	2562.300033
624.987376	2558.496482
625.334336	2559.116544
625.681243	2557.957079
626.028097	2560.906154
626.374899	2560.107131
626.721647	2558.930022
627.068343	2560.502862
627.414987	2558.441030
627.761577	2560.661658
628.108115	2556.633776
628.454600	2555.998591
628.801032	2557.188303
629.147412	2557.432799
629.493739	2558.733417
629.840014	2558.773746
630.186236	2557.624363
630.532405	2557.621842
630.878521	2557.304249
631.224585	2559.257697
631.570597	2555.217212
631.916556	2558.738458
632.262462	2555.867521
632.608316	2556.474980
632.954117	2555.459187
633.299866	2558.584703
633.645562	2556.031358
633.991206	2555.499516
634.336797	2557.090000
634.682336	2553.964485
635.027823	2555.912891
635.373257	2553.851059
635.718639	2556.311142
636.063968	2559.315670
636.409245	2557.205947
636.754470	2552.847869
637.099642	2552.530277
637.444762	2553.835936
637.789829	2554.297201
638.134845	2554.279557
638.479808	2556.326266
638.824719	2555.617983
639.169577	2553.818292
639.514383	2557.047151
639.859137	2551.874927
640.203839	2554.975236
640.548489	2554.667726
640.893086	2553.535987
641.237632	2547.390820
641.582125	2550.198743
641.926566	2549.581202
642.270955	2553.687222
642.615292	2552.517674
642.959576	2556.492624
643.303809	2554.733261
643.647990	2554.730740
643.992118	2550.700338
644.336195	2556.318704
644.680219	2553.243600
645.024192	2554.047664
645.368112	2552.908363
645.711981	2555.310473
646.055797	2553.616645
646.399562	2553.798127
646.743274	2552.852911
647.086935	2556.590926
647.430544	2553.437684
647.774101	2552.177396
648.117606	2553.102448
648.461059	2556.301060
648.804460	2555.464228
649.147810	2554.753426
649.491108	2554.783673
649.834354	2554.216543
650.177548	2552.023641
650.520690	2554.549259
650.863781	2553.362067
651.206820	2556.888354
651.549807	2551.932900
651.892742	2552.570606
652.235626	2552.865513
652.578458	2555.270144
652.921238	2548.477189
653.263967	2553.319217
653.606644	2551.769063
653.949269	2552.469783
654.291843	2550.720502
654.634365	2552.210163
654.976836	2551.038095
655.319255	2550.163455
655.661622	2551.801830
656.003938	2553.057077
656.346203	2553.041954
656.688416	2552.651264
657.030577	2551.227138
657.372687	2553.886347
657.714746	2551.627910
658.056753	2550.034906
658.398708	2545.402085
658.740612	2548.610780
659.082465	2548.590615
659.424266	2546.402754
659.766016	2546.508618
660.107715	2551.413661
660.449362	2550.566747
660.790958	2554.403065
661.132503	2550.342416
661.473996	2551.428785
661.815438	2551.340564
662.156829	2552.368960
662.498168	2553.707386
662.839456	2552.026161
663.180693	2550.047508
663.521879	2550.730585
663.863013	2548.615821
664.204097	2551.537169
664.545129	2549.296377
664.886110	2553.145297
665.227040	2552.563044
665.567918	2550.831408
665.908746	2552.023641
666.249522	2552.792417
666.590248	2552.056408
666.930922	2552.303425
667.271545	2551.605225
667.612118	2551.232180
667.952639	2550.551624
668.293109	2552.220246
668.633528	2552.142108
668.973896	2551.091027
669.314213	2551.784186
669.654480	2552.285781
669.994695	2549.210677
670.334859	2550.667570
670.674973	2549.979453
671.015035	2550.029864
671.355047	2553.896429
671.695008	2550.488609
672.034918	2550.977601
672.374777	2552.005997
672.714585	2548.588094
673.054342	2550.145811
673.394049	2554.723179
673.733705	2548.764535
674.073310	2552.018600
674.412864	2549.853424
674.752368	2549.515667
675.091820	2553.432643
675.431223	2550.347457
675.770574	2550.496171
676.109875	2548.310831
676.449125	2546.962322
676.788324	2548.618341
677.127473	2548.865358
677.466571	2543.952753
677.805619	2550.075235
678.144616	2548.830070
678.483562	2550.866696
678.822458	2552.227808
679.161303	2548.762014
679.500098	2548.605738
679.838842	2550.682694
680.177535	2548.096582
680.516179	2551.993394
680.854771	2548.610780
681.193314	2550.743188
681.531805	2549.737477
681.870247	2548.772097
682.208638	2549.296377
682.546978	2553.014227
682.885268	2548.262940
683.223508	2552.152190
683.561697	2547.874771
683.899836	2551.612787
684.237925	2550.937272
684.575963	2554.241748
684.913951	2548.787220
685.251889	2550.032385
685.589776	2549.830739
685.927614	2551.481717
686.265401	2549.558517
686.603137	2550.644885
686.940824	2547.836962
687.278460	2553.362067
687.616046	2550.153373
687.953582	2549.074566
688.291068	2552.220246
688.628504	2551.590102
688.965889	2551.703527
689.303224	2553.162942
689.640510	2551.010369
689.977745	2550.496171
690.314930	2551.166645
690.652065	2548.315872
690.989150	2549.803012
691.326185	2552.071532
691.663170	2547.405944
692.000105	2550.339895
692.336990	2548.658671
692.673825	2547.731098
693.010610	2548.877961
693.347345	2547.121119
693.684030	2544.547610
694.020665	2544.439225
694.357251	2542.374872
694.693786	2545.240768
695.030272	2546.536345
695.366707	2546.223793
695.703093	2544.776982
696.039429	2544.799667
696.375716	2548.330996
696.711952	2543.715819
697.048139	2545.419729
697.384276	2545.699513
697.720363	2544.552651
698.056400	2547.035419
698.392388	2547.035419
698.728326	2546.274205
699.064214	2546.959802
699.400053	2547.100954
699.735842	2545.520552
700.071581	2546.334699
700.407270	2545.817980
700.742910	2546.170861
701.078501	2547.947868
701.414042	2545.633978
701.749533	2545.815460
702.084974	2544.237579
702.420366	2545.581046
702.755709	2546.077600
703.091002	2547.400903
703.426246	2546.652291
703.761440	2544.275387
704.096584	2546.299411
704.431679	2545.540717
704.766725	2547.063145
705.101721	2543.993083
705.436668	2542.684903
705.771565	2544.285470
706.106413	2546.138094
706.441212	2542.657177
706.775961	2545.520552
707.110661	2544.358566
707.445311	2546.266643
707.779913	2541.832948
708.114465	2547.395862
708.448967	2546.775800
708.783421	2547.267312
709.117825	2545.432332
709.452180	2548.701520
709.786485	2544.146838
710.120742	2545.298742
710.454949	2546.899308
710.789107	2543.854451
711.123216	2542.493339
711.457275	2543.350336
711.791286	2544.756818
712.125247	2545.475182
712.459159	2547.005172
712.793023	2548.381407
713.126837	2544.754297
713.460602	2546.092723
713.794318	2545.593649
714.127985	2543.453679
714.461602	2547.340409
714.795171	2546.589277
715.128691	2545.961653
715.462162	2547.151366
715.795584	2544.214893
716.128957	2547.254709
716.462281	2546.475851
716.795556	2544.250182
717.128782	2544.068700
717.461960	2545.976777
717.795088	2544.040974
718.128167	2542.284132
718.461198	2542.815973
718.794180	2548.111705
719.127113	2541.608617
719.459997	2544.615665
719.792833	2543.675490
720.125619	2543.730943
720.458357	2543.791437
720.791046	2543.710778
721.123686	2544.088865
721.456278	2544.487116
721.788821	2544.666077
722.121315	2545.497867
722.453761	2540.552495
722.786158	2542.301776
723.118506	2539.808925
723.450805	2544.666077
723.783056	2541.054090
724.115259	2543.972918
724.447412	2541.785057
724.779518	2543.196580
725.111574	2543.642723
725.443582	2543.166333
725.775542	2544.053577
726.107453	2543.748587
726.439315	2545.102137
726.771129	2548.494833
727.102895	2543.660367
727.434612	2543.514173
727.766281	2543.839328
728.097901	2540.776827
728.429473	2539.839172
728.760996	2540.650798
729.092471	2540.512166
729.423897	2544.529966
729.755276	2545.064328
730.086606	2543.912424
730.417887	2546.052394
730.749120	2544.068700
731.080305	2544.666077
731.411442	2542.934440
731.742530	2545.109698
732.073570	2547.209339
732.404562	2544.035932
732.735506	2545.671787
733.066401	2546.801005
733.397249	2546.674977
733.728048	2544.421581
734.058798	2545.747404
734.389501	2542.886549
734.720156	2543.388144
735.050762	2542.644574
735.381320	2542.505942
735.711831	2541.447300
736.042293	2543.441076
736.372707	2543.103319
736.703073	2540.476878
737.033391	2543.320089
737.363661	2543.960315
737.693883	2541.240613
738.024056	2543.294883
738.354182	2543.088196
738.684260	2543.879657
739.014290	2542.977290
739.344272	2543.047866
739.674207	2543.269677
740.004093	2543.935109
740.333931	2543.327650
740.663722	2544.192208
740.993464	2542.873947
741.323159	2543.120963
741.652806	2541.505273
741.982405	2544.930737
742.311956	2546.294369
742.641460	2543.007537
742.970915	2546.201108
743.300323	2543.725902
743.629683	2545.114739
743.958996	2543.708257
744.288260	2542.747918
744.617477	2538.039480
744.946647	2536.020498
745.275768	2537.747093
745.604842	2539.093081
745.933869	2540.028215
746.262847	2536.436393
746.591778	2541.845551
746.920662	2541.235572
747.249498	2540.807073
747.578286	2540.940664
747.907027	2543.463762
748.235720	2541.228010
748.564365	2542.233720
748.892963	2541.679193
749.221514	2541.285983
749.550017	2545.008875
749.878473	2542.919317
750.206881	2543.499050
750.535242	2540.678524
750.863555	2540.262629
751.191821	2541.585932
751.520039	2542.400078
751.848210	2543.793957
752.176334	2543.463762
752.504411	2541.215407
752.832440	2542.223638
753.160421	2539.456044
753.488356	2539.647608
753.816243	2541.971580
754.144082	2541.061652
754.471875	2540.237423
754.799620	2541.853113
755.127318	2541.164995
755.454969	2541.449821
755.782572	2538.016795
756.110129	2538.553678
756.437638	2542.453010
756.765100	2538.868750
757.092515	2541.351518
757.419882	2543.483926
757.747203	2540.731456
758.074477	2540.373534
758.401703	2541.832948
758.728882	2540.623071
759.056014	2540.547454
759.383099	2536.711136
759.710138	2540.524769
760.037129	2540.814635
760.364073	2540.181970
760.690970	2540.267670
761.017820	2541.084337
761.344623	2540.718853
761.671379	2545.369318
761.998088	2535.062679
762.324751	2540.144162
762.651366	2539.544264
762.977935	2547.451314
763.304456	2545.087013
763.630931	2550.400389
763.957359	2548.958619
764.283740	2549.200595
764.610074	2545.891077
764.936362	2545.225645
765.262602	2545.253371
765.588796	2541.545602
765.914943	2541.036446
766.241044	2538.964532
766.567097	2539.829090
766.893104	2541.691796
767.219064	2539.763555
767.544978	2540.703730
767.870845	2541.306148
768.196665	2540.507125
768.522438	2540.673483
768.848165	2539.834131
769.173846	2538.687268
769.499479	2538.069727
769.825066	2539.216589
770.150607	2540.033256
770.476101	2537.240457
770.801548	2541.762372
771.126949	2538.034439
771.452303	2539.516538
771.777611	2537.870601
772.102872	2535.793646
772.428087	2537.570653
772.753256	2537.323636
773.078378	2538.200797
773.403453	2535.904551
773.728482	2538.515869
774.053465	2539.451003
774.378401	2538.823379
774.703291	2538.082330
775.028135	2537.805066
775.352932	2536.590148
775.677683	2538.195756
776.002388	2539.511497
776.327046	2535.382792
776.651658	2538.359593
776.976224	2537.326157
777.300743	2540.348328
777.625216	2536.973276
777.949643	2540.015612
778.274024	2538.243647
778.598359	2537.880684
778.922647	2534.671989
779.246889	2535.783564
779.571086	2533.255425
779.895236	2534.961856
780.219339	2536.257432
780.543397	2539.544264
780.867409	2537.376568
781.191374	2539.219110
781.515294	2538.982176
781.839167	2535.755837
782.162995	2538.278935
782.486776	2539.571991
782.810511	2537.280786
783.134201	2536.786753
783.457844	2539.483771
783.781441	2540.098791
784.104993	2534.266176
784.428498	2537.016126
784.751958	2536.123842
785.075372	2539.413194
785.398739	2537.447144
785.722061	2539.451003
786.045337	2539.027546
786.368568	2536.693492
786.691752	2535.833975
787.014891	2537.835313
787.337983	2539.980324
787.661030	2538.667104
787.984031	2539.082999
788.306987	2539.912269
788.629897	2540.441590
788.952760	2537.789943
789.275579	2540.739018
789.598351	2540.106353
789.921078	2538.001671
790.243759	2541.437218
790.566395	2534.316588
790.888984	2537.041332
791.211529	2537.701723
791.534027	2535.027391
791.856480	2537.255581
792.178888	2536.496887
792.501249	2537.270704
792.823566	2537.172402
793.145836	2537.633667
793.468062	2537.069058
793.790241	2536.917823
794.112375	2536.030580
794.434464	2537.353883
794.756507	2535.559232
795.078505	2540.648277
795.400457	2536.015457
795.722364	2533.134437
796.044226	2533.580579
796.366042	2534.823224
796.687812	2535.450848
797.009538	2534.369520
797.331218	2536.756506
797.652852	2537.547967
797.974442	2535.516382
798.295986	2537.399253
798.617484	2538.094933
798.938938	2538.888914
799.260346	2537.419418
799.581709	2536.466640
799.903026	2539.801363
800.224299	2535.229037
800.545526	2536.809438
800.866708	2538.803215
801.187845	2534.182997
801.508936	2536.272556
801.829983	2536.328008
802.150984	2537.610982
802.471940	2536.207021
802.792851	2536.592669
803.113717	2536.794315
803.434538	2537.497556
803.755314	2534.906403
804.076045	2536.953111
804.396731	2537.134593
804.717372	2537.878163
805.037967	2537.779861
805.358518	2536.151568
805.679024	2537.114428
805.999485	2534.913965
806.319901	2536.275076
806.640272	2534.399767
806.960598	2536.350693
807.280879	2539.433359
807.601115	2535.649973
807.921306	2536.023018
808.241453	2537.104346
808.561554	2538.077289
808.881611	2536.204500
809.201623	2535.569315
809.521590	2537.893287
809.841513	2535.410518
810.161390	2539.783719
810.481223	2538.110056
810.801011	2535.183666
811.120755	2537.361445
811.440453	2536.179294
811.760107	2537.215251
812.079716	2534.929088
812.399281	2531.228881
812.718801	2533.898172
813.038276	2531.170908
813.357707	2536.575025
813.677093	2535.299613
813.996434	2537.207690
814.315731	2535.889428
814.634983	2537.217772
814.954191	2537.121990
815.273354	2536.380940
815.592473	2536.504449
815.911547	2535.241640
816.230577	2538.273894
816.549562	2536.650642
816.868502	2536.811959
817.187399	2535.796167
817.506250	2540.595345
817.825058	2537.101825
818.143821	2537.820190
818.462539	2536.844727
818.781213	2537.691640
819.099843	2539.508976
819.418429	2540.055942
819.736970	2539.617361
820.055466	2542.589121
820.373919	2540.164326
820.692327	2543.735984
821.010691	2544.212373
821.329011	2551.937941
821.647286	2567.900755
821.965517	2578.918197
822.283704	2588.655185
822.601847	2590.505289
822.919945	2583.465317
823.237999	2577.342836
823.556010	2566.733728
823.873976	2561.493448
824.191897	2558.937583
824.509775	2552.207643
824.827609	2548.588094
825.145398	2545.538196
825.463144	2546.967363
825.780845	2550.047508
826.098502	2547.738660
826.416116	2553.914073
826.733685	2557.841132
827.051210	2558.788869
827.368692	2556.961451
827.686129	2552.472303
828.003522	2547.889895
828.320872	2542.669780
828.638177	2542.498381
828.955439	2539.156096
829.272656	2538.137782
829.589830	2534.959335
829.906960	2538.851106
830.224046	2538.089892
830.541088	2539.342618
830.858086	2535.778522
831.175041	2538.684748
831.491952	2540.013092
831.808819	2535.917154
832.125642	2541.638864
832.442421	2538.808256
832.759157	2539.624923
833.075849	2541.601055
833.392497	2543.851930
833.709101	2546.332178
834.025662	2546.402754
834.342179	2548.099102
834.658653	2544.598021
834.975083	2542.067362
835.291469	2544.572815
835.607811	2539.428318
835.924110	2537.321116
836.240366	2536.950591
836.556578	2536.020498
836.872746	2534.079654
837.188871	2535.894469
837.504952	2537.492515
837.820990	2536.786753
838.136984	2534.298944
838.452935	2536.123842
838.768842	2536.867412
839.084706	2535.750796
839.400526	2536.627957
839.716303	2538.551157
840.032037	2538.788091
840.347727	2538.334388
840.663373	2539.014943
840.978977	2536.373379
841.294537	2536.912782
841.610054	2538.160468
841.925527	2534.248532
842.240957	2534.931609
842.556344	2535.324819
842.871687	2535.279448
843.186987	2535.846578
843.502244	2533.835158
843.817458	2535.271887
844.132629	2533.585621
844.447756	2534.147709
844.762840	2530.492873
845.077881	2533.131917
845.392879	2526.563293
845.707833	2531.919519
846.022745	2527.442975
846.337613	2535.498738
846.652438	2535.347504
846.967221	2533.711649
847.281960	2531.609488
847.596656	2534.319108
847.911309	2532.751310
848.225919	2536.320447
848.540485	2535.002185
848.855009	2533.595703
849.169490	2535.609644
849.483928	2531.740558
849.798323	2532.622760
850.112675	2532.673172
850.426984	2535.854140
850.741251	2533.757020
851.055474	2533.257946
851.369654	2534.908923
851.683792	2532.806762
851.997887	2531.511186
852.311938	2533.726773
852.625947	2531.254087
852.939914	2533.807431
853.253837	2534.014119
853.567718	2531.420445
853.881555	2531.896834
854.195350	2533.136958
854.509103	2533.578059
854.822812	2532.043027
855.136479	2535.818852
855.450103	2533.222658
855.763685	2534.558563
856.077224	2530.765095
856.390720	2534.389685
856.704173	2534.107380
857.017584	2533.378933
857.330953	2533.915816
857.644278	2532.227030
857.957561	2534.576207
858.270802	2535.597041
858.584000	2534.755168
858.897155	2533.328522
859.210268	2533.494880
859.523339	2534.656866
859.836367	2534.644263
860.149352	2533.930940
860.462295	2532.196783
860.775195	2527.654703
861.088054	2528.047913
861.400869	2531.314581
861.713642	2529.383819
862.026373	2530.825589
862.339062	2532.900024
862.651708	2532.796680
862.964312	2531.483459
863.276873	2532.491690
863.589392	2530.107224
863.901869	2531.564118
864.214303	2534.712318
864.526696	2532.630322
864.839045	2531.271731
865.151353	2534.855991
865.463619	2533.988913
865.775842	2535.854140
866.088023	2534.319108
866.400162	2532.521937
866.712258	2533.371372
867.024313	2530.671834
867.336325	2534.682072
867.648296	2534.286341
867.960224	2530.906247
868.272110	2532.574869
868.583954	2533.366330
868.895755	2534.359438
869.207515	2532.017822
869.519233	2533.124355
869.830909	2530.959179
870.142542	2534.258615
870.454134	2531.957328
870.765684	2536.406146
871.077191	2534.094777
871.388657	2533.671320
871.700081	2533.220137
872.011463	2533.908254
872.322803	2535.047555
872.634101	2532.625281
872.945357	2533.741896
873.256571	2535.095446
873.567744	2532.093439
873.878874	2533.378933
874.189963	2533.041176
874.501010	2535.450847
874.812015	2534.830786
875.122979	2535.750796
875.433900	2534.296423
875.744780	2533.557894
876.055618	2535.985210
876.366415	2535.952442
876.677169	2534.054448
876.987882	2534.059489
877.298554	2530.318953
877.609183	2530.727286
877.919771	2533.010929
878.230317	2530.155115
878.540822	2538.412525
878.851285	2537.258101
879.161707	2536.774150
879.472087	2536.668286
879.782425	2538.467978
880.092722	2540.592824
880.402977	2544.424101
880.713191	2552.784855
881.023363	2558.609908
881.333494	2566.542164
881.643583	2566.774057
881.953631	2565.486042
882.263637	2564.923953
882.573602	2560.354148
882.883526	2557.994887
883.193408	2555.161759
883.503248	2548.386448
883.813048	2547.945347
884.122806	2543.698175
884.432522	2543.735984
884.742197	2541.810263
885.051831	2539.619882
885.361424	2539.377906
885.670975	2537.910931
885.980485	2537.197607
886.289954	2536.038142
886.599382	2536.184335
886.908768	2533.378933
887.218113	2537.487474
887.527417	2534.384643
887.836680	2534.172915
888.145901	2535.360107
888.455082	2535.065199
888.764221	2532.882380
889.073319	2532.640404
889.382376	2532.577390
889.691392	2533.270548
890.000366	2533.711649
890.309300	2534.193080
890.618193	2534.765251
890.927044	2534.424973
891.235855	2534.568646
891.544625	2534.828265
891.853353	2534.067051
892.162041	2533.666279
892.470687	2534.331711
892.779293	2533.545291
893.087858	2534.941691
893.396381	2533.595703
893.704864	2535.622247
894.013306	2534.195600
894.321707	2541.583411
894.630068	2541.722043
894.938387	2544.446787
895.246665	2543.720860
895.554903	2542.460572
895.863100	2539.498894
896.171256	2541.137269
896.479371	2537.747093
896.787446	2538.228523
897.095480	2537.023688
897.403473	2535.496218
897.711425	2533.540250
898.019336	2533.419262
898.327207	2533.656197
898.635038	2536.012936
898.942827	2536.824562
899.250576	2534.820703
899.558284	2535.879346
899.865952	2534.651825
900.173579	2532.811803
900.481165	2533.875487
900.788711	2531.259128
901.096216	2533.353728
901.403681	2532.514375
901.711105	2534.503111
902.018489	2532.721063
902.325832	2538.586445
902.633135	2532.078316
902.940397	2534.417411
903.247619	2533.734335
903.554800	2537.560570
903.861941	2540.756662
904.169041	2544.696324
904.476101	2547.048022
904.783121	2546.574153
905.090100	2546.962322
905.397039	2544.323278
905.703938	2541.374203
906.010796	2540.252547
906.317614	2537.321116
906.624391	2535.392874
906.931129	2535.965045
907.237826	2536.232226
907.544483	2534.465302
907.851099	2534.553522
908.157675	2533.220137
908.464211	2531.004550
908.770707	2526.855680
909.077163	2530.666793
909.383578	2527.644621
909.689954	2526.754857
909.996289	2526.124713
910.302584	2530.475229
910.608839	2533.404139
910.915054	2534.119983
911.221229	2532.413552
911.527363	2534.036804
911.833458	2531.997657
912.139513	2531.932122
912.445527	2532.814324
912.751502	2532.635363
913.057436	2533.446989
913.363331	2533.792308
913.669186	2531.629653
913.975000	2531.485980
914.280775	2534.944212
914.586510	2536.078471
914.892205	2533.777184
915.197859	2539.362783
915.503475	2541.180119
915.809050	2544.837476
916.114585	2546.344781
916.420081	2549.220759
916.725536	2545.157589
917.030952	2545.084492
917.336328	2541.195242
917.641665	2542.722712
917.946961	2542.226158
918.252218	2536.680889
918.557435	2535.554191
918.862612	2536.978317
919.167750	2536.151568
919.472848	2538.142824
919.777906	2534.689633
920.082925	2535.453368
920.387904	2534.170394
920.692843	2534.798018
920.997743	2530.767616
921.302603	2533.252904
921.607423	2534.014119
921.912204	2533.711649
922.216946	2533.961187
922.521647	2535.171063
922.826310	2533.537730
923.130932	2535.206352
923.435516	2532.098480
923.740059	2532.574869
924.044564	2530.306350
924.349028	2533.305837
924.653454	2529.162008
924.957840	2530.707122
925.262186	2528.032790
925.566493	2528.289888
925.870761	2526.122192
926.174989	2530.737369
926.479178	2532.403470
926.783328	2531.720394
927.087438	2532.101001
927.391509	2530.767616
927.695541	2530.520599
927.999533	2531.707791
928.303486	2529.577903
928.607400	2531.954807
928.911275	2529.955990
929.215110	2531.221319
929.518906	2528.846936
929.822663	2531.158305
930.126381	2528.665454
930.430060	2533.295754
930.733699	2529.726617
931.037299	2531.417924
931.340861	2531.833820
931.644383	2532.199303
931.947866	2528.284847
932.251309	2530.029087
932.554714	2531.715352
932.858080	2533.469674
933.161407	2530.931453
933.464694	2531.513706
933.767943	2530.187883
934.071153	2532.259797
934.374323	2528.002543
934.677455	2530.951618
934.980548	2529.988757
935.283602	2530.676875
935.586617	2528.736031
935.889593	2528.965403
936.192530	2533.091587
936.495428	2529.013294
936.798287	2530.104704
937.101108	2532.491690
937.403890	2529.303160
937.706632	2532.433717
938.009336	2530.785260
938.312002	2530.293747
938.614628	2531.735517
938.917216	2532.509334
939.219765	2531.889272
939.522275	2530.505476
939.824747	2533.789787
940.127179	2525.965917
940.429573	2526.283509
940.731929	2527.153108
941.034246	2524.622449
941.336524	2528.912471
941.638763	2529.587986
941.940964	2531.034797
942.243126	2531.337266
942.545250	2532.766433
942.847335	2532.564787
943.149381	2531.939684
943.451389	2530.518078
943.753359	2529.973634
944.055290	2531.170908
944.357182	2530.674354
944.659036	2529.472039
944.960851	2534.089736
945.262628	2533.857843
945.564367	2529.756864
945.866067	2530.918850
946.167729	2531.440610
946.469352	2529.514889
946.770937	2530.266021
947.072484	2530.162677
947.373992	2531.871628
947.675462	2529.900537
947.976893	2528.085722
948.278286	2530.008922
948.579641	2530.301309
948.880958	2531.208717
949.182236	2530.414735
949.483476	2530.868439
949.784678	2530.717204
950.085841	2530.160157
950.386967	2527.856349
950.688054	2529.824920
950.989103	2533.613347
951.290114	2529.643438
951.591087	2530.462626
951.892021	2532.768954
952.192917	2528.221833
952.493776	2527.569003
952.794596	2530.444982
953.095378	2528.320135
953.396122	2531.080167
953.696828	2529.209899
953.997496	2531.186031
954.298126	2527.556401
954.598718	2530.724766
954.899272	2530.308871
955.199788	2531.977493
955.500266	2529.189734
955.800706	2529.260311
956.101108	2524.914836
956.401472	2527.722759
956.701798	2525.665968
957.002087	2523.478107
957.302337	2527.599250
957.602550	2529.575383
957.902724	2531.392719
958.202861	2527.848788
958.502960	2530.283665
958.803022	2530.013963
959.103045	2530.407173
959.403031	2527.518592
959.702979	2527.511030
960.002889	2528.932636
960.302762	2529.257790
960.602596	2528.115969
960.902393	2528.995650
961.202153	2528.030269
961.501875	2527.397604
961.801559	2529.323325
962.101205	2526.356606
962.400814	2529.792152
962.700385	2529.277955
962.999918	2530.981865
963.299414	2528.249559
963.598873	2529.424148
963.898293	2527.571524
964.197677	2529.441792
964.497022	2529.726617
964.796331	2532.093439
965.095601	2529.270393
965.394835	2531.483459
965.694030	2528.070598
965.993189	2527.959693
966.292309	2530.329035
966.591393	2529.119158
966.890439	2527.493386
967.189447	2528.859539
967.488419	2527.742923
967.787353	2530.460105
968.086249	2526.543129
968.385108	2528.224353
968.683930	2528.536905
968.982714	2528.577234
969.281462	2529.212420
969.580172	2529.199817
969.878844	2526.454908
970.177480	2525.295443
970.476078	2530.641587
970.774639	2530.626463
971.073162	2528.375588
971.371649	2528.597399
971.670098	2524.882068
971.968510	2528.262162
972.266885	2526.107069
972.565223	2529.872811
972.863524	2530.281144
973.161788	2529.580424
973.460014	2528.791483
973.758204	2528.599919
974.056356	2528.758716
974.354471	2529.164529
974.652550	2527.964734
974.950591	2527.289219
975.248595	2528.383150
975.546563	2527.218643
975.844493	2528.451205
976.142386	2528.090763
976.440243	2529.565300
976.738062	2528.360465
977.035845	2527.528674
977.333590	2530.339117
977.631299	2529.625794
977.928971	2529.356093
978.226606	2527.858870
978.524204	2527.465660
978.821765	2528.168901
979.119290	2528.042872
979.416777	2528.110928
979.714228	2525.592871
980.011642	2529.623274
980.309020	2529.083870
980.606360	2528.758716
980.903664	2530.371885
981.200931	2526.706966
981.498162	2526.462470
981.795356	2526.439785
982.092513	2527.841226
982.389633	2526.906092
982.686717	2533.260466
982.983764	2529.527492
983.280775	2531.440610
983.577749	2528.786442
983.874686	2531.659900
984.171587	2529.262831
984.468451	2527.526154
984.765279	2526.908612
985.062070	2528.599919
985.358824	2527.536236
985.655543	2527.153108
985.952224	2529.978675
986.248869	2528.002543
986.545478	2524.516585
986.842050	2527.720238
987.138586	2522.961389
987.435086	2525.378622
987.731549	2525.726462
988.027975	2527.989940
988.324366	2526.233098
988.620719	2527.039682
988.917037	2528.103366
989.213318	2529.933305
989.509563	2528.005063
989.805772	2524.955165
990.101944	2524.133457
990.398080	2528.063037
990.694180	2528.093283
990.990244	2528.783922
991.286271	2527.289219
991.582262	2526.301153
991.878217	2528.728469
992.174136	2527.556401
992.470019	2527.188396
992.765865	2529.245187
993.061676	2529.761905
993.357450	2527.609333
993.653188	2529.661082
993.948890	2528.436082
994.244556	2528.045392
994.540186	2528.927594
994.835780	2528.131092
995.131337	2531.503624
995.426859	2528.105886
995.722345	2527.155629
996.017795	2525.746626
996.313208	2528.670496
996.608586	2526.543129
996.903928	2528.766277
997.199234	2527.586648
997.494504	2526.719569
997.789738	2529.028417
998.084936	2529.068747
998.380099	2528.839374
998.675225	2527.221164
998.970316	2528.350382
999.265371	2528.544467
999.560390	2528.045393
999.855373	2527.153108
1000.150320	2525.892820
1000.445232	2528.310053
1000.740108	2528.267203
1001.034948	2527.813499
1001.329752	2527.379960
1001.624521	2528.778880
1001.919254	2525.663447
1002.213951	2524.556914
1002.508613	2526.354085
1002.803239	2526.041534
1003.097829	2524.204033
1003.392384	2529.333407
1003.686903	2527.725279
1003.981386	2527.795855
1004.275834	2528.330218
1004.570246	2528.037831
1004.864623	2526.785104
1005.158964	2532.244674
1005.453270	2527.742923
1005.747540	2527.516071
1006.041775	2526.134795
1006.335974	2527.107738
1006.630138	2527.629497
1006.924266	2526.754857
1007.218359	2527.442975
1007.512416	2529.963552
1007.806438	2527.400125
1008.100425	2528.055475
1008.394376	2525.988602
1008.688292	2528.239477
1008.982172	2526.495238
1009.276017	2528.904909
1009.569827	2528.728469
1009.863602	2527.594209
1010.157341	2530.528161
1010.451045	2527.324507
1010.744714	2529.066226
1011.038347	2527.942049
1011.331945	2524.566996
1011.625508	2527.657224
1011.919036	2526.946421
1012.212528	2527.871473
1012.505986	2526.107069
1012.799408	2528.617563
1013.092795	2526.512882
1013.386147	2527.800897
1013.679464	2527.430372
1013.972745	2525.497089
1014.265992	2529.106555
1014.559204	2528.897348
1014.852380	2528.095804
1015.145521	2529.416586
1015.438628	2526.679240
1015.731699	2526.704446
1016.024736	2526.096987
1016.317737	2530.361803
1016.610703	2527.014477
1016.903635	2524.975330
1017.196531	2522.860566
1017.489393	2523.934332
1017.782219	2523.873838
1018.075011	2528.216792
1018.367768	2528.478932
1018.660490	2529.048582
1018.953177	2529.048582
1019.245829	2529.048582
