Dividing Wavelength (nm)	Counts (n)	Blue Motor Position (mm): 0.000000	Red Motor Position (mm): 47.000000	
326.493990	2077.847669
326.888308	2077.847669
327.282561	2077.847669
327.676750	2054.993598
328.070874	2056.226160
328.464933	2060.506100
328.858929	2074.954047
329.252859	2084.650706
329.646726	2098.140834
330.040528	2114.194388
330.434265	2136.388068
330.827938	2156.749288
331.221547	2173.818635
331.615091	2194.595751
332.008571	2212.993442
332.401986	2236.734756
332.795338	2255.659247
333.188625	2274.490478
333.581847	2295.650721
333.975006	2311.817701
334.368100	2329.426452
334.761129	2345.553103
335.154095	2361.100021
335.546996	2409.890829
335.939833	2494.917450
336.332606	2505.370283
336.725315	2519.477952
337.117960	2527.425331
337.510540	2535.924716
337.903056	2545.996941
338.295508	2549.142621
338.687896	2559.585372
339.080220	2565.866649
339.472480	2568.417473
339.864676	2574.121539
340.256807	2573.859399
340.648875	2580.233938
341.040879	2581.209401
341.432818	2581.337950
341.824694	2583.026737
342.216506	2581.917683
342.608253	2584.095462
342.999937	2583.130081
343.391557	2580.969946
343.783113	2576.246385
344.174605	2573.980386
344.566033	2576.563978
344.957397	2575.039029
345.348697	2571.298492
345.739934	2571.661456
346.131106	2573.156158
346.522215	2567.421845
346.913260	2565.836402
347.304241	2567.497462
347.695159	2562.899930
348.086012	2563.777091
348.476802	2559.023283
348.867528	2560.172666
349.258191	2562.862122
349.648789	2557.291647
350.039324	2557.783159
350.429796	2558.562017
350.820203	2555.736451
351.210548	2554.816440
351.600828	2555.499516
351.991045	2556.021276
352.381198	2554.781152
352.771288	2553.556152
353.161314	2553.384752
353.551276	2554.859290
353.941175	2552.134546
354.331010	2554.990360
354.720782	2555.917932
355.110490	2557.266441
355.500135	2554.329969
355.889717	2555.086142
356.279235	2554.645041
356.668689	2558.226781
357.058080	2556.540515
357.447408	2556.389280
357.836672	2556.795093
358.225873	2554.546738
358.615010	2558.188972
359.004084	2561.672409
359.393095	2561.558983
359.782043	2564.477811
360.170927	2563.540157
360.559748	2564.024108
360.948505	2566.098542
361.337199	2565.783470
361.725830	2570.302865
362.114398	2569.408060
362.502903	2566.572411
362.891344	2571.001064
363.279722	2566.446382
363.668037	2571.548030
364.056289	2571.351425
364.444478	2575.747311
364.832603	2571.840417
365.220665	2575.676735
365.608665	2577.952816
365.996601	2576.745459
366.384474	2578.091447
366.772284	2577.302507
367.160031	2578.666139
367.547715	2579.838207
367.935336	2582.547827
368.322893	2580.256623
368.710388	2584.914649
369.097820	2588.294743
369.485189	2586.467324
369.872495	2589.842377
370.259738	2589.350864
370.646918	2592.264651
371.034035	2591.085021
371.421090	2594.659199
371.808081	2597.623398
372.195010	2603.559357
372.581875	2605.144799
372.968678	2610.702672
373.355418	2618.466048
373.742096	2627.620784
374.128710	2638.401291
374.515262	2646.136942
374.901751	2659.949703
375.288177	2674.972342
375.674540	2689.758046
376.060841	2706.562732
376.447079	2726.797924
376.833254	2752.734661
377.219367	2774.020933
377.605417	2805.432362
377.991404	2828.314160
378.377329	2870.208669
378.763191	2897.269583
379.148991	2943.731377
379.534727	2991.529077
379.920402	3034.507434
380.306013	3082.282449
380.691563	3140.676655
381.077049	3192.719007
381.462474	3247.236565
381.847835	3317.190136
382.233134	3384.572719
382.618371	3438.911316
383.003545	3521.306455
383.388657	3597.311932
383.773706	3683.840817
384.158693	3753.436467
384.543618	3845.092205
384.928480	3919.333278
385.313280	4018.321375
385.698017	4116.628916
386.082692	4232.630907
386.467305	4292.585350
386.851856	4411.768309
387.236344	4556.560330
387.620770	4620.837562
388.005133	4732.473914
388.389435	4873.164956
388.773674	4954.950115
389.157851	5078.039969
389.541965	5208.726841
389.926018	5231.157455
390.310008	5404.724382
390.693936	5521.220406
391.077802	5634.946317
391.461606	5761.897694
391.845348	5873.274426
392.229027	5987.423793
392.612645	6198.844745
392.996200	6320.797818
393.379694	6487.602037
393.763125	6701.934254
394.146494	6788.599251
394.529801	6919.583551
394.913047	7157.097515
395.296230	7157.405025
395.679351	7210.100206
396.062410	7461.237888
396.445408	7359.310798
396.828343	7511.087338
397.211217	7650.187896
397.594028	7535.420987
397.976778	7736.711740
398.359466	7900.035042
398.742092	7882.098617
399.124656	8020.856376
399.507158	8211.220428
399.889598	8231.536278
400.271977	8444.214997
400.654294	8476.533834
401.036549	8674.242847
401.418742	8700.003143
401.800874	8998.671344
402.182944	9085.608562
402.564952	9431.240153
402.946898	9279.458572
403.328783	9334.903702
403.710606	9520.415643
404.092367	9773.889900
404.474067	10127.680598
404.855705	9933.686915
405.237282	9894.171831
405.618797	10310.019132
406.000250	10554.994003
406.381642	10914.382902
406.762972	10860.513132
407.144240	10683.019146
407.525447	10924.346743
407.906593	10876.717921
408.287677	11138.671398
408.668700	11282.503079
409.049661	11277.890424
409.430560	11429.624113
409.811399	11404.496482
410.192176	11568.081924
410.572891	11653.169039
410.953545	12124.627829
411.334138	11603.687594
411.714669	12186.969258
412.095139	11543.584437
412.475547	12015.136488
412.855894	11885.301571
413.236180	12205.245962
413.616405	11901.433263
413.996568	12176.135819
414.376670	12158.264928
414.756711	12038.277905
415.136691	12318.750061
415.516609	12487.169970
415.896466	12579.052561
416.276262	12871.787323
416.655997	13320.732320
417.035670	13372.136966
417.415283	13988.907016
417.794834	14076.607969
418.174324	13820.764370
418.553753	13728.415473
418.933121	14214.884298
419.312428	14050.540163
419.691674	13953.278661
420.070859	14424.508078
420.449983	14068.408532
420.829045	14635.286282
421.208047	14388.088262
421.586988	14846.727398
421.965867	15085.642802
422.344686	15097.413897
422.723444	15659.026161
423.102141	14359.194889
423.480777	15551.067331
423.859352	15053.717175
424.237866	16157.261040
424.616319	15875.962135
424.994712	16522.913572
425.373044	16314.968497
425.751314	17010.163777
426.129524	16132.095600
426.507673	17215.852936
426.885762	16946.015094
427.263789	17118.031866
427.641756	17312.365827
428.019662	17368.340278
428.397508	17421.085871
428.775292	17699.861679
429.153016	17695.186008
429.530679	17763.970032
429.908282	17809.075756
430.285824	17528.701903
430.663305	18243.134226
431.040726	17861.420577
431.418086	17701.313531
431.795385	18330.361311
432.172624	18769.488661
432.549802	18334.114450
432.926920	18553.646618
433.303977	18427.834541
433.680974	18670.336726
434.057910	18988.829264
434.434786	19044.604591
434.811601	18950.640003
435.188355	20003.273256
435.565050	19661.777933
435.941683	19632.521596
436.318257	20517.791061
436.694770	20328.881383
437.071222	20922.615880
437.447614	20002.852319
437.823946	20023.261431
438.200218	20213.083558
438.576429	19985.770370
438.952580	20290.495517
439.328670	20259.300857
439.704700	20681.058911
440.080670	20243.585060
440.456580	20875.503777
440.832429	21032.949093
441.208218	20044.628361
441.583947	20481.552727
441.959616	20620.696135
442.335224	20856.024758
442.710773	21005.797439
443.086261	21553.352446
443.461689	20886.974922
443.837057	21057.136550
444.212365	21711.841282
444.587612	21713.270449
444.962800	21311.974438
445.337927	21754.149166
445.712995	20444.520411
446.088002	22355.445393
446.462949	22550.457389
446.837837	22751.929623
447.212664	22757.429522
447.587431	25719.452725
447.962139	28706.248159
448.336786	31033.169157
448.711374	29380.084070
449.085901	25632.737317
449.460369	25644.049667
449.834776	25626.725742
450.209124	28172.400049
450.583412	27664.851639
450.957640	28172.069853
451.331808	26819.308986
451.705917	25432.810197
452.079965	25469.779499
452.453954	25860.599992
452.827883	25783.863548
453.201752	25574.411168
453.575562	25728.856998
453.949311	26868.999640
454.323001	26943.744828
454.696632	26720.255354
455.070202	28338.117899
455.443713	28526.813329
455.817164	29098.079403
456.190556	29677.514668
456.563888	29078.464274
456.937160	29525.092861
457.310373	27814.601634
457.683526	28251.846113
458.056619	28249.181863
458.429653	28235.487569
458.802628	28843.415435
459.175542	28979.375354
459.548398	30360.011281
459.921194	31985.511174
460.293930	32729.353589
460.666607	34837.859035
461.039224	36627.322457
461.411782	36991.329052
461.784280	35708.778856
462.156719	35166.532183
462.529099	34601.996049
462.901419	33247.533793
463.273680	32201.499411
463.645882	32337.524865
464.018024	32327.056909
464.390106	33263.617594
464.762130	36175.065422
465.134094	40500.824084
465.505999	46010.701895
465.877845	50544.992927
466.249631	51584.695620
466.621358	49752.337020
466.993026	47527.257412
467.364634	45383.862140
467.736184	43414.739557
468.107674	42124.622588
468.479105	41346.056706
468.850477	40602.620104
469.221790	39148.025409
469.593043	37381.242138
469.964238	36470.897973
470.335373	36427.387775
470.706449	38273.833879
471.077467	41024.433611
471.448425	45717.279014
471.819324	48520.541160
472.190164	46543.292237
472.560945	42894.731935
472.931667	39704.704904
473.302330	38599.988971
473.672934	37755.870445
474.043479	38303.924526
474.413965	37501.665221
474.784393	37112.858669
475.154761	38054.097545
475.525070	38096.808721
475.895321	37606.064997
476.265513	38254.382587
476.635645	39257.020196
477.005719	39099.499262
477.375734	39610.757961
477.745691	40336.023724
478.115588	41709.576830
478.485427	43833.551057
478.855207	47318.548602
479.224928	49967.314505
479.594591	51538.324566
479.964194	50447.444080
480.333739	50574.604665
480.703226	50666.993892
481.072653	51294.695683
481.442022	51783.667442
481.811333	51996.325996
482.180584	50718.161603
482.549777	50199.273117
482.918912	49664.366365
483.287988	49361.458554
483.657005	48511.310807
484.025964	47837.298456
484.394864	47833.255450
484.763706	47384.517141
485.132489	46494.060328
485.501213	46331.301635
485.869879	46483.980541
486.238487	46078.570949
486.607036	46264.317303
486.975527	45708.764506
487.343959	45938.996522
487.712333	46010.495207
488.080648	45883.697585
488.448905	46358.317179
488.817104	46163.446336
489.185244	47182.250925
489.553326	48944.313155
489.921350	51701.398332
490.289315	54496.942471
490.657222	55043.708537
491.025070	55259.376661
491.392861	54349.826478
491.760593	53109.395121
492.128267	51447.805608
492.495883	49869.793384
492.863440	48465.093509
493.230939	47077.694874
493.598380	45968.000801
493.965763	45644.003323
494.333088	44812.825438
494.700354	44312.914376
495.067563	44012.335578
495.434713	43857.872103
495.801805	43940.864619
496.168839	43543.480544
496.535815	43199.227709
496.902733	43243.312600
497.269593	42781.421920
497.636395	42722.755492
498.003139	43137.297134
498.369825	42565.272366
498.736453	42892.554156
499.103023	42400.693817
499.469535	42276.326031
499.835989	42362.013043
500.202385	42017.649303
500.568723	42018.294571
500.935003	42229.309709
501.301226	42022.972762
501.667390	42649.734378
502.033497	42888.962334
502.399546	42326.440141
502.765537	41607.193516
503.131470	41993.635767
503.497345	42341.440094
503.863163	40977.439975
504.228923	41629.180509
504.594625	42044.259034
504.960269	41286.397171
505.325856	41986.925991
505.691385	41347.188445
506.056856	41505.916735
506.422270	41942.067284
506.787625	41485.583241
507.152924	41694.486136
507.518164	41788.027266
507.883347	40986.511531
508.248472	41228.413819
508.613540	41731.538617
508.978550	42027.867722
509.343503	41769.160748
509.708398	41991.465550
510.073236	42517.482228
510.438016	42488.730007
510.802738	41954.544140
511.167403	42591.345214
511.532010	42799.514621
511.896561	43114.248979
512.261053	43964.482425
512.625488	43492.973223
512.989866	43385.536153
513.354186	43215.165317
513.718449	43202.159140
514.082655	43893.399635
514.446803	43553.182244
514.810894	44089.129995
515.174927	44009.247871
515.538904	43889.069284
515.902822	44577.514459
516.266684	43996.324873
516.630488	44430.000215
516.994235	44280.174602
517.357925	44871.287699
517.721558	45043.143155
518.085133	45346.471902
518.448651	45469.034955
518.812112	45223.374487
519.175516	45330.468759
519.538863	45663.590726
519.902152	45609.751203
520.265385	46072.972747
520.628560	46106.229239
520.991678	45898.009421
521.354739	46137.204609
521.717743	46440.001515
522.080690	46338.283633
522.443580	46890.894918
522.806413	46922.863395
523.169189	46880.066519
523.531908	47043.316725
523.894569	46889.443066
524.257174	47076.011128
524.619722	47347.303343
524.982213	47330.624686
525.344647	47249.620905
525.707025	47299.959347
526.069345	47709.447233
526.431608	47622.240312
526.793815	47936.357129
527.155964	47459.022874
527.518057	47627.906569
527.880093	47392.393944
528.242072	47932.377138
528.603995	47624.244171
528.965860	47623.039335
529.327669	47706.225935
529.689421	47611.048951
530.051117	47553.597441
530.412755	47709.835401
530.774337	47783.332904
531.135862	47579.846729
531.497331	47766.513094
531.858743	47670.942899
532.220098	48012.735651
532.581396	47710.241214
532.942638	47362.739356
533.303824	47666.657919
533.664953	47644.053385
534.026025	47334.599635
534.387040	47827.939554
534.747999	47759.248791
535.108902	47924.828010
535.469748	47419.336390
535.830537	47555.026608
536.191270	47733.601921
536.551947	47376.736120
536.912567	47690.946198
537.273131	47811.744847
537.633638	47318.586410
537.994089	47635.425450
538.354483	47217.317191
538.714821	47810.280392
539.075103	48141.088469
539.435328	47897.787261
539.795497	47765.958567
540.155609	47770.336809
540.515665	48240.744519
540.875665	47668.936520
541.235609	47984.800097
541.595496	47963.213876
541.955328	48641.685128
542.315102	47999.512704
542.674821	47761.605531
543.034483	47796.979307
543.394090	47764.990666
543.753640	47723.519613
544.113134	48740.516949
544.472571	47719.640446
544.831953	48970.202001
545.191278	48160.557405
545.550548	47876.543838
545.909761	48351.115541
546.268918	48543.291887
546.628019	48842.297845
546.987064	48389.990399
547.346053	47645.739651
547.704986	48517.461015
548.063863	48088.922609
548.422684	48250.852032
548.781449	48090.742465
549.140158	48493.805401
549.498811	48336.004682
549.857408	47742.073580
550.215949	48578.587526
550.574434	48499.874950
550.932864	48259.016181
551.291237	48979.505450
551.649555	48584.301674
552.007817	48824.210185
552.366022	48469.101226
552.724173	48622.100245
553.082267	49022.947593
553.440305	49276.368918
553.798288	48589.612529
554.156215	48899.414118
554.514086	49126.896186
554.871902	48813.394390
555.229661	48842.106282
555.587365	48651.555707
555.945014	48764.956463
556.302606	48693.944249
556.660143	48896.253315
557.017625	48975.225511
557.375050	48752.885420
557.732421	49090.284806
558.089735	49064.799253
558.446994	48964.447524
558.804197	49438.426891
559.161345	49338.367548
559.518437	48595.702243
559.875474	48904.046939
560.232455	49078.130584
560.589381	49244.027395
560.946251	48926.187687
561.303065	49590.790724
561.659825	49370.840141
562.016528	49034.819511
562.373177	48751.746119
562.729770	49246.411861
563.086307	48741.691538
563.442789	49191.836330
563.799216	49206.150686
564.155587	49021.220998
564.511904	49024.006236
564.868164	49088.409497
565.224370	49323.687708
565.580520	49060.526875
565.936615	49267.441034
566.292654	48950.864135
566.648638	49219.789528
567.004567	49161.972534
567.360441	49204.555161
567.716260	49063.112987
568.072023	49320.973047
568.427732	49297.632505
568.783385	48836.414819
569.138982	49225.662472
569.494525	49181.554896
569.850013	48932.468964
570.205445	48896.621319
570.560823	48818.657354
570.916145	48691.653045
571.271412	48736.506711
571.626625	48462.378848
571.981782	48493.245833
572.336884	48167.000000
572.691931	48488.247528
573.046923	48095.181201
573.401860	47916.633614
573.756743	47877.390752
574.111570	47991.058689
574.466342	47836.328034
574.821059	47919.864994
575.175722	47427.619006
575.530330	47472.996952
575.884882	47150.211872
576.239380	47093.665249
576.593823	47076.767301
576.948211	47008.212650
577.302544	46514.640839
577.656823	46501.337234
578.011047	46737.853049
578.365216	46460.367777
578.719330	46224.915645
579.073389	46059.175109
579.427394	46131.487941
579.781344	46092.754235
580.135239	45749.058448
580.489080	45805.806717
580.842866	45281.085616
581.196597	45726.600108
581.550273	45657.705179
581.903895	45536.049534
582.257463	45924.679645
582.610975	45292.965095
582.964434	45578.140648
583.317837	45199.983533
583.671186	45038.207865
584.024481	45238.077012
584.377721	44757.949958
584.730906	45031.165373
585.084037	45062.155866
585.437113	44770.550322
585.790135	44772.198779
586.143103	44364.790370
586.496016	44470.503366
586.848874	44487.398793
587.201679	44521.187127
587.554428	43969.490811
587.907124	44172.188046
588.259765	43891.751178
588.612352	44156.295808
588.964884	43521.571689
589.317362	43791.724603
589.669786	43756.597843
590.022155	43500.527393
590.374470	43918.010548
590.726731	43438.722846
591.078937	42931.640743
591.431090	43031.569015
591.783188	42670.491329
592.135232	42339.118643
592.487222	42610.488996
592.839157	42670.186340
593.191038	42325.857888
593.542866	42074.994949
593.894639	41488.028201
594.246358	41750.082501
594.598022	41721.305075
594.949633	41317.911944
595.301190	41274.857969
595.652692	41095.261823
596.004141	41414.603795
596.355535	40430.174834
596.706876	40361.448783
597.058162	40178.757368
597.409395	40657.263691
597.760573	40744.064799
598.111698	40327.491571
598.462768	40317.500004
598.813785	40335.393580
599.164748	39806.826078
599.515657	40178.107059
599.866511	39668.617805
600.217312	40287.008585
600.568060	39236.774922
600.918753	39997.837918
601.269392	39925.512484
601.619978	39585.552192
601.970510	39803.110748
602.320988	39967.787600
602.671412	40272.323704
603.021783	40030.572651
603.372100	39675.753558
603.722363	39757.652143
604.072572	39828.127474
604.422728	39847.767809
604.772830	39639.900872
605.122878	39751.721226
605.472872	39662.908698
605.822813	39959.875509
606.172701	39789.373604
606.522534	40013.881390
606.872314	40278.073140
607.222041	40030.350840
607.571714	40412.346793
607.921333	39837.443526
608.270899	40141.510803
608.620411	40485.171302
608.969870	40272.301019
609.319276	40294.537548
609.668627	40334.334938
610.017926	40814.189769
610.367171	40953.668414
610.716362	41035.234283
611.065500	40990.559578
611.414585	41172.434326
611.763616	41456.505866
612.112594	41398.383883
612.461518	41613.646193
612.810389	41919.641711
613.159207	41769.427929
613.507971	41839.956192
613.856682	42304.470793
614.205340	42194.167826
614.553945	42891.845874
614.902496	42335.191584
615.250994	42813.700428
615.599439	42895.034404
615.947830	43067.265425
616.296169	43152.629804
616.644454	43253.929270
616.992686	43415.538580
617.340864	43939.947129
617.688990	43636.807425
618.037063	44273.031287
618.385082	44221.266199
618.733048	44505.549467
619.080961	44510.247823
619.428821	44542.518769
619.776628	44628.331810
620.124382	44470.871370
620.472083	44609.493018
620.819731	44712.695520
621.167326	44388.667795
621.514868	44341.376731
621.862357	43902.604782
622.209793	43936.803970
622.557176	43611.510915
622.904506	43334.852392
623.251783	42984.081346
623.599007	42760.319650
623.946179	42557.282137
624.293297	42505.038140
624.640363	41901.536407
624.987376	41868.506767
625.334336	41648.417552
625.681243	41282.162601
626.028097	41263.681731
626.374899	41113.599020
626.721647	41097.013623
627.068343	40987.353404
627.414987	40751.931519
627.761577	40536.286081
628.108115	40853.553619
628.454600	40318.382206
628.801032	40514.525941
629.147412	40460.560389
629.493739	40455.428494
629.840014	40107.571235
630.186236	40448.885076
630.532405	40029.304801
630.878521	40266.685173
631.224585	40126.750304
631.570597	39841.794042
631.916556	39977.895114
632.262462	39938.700142
632.608316	39952.759921
632.954117	39854.104540
633.299866	39834.575110
633.645562	39759.688769
633.991206	39261.194271
634.336797	38829.132099
634.682336	38819.478289
635.027823	38580.605735
635.373257	38389.919049
635.718639	38149.660178
636.063968	38018.426340
636.409245	37421.253776
636.754470	37481.815678
637.099642	37236.505570
637.444762	36751.551611
637.789829	36908.530621
638.134845	36564.567653
638.479808	36501.800247
638.824719	36421.005674
639.169577	36022.073964
639.514383	36097.875274
639.859137	35788.774405
640.203839	36032.010078
640.548489	35664.167165
640.893086	35740.797744
641.237632	35467.904963
641.582125	35588.413746
641.926566	35520.585021
642.270955	35493.695506
642.615292	35509.633114
642.959576	35469.384542
643.303809	35463.554447
643.647990	35625.183922
643.992118	35594.127894
644.336195	35566.734264
644.680219	35654.904044
645.024192	35960.960056
645.368112	36480.193861
645.711981	36482.555642
646.055797	37363.835034
646.399562	37285.745040
646.743274	38244.149045
647.086935	38668.374744
647.430544	38557.955830
647.774101	38664.505658
648.117606	38915.245089
648.461059	39192.758087
648.804460	38784.747260
649.147810	38178.372069
649.491108	37914.765093
649.834354	37569.103257
650.177548	36718.713535
650.520690	36303.246841
650.863781	36312.036092
651.206820	36151.346793
651.549807	35719.352676
651.892742	35219.292899
652.235626	35030.315165
652.578458	34917.267290
652.921238	34291.402999
653.263967	34635.686080
653.606644	34325.960109
653.949269	34262.217239
654.291843	33838.651931
654.634365	34247.643263
654.976836	33842.193342
655.319255	33848.182232
655.661622	33850.269270
656.003938	33622.217552
656.346203	33489.489013
656.688416	33708.882549
657.030577	33520.729043
657.372687	33341.329501
657.714746	33598.123357
658.056753	33732.651589
658.398708	33177.290355
658.740612	33233.731113
659.082465	33502.532998
659.424266	33352.377190
659.766016	33455.325113
660.107715	33326.808457
660.449362	33451.967705
660.790958	33415.477312
661.132503	33435.649490
661.473996	33472.028976
661.815438	33595.960702
662.156829	33777.613640
662.498168	33531.703635
662.839456	33549.602252
663.180693	33720.429312
663.521879	33880.228847
663.863013	33832.983153
664.204097	33832.355530
664.545129	34279.805825
664.886110	34226.944285
665.227040	34305.611491
665.567918	34414.518058
665.908746	34478.961648
666.249522	34631.242303
666.590248	34633.664578
666.930922	34748.192031
667.271545	34713.682813
667.612118	34788.543947
667.952639	34560.252775
668.293109	34623.050428
668.633528	34502.637427
668.973896	34442.637614
669.314213	34468.042509
669.654480	34202.698856
669.994695	34217.832400
670.334859	34126.514418
670.674973	34000.301570
671.015035	34150.338912
671.355047	34101.175059
671.695008	34063.431940
672.034918	33963.876713
672.374777	34036.444123
672.714585	33872.478073
673.054342	34087.664766
673.394049	33842.667210
673.733705	34123.194819
674.073310	33783.330309
674.412864	33851.380844
674.752368	33460.953561
675.091820	33764.962865
675.431223	33330.400280
675.770574	33062.546132
676.109875	32901.133427
676.449125	32617.364356
676.788324	32554.150808
677.127473	32024.968285
677.466571	31933.289862
677.805619	31592.316298
678.144616	31581.981932
678.483562	31496.874653
678.822458	31182.316735
679.161303	31111.697731
679.500098	31023.366633
679.838842	30910.054098
680.177535	31049.908308
680.516179	31342.736332
680.854771	31599.731835
681.193314	32452.523667
681.531805	33576.857250
681.870247	34335.250955
682.208638	35045.365530
682.546978	35237.466259
682.885268	35330.072255
683.223508	34804.337882
683.561697	34481.444417
683.899836	34276.866832
684.237925	33782.188487
684.575963	33610.781695
684.913951	33148.908659
685.251889	33303.225940
685.589776	33290.555000
685.927614	33284.109884
686.265401	33421.788837
686.603137	33505.716487
686.940824	34023.208573
687.278460	34396.074997
687.616046	34507.590361
687.953582	35097.458293
688.291068	34953.780367
688.628504	35234.474334
688.965889	35149.377137
689.303224	34786.121673
689.640510	34434.473466
689.977745	33680.863816
690.314930	32873.318860
690.652065	32356.842567
690.989150	31638.417650
691.326185	30739.088406
691.663170	30044.344310
692.000105	29299.528952
692.336990	28619.482340
692.673825	28171.321242
693.010610	27655.001224
693.347345	27082.981497
693.684030	26429.630315
694.020665	26143.348229
694.357251	25473.091537
694.693786	25426.312150
695.030272	25200.239085
695.366707	24653.606609
695.703093	24368.017682
696.039429	24367.914338
696.375716	24094.850158
696.711952	24072.880809
697.048139	23902.847731
697.384276	23721.295617
697.720363	23857.600855
698.056400	23643.293843
698.392388	23427.781996
698.728326	23396.899887
699.064214	23171.537625
699.400053	23124.478454
699.735842	22758.856168
700.071581	22482.006081
700.407270	22197.780786
700.742910	22007.441941
701.078501	21740.830437
701.414042	21468.567800
701.749533	21166.940442
702.084974	20797.469236
702.420366	21023.612877
702.755709	20584.795558
703.091002	20286.233221
703.426246	20304.638474
703.761440	20201.093174
704.096584	19930.542009
704.431679	19887.089783
704.766725	19792.023704
705.101721	19733.140506
705.436668	19821.272478
705.771565	19510.124901
706.106413	19844.945737
706.441212	19836.925261
706.775961	19960.410845
707.110661	20022.374188
707.445311	20377.203363
707.779913	20217.499609
708.114465	20457.299736
708.448967	20742.543344
708.783421	21418.733474
709.117825	21692.599198
709.452180	21900.027555
709.786485	22297.993884
710.120742	23090.977466
710.454949	23090.387651
710.789107	23557.725298
711.123216	24245.968827
711.457275	24352.148129
711.791286	24873.330340
712.125247	24943.377173
712.459159	24630.019050
712.793023	25266.142089
713.126837	24179.463404
713.460602	24431.173257
713.794318	24057.323808
714.127985	23680.149719
714.461602	22780.328963
714.795171	22739.724989
715.128691	21738.705591
715.462162	21214.092875
715.795584	20789.292484
716.128957	20514.771410
716.462281	20134.010540
716.795556	19908.459234
717.128782	19412.250899
717.461960	18865.668835
717.795088	18780.831257
718.128167	18383.079177
718.461198	17922.479032
718.794180	17789.894166
719.127113	17446.591589
719.459997	17239.395125
719.792833	16891.522742
720.125619	16863.990480
720.458357	16544.404011
720.791046	16374.214657
721.123686	16211.261880
721.456278	15977.420397
721.788821	15945.736745
722.121315	15673.882442
722.453761	15762.720175
722.786158	15675.588872
723.118506	15683.866447
723.450805	15554.714606
723.783056	15713.432814
724.115259	15610.459685
724.447412	15543.228337
724.779518	15772.351300
725.111574	15794.169414
725.443582	15995.369425
725.775542	15978.466437
726.107453	16428.356650
726.439315	16322.678942
726.771129	16700.498299
727.102895	17071.315494
727.434612	17264.343795
727.766281	17379.894603
728.097901	17628.794012
728.429473	17667.121905
728.760996	17655.103794
729.092471	17732.646823
729.423897	17607.739633
729.755276	17472.510681
730.086606	17586.188701
730.417887	18113.856356
730.749120	18621.011556
731.080305	18783.228325
731.411442	19107.281256
731.742530	19166.257715
732.073570	19260.905379
732.404562	19543.015910
732.735506	19361.841882
733.066401	19066.049659
733.397249	18524.773409
733.728048	17912.482424
734.058798	17100.347499
734.389501	16431.464521
734.720156	15977.813607
735.050762	15463.326048
735.381320	15111.229179
735.711831	14880.094795
736.042293	14530.846178
736.372707	14543.880081
736.703073	14343.456407
737.033391	14523.153377
737.363661	14497.125899
737.693883	14583.745525
738.024056	14753.556793
738.354182	14934.340131
738.684260	15210.411360
739.014290	15420.677887
739.344272	15604.601864
739.674207	15870.235384
740.004093	15966.687781
740.333931	15957.933817
740.663722	15997.330434
740.993464	15984.674618
741.323159	15815.969883
741.652806	15543.082143
741.982405	15325.813454
742.311956	14984.066073
742.641460	14874.829310
742.970915	14572.778495
743.300323	14253.365946
743.629683	14049.526891
743.958996	13774.395837
744.288260	13505.921627
744.617477	13213.184344
744.946647	13142.789672
745.275768	12864.800284
745.604842	12685.937625
745.933869	12522.110207
746.262847	12478.388280
746.591778	12397.553378
746.920662	12304.405458
747.249498	12299.480251
747.578286	12415.381419
747.907027	12555.485166
748.235720	12770.523145
748.564365	12792.905868
748.892963	12685.509127
749.221514	12743.293353
749.550017	12601.692382
749.878473	12554.764281
750.206881	12343.882734
750.535242	12253.366296
750.863555	12171.739933
751.191821	12068.915518
751.520039	12086.809093
751.848210	11997.411792
752.176334	12030.144003
752.504411	11937.908532
752.832440	11786.759616
753.160421	11836.490599
753.488356	11722.162271
753.816243	11636.752522
754.144082	11491.075779
754.471875	11425.666808
754.799620	11371.776873
755.127318	11344.905002
755.454969	11307.401338
755.782572	11264.798547
756.110129	11271.674681
756.437638	11192.095026
756.765100	11176.422079
757.092515	11187.835251
757.419882	11198.242713
757.747203	11198.935872
758.074477	11275.717686
758.401703	11231.688249
758.728882	11384.959490
759.056014	11423.163875
759.383099	11534.109588
759.710138	11631.449228
760.037129	11707.754653
760.364073	11723.462889
760.690970	11709.360261
761.017820	11710.492000
761.344623	11895.151986
761.671379	12213.329452
761.998088	12838.182992
762.324751	14392.431216
762.651366	17201.455401
762.977935	20723.034078
763.304456	22784.651752
763.630931	23188.314585
763.957359	22018.630782
764.283740	20174.828762
764.610074	18350.992233
764.936362	16298.957792
765.262602	14843.289331
765.588796	13417.477104
765.914943	12421.725711
766.241044	11609.532812
766.567097	10996.588998
766.893104	10471.477208
767.219064	10120.910328
767.544978	9753.667311
767.870845	9456.524060
768.196665	9266.114638
768.522438	9085.689221
768.848165	8921.103110
769.173846	8759.675281
769.499479	8640.782188
769.825066	8490.235690
770.150607	8306.669635
770.476101	8247.841890
770.801548	8139.421794
771.126949	8002.781319
771.452303	7917.507681
771.777611	7761.473888
772.102872	7737.031853
772.428087	7620.258565
772.753256	7502.648446
773.078378	7414.534118
773.403453	7281.727441
773.728482	7172.654515
774.053465	7120.652493
774.378401	7027.605396
774.703291	6939.894360
775.028135	6841.992632
775.352932	6807.884185
775.677683	6726.759417
776.002388	6644.608773
776.327046	6641.886550
776.651658	6555.400515
776.976224	6488.680844
777.300743	6467.132432
777.625216	6407.243524
777.949643	6365.207863
778.274024	6373.719851
778.598359	6300.618079
778.922647	6304.051105
779.246889	6258.259784
779.571086	6273.476507
779.895236	6278.109327
780.219339	6277.370798
780.543397	6272.206136
780.867409	6318.325132
781.191374	6313.382281
781.515294	6279.843484
781.839167	6327.893242
782.162995	6300.746628
782.486776	6255.766933
782.810511	6215.949380
783.134201	6145.027907
783.457844	6132.188088
783.781441	6086.326191
784.104993	6043.773811
784.428498	6018.550398
784.751958	5994.262119
785.075372	5973.479962
785.398739	5935.550320
785.722061	5960.443538
786.045337	5955.223423
786.368568	6064.298869
786.691752	6086.190080
787.014891	6329.103119
787.337983	6597.927689
787.661030	7018.964858
787.984031	7423.232629
788.306987	7659.914802
788.629897	7742.284735
788.952760	7648.499109
789.275579	7477.515774
789.598351	7190.464912
789.921078	6937.580470
790.243759	6675.750501
790.566395	6479.354709
790.888984	6296.824611
791.211529	6162.268653
791.534027	6003.605897
791.856480	5874.222163
792.178888	5820.450696
792.501249	5758.467189
792.823566	5653.243184
793.145836	5650.848636
793.468062	5628.617148
793.790241	5592.681283
794.112375	5634.782479
794.434464	5732.202777
794.756507	5757.738742
795.078505	5874.857349
795.400457	6079.936528
795.722364	6311.015459
796.044226	6488.048179
796.366042	6639.517208
796.687812	6577.097641
797.009538	6607.369770
797.331218	6511.663464
797.652852	6450.383198
797.974442	6336.952195
798.295986	6267.510301
798.617484	6143.664275
798.938938	6042.637031
799.260346	5976.703780
799.581709	5842.346948
799.903026	5789.341735
800.224299	5724.570470
800.545526	5617.584583
800.866708	5550.464140
801.187845	5498.991438
801.508936	5428.717754
801.829983	5403.406120
802.150984	5299.492816
802.471940	5275.769146
802.792851	5258.346918
803.113717	5235.379422
803.434538	5214.546853
803.755314	5181.539898
804.076045	5174.777191
804.396731	5140.197396
804.717372	5154.615096
805.037967	5155.446886
805.358518	5181.257594
805.679024	5236.710286
805.999485	5243.967027
806.319901	5260.426394
806.640272	5277.868787
806.960598	5321.031146
807.280879	5313.315660
807.601115	5348.137430
807.921306	5308.221574
808.241453	5304.954906
808.561554	5311.329445
808.881611	5281.901710
809.201623	5276.923570
809.521590	5231.936313
809.841513	5215.063572
810.161390	5228.780551
810.481223	5149.757944
810.801011	5129.933607
811.120755	5111.243529
811.440453	5061.164706
811.760107	5033.148494
812.079716	5004.290409
812.399281	4954.360300
812.718801	4949.762768
813.038276	4917.632974
813.357707	4879.415987
813.677093	4901.259306
813.996434	4845.078167
814.315731	4864.398389
814.634983	4863.463255
814.954191	4871.181262
815.273354	4923.979787
815.592473	4967.923525
815.911547	5035.306108
816.230577	5084.661524
816.549562	5169.778887
816.868502	5217.485846
817.187399	5267.012662
817.506250	5340.852963
817.825058	5371.495617
818.143821	5511.516185
818.462539	5673.833777
818.781213	5897.686214
819.099843	6244.336117
819.418429	6846.993456
819.736970	7428.699760
820.055466	8100.322605
820.373919	8977.748035
820.692327	10375.629749
821.010691	13013.766380
821.329011	19076.331092
821.647286	28227.283091
821.965517	37976.362952
822.283704	42908.123760
822.601847	44094.894554
822.919945	39593.388666
823.237999	34704.926328
823.556010	29791.144796
823.873976	25388.735389
824.191897	21461.172427
824.509775	18590.205065
824.827609	15999.551063
825.145398	14565.090736
825.463144	13878.818298
825.780845	14195.052399
826.098502	15413.174129
826.416116	17704.807051
826.733685	19807.127001
827.051210	20208.428053
827.368692	18793.340880
827.686129	16377.980399
828.003522	14088.474845
828.320872	12014.503824
828.638177	10497.416465
828.955439	9338.336728
829.272656	8345.494081
829.589830	7551.587968
829.906960	6871.430450
830.224046	6376.137084
830.541088	5991.723898
830.858086	5751.510396
831.175041	5561.998300
831.491952	5511.009549
831.808819	5545.788470
832.125642	5784.285458
832.442421	6319.479556
832.759157	7387.304326
833.075849	9063.964368
833.392497	10779.963055
833.709101	11772.546083
834.025662	11476.663120
834.342179	10472.989554
834.658653	9255.535776
834.975083	8237.656239
835.291469	7391.594348
835.607811	6718.454116
835.924110	6226.944136
836.240366	5773.484786
836.556578	5352.929047
836.872746	5019.252553
837.188871	4768.452629
837.504952	4561.800609
837.820990	4403.137854
838.136984	4303.438954
838.452935	4259.820370
838.768842	4290.836069
839.084706	4570.912495
839.400526	5281.768119
839.716303	6120.931191
840.032037	6623.138499
840.347727	6454.980730
840.663373	5881.955293
840.978977	5355.038770
841.294537	4950.561791
841.610054	4643.409328
841.925527	4420.134104
842.240957	4231.206781
842.556344	4055.366294
842.871687	3909.256011
843.186987	3771.125875
843.502244	3656.946261
843.817458	3579.831731
844.132629	3512.814632
844.447756	3466.352837
844.762840	3426.769697
845.077881	3384.789489
845.392879	3353.975436
845.707833	3331.360820
846.022745	3303.493321
846.337613	3296.022331
846.652438	3273.206069
846.967221	3265.692229
847.281960	3249.588263
847.596656	3241.315730
847.911309	3225.806620
848.225919	3214.564847
848.540485	3205.694937
848.855009	3198.292002
849.169490	3185.316072
849.483928	3179.564116
849.798323	3176.141172
850.112675	3167.609019
850.426984	3168.413083
850.741251	3161.700787
851.055474	3157.599808
851.369654	3159.429747
851.683792	3156.213491
851.997887	3158.736588
852.311938	3161.836898
852.625947	3157.622493
852.939914	3154.131494
853.253837	3159.155004
853.567718	3154.451608
853.881555	3150.869868
854.195350	3155.737102
854.509103	3149.985145
854.822812	3149.506236
855.136479	3142.960297
855.450103	3147.711585
855.763685	3141.137920
856.077224	3145.836276
856.390720	3152.145280
856.704173	3161.836898
857.017584	3164.516271
857.330953	3170.245543
857.644278	3177.724094
857.957561	3178.762572
858.270802	3176.909948
858.584000	3176.443641
858.897155	3173.671007
859.210268	3161.662978
859.523339	3150.990856
859.836367	3146.287459
860.149352	3141.193373
860.462295	3138.214051
860.775195	3131.035448
861.088054	3128.494707
861.400869	3122.999849
861.713642	3123.773666
862.026373	3131.920171
862.339062	3138.420738
862.651708	3145.271667
862.964312	3160.387566
863.276873	3166.789832
863.589392	3195.073225
863.901869	3220.160527
864.214303	3242.639032
864.526696	3258.488420
864.839045	3272.379320
865.151353	3283.338788
865.463619	3287.941362
865.775842	3286.166875
866.088023	3287.515384
866.400162	3280.041873
866.712258	3284.478089
867.024313	3283.507667
867.336325	3281.949950
867.648296	3282.665794
867.960224	3280.278808
868.272110	3283.237965
868.583954	3285.680404
868.895755	3289.254582
869.207515	3286.635703
869.519233	3306.177736
869.830909	3312.118735
870.142542	3324.950993
870.454134	3328.976354
870.765684	3340.102180
871.077191	3354.136753
871.388657	3363.243597
871.700081	3384.275291
872.011463	3400.482601
872.322803	3423.908843
872.634101	3434.255811
872.945357	3455.572330
873.256571	3481.153665
873.567744	3492.445850
873.878874	3502.311388
874.189963	3512.996113
874.501010	3514.926875
874.812015	3511.211545
875.122979	3529.944473
875.433900	3523.307793
875.744780	3524.701673
876.055618	3530.612425
876.366415	3529.745347
876.677169	3534.400852
876.987882	3553.184192
877.298554	3574.614137
877.609183	3603.391563
877.919771	3651.078358
878.230317	3715.262329
878.540822	3814.215138
878.851285	3954.772589
879.161707	4157.419412
879.472087	4518.731511
879.782425	5111.840905
880.092722	6242.165900
880.402977	8087.618897
880.713191	10336.898564
881.023363	12541.627034
881.333494	13749.376591
881.643583	14119.669505
881.953631	13688.663454
882.263637	12871.434442
882.573602	11918.805080
882.883526	11023.256702
883.193408	10138.733327
883.503248	9289.561044
883.813048	8526.973099
884.122806	7811.703944
884.432522	7104.581294
884.742197	6490.596482
885.051831	5970.077183
885.361424	5509.323283
885.670975	5151.030835
885.980485	4849.476574
886.289954	4596.100620
886.599382	4399.150301
886.908768	4234.712904
887.218113	4084.012651
887.527417	3958.009010
887.836680	3848.426928
888.145901	3753.615427
888.455082	3684.024819
888.764221	3623.160448
889.073319	3569.958631
889.382376	3537.244063
889.691392	3514.584077
890.000366	3508.917820
890.309300	3504.534537
890.618193	3504.796677
890.927044	3505.066378
891.235855	3508.645597
891.544625	3522.665046
891.853353	3549.473903
892.162041	3606.930453
892.470687	3693.456818
892.779293	3806.144251
893.087858	3964.955720
893.396381	4231.542018
893.704864	4619.229434
894.013306	5144.706708
894.321707	5667.915463
894.630068	5984.557897
894.938387	5998.373180
895.246665	5825.811963
895.554903	5537.735226
895.863100	5224.946754
896.171256	4979.553467
896.479371	4757.830918
896.787446	4554.190988
897.095480	4380.558526
897.403473	4240.590889
897.711425	4109.694809
898.019336	3996.513343
898.327207	3882.245509
898.635038	3787.368473
898.942827	3691.876416
899.250576	3614.711474
899.558284	3535.855225
899.865952	3486.262874
900.173579	3424.826333
900.481165	3382.596587
900.788711	3345.113087
901.096216	3316.330619
901.403681	3292.909419
901.711105	3283.885753
902.018489	3276.984414
902.325832	3313.252995
902.633135	3369.015718
902.940397	3528.711910
903.247619	3921.828649
903.554800	4633.082525
903.861941	5520.693606
904.169041	6143.026569
904.476101	6313.220964
904.783121	6046.274223
905.090100	5670.078118
905.397039	5292.934275
905.703938	4962.799192
906.010796	4675.075336
906.317614	4443.918268
906.624391	4224.401223
906.931129	4046.045200
907.237826	3881.655694
907.544483	3725.596694
907.851099	3566.752457
908.157675	3421.017741
908.464211	3287.343985
908.770707	3194.553987
909.077163	3121.953809
909.383578	3069.074626
909.689954	3027.608615
909.996289	3002.407887
910.302584	2981.219918
910.608839	2972.788588
910.915054	2961.400621
911.221229	2957.970116
911.527363	2962.202165
911.833458	2969.514358
912.139513	2979.783189
912.445527	2989.862976
912.751502	3022.111237
913.057436	3064.280489
913.363331	3118.225876
913.669186	3199.151519
913.975000	3308.990699
914.280775	3485.244561
914.586510	3736.130185
914.892205	4084.884770
915.197859	4551.446079
915.503475	5084.628757
915.809050	5536.369074
916.114585	5786.097753
916.420081	5830.691800
916.725536	5768.864568
917.030952	5553.030087
917.336328	5359.777454
917.641665	5169.831819
917.946961	4960.223162
918.252218	4778.464360
918.557435	4571.643462
918.862612	4388.984814
919.167750	4230.697625
919.472848	4055.807395
919.777906	3900.091194
920.082925	3757.333278
920.387904	3615.601238
920.692843	3514.468130
920.997743	3422.930859
921.302603	3336.149916
921.607423	3277.123045
921.912204	3215.764641
922.216946	3171.813342
922.521647	3126.936990
922.826310	3092.004314
923.130932	3056.166752
923.435516	3018.786596
923.740059	2993.331290
924.044564	2964.873976
924.349028	2942.362704
924.653454	2916.098292
924.957840	2892.082235
925.262186	2874.082795
925.566493	2855.480938
925.870761	2832.095025
926.174989	2819.698828
926.479178	2807.098464
926.783328	2793.429375
927.087438	2784.282201
927.391509	2772.332146
927.695541	2760.649272
927.999533	2751.668457
928.303486	2743.710995
928.607400	2739.201683
928.911275	2731.529047
929.215110	2727.309601
929.518906	2724.713407
929.822663	2725.431771
930.126381	2724.468911
930.430060	2726.626525
930.733699	2729.258007
931.037299	2731.337483
931.340861	2731.657596
931.644383	2735.130951
931.947866	2732.040724
932.251309	2728.642986
932.554714	2729.590723
932.858080	2730.359499
933.161407	2725.497306
933.464694	2720.947665
933.767943	2718.323744
934.071153	2718.248127
934.374323	2710.963660
934.677455	2713.232179
934.980548	2705.020139
935.283602	2703.321271
935.586617	2701.811445
935.889593	2706.265304
936.192530	2709.237065
936.495428	2710.509956
936.798287	2720.481358
937.101108	2729.555435
937.403890	2752.500247
937.706632	2777.169133
938.009336	2801.792649
938.312002	2831.424552
938.614628	2851.793334
938.917216	2871.012733
939.219765	2881.195863
939.522275	2887.988818
939.824747	2889.670043
940.127179	2879.060935
940.429573	2877.599000
940.731929	2876.043804
941.034246	2864.764223
941.336524	2865.780015
941.638763	2860.839684
941.940964	2856.595033
942.243126	2839.442507
942.545250	2830.743996
942.847335	2814.433342
943.149381	2803.403298
943.451389	2791.710342
943.753359	2780.627365
944.055290	2770.983637
944.357182	2764.498193
944.659036	2761.082811
944.960851	2758.292533
945.262628	2751.365987
945.564367	2754.834301
945.866067	2753.957140
946.167729	2750.897160
946.469352	2750.549320
946.770937	2747.234762
947.072484	2741.490367
947.373992	2741.394585
947.675462	2738.480798
947.976893	2734.364696
948.278286	2730.132647
948.579641	2728.895044
948.880958	2726.813047
949.182236	2724.078222
949.483476	2719.503374
949.784678	2722.470093
950.085841	2720.937583
950.386967	2724.350444
950.688054	2729.734396
950.989103	2738.541292
951.290114	2746.884402
951.591087	2759.136926
951.892021	2766.776795
952.192917	2779.377159
952.493776	2785.711368
952.794596	2790.505506
953.095378	2789.875362
953.396122	2791.304529
953.696828	2785.978550
953.997496	2781.537293
954.298126	2773.836931
954.598718	2767.656476
954.899272	2756.628952
955.199788	2748.348857
955.500266	2736.247567
955.800706	2721.073694
956.101108	2707.805377
956.401472	2697.891948
956.701798	2687.358457
957.002087	2671.667866
957.302337	2666.336845
957.602550	2656.052892
957.902724	2646.031078
958.202861	2638.945736
958.502960	2631.457102
958.803022	2626.438633
959.103045	2621.377315
959.403031	2611.287445
959.702979	2609.984307
960.002889	2604.378544
960.302762	2599.506269
960.602596	2595.770774
960.902393	2596.012749
961.202153	2590.470001
961.501875	2586.858014
961.801559	2582.104206
962.101205	2581.219483
962.400814	2582.079000
962.700385	2579.560944
962.999918	2579.913824
963.299414	2578.706468
963.598873	2576.223700
963.898293	2573.768658
964.197677	2573.861919
964.497022	2569.256825
964.796331	2571.878225
965.095601	2571.734552
965.394835	2567.648697
965.694030	2568.881259
965.993189	2567.424366
966.292309	2568.508214
966.591393	2563.850188
966.890439	2567.026115
967.189447	2567.210117
967.488419	2567.482339
967.787353	2566.585014
968.086249	2567.762123
968.385108	2568.664490
968.683930	2568.598955
968.982714	2570.484346
969.281462	2571.021229
969.580172	2571.820252
969.878844	2572.193297
970.177480	2574.199677
970.476078	2580.692683
970.774639	2581.469020
971.073162	2585.385997
971.371649	2584.337437
971.670098	2583.903898
971.968510	2585.113775
972.266885	2584.713003
972.565223	2591.032089
972.863524	2590.359095
973.161788	2595.589292
973.460014	2593.472008
973.758204	2596.347986
974.056356	2597.033583
974.354471	2596.988212
974.652550	2593.903026
974.950591	2596.610126
975.248595	2595.798500
975.546563	2595.140630
975.844493	2591.876482
976.142386	2588.682912
976.440243	2590.885896
976.738062	2589.250041
977.035845	2585.421285
977.333590	2580.980028
977.631299	2579.094637
977.928971	2579.240830
978.226606	2578.706468
978.524204	2578.192270
978.821765	2576.374934
979.119290	2575.268401
979.416777	2572.664645
979.714228	2575.028946
980.011642	2576.125397
980.309020	2580.838876
980.606360	2583.745101
980.903664	2590.938828
981.200931	2602.394850
981.498162	2619.544855
981.795356	2648.813795
982.092513	2682.067766
982.389633	2722.288612
982.686717	2759.636000
982.983764	2786.462500
983.280775	2805.286169
983.577749	2802.558905
983.874686	2793.625980
984.171587	2782.492592
984.468451	2765.259407
984.765279	2750.186357
985.062070	2730.898903
985.358824	2717.365925
985.655543	2696.724921
985.952224	2677.974349
986.248869	2653.915442
986.545478	2630.257307
986.842050	2611.249637
987.138586	2591.395052
987.435086	2581.693352
987.731549	2569.879408
988.027975	2568.646846
988.324366	2560.480176
988.620719	2557.127809
988.917037	2553.747715
989.213318	2551.522046
989.509563	2549.611449
989.805772	2548.913249
990.101944	2546.052394
990.398080	2547.925183
990.694180	2545.674307
990.990244	2548.792261
991.286271	2545.001313
991.582262	2549.198074
991.878217	2548.189843
992.174136	2546.196067
992.470019	2547.952909
992.765865	2551.486758
993.061676	2551.685883
993.357450	2554.211502
993.653188	2553.273847
993.948890	2563.247770
994.244556	2565.612071
994.540186	2576.410223
994.835780	2583.470358
995.131337	2599.851588
995.426859	2612.630913
995.722345	2630.045579
996.017795	2651.052067
996.313208	2660.247132
996.608586	2669.790036
996.903928	2670.246260
997.199234	2671.985458
997.494504	2667.478667
997.789738	2662.157729
998.084936	2654.964002
998.380099	2643.593680
998.675225	2633.776033
998.970316	2621.510905
999.265371	2610.939606
999.560390	2595.846391
999.855373	2587.667119
1000.150320	2574.212279
1000.445232	2567.613409
1000.740108	2558.927501
1001.034948	2557.541184
1001.329752	2550.297046
1001.624521	2545.938968
1001.919254	2541.437218
1002.213951	2542.667259
1002.508613	2536.857329
1002.803239	2539.211548
1003.097829	2531.682585
1003.392384	2532.370703
1003.686903	2531.836340
1003.981386	2532.385826
1004.275834	2532.557225
1004.570246	2531.831299
1004.864623	2531.047400
1005.158964	2528.647810
1005.453270	2528.733510
1005.747540	2530.177801
1006.041775	2527.730320
1006.335974	2527.884076
1006.630138	2527.097656
1006.924266	2526.679240
1007.218359	2527.453057
1007.512416	2527.720238
1007.806438	2527.125382
1008.100425	2528.070598
1008.394376	2526.139836
1008.688292	2525.176976
1008.982172	2524.198992
1009.276017	2527.868952
1009.569827	2525.229908
1009.863602	2525.260155
1010.157341	2527.276617
1010.451045	2525.756709
1010.744714	2522.593385
1011.038347	2521.746471
1011.331945	2523.115144
1011.625508	2521.683456
1011.919036	2523.029444
1012.212528	2525.968437
1012.505986	2521.670853
1012.799408	2520.579444
1013.092795	2519.704803
1013.386147	2522.328724
1013.679464	2522.721934
1013.972745	2520.458456
1014.265992	2519.566172
1014.559204	2521.461646
1014.852380	2521.254958
1015.145521	2522.500123
1015.438628	2518.142046
1015.731699	2518.268075
1016.024736	2520.841584
1016.317737	2521.189423
1016.610703	2520.261851
1016.903635	2518.003414
1017.196531	2517.058198
1017.489393	2518.802437
1017.782219	2521.186903
1018.075011	2522.762263
1018.367768	2521.784279
1018.660490	2523.304187
1018.953177	2523.304187
1019.245829	2523.304187
