Dividing Wavelength (nm)	Counts (n)	Blue Motor Position (mm): 0.000000	Red Motor Position (mm): 2.700000	
326.493990	2134.928654
326.888308	2134.928654
327.282561	2134.928654
327.676750	2102.161154
328.070874	2092.078846
328.464933	2034.105577
328.858929	2018.982115
329.252859	2056.790769
329.646726	2089.558269
330.040528	2084.517115
330.434265	2049.229038
330.827938	2102.161154
331.221547	2147.531538
331.615091	2177.778462
332.008571	2150.052115
332.401986	2238.272308
332.795338	2250.875192
333.188625	2364.301154
333.581847	2233.231154
333.975006	2233.231154
334.368100	2318.930769
334.761129	2399.589231
335.154095	2291.204423
335.546996	2311.369038
335.939833	2376.904038
336.332606	2344.136538
336.725315	2374.383462
337.117960	2470.165385
337.510540	2399.589231
337.903056	2482.768269
338.295508	2402.109808
338.687896	2432.356731
339.080220	2455.041923
339.472480	2429.836154
339.864676	2470.165385
340.256807	2485.288846
340.648875	2500.412308
341.040879	2427.315577
341.432818	2394.548077
341.824694	2460.083077
342.216506	2533.179808
342.608253	2439.918462
342.999937	2523.097500
343.391557	2452.521346
343.783113	2490.330000
344.174605	2384.465769
344.566033	2460.083077
344.957397	2399.589231
345.348697	2470.165385
345.739934	2369.342308
346.131106	2472.685962
346.522215	2460.083077
346.913260	2515.535769
347.304241	2505.453462
347.695159	2500.412308
348.086012	2374.383462
348.476802	2424.795000
348.867528	2548.303269
349.258191	2376.904038
349.648789	2369.342308
350.039324	2548.303269
350.429796	2376.904038
350.820203	2513.015192
351.210548	2452.521346
351.600828	2475.206538
351.991045	2457.562500
352.381198	2447.480192
352.771288	2399.589231
353.161314	2485.288846
353.551276	2487.809423
353.941175	2472.685962
354.331010	2477.727115
354.720782	2455.041923
355.110490	2497.891731
355.500135	2422.274423
355.889717	2460.083077
356.279235	2346.657115
356.668689	2467.644808
357.058080	2397.068654
357.447408	2500.412308
357.836672	2434.877308
358.225873	2381.945192
358.615010	2407.150962
359.004084	2507.974038
359.393095	2414.712692
359.782043	2432.356731
360.170927	2444.959615
360.559748	2442.439038
360.948505	2412.192115
361.337199	2442.439038
361.725830	2444.959615
362.114398	2437.397885
362.502903	2475.206538
362.891344	2414.712692
363.279722	2404.630385
363.668037	2442.439038
364.056289	2492.850577
364.444478	2432.356731
364.832603	2477.727115
365.220665	2462.603654
365.608665	2409.671538
365.996601	2470.165385
366.384474	2444.959615
366.772284	2432.356731
367.160031	2429.836154
367.547715	2404.630385
367.935336	2409.671538
368.322893	2432.356731
368.710388	2455.041923
369.097820	2460.083077
369.485189	2467.644808
369.872495	2490.330000
370.259738	2470.165385
370.646918	2533.179808
371.034035	2389.506923
371.421090	2407.150962
371.808081	2424.795000
372.195010	2429.836154
372.581875	2429.836154
372.968678	2399.589231
373.355418	2452.521346
373.742096	2376.904038
374.128710	2444.959615
374.515262	2419.753846
374.901751	2520.576923
375.288177	2505.453462
375.674540	2427.315577
376.060841	2417.233269
376.447079	2444.959615
376.833254	2485.288846
377.219367	2417.233269
377.605417	2447.480192
377.991404	2513.015192
378.377329	2462.603654
378.763191	2457.562500
379.148991	2442.439038
379.534727	2447.480192
379.920402	2439.918462
380.306013	2490.330000
380.691563	2518.056346
381.077049	2490.330000
381.462474	2482.768269
381.847835	2475.206538
382.233134	2520.576923
382.618371	2452.521346
383.003545	2455.041923
383.388657	2439.918462
383.773706	2407.150962
384.158693	2530.659231
384.543618	2460.083077
384.928480	2397.068654
385.313280	2485.288846
385.698017	2497.891731
386.082692	2505.453462
386.467305	2470.165385
386.851856	2563.426731
387.236344	2507.974038
387.620770	2457.562500
388.005133	2492.850577
388.389435	2429.836154
388.773674	2485.288846
389.157851	2528.138654
389.541965	2437.397885
389.926018	2455.041923
390.310008	2465.124231
390.693936	2568.467885
391.077802	2437.397885
391.461606	2497.891731
391.845348	2507.974038
392.229027	2482.768269
392.612645	2361.780577
392.996200	2397.068654
393.379694	2507.974038
393.763125	2513.015192
394.146494	2480.247692
394.529801	2495.371154
394.913047	2422.274423
395.296230	2462.603654
395.679351	2465.124231
396.062410	2409.671538
396.445408	2477.727115
396.828343	2510.494615
397.211217	2444.959615
397.594028	2553.344423
397.976778	2409.671538
398.359466	2558.385577
398.742092	2465.124231
399.124656	2487.809423
399.507158	2424.795000
399.889598	2555.865000
400.271977	2457.562500
400.654294	2422.274423
401.036549	2513.015192
401.418742	2467.644808
401.800874	2513.015192
402.182944	2507.974038
402.564952	2490.330000
402.946898	2465.124231
403.328783	2518.056346
403.710606	2505.453462
404.092367	2397.068654
404.474067	2515.535769
404.855705	2533.179808
405.237282	2472.685962
405.618797	2472.685962
406.000250	2492.850577
406.381642	2477.727115
406.762972	2505.453462
407.144240	2500.412308
407.525447	2510.494615
407.906593	2444.959615
408.287677	2487.809423
408.668700	2467.644808
409.049661	2399.589231
409.430560	2450.000769
409.811399	2507.974038
410.192176	2497.891731
410.572891	2523.097500
410.953545	2409.671538
411.334138	2520.576923
411.714669	2447.480192
412.095139	2533.179808
412.475547	2455.041923
412.855894	2505.453462
413.236180	2399.589231
413.616405	2543.262115
413.996568	2409.671538
414.376670	2528.138654
414.756711	2502.932885
415.136691	2460.083077
415.516609	2434.877308
415.896466	2530.659231
416.276262	2507.974038
416.655997	2470.165385
417.035670	2450.000769
417.415283	2513.015192
417.794834	2520.576923
418.174324	2427.315577
418.553753	2429.836154
418.933121	2586.111923
419.312428	2490.330000
419.691674	2470.165385
420.070859	2432.356731
420.449983	2505.453462
420.829045	2492.850577
421.208047	2465.124231
421.586988	2404.630385
421.965867	2530.659231
422.344686	2492.850577
422.723444	2520.576923
423.102141	2487.809423
423.480777	2417.233269
423.859352	2485.288846
424.237866	2555.865000
424.616319	2520.576923
424.994712	2492.850577
425.373044	2467.644808
425.751314	2502.932885
426.129524	2578.550192
426.507673	2389.506923
426.885762	2555.865000
427.263789	2472.685962
427.641756	2530.659231
428.019662	2578.550192
428.397508	2450.000769
428.775292	2442.439038
429.153016	2545.782692
429.530679	2510.494615
429.908282	2487.809423
430.285824	2555.865000
430.663305	2429.836154
431.040726	2533.179808
431.418086	2520.576923
431.795385	2482.768269
432.172624	2513.015192
432.549802	2475.206538
432.926920	2530.659231
433.303977	2560.906154
433.680974	2505.453462
434.057910	2545.782692
434.434786	2452.521346
434.811601	2470.165385
435.188355	2419.753846
435.565050	2432.356731
435.941683	2548.303269
436.318257	2505.453462
436.694770	2495.371154
437.071222	2475.206538
437.447614	2485.288846
437.823946	2578.550192
438.200218	2482.768269
438.576429	2497.891731
438.952580	2528.138654
439.328670	2543.262115
439.704700	2502.932885
440.080670	2535.700385
440.456580	2417.233269
440.832429	2482.768269
441.208218	2555.865000
441.583947	2465.124231
441.959616	2487.809423
442.335224	2543.262115
442.710773	2515.535769
443.086261	2392.027500
443.461689	2492.850577
443.837057	2457.562500
444.212365	2550.823846
444.587612	2442.439038
444.962800	2560.906154
445.337927	2475.206538
445.712995	2397.068654
446.088002	2404.630385
446.462949	2550.823846
446.837837	2525.618077
447.212664	2447.480192
447.587431	2538.220962
447.962139	2513.015192
448.336786	2475.206538
448.711374	2513.015192
449.085901	2376.904038
449.460369	2568.467885
449.834776	2455.041923
450.209124	2381.945192
450.583412	2550.823846
450.957640	2437.397885
451.331808	2573.509038
451.705917	2528.138654
452.079965	2444.959615
452.453954	2505.453462
452.827883	2477.727115
453.201752	2500.412308
453.575562	2553.344423
453.949311	2523.097500
454.323001	2422.274423
454.696632	2482.768269
455.070202	2455.041923
455.443713	2535.700385
455.817164	2510.494615
456.190556	2500.412308
456.563888	2444.959615
456.937160	2513.015192
457.310373	2492.850577
457.683526	2515.535769
458.056619	2439.918462
458.429653	2472.685962
458.802628	2480.247692
459.175542	2455.041923
459.548398	2518.056346
459.921194	2399.589231
460.293930	2485.288846
460.666607	2530.659231
461.039224	2467.644808
461.411782	2442.439038
461.784280	2439.918462
462.156719	2523.097500
462.529099	2495.371154
462.901419	2497.891731
463.273680	2510.494615
463.645882	2480.247692
464.018024	2434.877308
464.390106	2482.768269
464.762130	2497.891731
465.134094	2485.288846
465.505999	2576.029615
465.877845	2477.727115
466.249631	2505.453462
466.621358	2437.397885
466.993026	2402.109808
467.364634	2603.755962
467.736184	2432.356731
468.107674	2437.397885
468.479105	2598.714808
468.850477	2470.165385
469.221790	2460.083077
469.593043	2510.494615
469.964238	2437.397885
470.335373	2422.274423
470.706449	2570.988462
471.077467	2570.988462
471.448425	2495.371154
471.819324	2603.755962
472.190164	2475.206538
472.560945	2455.041923
472.931667	2480.247692
473.302330	2558.385577
473.672934	2621.400000
474.043479	2568.467885
474.413965	2507.974038
474.784393	2606.276538
475.154761	2442.439038
475.525070	2460.083077
475.895321	2462.603654
476.265513	2513.015192
476.635645	2482.768269
477.005719	2475.206538
477.375734	2450.000769
477.745691	2510.494615
478.115588	2480.247692
478.485427	2485.288846
478.855207	2538.220962
479.224928	2520.576923
479.594591	2429.836154
479.964194	2485.288846
480.333739	2553.344423
480.703226	2437.397885
481.072653	2475.206538
481.442022	2555.865000
481.811333	2502.932885
482.180584	2490.330000
482.549777	2507.974038
482.918912	2502.932885
483.287988	2573.509038
483.657005	2480.247692
484.025964	2540.741538
484.394864	2578.550192
484.763706	2525.618077
485.132489	2560.906154
485.501213	2455.041923
485.869879	2444.959615
486.238487	2513.015192
486.607036	2442.439038
486.975527	2470.165385
487.343959	2507.974038
487.712333	2513.015192
488.080648	2374.383462
488.448905	2414.712692
488.817104	2550.823846
489.185244	2447.480192
489.553326	2399.589231
489.921350	2543.262115
490.289315	2543.262115
490.657222	2455.041923
491.025070	2518.056346
491.392861	2505.453462
491.760593	2540.741538
492.128267	2475.206538
492.495883	2513.015192
492.863440	2573.509038
493.230939	2417.233269
493.598380	2485.288846
493.965763	2427.315577
494.333088	2545.782692
494.700354	2530.659231
495.067563	2442.439038
495.434713	2432.356731
495.801805	2417.233269
496.168839	2442.439038
496.535815	2485.288846
496.902733	2485.288846
497.269593	2374.383462
497.636395	2513.015192
498.003139	2485.288846
498.369825	2513.015192
498.736453	2533.179808
499.103023	2462.603654
499.469535	2550.823846
499.835989	2543.262115
500.202385	2586.111923
500.568723	2550.823846
500.935003	2485.288846
501.301226	2485.288846
501.667390	2490.330000
502.033497	2523.097500
502.399546	2535.700385
502.765537	2392.027500
503.131470	2553.344423
503.497345	2500.412308
503.863163	2510.494615
504.228923	2528.138654
504.594625	2460.083077
504.960269	2576.029615
505.325856	2480.247692
505.691385	2480.247692
506.056856	2548.303269
506.422270	2470.165385
506.787625	2497.891731
507.152924	2470.165385
507.518164	2525.618077
507.883347	2487.809423
508.248472	2550.823846
508.613540	2497.891731
508.978550	2439.918462
509.343503	2417.233269
509.708398	2588.632500
510.073236	2570.988462
510.438016	2518.056346
510.802738	2424.795000
511.167403	2558.385577
511.532010	2533.179808
511.896561	2434.877308
512.261053	2563.426731
512.625488	2518.056346
512.989866	2573.509038
513.354186	2500.412308
513.718449	2568.467885
514.082655	2535.700385
514.446803	2437.397885
514.810894	2530.659231
515.174927	2500.412308
515.538904	2583.591346
515.902822	2518.056346
516.266684	2447.480192
516.630488	2545.782692
516.994235	2560.906154
517.357925	2550.823846
517.721558	2507.974038
518.085133	2538.220962
518.448651	2558.385577
518.812112	2495.371154
519.175516	2460.083077
519.538863	2462.603654
519.902152	2507.974038
520.265385	2543.262115
520.628560	2543.262115
520.991678	2560.906154
521.354739	2475.206538
521.717743	2437.397885
522.080690	2510.494615
522.443580	2510.494615
522.806413	2500.412308
523.169189	2442.439038
523.531908	2563.426731
523.894569	2550.823846
524.257174	2429.836154
524.619722	2530.659231
524.982213	2540.741538
525.344647	2490.330000
525.707025	2495.371154
526.069345	2530.659231
526.431608	2550.823846
526.793815	2515.535769
527.155964	2439.918462
527.518057	2553.344423
527.880093	2505.453462
528.242072	2515.535769
528.603995	2467.644808
528.965860	2530.659231
529.327669	2409.671538
529.689421	2462.603654
530.051117	2538.220962
530.412755	2563.426731
530.774337	2470.165385
531.135862	2485.288846
531.497331	2424.795000
531.858743	2538.220962
532.220098	2505.453462
532.581396	2535.700385
532.942638	2477.727115
533.303824	2477.727115
533.664953	2432.356731
534.026025	2548.303269
534.387040	2487.809423
534.747999	2548.303269
535.108902	2548.303269
535.469748	2424.795000
535.830537	2518.056346
536.191270	2533.179808
536.551947	2543.262115
536.912567	2543.262115
537.273131	2442.439038
537.633638	2513.015192
537.994089	2470.165385
538.354483	2475.206538
538.714821	2535.700385
539.075103	2495.371154
539.435328	2510.494615
539.795497	2570.988462
540.155609	2437.397885
540.515665	2507.974038
540.875665	2528.138654
541.235609	2455.041923
541.595496	2429.836154
541.955328	2518.056346
542.315102	2528.138654
542.674821	2523.097500
543.034483	2487.809423
543.394090	2505.453462
543.753640	2447.480192
544.113134	2442.439038
544.472571	2439.918462
544.831953	2523.097500
545.191278	2487.809423
545.550548	2608.797115
545.909761	2565.947308
546.268918	2520.576923
546.628019	2530.659231
546.987064	2452.521346
547.346053	2523.097500
547.704986	2593.673654
548.063863	2465.124231
548.422684	2530.659231
548.781449	2570.988462
549.140158	2515.535769
549.498811	2439.918462
549.857408	2427.315577
550.215949	2465.124231
550.574434	2515.535769
550.932864	2497.891731
551.291237	2606.276538
551.649555	2523.097500
552.007817	2523.097500
552.366022	2462.603654
552.724173	2482.768269
553.082267	2543.262115
553.440305	2520.576923
553.798288	2460.083077
554.156215	2601.235385
554.514086	2550.823846
554.871902	2520.576923
555.229661	2525.618077
555.587365	2434.877308
555.945014	2530.659231
556.302606	2434.877308
556.660143	2505.453462
557.017625	2528.138654
557.375050	2497.891731
557.732421	2510.494615
558.089735	2447.480192
558.446994	2513.015192
558.804197	2507.974038
559.161345	2497.891731
559.518437	2450.000769
559.875474	2523.097500
560.232455	2530.659231
560.589381	2528.138654
560.946251	2568.467885
561.303065	2495.371154
561.659825	2515.535769
562.016528	2444.959615
562.373177	2538.220962
562.729770	2447.480192
563.086307	2432.356731
563.442789	2523.097500
563.799216	2518.056346
564.155587	2628.961731
564.511904	2477.727115
564.868164	2419.753846
565.224370	2586.111923
565.580520	2472.685962
565.936615	2568.467885
566.292654	2513.015192
566.648638	2560.906154
567.004567	2507.974038
567.360441	2444.959615
567.716260	2452.521346
568.072023	2520.576923
568.427732	2450.000769
568.783385	2442.439038
569.138982	2462.603654
569.494525	2444.959615
569.850013	2576.029615
570.205445	2465.124231
570.560823	2495.371154
570.916145	2520.576923
571.271412	2452.521346
571.626625	2497.891731
571.981782	2502.932885
572.336884	2573.509038
572.691931	2510.494615
573.046923	2565.947308
573.401860	2533.179808
573.756743	2490.330000
574.111570	2490.330000
574.466342	2505.453462
574.821059	2477.727115
575.175722	2450.000769
575.530330	2586.111923
575.884882	2450.000769
576.239380	2502.932885
576.593823	2507.974038
576.948211	2485.288846
577.302544	2502.932885
577.656823	2520.576923
578.011047	2510.494615
578.365216	2487.809423
578.719330	2603.755962
579.073389	2470.165385
579.427394	2535.700385
579.781344	2576.029615
580.135239	2487.809423
580.489080	2490.330000
580.842866	2530.659231
581.196597	2487.809423
581.550273	2528.138654
581.903895	2482.768269
582.257463	2601.235385
582.610975	2480.247692
582.964434	2477.727115
583.317837	2467.644808
583.671186	2520.576923
584.024481	2525.618077
584.377721	2626.441154
584.730906	2462.603654
585.084037	2467.644808
585.437113	2439.918462
585.790135	2563.426731
586.143103	2442.439038
586.496016	2455.041923
586.848874	2528.138654
587.201679	2434.877308
587.554428	2460.083077
587.907124	2460.083077
588.259765	2482.768269
588.612352	2553.344423
588.964884	2497.891731
589.317362	2500.412308
589.669786	2535.700385
590.022155	2450.000769
590.374470	2510.494615
590.726731	2452.521346
591.078937	2560.906154
591.431090	2548.303269
591.783188	2475.206538
592.135232	2555.865000
592.487222	2535.700385
592.839157	2444.959615
593.191038	2472.685962
593.542866	2487.809423
593.894639	2573.509038
594.246358	2553.344423
594.598022	2452.521346
594.949633	2540.741538
595.301190	2472.685962
595.652692	2460.083077
596.004141	2460.083077
596.355535	2505.453462
596.706876	2570.988462
597.058162	2535.700385
597.409395	2480.247692
597.760573	2601.235385
598.111698	2427.315577
598.462768	2530.659231
598.813785	2386.986346
599.164748	2480.247692
599.515657	2450.000769
599.866511	2432.356731
600.217312	2565.947308
600.568060	2507.974038
600.918753	2450.000769
601.269392	2465.124231
601.619978	2570.988462
601.970510	2598.714808
602.320988	2502.932885
602.671412	2495.371154
603.021783	2437.397885
603.372100	2465.124231
603.722363	2518.056346
604.072572	2439.918462
604.422728	2497.891731
604.772830	2472.685962
605.122878	2392.027500
605.472872	2467.644808
605.822813	2495.371154
606.172701	2427.315577
606.522534	2419.753846
606.872314	2470.165385
607.222041	2518.056346
607.571714	2462.603654
607.921333	2432.356731
608.270899	2550.823846
608.620411	2475.206538
608.969870	2548.303269
609.319276	2460.083077
609.668627	2530.659231
610.017926	2470.165385
610.367171	2523.097500
610.716362	2507.974038
611.065500	2550.823846
611.414585	2505.453462
611.763616	2450.000769
612.112594	2555.865000
612.461518	2492.850577
612.810389	2515.535769
613.159207	2518.056346
613.507971	2520.576923
613.856682	2422.274423
614.205340	2470.165385
614.553945	2603.755962
614.902496	2578.550192
615.250994	2525.618077
615.599439	2424.795000
615.947830	2570.988462
616.296169	2510.494615
616.644454	2432.356731
616.992686	2497.891731
617.340864	2452.521346
617.688990	2570.988462
618.037063	2465.124231
618.385082	2540.741538
618.733048	2437.397885
619.080961	2510.494615
619.428821	2470.165385
619.776628	2543.262115
620.124382	2570.988462
620.472083	2502.932885
620.819731	2475.206538
621.167326	2545.782692
621.514868	2540.741538
621.862357	2550.823846
622.209793	2424.795000
622.557176	2422.274423
622.904506	2462.603654
623.251783	2500.412308
623.599007	2530.659231
623.946179	2402.109808
624.293297	2520.576923
624.640363	2581.070769
624.987376	2485.288846
625.334336	2545.782692
625.681243	2555.865000
626.028097	2565.947308
626.374899	2631.482308
626.721647	2472.685962
627.068343	2608.797115
627.414987	2472.685962
627.761577	2487.809423
628.108115	2495.371154
628.454600	2460.083077
628.801032	2513.015192
629.147412	2515.535769
629.493739	2583.591346
629.840014	2507.974038
630.186236	2495.371154
630.532405	2444.959615
630.878521	2482.768269
631.224585	2505.453462
631.570597	2457.562500
631.916556	2427.315577
632.262462	2397.068654
632.608316	2480.247692
632.954117	2513.015192
633.299866	2543.262115
633.645562	2457.562500
633.991206	2402.109808
634.336797	2540.741538
634.682336	2485.288846
635.027823	2485.288846
635.373257	2482.768269
635.718639	2475.206538
636.063968	2495.371154
636.409245	2432.356731
636.754470	2507.974038
637.099642	2414.712692
637.444762	2502.932885
637.789829	2477.727115
638.134845	2500.412308
638.479808	2492.850577
638.824719	2578.550192
639.169577	2444.959615
639.514383	2583.591346
639.859137	2505.453462
640.203839	2530.659231
640.548489	2412.192115
640.893086	2533.179808
641.237632	2490.330000
641.582125	2538.220962
641.926566	2485.288846
642.270955	2495.371154
642.615292	2500.412308
642.959576	2455.041923
643.303809	2518.056346
643.647990	2507.974038
643.992118	2477.727115
644.336195	2505.453462
644.680219	2447.480192
645.024192	2497.891731
645.368112	2497.891731
645.711981	2462.603654
646.055797	2497.891731
646.399562	2376.904038
646.743274	2432.356731
647.086935	2457.562500
647.430544	2565.947308
647.774101	2513.015192
648.117606	2437.397885
648.461059	2500.412308
648.804460	2497.891731
649.147810	2573.509038
649.491108	2540.741538
649.834354	2482.768269
650.177548	2520.576923
650.520690	2427.315577
650.863781	2505.453462
651.206820	2530.659231
651.549807	2475.206538
651.892742	2485.288846
652.235626	2578.550192
652.578458	2538.220962
652.921238	2515.535769
653.263967	2422.274423
653.606644	2528.138654
653.949269	2437.397885
654.291843	2487.809423
654.634365	2538.220962
654.976836	2555.865000
655.319255	2558.385577
655.661622	2588.632500
656.003938	2533.179808
656.346203	2502.932885
656.688416	2523.097500
657.030577	2477.727115
657.372687	2492.850577
657.714746	2455.041923
658.056753	2520.576923
658.398708	2500.412308
658.740612	2497.891731
659.082465	2394.548077
659.424266	2487.809423
659.766016	2500.412308
660.107715	2545.782692
660.449362	2558.385577
660.790958	2432.356731
661.132503	2447.480192
661.473996	2545.782692
661.815438	2502.932885
662.156829	2477.727115
662.498168	2576.029615
662.839456	2578.550192
663.180693	2477.727115
663.521879	2500.412308
663.863013	2482.768269
664.204097	2492.850577
664.545129	2472.685962
664.886110	2457.562500
665.227040	2500.412308
665.567918	2460.083077
665.908746	2535.700385
666.249522	2475.206538
666.590248	2502.932885
666.930922	2460.083077
667.271545	2439.918462
667.612118	2558.385577
667.952639	2477.727115
668.293109	2495.371154
668.633528	2515.535769
668.973896	2495.371154
669.314213	2477.727115
669.654480	2578.550192
669.994695	2356.739423
670.334859	2513.015192
670.674973	2477.727115
671.015035	2553.344423
671.355047	2523.097500
671.695008	2482.768269
672.034918	2465.124231
672.374777	2502.932885
672.714585	2475.206538
673.054342	2495.371154
673.394049	2535.700385
673.733705	2492.850577
674.073310	2505.453462
674.412864	2472.685962
674.752368	2573.509038
675.091820	2422.274423
675.431223	2460.083077
675.770574	2513.015192
676.109875	2525.618077
676.449125	2465.124231
676.788324	2525.618077
677.127473	2495.371154
677.466571	2455.041923
677.805619	2502.932885
678.144616	2588.632500
678.483562	2452.521346
678.822458	2467.644808
679.161303	2472.685962
679.500098	2540.741538
679.838842	2477.727115
680.177535	2540.741538
680.516179	2427.315577
680.854771	2470.165385
681.193314	2540.741538
681.531805	2568.467885
681.870247	2510.494615
682.208638	2558.385577
682.546978	2530.659231
682.885268	2414.712692
683.223508	2528.138654
683.561697	2480.247692
683.899836	2472.685962
684.237925	2520.576923
684.575963	2467.644808
684.913951	2538.220962
685.251889	2490.330000
685.589776	2434.877308
685.927614	2621.400000
686.265401	2432.356731
686.603137	2513.015192
686.940824	2535.700385
687.278460	2477.727115
687.616046	2485.288846
687.953582	2520.576923
688.291068	2510.494615
688.628504	2538.220962
688.965889	2477.727115
689.303224	2497.891731
689.640510	2570.988462
689.977745	2490.330000
690.314930	2533.179808
690.652065	2507.974038
690.989150	2437.397885
691.326185	2520.576923
691.663170	2510.494615
692.000105	2530.659231
692.336990	2513.015192
692.673825	2528.138654
693.010610	2505.453462
693.347345	2500.412308
693.684030	2525.618077
694.020665	2510.494615
694.357251	2502.932885
694.693786	2513.015192
695.030272	2520.576923
695.366707	2442.439038
695.703093	2540.741538
696.039429	2465.124231
696.375716	2540.741538
696.711952	2460.083077
697.048139	2560.906154
697.384276	2510.494615
697.720363	2523.097500
698.056400	2510.494615
698.392388	2540.741538
698.728326	2535.700385
699.064214	2500.412308
699.400053	2530.659231
699.735842	2515.535769
700.071581	2520.576923
700.407270	2412.192115
700.742910	2535.700385
701.078501	2475.206538
701.414042	2523.097500
701.749533	2495.371154
702.084974	2570.988462
702.420366	2457.562500
702.755709	2588.632500
703.091002	2576.029615
703.426246	2492.850577
703.761440	2535.700385
704.096584	2487.809423
704.431679	2502.932885
704.766725	2497.891731
705.101721	2576.029615
705.436668	2457.562500
705.771565	2427.315577
706.106413	2470.165385
706.441212	2477.727115
706.775961	2548.303269
707.110661	2518.056346
707.445311	2467.644808
707.779913	2515.535769
708.114465	2467.644808
708.448967	2472.685962
708.783421	2548.303269
709.117825	2608.797115
709.452180	2462.603654
709.786485	2523.097500
710.120742	2455.041923
710.454949	2472.685962
710.789107	2422.274423
711.123216	2434.877308
711.457275	2495.371154
711.791286	2487.809423
712.125247	2485.288846
712.459159	2485.288846
712.793023	2553.344423
713.126837	2457.562500
713.460602	2523.097500
713.794318	2427.315577
714.127985	2528.138654
714.461602	2500.412308
714.795171	2497.891731
715.128691	2545.782692
715.462162	2538.220962
715.795584	2482.768269
716.128957	2495.371154
716.462281	2467.644808
716.795556	2528.138654
717.128782	2523.097500
717.461960	2495.371154
717.795088	2457.562500
718.128167	2518.056346
718.461198	2447.480192
718.794180	2500.412308
719.127113	2462.603654
719.459997	2518.056346
719.792833	2588.632500
720.125619	2502.932885
720.458357	2555.865000
720.791046	2480.247692
721.123686	2563.426731
721.456278	2507.974038
721.788821	2586.111923
722.121315	2518.056346
722.453761	2495.371154
722.786158	2500.412308
723.118506	2533.179808
723.450805	2548.303269
723.783056	2487.809423
724.115259	2523.097500
724.447412	2490.330000
724.779518	2545.782692
725.111574	2538.220962
725.443582	2523.097500
725.775542	2535.700385
726.107453	2550.823846
726.439315	2523.097500
726.771129	2477.727115
727.102895	2500.412308
727.434612	2507.974038
727.766281	2475.206538
728.097901	2409.671538
728.429473	2518.056346
728.760996	2576.029615
729.092471	2462.603654
729.423897	2492.850577
729.755276	2434.877308
730.086606	2513.015192
730.417887	2462.603654
730.749120	2505.453462
731.080305	2570.988462
731.411442	2497.891731
731.742530	2530.659231
732.073570	2535.700385
732.404562	2523.097500
732.735506	2465.124231
733.066401	2427.315577
733.397249	2439.918462
733.728048	2528.138654
734.058798	2555.865000
734.389501	2618.879423
734.720156	2523.097500
735.050762	2515.535769
735.381320	2437.397885
735.711831	2568.467885
736.042293	2467.644808
736.372707	2475.206538
736.703073	2523.097500
737.033391	2507.974038
737.363661	2407.150962
737.693883	2447.480192
738.024056	2568.467885
738.354182	2555.865000
738.684260	2553.344423
739.014290	2502.932885
739.344272	2513.015192
739.674207	2371.862885
740.004093	2502.932885
740.333931	2475.206538
740.663722	2485.288846
740.993464	2545.782692
741.323159	2505.453462
741.652806	2570.988462
741.982405	2523.097500
742.311956	2538.220962
742.641460	2477.727115
742.970915	2533.179808
743.300323	2515.535769
743.629683	2545.782692
743.958996	2543.262115
744.288260	2528.138654
744.617477	2505.453462
744.946647	2523.097500
745.275768	2477.727115
745.604842	2515.535769
745.933869	2553.344423
746.262847	2472.685962
746.591778	2480.247692
746.920662	2417.233269
747.249498	2548.303269
747.578286	2520.576923
747.907027	2520.576923
748.235720	2540.741538
748.564365	2447.480192
748.892963	2543.262115
749.221514	2439.918462
749.550017	2535.700385
749.878473	2470.165385
750.206881	2568.467885
750.535242	2525.618077
750.863555	2485.288846
751.191821	2507.974038
751.520039	2475.206538
751.848210	2457.562500
752.176334	2507.974038
752.504411	2447.480192
752.832440	2417.233269
753.160421	2457.562500
753.488356	2482.768269
753.816243	2482.768269
754.144082	2462.603654
754.471875	2543.262115
754.799620	2558.385577
755.127318	2439.918462
755.454969	2399.589231
755.782572	2450.000769
756.110129	2434.877308
756.437638	2457.562500
756.765100	2515.535769
757.092515	2535.700385
757.419882	2379.424615
757.747203	2507.974038
758.074477	2553.344423
758.401703	2497.891731
758.728882	2528.138654
759.056014	2495.371154
759.383099	2518.056346
759.710138	2596.194231
760.037129	2528.138654
760.364073	2477.727115
760.690970	2482.768269
761.017820	2442.439038
761.344623	2502.932885
761.671379	2528.138654
761.998088	2432.356731
762.324751	2525.618077
762.651366	2475.206538
762.977935	2570.988462
763.304456	2492.850577
763.630931	2530.659231
763.957359	2573.509038
764.283740	2518.056346
764.610074	2500.412308
764.936362	2616.358846
765.262602	2409.671538
765.588796	2470.165385
765.914943	2507.974038
766.241044	2550.823846
766.567097	2578.550192
766.893104	2555.865000
767.219064	2606.276538
767.544978	2467.644808
767.870845	2439.918462
768.196665	2492.850577
768.522438	2533.179808
768.848165	2502.932885
769.173846	2497.891731
769.499479	2419.753846
769.825066	2424.795000
770.150607	2424.795000
770.476101	2490.330000
770.801548	2502.932885
771.126949	2525.618077
771.452303	2442.439038
771.777611	2558.385577
772.102872	2490.330000
772.428087	2550.823846
772.753256	2487.809423
773.078378	2475.206538
773.403453	2467.644808
773.728482	2419.753846
774.053465	2495.371154
774.378401	2492.850577
774.703291	2507.974038
775.028135	2482.768269
775.352932	2550.823846
775.677683	2472.685962
776.002388	2505.453462
776.327046	2513.015192
776.651658	2545.782692
776.976224	2510.494615
777.300743	2515.535769
777.625216	2538.220962
777.949643	2439.918462
778.274024	2507.974038
778.598359	2505.453462
778.922647	2492.850577
779.246889	2502.932885
779.571086	2475.206538
779.895236	2447.480192
780.219339	2402.109808
780.543397	2550.823846
780.867409	2490.330000
781.191374	2528.138654
781.515294	2462.603654
781.839167	2439.918462
782.162995	2460.083077
782.486776	2495.371154
782.810511	2432.356731
783.134201	2510.494615
783.457844	2495.371154
783.781441	2500.412308
784.104993	2553.344423
784.428498	2510.494615
784.751958	2495.371154
785.075372	2507.974038
785.398739	2455.041923
785.722061	2414.712692
786.045337	2444.959615
786.368568	2533.179808
786.691752	2437.397885
787.014891	2482.768269
787.337983	2568.467885
787.661030	2442.439038
787.984031	2460.083077
788.306987	2442.439038
788.629897	2565.947308
788.952760	2548.303269
789.275579	2540.741538
789.598351	2540.741538
789.921078	2475.206538
790.243759	2477.727115
790.566395	2407.150962
790.888984	2495.371154
791.211529	2455.041923
791.534027	2513.015192
791.856480	2523.097500
792.178888	2513.015192
792.501249	2492.850577
792.823566	2407.150962
793.145836	2444.959615
793.468062	2460.083077
793.790241	2455.041923
794.112375	2439.918462
794.434464	2523.097500
794.756507	2412.192115
795.078505	2555.865000
795.400457	2422.274423
795.722364	2510.494615
796.044226	2510.494615
796.366042	2505.453462
796.687812	2482.768269
797.009538	2505.453462
797.331218	2429.836154
797.652852	2520.576923
797.974442	2487.809423
798.295986	2475.206538
798.617484	2462.603654
798.938938	2480.247692
799.260346	2450.000769
799.581709	2548.303269
799.903026	2492.850577
800.224299	2490.330000
800.545526	2434.877308
800.866708	2576.029615
801.187845	2462.603654
801.508936	2485.288846
801.829983	2530.659231
802.150984	2402.109808
802.471940	2457.562500
802.792851	2555.865000
803.113717	2573.509038
803.434538	2510.494615
803.755314	2485.288846
804.076045	2462.603654
804.396731	2513.015192
804.717372	2545.782692
805.037967	2555.865000
805.358518	2593.673654
805.679024	2565.947308
805.999485	2450.000769
806.319901	2513.015192
806.640272	2563.426731
806.960598	2455.041923
807.280879	2447.480192
807.601115	2525.618077
807.921306	2540.741538
808.241453	2616.358846
808.561554	2427.315577
808.881611	2492.850577
809.201623	2417.233269
809.521590	2475.206538
809.841513	2492.850577
810.161390	2497.891731
810.481223	2439.918462
810.801011	2558.385577
811.120755	2538.220962
811.440453	2555.865000
811.760107	2487.809423
812.079716	2530.659231
812.399281	2477.727115
812.718801	2518.056346
813.038276	2482.768269
813.357707	2487.809423
813.677093	2530.659231
813.996434	2371.862885
814.315731	2593.673654
814.634983	2530.659231
814.954191	2462.603654
815.273354	2515.535769
815.592473	2475.206538
815.911547	2565.947308
816.230577	2485.288846
816.549562	2455.041923
816.868502	2427.315577
817.187399	2457.562500
817.506250	2492.850577
817.825058	2422.274423
818.143821	2467.644808
818.462539	2392.027500
818.781213	2467.644808
819.099843	2510.494615
819.418429	2505.453462
819.736970	2538.220962
820.055466	2444.959615
820.373919	2407.150962
820.692327	2490.330000
821.010691	2528.138654
821.329011	2492.850577
821.647286	2437.397885
821.965517	2538.220962
822.283704	2500.412308
822.601847	2533.179808
822.919945	2439.918462
823.237999	2467.644808
823.556010	2497.891731
823.873976	2525.618077
824.191897	2444.959615
824.509775	2470.165385
824.827609	2492.850577
825.145398	2467.644808
825.463144	2548.303269
825.780845	2563.426731
826.098502	2550.823846
826.416116	2540.741538
826.733685	2588.632500
827.051210	2553.344423
827.368692	2505.453462
827.686129	2490.330000
828.003522	2475.206538
828.320872	2543.262115
828.638177	2550.823846
828.955439	2417.233269
829.272656	2485.288846
829.589830	2523.097500
829.906960	2490.330000
830.224046	2480.247692
830.541088	2482.768269
830.858086	2543.262115
831.175041	2475.206538
831.491952	2470.165385
831.808819	2439.918462
832.125642	2465.124231
832.442421	2439.918462
832.759157	2568.467885
833.075849	2570.988462
833.392497	2399.589231
833.709101	2502.932885
834.025662	2394.548077
834.342179	2462.603654
834.658653	2460.083077
834.975083	2480.247692
835.291469	2429.836154
835.607811	2507.974038
835.924110	2475.206538
836.240366	2591.153077
836.556578	2475.206538
836.872746	2480.247692
837.188871	2563.426731
837.504952	2437.397885
837.820990	2515.535769
838.136984	2502.932885
838.452935	2495.371154
838.768842	2434.877308
839.084706	2507.974038
839.400526	2457.562500
839.716303	2570.988462
840.032037	2452.521346
840.347727	2467.644808
840.663373	2523.097500
840.978977	2432.356731
841.294537	2525.618077
841.610054	2424.795000
841.925527	2452.521346
842.240957	2545.782692
842.556344	2480.247692
842.871687	2492.850577
843.186987	2558.385577
843.502244	2505.453462
843.817458	2482.768269
844.132629	2475.206538
844.447756	2485.288846
844.762840	2442.439038
845.077881	2487.809423
845.392879	2465.124231
845.707833	2497.891731
846.022745	2563.426731
846.337613	2414.712692
846.652438	2502.932885
846.967221	2482.768269
847.281960	2487.809423
847.596656	2444.959615
847.911309	2497.891731
848.225919	2495.371154
848.540485	2510.494615
848.855009	2487.809423
849.169490	2467.644808
849.483928	2543.262115
849.798323	2497.891731
850.112675	2495.371154
850.426984	2452.521346
850.741251	2427.315577
851.055474	2586.111923
851.369654	2578.550192
851.683792	2548.303269
851.997887	2525.618077
852.311938	2427.315577
852.625947	2492.850577
852.939914	2543.262115
853.253837	2487.809423
853.567718	2452.521346
853.881555	2618.879423
854.195350	2545.782692
854.509103	2480.247692
854.822812	2472.685962
855.136479	2465.124231
855.450103	2553.344423
855.763685	2598.714808
856.077224	2465.124231
856.390720	2555.865000
856.704173	2457.562500
857.017584	2555.865000
857.330953	2538.220962
857.644278	2578.550192
857.957561	2548.303269
858.270802	2432.356731
858.584000	2457.562500
858.897155	2507.974038
859.210268	2538.220962
859.523339	2502.932885
859.836367	2470.165385
860.149352	2538.220962
860.462295	2477.727115
860.775195	2482.768269
861.088054	2434.877308
861.400869	2485.288846
861.713642	2472.685962
862.026373	2467.644808
862.339062	2455.041923
862.651708	2492.850577
862.964312	2477.727115
863.276873	2480.247692
863.589392	2437.397885
863.901869	2538.220962
864.214303	2465.124231
864.526696	2528.138654
864.839045	2485.288846
865.151353	2543.262115
865.463619	2437.397885
865.775842	2558.385577
866.088023	2462.603654
866.400162	2472.685962
866.712258	2510.494615
867.024313	2518.056346
867.336325	2452.521346
867.648296	2555.865000
867.960224	2555.865000
868.272110	2485.288846
868.583954	2538.220962
868.895755	2515.535769
869.207515	2477.727115
869.519233	2497.891731
869.830909	2467.644808
870.142542	2543.262115
870.454134	2422.274423
870.765684	2518.056346
871.077191	2502.932885
871.388657	2477.727115
871.700081	2525.618077
872.011463	2419.753846
872.322803	2407.150962
872.634101	2495.371154
872.945357	2447.480192
873.256571	2523.097500
873.567744	2450.000769
873.878874	2482.768269
874.189963	2397.068654
874.501010	2402.109808
874.812015	2455.041923
875.122979	2470.165385
875.433900	2525.618077
875.744780	2528.138654
876.055618	2505.453462
876.366415	2598.714808
876.677169	2475.206538
876.987882	2553.344423
877.298554	2482.768269
877.609183	2477.727115
877.919771	2427.315577
878.230317	2422.274423
878.540822	2525.618077
878.851285	2465.124231
879.161707	2487.809423
879.472087	2477.727115
879.782425	2480.247692
880.092722	2462.603654
880.402977	2381.945192
880.713191	2462.603654
881.023363	2513.015192
881.333494	2444.959615
881.643583	2520.576923
881.953631	2460.083077
882.263637	2490.330000
882.573602	2475.206538
882.883526	2472.685962
883.193408	2525.618077
883.503248	2495.371154
883.813048	2409.671538
884.122806	2543.262115
884.432522	2444.959615
884.742197	2492.850577
885.051831	2518.056346
885.361424	2444.959615
885.670975	2455.041923
885.980485	2502.932885
886.289954	2475.206538
886.599382	2523.097500
886.908768	2482.768269
887.218113	2543.262115
887.527417	2465.124231
887.836680	2437.397885
888.145901	2409.671538
888.455082	2525.618077
888.764221	2596.194231
889.073319	2492.850577
889.382376	2513.015192
889.691392	2414.712692
890.000366	2462.603654
890.309300	2467.644808
890.618193	2475.206538
890.927044	2480.247692
891.235855	2507.974038
891.544625	2444.959615
891.853353	2523.097500
892.162041	2477.727115
892.470687	2550.823846
892.779293	2523.097500
893.087858	2437.397885
893.396381	2470.165385
893.704864	2417.233269
894.013306	2460.083077
894.321707	2550.823846
894.630068	2553.344423
894.938387	2465.124231
895.246665	2457.562500
895.554903	2495.371154
895.863100	2596.194231
896.171256	2450.000769
896.479371	2487.809423
896.787446	2437.397885
897.095480	2482.768269
897.403473	2477.727115
897.711425	2505.453462
898.019336	2568.467885
898.327207	2447.480192
898.635038	2525.618077
898.942827	2447.480192
899.250576	2492.850577
899.558284	2538.220962
899.865952	2528.138654
900.173579	2427.315577
900.481165	2462.603654
900.788711	2460.083077
901.096216	2507.974038
901.403681	2533.179808
901.711105	2502.932885
902.018489	2530.659231
902.325832	2490.330000
902.633135	2548.303269
902.940397	2369.342308
903.247619	2565.947308
903.554800	2424.795000
903.861941	2535.700385
904.169041	2538.220962
904.476101	2424.795000
904.783121	2502.932885
905.090100	2548.303269
905.397039	2477.727115
905.703938	2487.809423
906.010796	2513.015192
906.317614	2545.782692
906.624391	2518.056346
906.931129	2523.097500
907.237826	2543.262115
907.544483	2520.576923
907.851099	2538.220962
908.157675	2477.727115
908.464211	2465.124231
908.770707	2530.659231
909.077163	2515.535769
909.383578	2442.439038
909.689954	2497.891731
909.996289	2452.521346
910.302584	2545.782692
910.608839	2603.755962
910.915054	2455.041923
911.221229	2507.974038
911.527363	2480.247692
911.833458	2528.138654
912.139513	2455.041923
912.445527	2492.850577
912.751502	2533.179808
913.057436	2515.535769
913.363331	2447.480192
913.669186	2538.220962
913.975000	2500.412308
914.280775	2399.589231
914.586510	2442.439038
914.892205	2513.015192
915.197859	2513.015192
915.503475	2520.576923
915.809050	2485.288846
916.114585	2520.576923
916.420081	2439.918462
916.725536	2601.235385
917.030952	2500.412308
917.336328	2513.015192
917.641665	2550.823846
917.946961	2515.535769
918.252218	2465.124231
918.557435	2414.712692
918.862612	2525.618077
919.167750	2505.453462
919.472848	2492.850577
919.777906	2467.644808
920.082925	2452.521346
920.387904	2432.356731
920.692843	2502.932885
920.997743	2450.000769
921.302603	2523.097500
921.607423	2485.288846
921.912204	2545.782692
922.216946	2444.959615
922.521647	2520.576923
922.826310	2444.959615
923.130932	2507.974038
923.435516	2492.850577
923.740059	2568.467885
924.044564	2515.535769
924.349028	2558.385577
924.653454	2482.768269
924.957840	2570.988462
925.262186	2472.685962
925.566493	2507.974038
925.870761	2507.974038
926.174989	2560.906154
926.479178	2455.041923
926.783328	2560.906154
927.087438	2447.480192
927.391509	2462.603654
927.695541	2555.865000
927.999533	2437.397885
928.303486	2460.083077
928.607400	2482.768269
928.911275	2581.070769
929.215110	2502.932885
929.518906	2518.056346
929.822663	2444.959615
930.126381	2535.700385
930.430060	2374.383462
930.733699	2515.535769
931.037299	2502.932885
931.340861	2513.015192
931.644383	2502.932885
931.947866	2472.685962
932.251309	2412.192115
932.554714	2500.412308
932.858080	2444.959615
933.161407	2545.782692
933.464694	2429.836154
933.767943	2621.400000
934.071153	2480.247692
934.374323	2452.521346
934.677455	2437.397885
934.980548	2434.877308
935.283602	2429.836154
935.586617	2480.247692
935.889593	2455.041923
936.192530	2442.439038
936.495428	2442.439038
936.798287	2500.412308
937.101108	2465.124231
937.403890	2437.397885
937.706632	2520.576923
938.009336	2550.823846
938.312002	2429.836154
938.614628	2588.632500
938.917216	2467.644808
939.219765	2495.371154
939.522275	2460.083077
939.824747	2570.988462
940.127179	2497.891731
940.429573	2543.262115
940.731929	2533.179808
941.034246	2565.947308
941.336524	2490.330000
941.638763	2482.768269
941.940964	2535.700385
942.243126	2591.153077
942.545250	2518.056346
942.847335	2444.959615
943.149381	2555.865000
943.451389	2553.344423
943.753359	2450.000769
944.055290	2553.344423
944.357182	2518.056346
944.659036	2482.768269
944.960851	2500.412308
945.262628	2570.988462
945.564367	2460.083077
945.866067	2452.521346
946.167729	2470.165385
946.469352	2490.330000
946.770937	2485.288846
947.072484	2576.029615
947.373992	2465.124231
947.675462	2505.453462
947.976893	2555.865000
948.278286	2487.809423
948.579641	2518.056346
948.880958	2427.315577
949.182236	2452.521346
949.483476	2507.974038
949.784678	2523.097500
950.085841	2492.850577
950.386967	2432.356731
950.688054	2530.659231
950.989103	2472.685962
951.290114	2626.441154
951.591087	2586.111923
951.892021	2480.247692
952.192917	2495.371154
952.493776	2515.535769
952.794596	2487.809423
953.095378	2507.974038
953.396122	2480.247692
953.696828	2513.015192
953.997496	2482.768269
954.298126	2497.891731
954.598718	2497.891731
954.899272	2535.700385
955.199788	2596.194231
955.500266	2475.206538
955.800706	2432.356731
956.101108	2437.397885
956.401472	2553.344423
956.701798	2578.550192
957.002087	2523.097500
957.302337	2485.288846
957.602550	2457.562500
957.902724	2480.247692
958.202861	2381.945192
958.502960	2475.206538
958.803022	2528.138654
959.103045	2477.727115
959.403031	2369.342308
959.702979	2535.700385
960.002889	2482.768269
960.302762	2472.685962
960.602596	2422.274423
960.902393	2500.412308
961.202153	2573.509038
961.501875	2560.906154
961.801559	2495.371154
962.101205	2515.535769
962.400814	2520.576923
962.700385	2475.206538
962.999918	2540.741538
963.299414	2502.932885
963.598873	2593.673654
963.898293	2480.247692
964.197677	2507.974038
964.497022	2505.453462
964.796331	2550.823846
965.095601	2576.029615
965.394835	2500.412308
965.694030	2462.603654
965.993189	2492.850577
966.292309	2485.288846
966.591393	2523.097500
966.890439	2525.618077
967.189447	2550.823846
967.488419	2475.206538
967.787353	2477.727115
968.086249	2465.124231
968.385108	2502.932885
968.683930	2470.165385
968.982714	2457.562500
969.281462	2477.727115
969.580172	2442.439038
969.878844	2495.371154
970.177480	2490.330000
970.476078	2487.809423
970.774639	2402.109808
971.073162	2520.576923
971.371649	2467.644808
971.670098	2465.124231
971.968510	2442.439038
972.266885	2495.371154
972.565223	2490.330000
972.863524	2502.932885
973.161788	2548.303269
973.460014	2460.083077
973.758204	2523.097500
974.056356	2560.906154
974.354471	2505.453462
974.652550	2402.109808
974.950591	2520.576923
975.248595	2500.412308
975.546563	2475.206538
975.844493	2492.850577
976.142386	2455.041923
976.440243	2525.618077
976.738062	2480.247692
977.035845	2502.932885
977.333590	2419.753846
977.631299	2528.138654
977.928971	2477.727115
978.226606	2480.247692
978.524204	2475.206538
978.821765	2535.700385
979.119290	2513.015192
979.416777	2568.467885
979.714228	2465.124231
980.011642	2518.056346
980.309020	2457.562500
980.606360	2429.836154
980.903664	2502.932885
981.200931	2507.974038
981.498162	2477.727115
981.795356	2482.768269
982.092513	2480.247692
982.389633	2535.700385
982.686717	2523.097500
982.983764	2518.056346
983.280775	2555.865000
983.577749	2500.412308
983.874686	2523.097500
984.171587	2490.330000
984.468451	2533.179808
984.765279	2487.809423
985.062070	2515.535769
985.358824	2485.288846
985.655543	2404.630385
985.952224	2505.453462
986.248869	2427.315577
986.545478	2533.179808
986.842050	2457.562500
987.138586	2472.685962
987.435086	2422.274423
987.731549	2397.068654
988.027975	2520.576923
988.324366	2487.809423
988.620719	2530.659231
988.917037	2555.865000
989.213318	2477.727115
989.509563	2510.494615
989.805772	2518.056346
990.101944	2485.288846
990.398080	2543.262115
990.694180	2442.439038
990.990244	2535.700385
991.286271	2422.274423
991.582262	2523.097500
991.878217	2470.165385
992.174136	2535.700385
992.470019	2497.891731
992.765865	2455.041923
993.061676	2439.918462
993.357450	2545.782692
993.653188	2452.521346
993.948890	2497.891731
994.244556	2477.727115
994.540186	2485.288846
994.835780	2462.603654
995.131337	2439.918462
995.426859	2513.015192
995.722345	2497.891731
996.017795	2528.138654
996.313208	2535.700385
996.608586	2495.371154
996.903928	2465.124231
997.199234	2452.521346
997.494504	2528.138654
997.789738	2497.891731
998.084936	2407.150962
998.380099	2502.932885
998.675225	2510.494615
998.970316	2533.179808
999.265371	2502.932885
999.560390	2523.097500
999.855373	2555.865000
1000.150320	2460.083077
1000.445232	2460.083077
1000.740108	2495.371154
1001.034948	2429.836154
1001.329752	2502.932885
1001.624521	2470.165385
1001.919254	2490.330000
1002.213951	2452.521346
1002.508613	2611.317692
1002.803239	2419.753846
1003.097829	2424.795000
1003.392384	2444.959615
1003.686903	2470.165385
1003.981386	2394.548077
1004.275834	2495.371154
1004.570246	2442.439038
1004.864623	2452.521346
1005.158964	2560.906154
1005.453270	2482.768269
1005.747540	2518.056346
1006.041775	2444.959615
1006.335974	2500.412308
1006.630138	2475.206538
1006.924266	2475.206538
1007.218359	2467.644808
1007.512416	2497.891731
1007.806438	2485.288846
1008.100425	2603.755962
1008.394376	2507.974038
1008.688292	2507.974038
1008.982172	2447.480192
1009.276017	2447.480192
1009.569827	2540.741538
1009.863602	2432.356731
1010.157341	2427.315577
1010.451045	2507.974038
1010.744714	2447.480192
1011.038347	2434.877308
1011.331945	2399.589231
1011.625508	2452.521346
1011.919036	2437.397885
1012.212528	2412.192115
1012.505986	2553.344423
1012.799408	2455.041923
1013.092795	2545.782692
1013.386147	2518.056346
1013.679464	2460.083077
1013.972745	2444.959615
1014.265992	2477.727115
1014.559204	2482.768269
1014.852380	2467.644808
1015.145521	2525.618077
1015.438628	2482.768269
1015.731699	2487.809423
1016.024736	2470.165385
1016.317737	2502.932885
1016.610703	2417.233269
1016.903635	2450.000769
1017.196531	2392.027500
1017.489393	2545.782692
1017.782219	2490.330000
1018.075011	2563.426731
1018.367768	2434.877308
1018.660490	2475.206538
1018.953177	2475.206538
1019.245829	2475.206538
