Dividing Wavelength (nm)	Counts (n)	Blue Motor Position (mm): 0.000000	Red Motor Position (mm): 40.800000	
326.493990	2126.078908
326.888308	2126.078908
327.282561	2126.078908
327.676750	2095.300143
328.070874	2093.273600
328.464933	2098.193766
328.858929	2102.763572
329.252859	2112.883688
329.646726	2123.175204
330.040528	2133.985958
330.434265	2153.107055
330.827938	2170.635147
331.221547	2189.940245
331.615091	2209.144521
332.008571	2227.620350
332.401986	2249.289749
332.795338	2263.941863
333.188625	2285.074380
333.581847	2304.442493
333.975006	2323.813127
334.368100	2339.589418
334.761129	2358.589527
335.154095	2375.981507
335.546996	2394.457336
335.939833	2415.569688
336.332606	2431.270362
336.725315	2443.845520
337.117960	2453.211984
337.510540	2463.790846
337.903056	2472.993472
338.295508	2479.423464
338.687896	2489.203302
339.080220	2497.589262
339.472480	2506.625530
339.864676	2508.112670
340.256807	2513.620131
340.648875	2514.764473
341.040879	2518.005935
341.432818	2519.079700
341.824694	2523.742768
342.216506	2524.430885
342.608253	2525.464322
342.999937	2524.226718
343.391557	2521.438960
343.783113	2518.880575
344.174605	2521.660771
344.566033	2518.540297
344.957397	2517.554751
345.348697	2517.179185
345.739934	2516.362518
346.131106	2510.106447
346.522215	2510.625685
346.913260	2509.262053
347.304241	2506.496980
347.695159	2502.368275
348.086012	2506.764162
348.476802	2502.448934
348.867528	2501.032370
349.258191	2499.194869
349.648789	2498.302585
350.039324	2497.135558
350.429796	2497.503562
350.820203	2497.279231
351.210548	2494.345279
351.600828	2491.227325
351.991045	2494.017604
352.381198	2492.028869
352.771288	2493.485762
353.161314	2490.617346
353.551276	2491.459218
353.941175	2490.607263
354.331010	2490.854280
354.720782	2490.589619
355.110490	2488.631131
355.500135	2491.093735
355.889717	2489.735144
356.279235	2494.085660
356.668689	2491.910402
357.058080	2491.928046
357.447408	2488.923518
357.836672	2489.954434
358.225873	2493.689929
358.615010	2487.819505
359.004084	2493.493324
359.393095	2492.331338
359.782043	2496.013901
360.170927	2498.108500
360.559748	2497.816113
360.948505	2499.457009
361.337199	2499.111690
361.725830	2499.719149
362.114398	2499.368789
362.502903	2500.765188
362.891344	2500.412308
363.279722	2500.379540
363.668037	2502.353152
364.056289	2503.011023
364.444478	2503.121928
364.832603	2503.003461
365.220665	2504.581342
365.608665	2506.118894
365.996601	2503.255518
366.384474	2508.483195
366.772284	2510.103926
367.160031	2509.259533
367.547715	2510.852537
367.935336	2516.329751
368.322893	2515.593743
368.710388	2520.624814
369.097820	2529.913140
369.485189	2528.693181
369.872495	2536.935467
370.259738	2542.760521
370.646918	2550.765873
371.034035	2558.375495
371.421090	2567.134499
371.808081	2579.878536
372.195010	2588.224167
372.581875	2599.710436
372.968678	2613.888681
373.355418	2621.531070
373.742096	2640.730304
374.128710	2654.411996
374.515262	2672.971004
374.901751	2686.864424
375.288177	2699.157277
375.674540	2720.937583
376.060841	2738.692527
376.447079	2760.445105
376.833254	2778.091664
377.219367	2789.676236
377.605417	2830.302895
377.991404	2839.871005
378.377329	2859.990250
378.763191	2876.605893
379.148991	2915.815988
379.534727	2940.409257
379.920402	2966.905561
380.306013	2983.712768
380.691563	3031.286137
381.077049	3055.680280
381.462474	3071.012950
381.847835	3108.466202
382.233134	3132.870428
382.618371	3130.029738
383.003545	3200.996581
383.388657	3209.332129
383.773706	3239.148033
384.158693	3257.548245
384.543618	3281.034981
384.928480	3317.359015
385.313280	3363.843494
385.698017	3364.372816
386.082692	3417.022626
386.467305	3421.168975
386.851856	3451.219293
387.236344	3474.922799
387.620770	3505.003364
388.005133	3532.162580
388.389435	3560.861869
388.773674	3571.055082
389.157851	3614.356073
389.541965	3628.501551
389.926018	3595.096345
390.310008	3662.524298
390.693936	3685.416178
391.077802	3726.461252
391.461606	3715.290055
391.845348	3776.517389
392.229027	3777.460085
392.612645	3786.607259
392.996200	3866.880072
393.379694	3909.785332
393.763125	3970.017039
394.146494	3938.792132
394.529801	3998.199609
394.913047	4049.390006
395.296230	4014.873226
395.679351	4069.388263
396.062410	4090.225873
396.445408	4074.827668
396.828343	4107.847226
397.211217	4129.635093
397.594028	4051.855130
397.976778	4116.523052
398.359466	4142.764778
398.742092	4170.617153
399.124656	4097.333900
399.507158	4172.253008
399.889598	4199.634035
400.271977	4259.953961
400.654294	4229.530598
401.036549	4240.870673
401.418742	4208.345148
401.800874	4312.379440
402.182944	4335.525898
402.564952	4400.191299
402.946898	4385.413157
403.328783	4383.747055
403.710606	4294.846307
404.092367	4489.644054
404.474067	4453.887149
404.855705	4461.673212
405.237282	4389.988004
405.618797	4499.766691
406.000250	4530.076628
406.381642	4613.028815
406.762972	4575.757044
407.144240	4587.386986
407.525447	4585.678034
407.906593	4642.718690
408.287677	4687.239640
408.668700	4616.156851
409.049661	4669.404038
409.430560	4710.721335
409.811399	4639.779698
410.192176	4796.685611
410.572891	4733.847628
410.953545	4840.853680
411.334138	4718.724167
411.714669	4788.216472
412.095139	4681.775030
412.475547	4822.876926
412.855894	4806.238597
413.236180	4813.959125
413.616405	4765.647227
413.996568	4853.572512
414.376670	4794.515394
414.756711	4752.199949
415.136691	4782.729177
415.516609	4858.827914
415.896466	4897.216301
416.276262	4928.756280
416.655997	4912.370009
417.035670	5095.633596
417.415283	5184.536864
417.794834	5127.967557
418.174324	5082.445937
418.553753	4991.163244
418.933121	5172.518754
419.312428	5242.479887
419.691674	5178.651317
420.070859	5307.790555
420.449983	5217.518613
420.829045	5329.540614
421.208047	5241.645576
421.586988	5307.135205
421.965867	5322.488039
422.344686	5456.250016
422.723444	5309.363395
423.102141	5133.006190
423.480777	5426.701292
423.859352	5197.754770
424.237866	5456.008040
424.616319	5443.695022
424.994712	5558.860182
425.373044	5437.249907
425.751314	5575.342234
426.129524	5380.466350
426.507673	5573.701338
426.885762	5655.267208
427.263789	5589.558288
427.641756	5472.386749
428.019662	5590.793371
428.397508	5597.871151
428.775292	5543.865269
429.153016	5641.658613
429.530679	5571.190844
429.908282	5654.148072
430.285824	5525.669225
430.663305	5801.866482
431.040726	5535.801944
431.418086	5536.336306
431.795385	5636.914887
432.172624	5655.052959
432.549802	5650.039531
432.926920	5661.770296
433.303977	5667.943189
433.680974	5709.878027
434.057910	5724.394030
434.434786	5726.531479
434.811601	5700.806471
435.188355	5940.099962
435.565050	5808.059540
435.941683	5794.309793
436.318257	6007.837946
436.694770	5986.103011
437.071222	6021.456623
437.447614	5956.329957
437.823946	5863.323189
438.200218	6020.531571
438.576429	5883.870932
438.952580	5984.527651
439.328670	6028.670514
439.704700	5937.339930
440.080670	5925.473054
440.456580	6193.629671
440.832429	6078.361168
441.208218	5922.218989
441.583947	6078.406538
441.959616	6078.633390
442.335224	6009.410786
442.710773	6146.361292
443.086261	6171.468759
443.461689	5963.715247
443.837057	6115.819461
444.212365	6271.865858
444.587612	6163.027347
444.962800	6314.771118
445.337927	6299.912317
445.712995	5905.623511
446.088002	6483.536346
446.462949	6314.072919
446.837837	6249.757878
447.212664	6416.632673
447.587431	6563.579787
447.962139	7101.964936
448.336786	8026.971296
448.711374	7763.868436
449.085901	6841.168403
449.460369	6764.222751
449.834776	6698.728081
450.209124	7089.712411
450.583412	7235.779844
450.957640	7386.233080
451.331808	7152.411762
451.705917	6706.068001
452.079965	6627.536906
452.453954	6840.288722
452.827883	6719.187603
453.201752	6808.216901
453.575562	6611.521160
453.949311	6808.882333
454.323001	6700.260591
454.696632	6772.170130
455.070202	6913.327479
455.443713	7074.772952
455.817164	7165.324678
456.190556	7251.714931
456.563888	7321.663461
456.937160	7369.637602
457.310373	7023.685899
457.683526	7053.537091
458.056619	6943.503826
458.429653	6933.915552
458.802628	6865.257557
459.175542	6970.169009
459.548398	7328.040521
459.921194	7488.273596
460.293930	7491.691498
460.666607	8022.119185
461.039224	8327.086308
461.411782	8454.423333
461.784280	8469.572001
462.156719	8363.992595
462.529099	8244.000531
462.901419	7831.177922
463.273680	7724.960810
463.645882	7737.117553
464.018024	7604.540248
464.390106	7774.069210
464.762130	8159.752768
465.134094	8622.041699
465.505999	9647.233430
465.877845	10873.489062
466.249631	11512.624191
466.621358	11131.611262
466.993026	10507.980202
467.364634	10245.820038
467.736184	9882.201611
468.107674	9553.863699
468.479105	9581.872350
468.850477	9356.464718
469.221790	9124.735478
469.593043	8793.256928
469.964238	8654.783993
470.335373	8670.582969
470.706449	8729.009942
471.077467	8702.178401
471.448425	10014.821766
471.819324	11090.961918
472.190164	11113.160639
472.560945	9864.209733
472.931667	9077.787212
473.302330	8939.407539
473.672934	8585.163138
474.043479	8941.597921
474.413965	8888.234787
474.784393	8772.162219
475.154761	8924.823481
475.525070	9009.275411
475.895321	8831.052978
476.265513	9015.168520
476.635645	9186.653450
477.005719	9175.328498
477.375734	9295.146643
477.745691	9532.249752
478.115588	9665.240432
478.485427	9908.171115
478.855207	10445.802611
479.224928	11255.608524
479.594591	11887.126469
479.964194	11697.553878
480.333739	11633.228755
480.703226	11556.923330
481.072653	11648.095118
481.442022	11883.317877
481.811333	12071.945251
482.180584	11878.942156
482.549777	11591.246026
482.918912	11409.202399
483.287988	11432.280801
483.657005	11447.878131
484.025964	11125.750921
484.394864	11262.000707
484.763706	11228.605583
485.132489	10983.025773
485.501213	10946.232912
485.869879	11026.334326
486.238487	10855.386279
486.607036	10980.127110
486.975527	10757.630744
487.343959	10949.733993
487.712333	10995.084213
488.080648	10926.290108
488.448905	10964.476848
488.817104	10907.708414
489.185244	11172.260607
489.553326	11326.320789
489.921350	11869.469827
490.289315	12920.278182
490.657222	13271.238272
491.025070	13184.439685
491.392861	13053.528481
491.760593	12668.689317
492.128267	12325.260711
492.495883	11992.340391
492.863440	11652.528813
493.230939	11321.851806
493.598380	11260.087589
493.965763	11123.931065
494.333088	11027.385407
494.700354	10939.901223
495.067563	11010.379074
495.434713	10831.319810
495.801805	10960.239758
496.168839	10891.637216
496.535815	10821.081227
496.902733	10819.427728
497.269593	10762.124933
497.636395	10857.899294
498.003139	10843.703405
498.369825	10710.695081
498.736453	10868.894050
499.103023	10792.011413
499.469535	10824.070631
499.835989	10811.248456
500.202385	10776.540112
500.568723	10624.705599
500.935003	10847.111225
501.301226	10652.404219
501.667390	10913.593962
502.033497	11009.897644
502.399546	10873.756243
502.765537	10768.910326
503.131470	10857.460713
503.497345	11023.980107
503.863163	10638.480552
504.228923	10946.716863
504.594625	11012.652635
504.960269	10762.306414
505.325856	10979.824641
505.691385	10774.253949
506.056856	10928.856055
506.422270	10953.338418
506.787625	10838.964720
507.152924	10962.604059
507.518164	10946.033787
507.883347	10860.374500
508.248472	10784.041349
508.613540	11011.914106
508.978550	10892.894984
509.343503	10864.147804
509.708398	10992.563637
510.073236	11097.190264
510.438016	11107.365833
510.802738	11052.979345
511.167403	11107.423806
511.532010	10998.771818
511.896561	11236.318548
512.261053	11307.512244
512.625488	11177.730258
512.989866	11156.254943
513.354186	11147.153140
513.718449	11045.508355
514.082655	11240.946328
514.446803	11135.808023
514.810894	11255.628688
515.174927	11123.978956
515.538904	11148.723459
515.902822	11302.065277
516.266684	11188.034377
516.630488	11124.805705
516.994235	11182.136227
517.357925	11246.700805
517.721558	11337.653302
518.085133	11349.968841
518.448651	11360.746828
518.812112	11239.733930
519.175516	11257.037691
519.538863	11376.792821
519.902152	11295.847014
520.265385	11456.072527
520.628560	11367.975843
520.991678	11351.589572
521.354739	11401.234855
521.717743	11337.638179
522.080690	11315.862915
522.443580	11452.536157
522.806413	11403.558827
523.169189	11436.530494
523.531908	11490.745583
523.894569	11311.822430
524.257174	11319.409367
524.619722	11436.288519
524.982213	11383.283307
525.344647	11427.582446
525.707025	11381.110569
526.069345	11479.420631
526.431608	11396.768393
526.793815	11508.379539
527.155964	11294.990018
527.518057	11349.447082
527.880093	11302.367746
528.242072	11363.889988
528.603995	11271.203333
528.965860	11189.609737
529.327669	11241.823488
529.689421	11190.010509
530.051117	11160.166878
530.412755	11267.152766
530.774337	11163.194091
531.135862	11133.501695
531.497331	11164.761890
531.858743	11011.349496
532.220098	11180.573469
532.581396	11046.471215
532.942638	11034.362364
533.303824	10996.702424
533.664953	11006.625935
534.026025	10921.732904
534.387040	11021.547751
534.747999	11021.696465
535.108902	11079.463047
535.469748	10838.299288
535.830537	10941.834505
536.191270	10918.400702
536.551947	10939.329052
536.912567	10943.621594
537.273131	10868.349606
537.633638	10844.898158
537.994089	10840.731644
538.354483	10785.722574
538.714821	10932.641961
539.075103	10937.879720
539.435328	10901.006200
539.795497	10727.766948
540.155609	10887.110260
540.515665	10970.281737
540.875665	10714.816224
541.235609	10783.940526
541.595496	10776.792170
541.955328	10928.213308
542.315102	10803.553135
542.674821	10759.599314
543.034483	10755.445404
543.394090	10766.273802
543.753640	10691.082472
544.113134	10919.897924
544.472571	10772.708835
544.831953	10915.900289
545.191278	10719.965763
545.550548	10747.165308
545.909761	10887.702595
546.268918	10866.078566
546.628019	10943.828282
546.987064	10809.700822
547.346053	10731.162166
547.704986	10831.556744
548.063863	10811.510596
548.422684	10809.927674
548.781449	10721.652029
549.140158	10828.113636
549.498811	10705.419513
549.857408	10559.155476
550.215949	10784.507656
550.574434	10640.623042
550.932864	10739.283464
551.291237	10795.192381
551.649555	10743.926367
552.007817	10757.111505
552.366022	10722.264529
552.724173	10714.047448
553.082267	10694.273522
553.440305	10835.647641
553.798288	10634.694646
554.156215	10782.634867
554.514086	10765.038719
554.871902	10614.174629
555.229661	10649.664352
555.587365	10625.340785
555.945014	10521.881184
556.302606	10645.099587
556.660143	10537.596981
557.017625	10694.598677
557.375050	10590.849210
557.732421	10728.845755
558.089735	10640.771757
558.446994	10641.278393
558.804197	10674.630666
559.161345	10678.875318
559.518437	10527.819663
559.875474	10617.166554
560.232455	10643.809052
560.589381	10595.986146
560.946251	10589.210835
561.303065	10697.709069
561.659825	10632.882351
562.016528	10563.621938
562.373177	10441.890676
562.729770	10555.074662
563.086307	10470.315222
563.442789	10568.353061
563.799216	10438.939080
564.155587	10492.539148
564.511904	10440.222054
564.868164	10431.425240
565.224370	10449.941398
565.580520	10376.522034
565.936615	10375.544050
566.292654	10243.244008
566.648638	10379.455985
567.004567	10332.623666
567.360441	10319.355349
567.716260	10221.877078
568.072023	10319.635133
568.427732	10265.634293
568.783385	10182.578763
569.138982	10252.275235
569.494525	10268.265775
569.850013	10145.186004
570.205445	10218.323064
570.560823	10115.259194
570.916145	10034.477225
571.271412	10107.699984
571.626625	10054.024299
571.981782	10021.639926
572.336884	9996.250155
572.691931	10001.697122
573.046923	9952.719792
573.401860	9896.712572
573.756743	9844.334984
574.111570	9880.348987
574.466342	9861.570689
574.821059	9893.823991
575.175722	9785.716447
575.530330	9790.382035
575.884882	9788.668042
576.239380	9711.356907
576.593823	9683.055869
576.948211	9697.949958
577.302544	9576.634591
577.656823	9592.814174
578.011047	9596.779042
578.365216	9560.707066
578.719330	9483.579932
579.073389	9495.996294
579.427394	9446.219941
579.781344	9421.324203
580.135239	9369.423003
580.489080	9376.531030
580.842866	9273.250391
581.196597	9278.057131
581.550273	9314.386206
581.903895	9280.265157
582.257463	9344.807049
582.610975	9221.061846
582.964434	9243.167305
583.317837	9162.516406
583.671186	9142.210638
584.024481	9139.337180
584.377721	9053.922390
584.730906	9027.433647
585.084037	9058.976147
585.437113	8989.168769
585.790135	9008.899845
586.143103	8908.104494
586.496016	8879.218683
586.848874	8931.482845
587.201679	8916.619003
587.554428	8802.250346
587.907124	8848.591153
588.259765	8812.642685
588.612352	8815.193508
588.964884	8686.886061
589.317362	8696.396197
589.669786	8692.479221
590.022155	8741.849761
590.374470	8752.700845
590.726731	8687.238942
591.078937	8537.246971
591.431090	8644.668918
591.783188	8509.807970
592.135232	8498.132658
592.487222	8500.625508
592.839157	8542.971201
593.191038	8472.188360
593.542866	8417.257427
593.894639	8316.643558
594.246358	8353.582613
594.598022	8363.511165
594.949633	8268.692102
595.301190	8236.191783
595.652692	8253.866069
596.004141	8356.279630
596.355535	8136.994479
596.706876	8110.228472
597.058162	8050.261427
597.409395	8110.306610
597.760573	8163.513468
598.111698	8070.342863
598.462768	8046.828401
598.813785	8017.125922
599.164748	7975.498595
599.515657	7960.291954
599.866511	7866.912141
600.217312	7986.032086
600.568060	7842.233172
600.918753	7930.639887
601.269392	7896.143271
601.619978	7803.489384
601.970510	7857.417128
602.320988	7845.807350
602.671412	7888.952065
603.021783	7821.347672
603.372100	7787.892054
603.722363	7777.035929
604.072572	7754.391066
604.422728	7758.728979
604.772830	7679.119078
605.122878	7675.751587
605.472872	7664.797160
605.822813	7683.149480
606.172701	7617.869058
606.522534	7683.981271
606.872314	7673.427615
607.222041	7632.664845
607.571714	7671.847213
607.921333	7620.997094
608.270899	7620.465253
608.620411	7695.515431
608.969870	7592.093639
609.319276	7575.304076
609.668627	7581.769356
610.017926	7606.738191
610.367171	7625.294678
610.716362	7596.403825
611.065500	7575.621669
611.414585	7582.044099
611.763616	7562.491983
612.112594	7537.074486
612.461518	7533.467540
612.810389	7574.003458
613.159207	7502.537541
613.507971	7442.141997
613.856682	7533.470061
614.205340	7481.987277
614.553945	7539.557254
614.902496	7430.837210
615.250994	7462.631767
615.599439	7432.387364
615.947830	7434.723939
616.296169	7383.344499
616.644454	7387.994964
616.992686	7369.080554
617.340864	7399.035091
617.688990	7299.731922
618.037063	7366.791871
618.385082	7302.323075
618.733048	7354.677978
619.080961	7285.936804
619.428821	7286.292205
619.776628	7269.855523
620.124382	7218.801238
620.472083	7190.361568
620.819731	7196.973042
621.167326	7094.506548
621.514868	7089.961948
621.862357	6983.059240
622.209793	6987.190465
622.557176	6917.970382
622.904506	6874.800461
623.251783	6813.069012
623.599007	6757.515496
623.946179	6754.208499
624.293297	6701.503236
624.640363	6623.962728
624.987376	6595.041628
625.334336	6543.127826
625.681243	6482.177755
626.028097	6464.707637
626.374899	6430.745383
626.721647	6407.135139
627.068343	6342.426888
627.414987	6301.754859
627.761577	6252.091932
628.108115	6268.248830
628.454600	6168.575136
628.801032	6185.273958
629.147412	6146.845243
629.493739	6118.183762
629.840014	6051.249842
630.186236	6078.020890
630.532405	5974.599098
630.878521	5998.005175
631.224585	5947.991888
631.570597	5880.498400
631.916556	5884.962342
632.262462	5866.640268
632.608316	5821.768958
632.954117	5790.498680
633.299866	5771.085197
633.645562	5744.137709
633.991206	5675.265465
634.336797	5621.899810
634.682336	5571.672274
635.027823	5537.745309
635.373257	5524.179564
635.718639	5457.238082
636.063968	5452.912772
636.409245	5369.627869
636.754470	5349.901834
637.099642	5311.682326
637.444762	5260.610397
637.789829	5253.908183
638.134845	5205.412283
638.479808	5181.625598
638.824719	5168.879041
639.169577	5114.817707
639.514383	5112.823930
639.859137	5047.220875
640.203839	5046.532757
640.548489	5022.025188
640.893086	4991.468234
641.237632	4958.219304
641.582125	4957.165703
641.926566	4922.845527
642.270955	4923.838634
642.615292	4903.573196
642.959576	4900.629162
643.303809	4880.562849
643.647990	4867.259244
643.992118	4851.374568
644.336195	4809.981654
644.680219	4804.217095
645.024192	4793.035816
645.368112	4836.951827
645.711981	4835.593236
646.055797	4868.529615
646.399562	4827.847503
646.743274	4887.413777
647.086935	4904.619235
647.430544	4889.510897
647.774101	4882.037387
648.117606	4884.230289
648.461059	4858.898491
648.804460	4819.022964
649.147810	4764.918780
649.491108	4726.018716
649.834354	4700.437381
650.177548	4641.929750
650.520690	4582.252570
650.863781	4560.159714
651.206820	4553.449938
651.549807	4500.648893
651.892742	4456.707675
652.235626	4444.606385
652.578458	4425.697017
652.921238	4367.000342
653.263967	4377.223802
653.606644	4332.556659
653.949269	4320.909073
654.291843	4281.363741
654.634365	4294.402686
654.976836	4251.270573
655.319255	4249.508690
655.661622	4221.903332
656.003938	4206.169891
656.346203	4183.577960
656.688416	4182.743649
657.030577	4151.460768
657.372687	4126.348261
657.714746	4107.028038
658.056753	4120.893732
658.398708	4078.270776
658.740612	4067.412131
659.082465	4074.741969
659.424266	4068.218716
659.766016	4054.226993
660.107715	4032.413920
660.449362	4025.295811
660.790958	4015.397506
661.132503	3997.317407
661.473996	4003.144981
661.815438	3988.417250
662.156829	3979.116321
662.498168	3959.594453
662.839456	3946.401753
663.180693	3946.560550
663.521879	3942.482256
663.863013	3928.240997
664.204097	3918.065428
664.545129	3927.983898
664.886110	3912.774737
665.227040	3914.110642
665.567918	3898.851070
665.908746	3895.884351
666.249522	3892.786562
666.590248	3879.278790
666.930922	3880.458420
667.271545	3874.078840
667.612118	3867.530381
667.952639	3849.906507
668.293109	3841.613809
668.633528	3815.301507
668.973896	3807.991833
669.314213	3795.116727
669.654480	3776.209879
669.994695	3767.612191
670.334859	3752.985283
670.674973	3736.770412
671.015035	3729.695153
671.355047	3717.883729
671.695008	3707.947615
672.034918	3692.236859
672.374777	3685.597659
672.714585	3668.591327
673.054342	3664.903723
673.394049	3651.804284
673.733705	3648.807318
674.073310	3633.267962
674.412864	3617.511835
674.752368	3602.811831
675.091820	3594.405707
675.431223	3565.348496
675.770574	3556.554203
676.109875	3530.100748
676.449125	3519.277391
676.788324	3500.806603
677.127473	3481.458655
677.466571	3465.566417
677.805619	3451.146197
678.144616	3439.027263
678.483562	3424.488575
678.822458	3407.477202
679.161303	3402.060482
679.500098	3390.284346
679.838842	3380.736401
680.177535	3373.368755
680.516179	3371.609392
680.854771	3365.965820
681.193314	3386.755539
681.531805	3412.914086
681.870247	3447.128397
682.208638	3470.022797
682.546978	3468.243270
682.885268	3450.621917
683.223508	3418.814757
683.561697	3394.884399
683.899836	3379.740773
684.237925	3364.740820
684.575963	3347.195084
684.913951	3336.414576
685.251889	3340.651666
685.589776	3333.306705
685.927614	3326.115499
686.265401	3329.377126
686.603137	3324.726661
686.940824	3337.606809
687.278460	3342.413549
687.616046	3344.626616
687.953582	3359.155221
688.291068	3349.801360
688.628504	3356.811085
688.965889	3346.527131
689.303224	3325.336641
689.640510	3303.183290
689.977745	3276.278652
690.314930	3243.881677
690.652065	3223.107082
690.989150	3193.984336
691.326185	3166.936025
691.663170	3145.647232
692.000105	3122.979684
692.336990	3102.862960
692.673825	3083.883016
693.010610	3068.232753
693.347345	3047.160730
693.684030	3032.705222
694.020665	3021.828932
694.357251	3000.603154
694.693786	3001.815552
695.030272	2989.215188
695.366707	2978.245637
695.703093	2968.465798
696.039429	2966.749285
696.375716	2957.660085
696.711952	2953.123047
697.048139	2944.805143
697.384276	2941.553598
697.720363	2938.181067
698.056400	2933.172680
698.392388	2927.466094
698.728326	2918.220618
699.064214	2909.338105
699.400053	2907.480440
699.735842	2892.094838
700.071581	2886.423540
700.407270	2876.033722
700.742910	2871.504245
701.078501	2858.409848
701.414042	2849.744105
701.749533	2841.574915
702.084974	2831.200220
702.420366	2832.037052
702.755709	2824.119920
703.091002	2813.253712
703.426246	2814.312355
703.761440	2806.730459
704.096584	2800.650828
704.431679	2794.906433
704.766725	2793.278140
705.101721	2785.660957
705.436668	2787.715227
705.771565	2779.059566
706.106413	2781.081069
706.441212	2783.089968
706.775961	2782.820267
707.110661	2777.033022
707.445311	2780.017385
707.779913	2777.529576
708.114465	2780.284566
708.448967	2782.036367
708.783421	2787.556431
709.117825	2793.328552
709.452180	2789.998870
709.786485	2794.545991
710.120742	2807.592497
710.454949	2808.315902
710.789107	2816.906028
711.123216	2824.505568
711.457275	2826.781649
711.791286	2834.814727
712.125247	2835.162567
712.459159	2827.787359
712.793023	2833.781291
713.126837	2821.737974
713.460602	2815.350832
713.794318	2804.028401
714.127985	2800.295427
714.461602	2780.836573
714.795171	2779.341871
715.128691	2762.459046
715.462162	2752.127202
715.795584	2742.980028
716.128957	2738.707650
716.462281	2729.600806
716.795556	2722.638972
717.128782	2718.369115
717.461960	2709.582384
717.795088	2708.226313
718.128167	2700.987216
718.461198	2695.212575
718.794180	2692.303829
719.127113	2688.268385
719.459997	2688.643951
719.792833	2679.441325
720.125619	2678.823783
720.458357	2674.417815
720.791046	2668.827175
721.123686	2669.104439
721.456278	2666.228461
721.788821	2666.541012
722.121315	2663.554128
722.453761	2660.083294
722.786158	2660.070691
723.118506	2655.936945
723.450805	2654.900988
723.783056	2655.959630
724.115259	2655.105155
724.447412	2656.010042
724.779518	2655.271513
725.111574	2655.079949
725.443582	2657.792090
725.775542	2653.192037
726.107453	2657.537511
726.439315	2657.968530
726.771129	2664.683347
727.102895	2661.076401
727.434612	2665.668892
727.766281	2664.143943
728.097901	2661.560352
728.429473	2661.951042
728.760996	2662.235867
729.092471	2660.194199
729.423897	2658.714621
729.755276	2659.627070
730.086606	2657.114054
730.417887	2657.373674
730.749120	2664.164108
731.080305	2663.481032
731.411442	2665.963800
731.742530	2663.095383
732.073570	2664.085970
732.404562	2661.648572
732.735506	2665.678975
733.066401	2661.943480
733.397249	2655.374856
733.728048	2644.811118
734.058798	2636.692340
734.389501	2629.546505
734.720156	2627.139354
735.050762	2623.093828
735.381320	2623.703807
735.711831	2620.873199
736.042293	2616.794906
736.372707	2616.918414
736.703073	2615.990842
737.033391	2616.240379
737.363661	2614.332302
737.693883	2615.355657
738.024056	2619.393621
738.354182	2616.706686
738.684260	2621.702469
739.014290	2624.041565
739.344272	2622.337655
739.674207	2626.491565
740.004093	2626.907461
740.333931	2623.396297
740.663722	2622.904784
740.993464	2621.100051
741.323159	2622.912346
741.652806	2618.302211
741.982405	2615.695934
742.311956	2609.883484
742.641460	2608.313165
742.970915	2607.677979
743.300323	2605.457351
743.629683	2602.450303
743.958996	2601.273193
744.288260	2599.526433
744.617477	2596.254725
744.946647	2593.088880
745.275768	2592.577203
745.604842	2589.252562
745.933869	2588.506471
746.262847	2586.767273
746.591778	2587.467993
746.920662	2589.418920
747.249498	2588.045206
747.578286	2591.954620
747.907027	2593.192224
748.235720	2591.929415
748.564365	2592.050402
748.892963	2588.884558
749.221514	2588.451018
749.550017	2587.475555
749.878473	2585.973291
750.206881	2583.982036
750.535242	2586.464804
750.863555	2585.290215
751.191821	2584.234093
751.520039	2581.582446
751.848210	2582.825091
752.176334	2584.813826
752.504411	2584.551686
752.832440	2580.254102
753.160421	2581.978177
753.488356	2580.004565
753.816243	2580.758218
754.144082	2582.149576
754.471875	2578.719071
754.799620	2580.304514
755.127318	2578.265367
755.454969	2577.655387
755.782572	2578.283011
756.110129	2579.586149
756.437638	2579.689493
756.765100	2575.724626
757.092515	2577.645305
757.419882	2578.461972
757.747203	2578.088927
758.074477	2579.480285
758.401703	2576.241344
758.728882	2580.024730
759.056014	2580.652353
759.383099	2579.245872
759.710138	2579.729822
760.037129	2579.976839
760.364073	2579.187898
760.690970	2577.844431
761.017820	2581.952971
761.344623	2580.138156
761.671379	2579.568505
761.998088	2580.365008
762.324751	2583.724937
762.651366	2596.295054
762.977935	2619.156687
763.304456	2630.756382
763.630931	2636.294089
763.957359	2625.395114
764.283740	2611.100923
764.610074	2600.849736
764.936362	2592.357913
765.262602	2587.296594
765.588796	2584.697879
765.914943	2578.847620
766.241044	2575.265881
766.567097	2573.559450
766.893104	2572.281518
767.219064	2568.735066
767.544978	2565.692729
767.870845	2568.135168
768.196665	2567.389078
768.522438	2565.541495
768.848165	2564.757595
769.173846	2561.778273
769.499479	2560.454971
769.825066	2563.507389
770.150607	2561.647203
770.476101	2557.768036
770.801548	2562.194169
771.126949	2560.026472
771.452303	2559.010680
771.777611	2558.728375
772.102872	2558.055381
772.428087	2558.395659
772.753256	2557.034548
773.078378	2558.592264
773.403453	2555.227294
773.728482	2555.670916
774.053465	2557.899106
774.378401	2558.342727
774.703291	2556.326266
775.028135	2555.328117
775.352932	2555.708724
775.677683	2551.383414
776.002388	2556.026317
776.327046	2550.289484
776.651658	2556.636297
776.976224	2551.242262
777.300743	2552.915925
777.625216	2553.294012
777.949643	2553.351985
778.274024	2554.007335
778.598359	2549.959288
778.922647	2551.012889
779.246889	2550.677653
779.571086	2547.718495
779.895236	2549.689587
780.219339	2551.355688
780.543397	2555.353323
780.867409	2552.782334
781.191374	2553.740154
781.515294	2550.360060
781.839167	2551.791748
782.162995	2553.430123
782.486776	2551.204453
782.810511	2551.068342
783.134201	2554.309804
783.457844	2552.714279
783.781441	2550.793599
784.104993	2551.958106
784.428498	2550.526418
784.751958	2549.669422
785.075372	2552.348795
785.398739	2549.999617
785.722061	2552.963816
786.045337	2549.563558
786.368568	2554.526574
786.691752	2552.646223
787.014891	2554.511450
787.337983	2551.648075
787.661030	2557.349620
787.984031	2556.900957
788.306987	2559.171997
788.629897	2557.596636
788.952760	2556.089331
789.275579	2555.428940
789.598351	2555.746533
789.921078	2555.902809
790.243759	2552.847869
790.566395	2549.989535
790.888984	2552.671429
791.211529	2550.423074
791.534027	2552.164793
791.856480	2550.481048
792.178888	2546.556509
792.501249	2551.663198
792.823566	2550.206305
793.145836	2551.033054
793.468062	2548.877961
793.790241	2548.762014
794.112375	2547.297559
794.434464	2549.956768
794.756507	2549.916438
795.078505	2552.028682
795.400457	2548.567930
795.722364	2551.433826
796.044226	2550.445760
796.366042	2551.940462
796.687812	2552.885678
797.009538	2553.475493
797.331218	2553.833415
797.652852	2554.024979
797.974442	2551.963147
798.295986	2552.396686
798.617484	2548.598177
798.938938	2552.076573
799.260346	2552.321069
799.581709	2549.697148
799.903026	2552.560524
800.224299	2549.891233
800.545526	2548.245296
800.866708	2549.213197
801.187845	2548.686397
801.508936	2549.266130
801.829983	2548.353681
802.150984	2546.732950
802.471940	2550.060111
802.792851	2550.097920
803.113717	2551.297715
803.434538	2544.628268
803.755314	2548.953578
804.076045	2548.489792
804.396731	2548.356201
804.717372	2547.194215
805.037967	2547.784030
805.358518	2545.787733
805.679024	2549.727395
805.999485	2545.800336
806.319901	2548.378887
806.640272	2544.966025
806.960598	2549.699669
807.280879	2546.458207
807.601115	2548.489792
807.921306	2548.469627
808.241453	2548.570450
808.561554	2547.468958
808.881611	2548.381407
809.201623	2548.704041
809.521590	2548.421736
809.841513	2548.252858
810.161390	2548.099102
810.481223	2546.924514
810.801011	2548.797302
811.120755	2547.542055
811.440453	2547.811757
811.760107	2547.032898
812.079716	2544.305634
812.399281	2544.867723
812.718801	2545.008875
813.038276	2541.520397
813.357707	2542.838658
813.677093	2547.015254
813.996434	2545.094575
814.315731	2545.248330
814.634983	2548.918290
814.954191	2547.405944
815.273354	2544.542568
815.592473	2546.712785
815.911547	2549.187992
816.230577	2547.373176
816.549562	2549.104813
816.868502	2550.352498
817.187399	2546.841335
817.506250	2548.177240
817.825058	2549.271171
818.143821	2551.073383
818.462539	2551.459032
818.781213	2551.806871
819.099843	2555.517160
819.418429	2553.571275
819.736970	2563.630897
820.055466	2562.395815
820.373919	2570.174315
820.692327	2571.104408
821.010691	2579.134966
821.329011	2602.147833
821.647286	2650.283291
821.965517	2702.786908
822.283704	2737.538102
822.601847	2746.216449
822.919945	2720.067984
823.237999	2686.105730
823.556010	2662.472801
823.873976	2636.084881
824.191897	2618.266923
824.509775	2604.683534
824.827609	2590.228025
825.145398	2587.062181
825.463144	2588.244331
825.780845	2586.898343
826.098502	2594.220619
826.416116	2606.321909
826.733685	2619.391100
827.051210	2626.171452
827.368692	2622.294805
827.686129	2607.796446
828.003522	2590.560741
828.320872	2576.939544
828.638177	2572.780592
828.955439	2563.111659
829.272656	2558.814075
829.589830	2554.861810
829.906960	2557.352140
830.224046	2555.388611
830.541088	2555.910370
830.858086	2556.190154
831.175041	2550.838970
831.491952	2550.221428
831.808819	2551.098589
832.125642	2551.731254
832.442421	2556.177552
832.759157	2559.996226
833.075849	2567.429407
833.392497	2580.924576
833.709101	2587.173086
834.025662	2587.720051
834.342179	2581.496747
834.658653	2572.793195
834.975083	2565.730538
835.291469	2567.953687
835.607811	2554.947510
835.924110	2554.251831
836.240366	2551.249824
836.556578	2548.648588
836.872746	2551.048177
837.188871	2545.286139
837.504952	2546.826211
837.820990	2544.167003
838.136984	2543.335212
838.452935	2546.677497
838.768842	2543.433515
839.084706	2547.632796
839.400526	2547.771427
839.716303	2555.985988
840.032037	2562.710887
840.347727	2562.680640
840.663373	2558.420865
840.978977	2551.539690
841.294537	2550.130688
841.610054	2548.204967
841.925527	2544.986190
842.240957	2543.330171
842.556344	2542.929399
842.871687	2543.660367
843.186987	2542.604245
843.502244	2540.199614
843.817458	2542.246323
844.132629	2540.660880
844.447756	2541.777496
844.762840	2538.528472
845.077881	2538.740200
845.392879	2537.588297
845.707833	2541.091899
846.022745	2533.736855
846.337613	2539.637526
846.652438	2539.879501
846.967221	2542.521066
847.281960	2540.582742
847.596656	2540.796991
847.911309	2539.602238
848.225919	2537.321116
848.540485	2540.033256
848.855009	2540.292876
849.169490	2540.711292
849.483928	2539.629964
849.798323	2538.876312
850.112675	2538.921682
850.426984	2539.705581
850.741251	2541.681714
851.055474	2540.683565
851.369654	2539.627443
851.683792	2538.616692
851.997887	2537.898328
852.311938	2540.368493
852.625947	2540.003009
852.939914	2536.781712
853.253837	2538.636857
853.567718	2538.626774
853.881555	2539.670293
854.195350	2537.356404
854.509103	2539.864378
854.822812	2537.479912
855.136479	2541.069213
855.450103	2539.866898
855.763685	2538.200797
856.077224	2539.438400
856.390720	2537.570653
856.704173	2540.610468
857.017584	2540.126518
857.330953	2538.629295
857.644278	2541.132228
857.957561	2542.962167
858.270802	2543.325130
858.584000	2539.430838
858.897155	2540.708771
859.210268	2539.330015
859.523339	2542.526107
859.836367	2539.977804
860.149352	2537.815149
860.462295	2542.193391
860.775195	2537.363965
861.088054	2533.134437
861.400869	2536.443955
861.713642	2534.472864
862.026373	2539.488812
862.339062	2539.997968
862.651708	2540.958308
862.964312	2539.206507
863.276873	2541.112063
863.589392	2540.615510
863.901869	2543.113401
864.214303	2539.249357
864.526696	2538.727597
864.839045	2540.865047
865.151353	2540.184491
865.463619	2540.154244
865.775842	2542.168185
866.088023	2541.943854
866.400162	2540.514687
866.712258	2538.483102
867.024313	2538.808256
867.336325	2540.892773
867.648296	2542.790767
867.960224	2541.101981
868.272110	2541.817825
868.583954	2540.476878
868.895755	2542.125335
869.207515	2538.301620
869.519233	2539.559388
869.830909	2541.749769
870.142542	2541.482588
870.454134	2540.938143
870.765684	2543.413350
871.077191	2540.789429
871.388657	2545.442414
871.700081	2542.067362
872.011463	2543.541899
872.322803	2541.790098
872.634101	2544.106509
872.945357	2540.791950
873.256571	2543.567105
873.567744	2541.931251
873.878874	2543.967877
874.189963	2545.192877
874.501010	2542.432846
874.812015	2543.010058
875.122979	2544.237579
875.433900	2542.495860
875.744780	2545.898639
876.055618	2546.909390
876.366415	2545.480223
876.677169	2544.988711
876.987882	2542.011909
877.298554	2540.350849
877.609183	2543.151210
877.919771	2539.791281
878.230317	2544.918134
878.540822	2550.309648
878.851285	2551.277550
879.161707	2550.851573
879.472087	2556.225442
879.782425	2560.717111
880.092722	2567.371434
880.402977	2580.115471
880.713191	2601.391660
881.023363	2626.549539
881.333494	2640.790798
881.643583	2645.380769
881.953631	2643.623927
882.263637	2636.374747
882.573602	2630.458953
882.883526	2613.949175
883.193408	2605.207814
883.503248	2592.153746
883.813048	2588.907243
884.122806	2579.939030
884.432522	2573.168761
884.742197	2568.031825
885.051831	2563.220043
885.361424	2559.827347
885.670975	2559.028324
885.980485	2556.273333
886.289954	2553.987170
886.599382	2549.495502
886.908768	2548.767055
887.218113	2549.492982
887.527417	2546.647250
887.836680	2549.094730
888.145901	2546.674977
888.455082	2545.364277
888.764221	2546.624565
889.073319	2544.749256
889.382376	2547.899977
889.691392	2543.577187
890.000366	2544.514842
890.309300	2544.333361
890.618193	2547.983156
890.927044	2547.998279
891.235855	2546.105326
891.544625	2543.428473
891.853353	2546.238917
892.162041	2548.850234
892.470687	2548.121788
892.779293	2547.289997
893.087858	2546.884184
893.396381	2548.333516
893.704864	2556.142263
894.013306	2560.152501
894.321707	2569.092988
894.630068	2578.303176
894.938387	2579.911304
895.246665	2577.463824
895.554903	2572.430232
895.863100	2568.135168
896.171256	2561.465722
896.479371	2561.417831
896.787446	2558.614949
897.095480	2553.684701
897.403473	2551.418702
897.711425	2550.047508
898.019336	2549.046839
898.327207	2548.678835
898.635038	2547.501726
898.942827	2547.085831
899.250576	2546.357384
899.558284	2545.633978
899.865952	2545.011396
900.173579	2544.703885
900.481165	2546.296890
900.788711	2545.399565
901.096216	2544.421581
901.403681	2545.278577
901.711105	2544.842517
902.018489	2543.415871
902.325832	2548.146993
902.633135	2546.508618
902.940397	2544.252702
903.247619	2549.566078
903.554800	2554.904660
903.861941	2568.414953
904.169041	2581.567323
904.476101	2590.757346
904.783121	2590.432192
905.090100	2582.182344
905.397039	2572.783112
905.703938	2567.661300
906.010796	2562.113510
906.317614	2556.230484
906.624391	2552.888199
906.931129	2549.442570
907.237826	2548.124308
907.544483	2546.564071
907.851099	2547.466438
908.157675	2540.948226
908.464211	2542.644574
908.770707	2537.285828
909.077163	2540.670962
909.383578	2538.031918
909.689954	2537.706764
909.996289	2536.932947
910.302584	2541.802701
910.608839	2540.796991
910.915054	2541.669111
911.221229	2538.624254
911.527363	2540.003009
911.833458	2539.264480
912.139513	2540.365972
912.445527	2542.112732
912.751502	2540.645757
913.057436	2540.688606
913.363331	2542.604245
913.669186	2541.333874
913.975000	2546.700182
914.280775	2547.499205
914.586510	2552.321069
914.892205	2555.978426
915.197859	2563.096535
915.503475	2567.764644
915.809050	2578.686303
916.114585	2584.322313
916.420081	2587.117633
916.725536	2585.514546
917.030952	2581.645461
917.336328	2574.053483
917.641665	2571.636250
917.946961	2565.072667
918.252218	2563.247770
918.557435	2557.478169
918.862612	2556.139743
919.167750	2551.063301
919.472848	2552.477345
919.777906	2550.420554
920.082925	2547.867209
920.387904	2544.993752
920.692843	2548.099103
920.997743	2542.667259
921.302603	2544.771941
921.607423	2544.308155
921.912204	2542.510983
922.216946	2543.864533
922.521647	2542.609286
922.826310	2542.347146
923.130932	2541.709440
923.435516	2540.290355
923.740059	2538.684748
924.044564	2538.702392
924.349028	2541.422094
924.653454	2533.409180
924.957840	2533.943543
925.262186	2533.867925
925.566493	2536.461599
925.870761	2534.606454
926.174989	2538.528472
926.479178	2536.287679
926.783328	2537.807587
927.087438	2535.828934
927.391509	2539.241795
927.695541	2536.902700
927.999533	2539.773637
928.303486	2536.859850
928.607400	2536.617875
928.911275	2534.535878
929.215110	2535.342463
929.518906	2535.380271
929.822663	2534.190559
930.126381	2535.221475
930.430060	2535.370189
930.733699	2533.993954
931.037299	2535.556712
931.340861	2535.571835
931.644383	2537.116949
931.947866	2535.077802
932.251309	2536.353214
932.554714	2536.297761
932.858080	2536.600231
933.161407	2534.735004
933.464694	2536.169212
933.767943	2535.375230
934.071153	2535.861702
934.374323	2534.044366
934.677455	2537.704243
934.980548	2536.060827
935.283602	2537.900848
935.586617	2534.929088
935.889593	2537.237937
936.192530	2535.481094
936.495428	2535.833975
936.798287	2535.413039
937.101108	2532.574869
937.403890	2537.116949
937.706632	2536.564943
938.009336	2538.614172
938.312002	2539.282124
938.614628	2534.984541
938.917216	2539.521579
939.219765	2540.436549
939.522275	2536.335570
939.824747	2540.262629
940.127179	2537.694161
940.429573	2531.334745
940.731929	2537.416898
941.034246	2532.622760
941.336524	2537.782381
941.638763	2536.388502
941.940964	2538.704912
942.243126	2537.739531
942.545250	2536.696012
942.847335	2535.957483
943.149381	2537.679038
943.451389	2537.565612
943.753359	2535.097967
944.055290	2537.174922
944.357182	2536.766589
944.659036	2534.873635
944.960851	2537.018646
945.262628	2531.528830
945.564367	2537.157278
945.866067	2533.925898
946.167729	2533.406660
946.469352	2534.893800
946.770937	2537.091743
947.072484	2535.155940
947.373992	2537.482432
947.675462	2535.130734
947.976893	2534.475384
948.278286	2535.523944
948.579641	2535.375230
948.880958	2534.916485
949.182236	2535.942360
949.483476	2533.250384
949.784678	2535.856660
950.085841	2533.943542
950.386967	2536.847247
950.688054	2535.846578
950.989103	2532.647966
951.290114	2536.065868
951.591087	2535.493697
951.892021	2534.233409
952.192917	2536.905220
952.493776	2534.745086
952.794596	2534.835827
953.095378	2538.508307
953.396122	2538.054603
953.696828	2533.109232
953.997496	2534.114942
954.298126	2535.927237
954.598718	2537.968904
954.899272	2534.150230
955.199788	2535.405477
955.500266	2532.915147
955.800706	2530.765095
956.101108	2531.125538
956.401472	2532.078316
956.701798	2530.233253
957.002087	2529.295599
957.302337	2532.237112
957.602550	2533.583100
957.902724	2531.884231
958.202861	2533.099149
958.502960	2530.823068
958.803022	2532.133768
959.103045	2531.932122
959.403031	2531.236443
959.702979	2532.665610
960.002889	2533.958666
960.302762	2532.300126
960.602596	2530.807945
960.902393	2530.412214
961.202153	2532.342976
961.501875	2531.496062
961.801559	2531.206196
962.101205	2531.155784
962.400814	2531.054961
962.700385	2532.317770
962.999918	2534.409849
963.299414	2531.654859
963.598873	2533.336083
963.898293	2529.280475
964.197677	2531.528830
964.497022	2529.724097
964.796331	2532.640404
965.095601	2528.857018
965.394835	2533.167205
965.694030	2529.567821
965.993189	2534.485467
966.292309	2530.969262
966.591393	2530.538243
966.890439	2531.586803
967.189447	2528.383150
967.488419	2531.932122
967.787353	2531.110414
968.086249	2531.916999
968.385108	2531.735517
968.683930	2530.606299
968.982714	2530.626463
969.281462	2530.364323
969.580172	2528.988088
969.878844	2530.588655
970.177480	2532.710980
970.476078	2531.387677
970.774639	2532.282482
971.073162	2529.174611
971.371649	2530.172759
971.670098	2526.953983
971.968510	2528.093283
972.266885	2527.944569
972.565223	2530.087060
972.863524	2528.325177
973.161788	2529.240146
973.460014	2531.032276
973.758204	2532.469005
974.056356	2531.312060
974.354471	2529.708973
974.652550	2530.069416
974.950591	2531.198634
975.248595	2530.881042
975.546563	2530.850795
975.844493	2529.222502
976.142386	2531.531350
976.440243	2530.389529
976.738062	2531.826258
977.035845	2528.597399
977.333590	2531.964890
977.631299	2530.621422
977.928971	2531.233922
978.226606	2529.898017
978.524204	2530.747451
978.821765	2528.284847
979.119290	2531.685106
979.416777	2531.082688
979.714228	2529.777029
980.011642	2531.493542
980.309020	2535.856660
980.606360	2530.528161
980.903664	2530.107224
981.200931	2529.363654
981.498162	2525.933149
981.795356	2531.906916
982.092513	2531.007070
982.389633	2530.457585
982.686717	2531.632173
982.983764	2532.587472
983.280775	2532.980682
983.577749	2534.122503
983.874686	2533.015970
984.171587	2532.892462
984.468451	2533.754499
984.765279	2531.067564
985.062070	2531.899355
985.358824	2528.622605
985.655543	2533.953625
985.952224	2528.332738
986.248869	2528.688140
986.545478	2527.372398
986.842050	2525.023221
987.138586	2524.877027
987.435086	2525.330731
987.731549	2524.609846
988.027975	2528.332738
988.324366	2530.699560
988.620719	2530.704601
988.917037	2529.633356
989.213318	2527.934487
989.509563	2531.231402
989.805772	2529.734179
990.101944	2527.886596
990.398080	2528.360465
990.694180	2529.315763
990.990244	2529.403983
991.286271	2529.078829
991.582262	2528.763757
991.878217	2528.229395
992.174136	2527.652183
992.470019	2526.361647
992.765865	2529.207378
993.061676	2529.285516
993.357450	2531.473377
993.653188	2529.338448
993.948890	2527.120341
994.244556	2528.269724
994.540186	2530.021525
994.835780	2529.766947
995.131337	2530.397091
995.426859	2526.898530
995.722345	2532.153933
996.017795	2528.927594
996.313208	2529.151926
996.608586	2527.052285
996.903928	2528.060516
997.199234	2528.889786
997.494504	2527.816020
997.789738	2527.420289
998.084936	2530.213089
998.380099	2526.681760
998.675225	2529.807276
998.970316	2527.889117
999.265371	2527.402645
999.560390	2528.980527
999.855373	2529.756864
1000.150320	2528.315094
1000.445232	2530.228212
1000.740108	2526.573376
1001.034948	2530.308871
1001.329752	2526.570855
1001.624521	2528.602440
1001.919254	2524.788807
1002.213951	2526.114631
1002.508613	2526.512882
1002.803239	2529.575383
1003.097829	2522.986595
1003.392384	2527.906761
1003.686903	2527.362316
1003.981386	2527.994981
1004.275834	2527.634538
1004.570246	2528.458767
1004.864623	2526.651513
1005.158964	2527.768129
1005.453270	2527.750485
1005.747540	2527.165711
1006.041775	2526.918695
1006.335974	2526.069260
1006.630138	2526.338962
1006.924266	2529.003212
1007.218359	2529.421627
1007.512416	2526.759898
1007.806438	2526.265865
1008.100425	2528.489014
1008.394376	2526.580937
1008.688292	2525.570186
1008.982172	2526.497758
1009.276017	2528.680578
1009.569827	2526.522964
1009.863602	2527.410207
1010.157341	2528.673016
1010.451045	2526.835516
1010.744714	2529.968593
1011.038347	2527.107738
1011.331945	2525.534898
1011.625508	2526.648993
1011.919036	2525.061029
1012.212528	2526.661596
1012.505986	2527.127902
1012.799408	2525.474404
1013.092795	2527.926925
1013.386147	2526.956503
1013.679464	2526.565814
1013.972745	2526.033972
1014.265992	2527.508510
1014.559204	2525.708818
1014.852380	2525.867614
1015.145521	2527.942049
1015.438628	2526.510361
1015.731699	2527.178314
1016.024736	2529.303160
1016.317737	2525.522295
1016.610703	2528.171421
1016.903635	2526.233098
1017.196531	2525.605474
1017.489393	2525.277799
1017.782219	2522.573220
1018.075011	2525.817202
1018.367768	2529.766947
1018.660490	2528.675537
1018.953177	2528.675537
1019.245829	2528.675537
