Dividing Wavelength (nm)	Counts (n)	Blue Motor Position (mm): 0.000000	Red Motor Position (mm): 39.800000	
326.493990	2125.473970
326.888308	2125.473970
327.282561	2125.473970
327.676750	2094.382653
328.070874	2092.388877
328.464933	2096.504979
328.858929	2103.260125
329.252859	2110.680704
329.646726	2124.392642
330.040528	2134.719446
330.434265	2155.569658
330.827938	2171.900476
331.221547	2189.781449
331.615091	2207.372555
332.008571	2226.531460
332.401986	2246.900243
332.795338	2268.199118
333.188625	2285.059257
333.581847	2306.186732
333.975006	2322.449495
334.368100	2339.382730
334.761129	2359.638087
335.154095	2376.533514
335.546996	2393.711245
335.939833	2419.300142
336.332606	2429.616864
336.725315	2444.102619
337.117960	2454.237859
337.510540	2464.272276
337.903056	2475.445993
338.295508	2481.079483
338.687896	2490.282109
339.080220	2497.274189
339.472480	2504.470437
339.864676	2509.640140
340.256807	2511.553258
340.648875	2517.411078
341.040879	2518.139525
341.432818	2518.515091
341.824694	2522.361492
342.216506	2519.480472
342.608253	2521.738909
342.999937	2520.153466
343.391557	2521.247397
343.783113	2522.394259
344.174605	2519.755215
344.566033	2517.335461
344.957397	2516.387724
345.348697	2514.532580
345.739934	2512.851355
346.131106	2510.300531
346.522215	2510.114008
346.913260	2507.104439
347.304241	2505.859274
347.695159	2504.772906
348.086012	2502.050683
348.476802	2504.097391
348.867528	2500.969355
349.258191	2497.417862
349.648789	2497.473315
350.039324	2495.718993
350.429796	2495.910557
350.820203	2493.495845
351.210548	2494.798983
351.600828	2492.890906
351.991045	2492.132213
352.381198	2491.257572
352.771288	2490.647593
353.161314	2493.707573
353.551276	2487.721203
353.941175	2489.679691
354.331010	2490.771101
354.720782	2489.415031
355.110490	2488.376553
355.500135	2488.651296
355.889717	2489.936790
356.279235	2488.694146
356.668689	2491.174393
357.058080	2492.424599
357.447408	2489.561224
357.836672	2491.030720
358.225873	2492.205309
358.615010	2488.850421
359.004084	2494.514158
359.393095	2493.672285
359.782043	2494.531802
360.170927	2494.307470
360.559748	2498.942811
360.948505	2497.173366
361.337199	2499.207472
361.725830	2499.421721
362.114398	2499.401556
362.502903	2500.135044
362.891344	2499.593120
363.279722	2499.923316
363.668037	2502.738800
364.056289	2501.755775
364.444478	2500.228306
364.832603	2503.850375
365.220665	2503.384068
365.608665	2501.982627
365.996601	2507.222907
366.384474	2505.420694
366.772284	2508.389934
367.160031	2507.595952
367.547715	2512.516118
367.935336	2513.322703
368.322893	2516.236490
368.710388	2520.541635
369.097820	2527.773170
369.485189	2528.481452
369.872495	2535.791125
370.259738	2543.161292
370.646918	2551.499361
371.034035	2555.189485
371.421090	2565.644838
371.808081	2575.533062
372.195010	2585.454052
372.581875	2599.576845
372.968678	2614.385234
373.355418	2623.524846
373.742096	2640.813483
374.128710	2658.447440
374.515262	2670.042093
374.901751	2683.270081
375.288177	2695.933460
375.674540	2721.179558
376.060841	2739.269739
376.447079	2759.530136
376.833254	2777.937909
377.219367	2790.722275
377.605417	2829.587051
377.991404	2837.922599
378.377329	2861.429499
378.763191	2876.852909
379.148991	2917.345978
379.534727	2941.538475
379.920402	2969.058134
380.306013	2981.058601
380.691563	3032.246477
381.077049	3054.142728
381.462474	3070.612178
381.847835	3112.206738
382.233134	3132.421765
382.618371	3130.402783
383.003545	3200.721838
383.388657	3205.936912
383.773706	3238.205338
384.158693	3256.671084
384.543618	3281.249230
384.928480	3316.476813
385.313280	3364.813917
385.698017	3363.036910
386.082692	3416.495826
386.467305	3419.076897
386.851856	3455.106023
387.236344	3479.096874
387.620770	3508.945546
388.005133	3533.208620
388.389435	3559.480593
388.773674	3571.760844
389.157851	3615.230713
389.541965	3630.386942
389.926018	3593.578957
390.310008	3666.191737
390.693936	3687.513298
391.077802	3726.277250
391.461606	3711.788974
391.845348	3779.095940
392.229027	3776.426649
392.612645	3790.365439
392.996200	3867.777397
393.379694	3908.066299
393.763125	3976.326043
394.146494	3944.113070
394.529801	4001.120958
394.913047	4048.923699
395.296230	4015.523534
395.679351	4070.126792
396.062410	4092.605297
396.445408	4075.853543
396.828343	4107.025518
397.211217	4133.093324
397.594028	4054.950399
397.976778	4117.793422
398.359466	4145.663442
398.742092	4173.551105
399.124656	4095.730813
399.507158	4175.774253
399.889598	4203.243501
400.271977	4263.187861
400.654294	4230.359867
401.036549	4239.554932
401.418742	4213.217424
401.800874	4313.675017
402.182944	4335.490610
402.564952	4398.777256
402.946898	4388.798292
403.328783	4384.503228
403.710606	4297.258499
404.092367	4490.889219
404.474067	4455.981749
404.855705	4465.028099
405.237282	4392.395155
405.618797	4500.790045
406.000250	4536.975447
406.381642	4615.720791
406.762972	4577.410542
407.144240	4590.331019
407.525447	4588.183488
407.906593	4649.163805
408.287677	4690.017316
408.668700	4620.217500
409.049661	4669.671219
409.430560	4710.192014
409.811399	4639.104183
410.192176	4796.622597
410.572891	4736.590016
410.953545	4839.089277
411.334138	4721.958067
411.714669	4792.314931
412.095139	4687.254764
412.475547	4827.114016
412.855894	4805.268175
413.236180	4819.685875
413.616405	4767.328452
413.996568	4858.152400
414.376670	4800.821878
414.756711	4756.805043
415.136691	4787.180515
415.516609	4862.253378
415.896466	4901.647475
416.276262	4937.505203
416.655997	4916.896966
417.035670	5099.059060
417.415283	5189.978790
417.794834	5134.642044
418.174324	5091.421712
418.553753	4992.617617
418.933121	5179.546122
419.312428	5246.835444
419.691674	5186.933933
420.070859	5314.051668
420.449983	5226.043205
420.829045	5337.798024
421.208047	5244.637501
421.586988	5315.367410
421.965867	5330.301828
422.344686	5457.999296
422.723444	5315.080064
423.102141	5136.156911
423.480777	5431.286222
423.859352	5202.274164
424.237866	5460.038443
424.616319	5451.188697
424.994712	5560.778341
425.373044	5438.401810
425.751314	5582.006639
426.129524	5383.309561
426.507673	5580.572431
426.885762	5664.497560
427.263789	5592.588021
427.641756	5477.042255
428.019662	5598.886943
428.397508	5603.063539
428.775292	5554.567639
429.153016	5648.509541
429.530679	5579.344910
429.908282	5659.012785
430.285824	5528.678793
430.663305	5806.521988
431.040726	5541.952152
431.418086	5537.702459
431.795385	5646.888810
432.172624	5661.498074
432.549802	5649.628677
432.926920	5666.393034
433.303977	5673.594322
433.680974	5714.838523
434.057910	5733.969702
434.434786	5737.790896
434.811601	5706.868458
435.188355	5939.852945
435.565050	5813.342669
435.941683	5794.685358
436.318257	6012.911867
436.694770	5992.293548
437.071222	6032.534559
437.447614	5960.269618
437.823946	5874.375918
438.200218	6021.202045
438.576429	5892.203959
438.952580	5994.020143
439.328670	6034.094796
439.704700	5945.244459
440.080670	5929.183343
440.456580	6203.381783
440.832429	6082.492393
441.208218	5930.811636
441.583947	6085.980872
441.959616	6091.132931
442.335224	6017.393453
442.710773	6155.326984
443.086261	6184.391757
443.461689	5972.217153
443.837057	6127.930833
444.212365	6277.753926
444.587612	6170.309293
444.962800	6327.096740
445.337927	6305.628986
445.712995	5913.220529
446.088002	6489.724363
446.462949	6325.004661
446.837837	6253.621922
447.212664	6424.882521
447.587431	6568.681435
447.962139	7110.403827
448.336786	8036.176443
448.711374	7785.558000
449.085901	6853.022676
449.460369	6775.557786
449.834776	6712.268620
450.209124	7098.998217
450.583412	7248.992708
450.957640	7394.858495
451.331808	7159.257649
451.705917	6716.548559
452.079965	6640.986704
452.453954	6847.348858
452.827883	6727.117338
453.201752	6821.785167
453.575562	6617.968796
453.949311	6822.158212
454.323001	6707.718978
454.696632	6786.287882
455.070202	6922.419200
455.443713	7081.079435
455.817164	7183.908891
456.190556	7260.418483
456.563888	7335.312385
456.937160	7388.559573
457.310373	7034.809205
457.683526	7059.790642
458.056619	6948.471883
458.429653	6939.670029
458.802628	6874.777776
459.175542	6983.336503
459.548398	7340.582912
459.921194	7498.784402
460.293930	7502.938313
460.666607	8029.305350
461.039224	8343.197836
461.411782	8465.718039
461.784280	8488.463725
462.156719	8377.313844
462.529099	8253.306501
462.901419	7845.169644
463.273680	7735.078406
463.645882	7750.584995
464.018024	7617.667412
464.390106	7783.385263
464.762130	8173.381527
465.134094	8641.621540
465.505999	9661.061315
465.877845	10889.111598
466.249631	11531.709999
466.621358	11150.651701
466.993026	10522.105516
467.364634	10264.817626
467.736184	9902.278006
468.107674	9568.399866
468.479105	9602.087377
468.850477	9368.601295
469.221790	9142.072006
469.593043	8810.722005
469.964238	8667.336466
470.335373	8682.522942
470.706449	8739.462775
471.077467	8718.536945
471.448425	10031.298777
471.819324	11110.468663
472.190164	11129.183947
472.560945	9882.322599
472.931667	9090.274150
473.302330	8955.609808
473.672934	8600.609233
474.043479	8961.064336
474.413965	8895.433554
474.784393	8778.529197
475.154761	8936.609699
475.525070	9026.387608
475.895321	8853.458387
476.265513	9027.713431
476.635645	9195.155356
477.005719	9196.607208
477.375734	9316.185898
477.745691	9551.569974
478.115588	9682.987814
478.485427	9927.546790
478.855207	10463.476896
479.224928	11285.679006
479.594591	11911.157649
479.964194	11719.119935
480.333739	11661.653301
480.703226	11572.639127
481.072653	11664.446101
481.442022	11905.728327
481.811333	12086.196593
482.180584	11896.412274
482.549777	11609.454674
482.918912	11429.311562
483.287988	11453.839296
483.657005	11472.088273
484.025964	11148.867132
484.394864	11280.746237
484.763706	11249.123079
485.132489	11003.470173
485.501213	10963.398041
485.869879	11042.813858
486.238487	10887.324509
486.607036	10994.897691
486.975527	10773.265883
487.343959	10961.013575
487.712333	11007.946717
488.080648	10942.658734
488.448905	10985.843778
488.817104	10918.231823
489.185244	11186.222082
489.553326	11342.270999
489.921350	11885.977086
490.289315	12948.211216
490.657222	13286.727217
491.025070	13199.164895
491.392861	13071.787540
491.760593	12693.030528
492.128267	12340.416940
492.495883	12018.977848
492.863440	11674.712410
493.230939	11348.590086
493.598380	11279.498552
493.965763	11142.941256
494.333088	11043.602799
494.700354	10957.167175
495.067563	11025.147134
495.434713	10850.168684
495.801805	10978.642490
496.168839	10905.739844
496.535815	10845.314053
496.902733	10840.726603
497.269593	10773.318815
497.636395	10869.410769
498.003139	10856.296207
498.369825	10727.242668
498.736453	10886.016329
499.103023	10815.430093
499.469535	10841.714669
499.835989	10828.408544
500.202385	10791.116608
500.568723	10644.245112
500.935003	10871.707014
501.301226	10668.361992
501.667390	10929.420664
502.033497	11024.852227
502.399546	10885.880218
502.765537	10800.233535
503.131470	10863.709224
503.497345	11042.319825
503.863163	10653.636781
504.228923	10965.308638
504.594625	11031.541838
504.960269	10777.024063
505.325856	10997.710655
505.691385	10793.024685
506.056856	10941.403487
506.422270	10976.235339
506.787625	10854.804025
507.152924	10975.007818
507.518164	10956.350508
507.883347	10878.726821
508.248472	10800.157918
508.613540	11032.260202
508.978550	10916.890876
509.343503	10885.779395
509.708398	11008.052582
510.073236	11117.029725
510.438016	11115.051072
510.802738	11067.059287
511.167403	11123.973914
511.532010	11015.145485
511.896561	11244.389436
512.261053	11324.145531
512.625488	11190.065962
512.989866	11170.486120
513.354186	11164.701396
513.718449	11068.317055
514.082655	11252.346897
514.446803	11157.106898
514.810894	11275.261462
515.174927	11144.120886
515.538904	11172.152222
515.902822	11323.976652
516.266684	11199.661798
516.630488	11139.483024
516.994235	11202.096676
517.357925	11259.127249
517.721558	11353.696775
518.085133	11368.623631
518.448651	11380.142668
518.812112	11257.677917
519.175516	11276.115937
519.538863	11395.251006
519.902152	11313.486011
520.265385	11477.903244
520.628560	11385.297248
520.991678	11355.078051
521.354739	11419.052814
521.717743	11355.042763
522.080690	11337.093734
522.443580	11474.334107
522.806413	11420.043400
523.169189	11456.286776
523.531908	11513.524037
523.894569	11337.779331
524.257174	11334.487458
524.619722	11451.855602
524.982213	11395.341747
525.344647	11457.937754
525.707025	11396.329813
526.069345	11496.585760
526.431608	11417.132134
526.793815	11520.700119
527.155964	11308.626339
527.518057	11369.667150
527.880093	11301.926645
528.242072	11378.998326
528.603995	11287.675303
528.965860	11209.769312
529.327669	11260.778227
529.689421	11205.529701
530.051117	11181.659838
530.412755	11286.810745
530.774337	11172.270689
531.135862	11154.475416
531.497331	11179.116576
531.858743	11032.638289
532.220098	11195.157527
532.581396	11069.385780
532.942638	11045.190762
533.303824	11005.743733
533.664953	11027.047649
534.026025	10937.360481
534.387040	11030.969667
534.747999	11042.924763
535.108902	11096.386200
535.469748	10860.689573
535.830537	10957.656167
536.191270	10934.068608
536.551947	10961.527773
536.912567	10960.214552
537.273131	10880.100535
537.633638	10861.382731
537.994089	10846.279434
538.354483	10796.795468
538.714821	10943.626636
539.075103	10950.936309
539.435328	10914.934908
539.795497	10744.188507
540.155609	10898.702393
540.515665	10988.031639
540.875665	10721.142872
541.235609	10794.025354
541.595496	10788.621237
541.955328	10941.723600
542.315102	10829.200005
542.674821	10776.840061
543.034483	10778.342324
543.394090	10782.150916
543.753640	10708.739113
544.113134	10929.758421
544.472571	10786.854313
544.831953	10930.796899
545.191278	10734.096117
545.550548	10762.165262
545.909761	10905.790255
546.268918	10871.586027
546.628019	10959.213883
546.987064	10824.282359
547.346053	10742.905533
547.704986	10844.358755
548.063863	10823.541310
548.422684	10815.079733
548.781449	10731.192412
549.140158	10838.805924
549.498811	10711.552077
549.857408	10568.577392
550.215949	10794.620210
550.574434	10649.603858
550.932864	10744.717828
551.291237	10802.728906
551.649555	10745.108518
552.007817	10756.315003
552.366022	10724.333923
552.724173	10717.210772
553.082267	10699.037413
553.440305	10837.036479
553.798288	10639.024997
554.156215	10784.613520
554.514086	10763.246589
554.871902	10617.751327
555.229661	10646.266614
555.587365	10624.723243
555.945014	10518.705257
556.302606	10654.050156
556.660143	10544.200893
557.017625	10695.528770
557.375050	10593.815929
557.732421	10723.625641
558.089735	10636.582558
558.446994	10635.012238
558.804197	10671.404328
559.161345	10671.031282
559.518437	10522.193736
559.875474	10607.724473
560.232455	10631.203647
560.589381	10584.094064
560.946251	10576.008053
561.303065	10680.584269
561.659825	10613.547005
562.016528	10542.547394
562.373177	10424.665053
562.729770	10536.460201
563.086307	10455.824425
563.442789	10544.190811
563.799216	10411.174925
564.155587	10464.558224
564.511904	10416.682386
564.868164	10401.775694
565.224370	10419.709599
565.580520	10333.679788
565.936615	10341.861580
566.292654	10205.402587
566.648638	10337.934522
567.004567	10289.239496
567.360441	10273.541343
567.716260	10180.297641
568.072023	10272.084449
568.427732	10218.040760
568.783385	10123.657757
569.138982	10192.313231
569.494525	10205.989881
569.850013	10081.972456
570.205445	10154.567592
570.560823	10052.340553
570.916145	9967.495413
571.271412	10032.087718
571.626625	9970.880548
571.981782	9944.419532
572.336884	9912.272094
572.691931	9919.002034
573.046923	9856.748825
573.401860	9812.822731
573.756743	9743.874870
574.111570	9776.987689
574.466342	9764.901523
574.821059	9792.005286
575.175722	9677.772740
575.530330	9675.184108
575.884882	9666.553652
576.239380	9585.988452
576.593823	9566.282582
576.948211	9574.643335
577.302544	9449.232031
577.656823	9459.115213
578.011047	9456.869379
578.365216	9416.930837
578.719330	9340.464095
579.073389	9337.094084
579.427394	9282.785733
579.781344	9258.822609
580.135239	9201.151809
580.489080	9201.421510
580.842866	9096.752033
581.196597	9089.303728
581.550273	9122.514850
581.903895	9080.302748
582.257463	9137.323239
582.610975	9005.544957
582.964434	9026.105303
583.317837	8941.671017
583.671186	8919.966329
584.024481	8898.105366
584.377721	8819.123088
584.730906	8786.221997
585.084037	8810.379207
585.437113	8738.010922
585.790135	8740.521417
586.143103	8635.781364
586.496016	8607.142569
586.848874	8646.650091
587.201679	8628.373388
587.554428	8509.371910
587.907124	8536.833596
588.259765	8498.356989
588.612352	8487.823498
588.964884	8365.789767
589.317362	8366.503090
589.669786	8347.802930
590.022155	8385.230976
590.374470	8387.844815
590.726731	8322.955082
591.078937	8167.692585
591.431090	8253.916480
591.783188	8130.453582
592.135232	8106.964325
592.487222	8102.936443
592.839157	8132.717060
593.191038	8057.351810
593.542866	7995.393508
593.894639	7886.302939
594.246358	7925.137468
594.598022	7923.080677
594.949633	7815.817526
595.301190	7781.129346
595.652692	7795.710884
596.004141	7872.931278
596.355535	7659.027559
596.706876	7633.191646
597.058162	7549.841208
597.409395	7605.505629
597.760573	7642.689179
598.111698	7553.576703
598.462768	7522.596292
598.813785	7480.147256
599.164748	7433.322498
599.515657	7414.549242
599.866511	7309.862120
600.217312	7410.871720
600.568060	7272.993642
600.918753	7344.147008
601.269392	7302.721326
601.619978	7206.468055
601.970510	7246.189827
602.320988	7229.672486
602.671412	7255.717607
603.021783	7190.664037
603.372100	7156.774881
603.722363	7128.436034
604.072572	7096.275993
604.422728	7085.707214
604.772830	7010.543611
605.122878	6994.434603
605.472872	6983.666699
605.822813	6984.216185
606.172701	6920.740496
606.522534	6967.605583
606.872314	6947.241842
607.222041	6904.646612
607.571714	6934.656601
607.921333	6884.313118
608.270899	6858.837647
608.620411	6918.257728
608.969870	6817.880793
609.319276	6794.081506
609.668627	6782.053313
610.017926	6793.516896
610.367171	6801.199615
610.716362	6772.258351
611.065500	6738.593525
611.414585	6729.358131
611.763616	6711.104113
612.112594	6675.231263
612.461518	6660.523696
612.810389	6687.730803
613.159207	6620.852336
613.507971	6561.729684
613.856682	6622.626822
614.205340	6573.967085
614.553945	6603.596466
614.902496	6509.573906
615.250994	6523.787439
615.599439	6491.806359
615.947830	6474.605942
616.296169	6440.784841
616.644454	6422.339259
616.992686	6398.844962
617.340864	6419.916985
617.688990	6328.357028
618.037063	6372.754470
618.385082	6312.850439
618.733048	6348.637590
619.080961	6290.084588
619.428821	6281.096211
619.776628	6252.991778
620.124382	6205.526794
620.472083	6171.493964
620.819731	6169.424571
621.167326	6075.107103
621.514868	6060.205452
621.862357	5972.196988
622.209793	5965.540145
622.557176	5902.072018
622.904506	5857.150296
623.251783	5799.623169
623.599007	5753.335294
623.946179	5734.534311
624.293297	5682.504562
624.640363	5622.129183
624.987376	5588.469399
625.334336	5541.009456
625.681243	5486.970807
626.028097	5462.692610
626.374899	5433.895019
626.721647	5403.285133
627.068343	5348.265980
627.414987	5314.117203
627.761577	5272.257982
628.108115	5273.482983
628.454600	5194.036919
628.801032	5195.236713
629.147412	5168.301828
629.493739	5133.953927
629.840014	5086.677986
630.186236	5097.783648
630.532405	5015.940515
630.878521	5024.817987
631.224585	4985.113859
631.570597	4929.623358
631.916556	4925.955919
632.262462	4903.026231
632.608316	4867.342423
632.954117	4838.217157
633.299866	4817.951718
633.645562	4793.602945
633.991206	4741.457250
634.336797	4693.099982
634.682336	4657.932892
635.027823	4619.647850
635.373257	4603.327114
635.718639	4550.949526
636.063968	4544.080953
636.409245	4478.785408
636.754470	4463.031803
637.099642	4428.615845
637.444762	4384.052045
637.789829	4375.038462
638.134845	4333.108665
638.479808	4311.416580
638.824719	4298.521308
639.169577	4251.333588
639.514383	4245.795880
639.859137	4201.658058
640.203839	4197.302501
640.548489	4169.344262
640.893086	4147.448010
641.237632	4122.027992
641.582125	4114.468782
641.926566	4086.931479
642.270955	4081.910489
642.615292	4067.389446
642.959576	4056.288825
643.303809	4042.798697
643.647990	4030.135319
643.992118	4014.684182
644.336195	3981.911641
644.680219	3972.749344
645.024192	3963.289619
645.368112	3986.423474
645.711981	3979.297803
646.055797	3994.920339
646.399562	3975.375785
646.743274	4002.915609
647.086935	4014.850540
647.430544	3998.287829
647.774101	3992.205677
648.117606	3984.152434
648.461059	3968.902944
648.804460	3935.371709
649.147810	3895.982653
649.491108	3867.147253
649.834354	3847.963142
650.177548	3805.002429
650.520690	3764.484155
650.863781	3750.348760
651.206820	3739.205289
651.549807	3702.243549
651.892742	3670.096111
652.235626	3660.616221
652.578458	3644.396309
652.921238	3606.249898
653.263967	3609.113273
653.606644	3584.252823
653.949269	3572.396029
654.291843	3547.112122
654.634365	3546.721432
654.976836	3522.289480
655.319255	3516.403933
655.661622	3501.552694
656.003938	3483.245744
656.346203	3466.478866
656.688416	3466.972899
657.030577	3444.690999
657.372687	3427.979574
657.714746	3412.082296
658.056753	3414.166813
658.398708	3387.844428
658.740612	3381.389230
659.082465	3377.600803
659.424266	3371.677448
659.766016	3357.673122
660.107715	3347.058973
660.449362	3341.342304
660.790958	3328.207578
661.132503	3316.854899
661.473996	3320.202226
661.815438	3307.254022
662.156829	3296.758340
662.498168	3288.206022
662.839456	3277.654887
663.180693	3273.402674
663.521879	3266.244235
663.863013	3256.678646
664.204097	3252.136566
664.545129	3254.936927
664.886110	3246.639188
665.227040	3240.995616
665.567918	3236.572004
665.908746	3234.467322
666.249522	3224.127916
666.590248	3217.992831
666.930922	3217.229097
667.271545	3209.392623
667.612118	3207.381202
667.952639	3194.874100
668.293109	3185.444622
668.633528	3171.906603
668.973896	3164.813699
669.314213	3154.141577
669.654480	3145.148158
669.994695	3137.392343
670.334859	3129.404635
670.674973	3119.087913
671.015035	3114.306379
671.355047	3103.152826
671.695008	3101.466560
672.034918	3090.741505
672.374777	3085.375197
672.714585	3078.899835
673.054342	3072.416911
673.394049	3068.396591
673.733705	3067.537074
674.073310	3053.626010
674.412864	3046.734753
674.752368	3034.744368
675.091820	3030.151877
675.431223	3017.899353
675.770574	3008.003568
676.109875	2990.140239
676.449125	2983.864003
676.788324	2975.422591
677.127473	2962.136630
677.466571	2952.324024
677.805619	2948.344033
678.144616	2941.107456
678.483562	2932.965993
678.822458	2921.608273
679.161303	2922.329158
679.500098	2911.939340
679.838842	2905.406005
680.177535	2901.579769
680.516179	2899.938873
680.854771	2898.970972
681.193314	2907.056983
681.531805	2916.990576
681.870247	2934.067485
682.208638	2945.072324
682.546978	2938.899431
682.885268	2931.743513
683.223508	2915.493354
683.561697	2906.346180
683.899836	2895.827813
684.237925	2888.581154
684.575963	2884.109650
684.913951	2877.967004
685.251889	2879.373486
685.589776	2874.412991
685.927614	2872.157075
686.265401	2869.029039
686.603137	2868.441744
686.940824	2876.321068
687.278460	2877.152858
687.616046	2881.548744
687.953582	2886.834394
688.291068	2885.609394
688.628504	2885.347254
688.965889	2877.765358
689.303224	2869.152547
689.640510	2857.663757
689.977745	2845.428877
690.314930	2829.498831
690.652065	2819.650937
690.989150	2808.066365
691.326185	2795.705456
691.663170	2783.783127
692.000105	2773.592435
692.336990	2763.081629
692.673825	2758.007707
693.010610	2749.972108
693.347345	2738.422825
693.684030	2733.016187
694.020665	2727.826319
694.357251	2718.346430
694.693786	2721.892881
695.030272	2716.642520
695.366707	2710.444421
695.703093	2706.764379
696.039429	2704.838658
696.375716	2702.396219
696.711952	2701.587114
697.048139	2695.961186
697.384276	2696.303984
697.720363	2694.335414
698.056400	2692.064374
698.392388	2687.930628
698.728326	2687.033302
699.064214	2684.207736
699.400053	2683.504495
699.735842	2676.693896
700.071581	2673.757424
700.407270	2668.421362
700.742910	2666.747699
701.078501	2660.365599
701.414042	2659.037255
701.749533	2655.274033
702.084974	2651.341933
702.420366	2652.496357
702.755709	2648.105512
703.091002	2640.279121
703.426246	2643.891108
703.761440	2638.860036
704.096584	2637.995478
704.431679	2635.787453
704.766725	2636.525982
705.101721	2634.141516
705.436668	2633.433234
705.771565	2631.704118
706.106413	2631.701598
706.441212	2634.408697
706.775961	2632.077164
707.110661	2629.697739
707.445311	2631.855353
707.779913	2630.015332
708.114465	2630.741258
708.448967	2630.587503
708.783421	2632.382154
709.117825	2633.836527
709.452180	2634.370889
709.786485	2635.174953
710.120742	2642.678710
710.454949	2638.809625
710.789107	2643.056797
711.123216	2645.390851
711.457275	2648.309679
711.791286	2647.762714
712.125247	2650.613487
712.459159	2650.459731
712.793023	2650.361429
713.126837	2644.662404
713.460602	2643.818011
713.794318	2640.231230
714.127985	2638.277783
714.461602	2633.415590
714.795171	2629.836371
715.128691	2624.001235
715.462162	2620.613580
715.795584	2615.070831
716.128957	2616.447066
716.462281	2612.951026
716.795556	2609.046652
717.128782	2608.534975
717.461960	2603.781167
717.795088	2604.433997
718.128167	2601.938626
718.461198	2598.659355
718.794180	2599.468460
719.127113	2596.862184
719.459997	2596.441247
719.792833	2596.000146
720.125619	2596.710949
720.458357	2591.725248
720.791046	2589.698704
721.123686	2590.429671
721.456278	2589.754157
721.788821	2586.159814
722.121315	2588.980340
722.453761	2588.264496
722.786158	2584.612180
723.118506	2583.188054
723.450805	2587.606625
723.783056	2587.563775
724.115259	2589.781883
724.447412	2583.946747
724.779518	2588.536718
725.111574	2586.031265
725.443582	2585.176789
725.775542	2586.989084
726.107453	2585.738878
726.439315	2586.323652
726.771129	2592.821699
727.102895	2589.928077
727.434612	2591.667275
727.766281	2589.411358
728.097901	2587.886409
728.429473	2587.835998
728.760996	2589.010587
729.092471	2584.095462
729.423897	2588.947572
729.755276	2588.135946
730.086606	2587.352047
730.417887	2587.311718
730.749120	2591.740371
731.080305	2590.177614
731.411442	2592.383118
731.742530	2588.178796
732.073570	2591.929415
732.404562	2592.473859
732.735506	2592.695670
733.066401	2588.647623
733.397249	2590.512850
733.728048	2586.351378
734.058798	2581.771490
734.389501	2579.860892
734.720156	2579.891139
735.050762	2574.615572
735.381320	2575.626323
735.711831	2576.422825
736.042293	2574.444172
736.372707	2573.514080
736.703073	2571.711867
737.033391	2571.454768
737.363661	2572.647001
737.693883	2572.805797
738.024056	2576.780747
738.354182	2574.242526
738.684260	2576.195973
739.014290	2576.359811
739.344272	2576.127918
739.674207	2574.053483
740.004093	2578.761921
740.333931	2578.323340
740.663722	2576.952147
740.993464	2575.986766
741.323159	2576.246385
741.652806	2574.043401
741.982405	2576.369893
742.311956	2573.612382
742.641460	2570.791857
742.970915	2573.640108
743.300323	2570.348235
743.629683	2568.538461
743.958996	2568.500652
744.288260	2568.800601
744.617477	2565.785991
744.946647	2563.819941
745.275768	2565.954869
745.604842	2563.701474
745.933869	2561.790876
746.262847	2561.664847
746.591778	2566.164077
746.920662	2564.530743
747.249498	2564.099725
747.578286	2564.649211
747.907027	2567.958728
748.235720	2565.980075
748.564365	2568.891342
748.892963	2563.784653
749.221514	2564.460167
749.550017	2564.235836
749.878473	2563.401525
750.206881	2565.904458
750.535242	2564.225754
750.863555	2562.302553
751.191821	2562.965465
751.520039	2563.567883
751.848210	2563.819941
752.176334	2562.965465
752.504411	2564.261042
752.832440	2561.911864
753.160421	2561.211144
753.488356	2563.346072
753.816243	2563.020918
754.144082	2562.123593
754.471875	2561.425393
754.799620	2562.264745
755.127318	2560.538150
755.454969	2560.109652
755.782572	2564.563511
756.110129	2560.190310
756.437638	2561.538819
756.765100	2561.271638
757.092515	2563.058727
757.419882	2560.701987
757.747203	2560.074363
758.074477	2560.719631
758.401703	2560.548232
758.728882	2562.284909
759.056014	2563.920764
759.383099	2561.773232
759.710138	2561.861452
760.037129	2561.901782
760.364073	2563.477142
760.690970	2561.049827
761.017820	2563.623336
761.344623	2559.827347
761.671379	2566.204407
761.998088	2559.580330
762.324751	2565.969993
762.651366	2571.548030
762.977935	2589.146698
763.304456	2593.955958
763.630931	2595.309508
763.957359	2591.445464
764.283740	2583.394741
764.610074	2576.523648
764.936362	2575.593556
765.262602	2570.706157
765.588796	2564.588717
765.914943	2562.063099
766.241044	2559.635783
766.567097	2557.548745
766.893104	2557.896585
767.219064	2559.487069
767.544978	2555.612942
767.870845	2555.149156
768.196665	2557.430278
768.522438	2555.018086
768.848165	2553.533466
769.173846	2556.172510
769.499479	2555.050854
769.825066	2554.917263
770.150607	2553.465411
770.476101	2553.513302
770.801548	2555.549928
771.126949	2551.978270
771.452303	2553.173024
771.777611	2554.269475
772.102872	2551.436346
772.428087	2549.563558
772.753256	2554.042623
773.078378	2550.486089
773.403453	2551.489278
773.728482	2551.794268
774.053465	2548.724206
774.378401	2549.389638
774.703291	2549.059442
775.028135	2549.130018
775.352932	2547.879812
775.677683	2550.521377
776.002388	2547.736139
776.327046	2550.856614
776.651658	2550.896943
776.976224	2549.364432
777.300743	2546.760676
777.625216	2549.881150
777.949643	2548.779658
778.274024	2546.639688
778.598359	2543.788916
778.922647	2541.472506
779.246889	2545.931406
779.571086	2542.349667
779.895236	2546.906870
780.219339	2545.941489
780.543397	2545.727240
780.867409	2547.995759
781.191374	2547.700851
781.515294	2546.798485
781.839167	2549.561037
782.162995	2550.155893
782.486776	2550.483568
782.810511	2549.140101
783.134201	2547.640357
783.457844	2547.857127
783.781441	2547.473999
784.104993	2545.938968
784.428498	2547.181613
784.751958	2547.998279
785.075372	2547.410985
785.398739	2547.390820
785.722061	2545.558361
786.045337	2547.373176
786.368568	2548.885522
786.691752	2547.494164
787.014891	2549.956768
787.337983	2547.718495
787.661030	2551.832077
787.984031	2550.591953
788.306987	2553.510781
788.629897	2553.099927
788.952760	2552.353836
789.275579	2550.607077
789.598351	2551.741336
789.921078	2551.073383
790.243759	2549.699669
790.566395	2546.422919
790.888984	2549.021634
791.211529	2548.613300
791.534027	2544.724050
791.856480	2547.531973
792.178888	2546.493495
792.501249	2548.880481
792.823566	2545.097095
793.145836	2548.633465
793.468062	2545.588608
793.790241	2544.466951
794.112375	2546.546427
794.434464	2545.976777
794.756507	2548.129349
795.078505	2547.476520
795.400457	2543.393185
795.722364	2545.180274
796.044226	2547.947868
796.366042	2543.856972
796.687812	2548.089020
797.009538	2548.404092
797.331218	2547.632796
797.652852	2550.062632
797.974442	2549.402241
798.295986	2547.242106
798.617484	2548.409133
798.938938	2549.440049
799.260346	2549.339226
799.581709	2547.978115
799.903026	2550.259237
800.224299	2548.618341
800.545526	2547.254709
800.866708	2546.851417
801.187845	2547.658002
801.508936	2546.201108
801.829983	2543.541899
802.150984	2546.526262
802.471940	2545.825542
802.792851	2544.829914
803.113717	2546.077600
803.434538	2544.839997
803.755314	2546.059956
804.076045	2546.924514
804.396731	2544.860161
804.717372	2544.625747
805.037967	2545.802857
805.358518	2545.518032
805.679024	2545.944009
805.999485	2547.731098
806.319901	2547.012734
806.640272	2545.281097
806.960598	2544.993752
807.280879	2545.621375
807.601115	2547.383259
807.921306	2545.560882
808.241453	2549.082127
808.561554	2543.509132
808.881611	2545.326468
809.201623	2547.514329
809.521590	2545.644061
809.841513	2546.798485
810.161390	2544.678680
810.481223	2547.257230
810.801011	2545.248330
811.120755	2545.112219
811.440453	2546.367466
811.760107	2545.064328
812.079716	2542.936961
812.399281	2544.827394
812.718801	2541.112063
813.038276	2541.056611
813.357707	2543.854451
813.677093	2542.992414
813.996434	2544.058618
814.315731	2545.293700
814.634983	2546.140614
814.954191	2544.827394
815.273354	2546.959802
815.592473	2545.044163
815.911547	2545.744884
816.230577	2545.767569
816.549562	2548.991387
816.868502	2548.998948
817.187399	2545.407126
817.506250	2547.486602
817.825058	2547.267312
818.143821	2546.543907
818.462539	2551.033054
818.781213	2548.729247
819.099843	2552.132026
819.418429	2556.653941
819.736970	2555.668395
820.055466	2556.474980
820.373919	2564.192986
820.692327	2568.674572
821.010691	2576.637074
821.329011	2596.317739
821.647286	2636.576394
821.965517	2679.098526
822.283704	2708.014585
822.601847	2715.546069
822.919945	2696.099818
823.237999	2667.584531
823.556010	2644.821201
823.873976	2621.740278
824.191897	2607.675459
824.509775	2595.748089
824.827609	2586.280802
825.145398	2582.706624
825.463144	2578.441807
825.780845	2582.699062
826.098502	2583.543455
826.416116	2596.784046
826.733685	2610.569081
827.051210	2615.953033
827.368692	2610.483381
827.686129	2598.225816
828.003522	2587.248703
828.320872	2570.224727
828.638177	2567.310940
828.955439	2557.311811
829.272656	2556.842984
829.589830	2551.564896
829.906960	2553.815771
830.224046	2552.104299
830.541088	2551.527087
830.858086	2550.271840
831.175041	2548.227652
831.491952	2551.446429
831.808819	2549.412323
832.125642	2548.711603
832.442421	2554.050185
832.759157	2558.136040
833.075849	2565.443192
833.392497	2575.548185
833.709101	2578.562795
834.025662	2581.791654
834.342179	2575.316292
834.658653	2569.614747
834.975083	2559.726524
835.291469	2563.714077
835.607811	2555.131512
835.924110	2550.498692
836.240366	2552.555482
836.556578	2547.045501
836.872746	2548.507436
837.188871	2547.905018
837.504952	2547.105995
837.820990	2547.128680
838.136984	2543.236910
838.452935	2544.572815
838.768842	2543.057949
839.084706	2545.923845
839.400526	2546.470810
839.716303	2551.028013
840.032037	2560.674261
840.347727	2555.862479
840.663373	2554.619835
840.978977	2548.570450
841.294537	2546.977446
841.610054	2543.892260
841.925527	2546.266643
842.240957	2541.343956
842.556344	2542.566436
842.871687	2543.607434
843.186987	2543.224307
843.502244	2544.013247
843.817458	2542.203473
844.132629	2540.134079
844.447756	2543.766231
844.762840	2533.620909
845.077881	2536.194418
845.392879	2536.685930
845.707833	2538.500746
846.022745	2536.905220
846.337613	2540.587783
846.652438	2541.800181
846.967221	2538.467978
847.281960	2538.271373
847.596656	2543.360418
847.911309	2538.357073
848.225919	2538.183153
848.540485	2539.299768
848.855009	2539.254398
849.169490	2541.454862
849.483928	2540.071065
849.798323	2537.346321
850.112675	2538.891435
850.426984	2540.025695
850.741251	2539.030067
851.055474	2539.229192
851.369654	2535.453368
851.683792	2538.813297
851.997887	2537.084181
852.311938	2536.721218
852.625947	2538.241126
852.939914	2537.288348
853.253837	2537.857998
853.567718	2541.590973
853.881555	2538.644418
854.195350	2536.827082
854.509103	2539.186343
854.822812	2538.825900
855.136479	2537.210210
855.450103	2539.151054
855.763685	2540.222300
856.077224	2536.330529
856.390720	2539.617361
856.704173	2538.914120
857.017584	2538.717515
857.330953	2539.788760
857.644278	2537.747093
857.957561	2542.758000
858.270802	2538.881353
858.584000	2537.570653
858.897155	2540.335726
859.210268	2539.110725
859.523339	2540.567619
859.836367	2539.947557
860.149352	2540.658359
860.462295	2538.404964
860.775195	2536.627957
861.088054	2537.114428
861.400869	2536.416228
861.713642	2534.152750
862.026373	2536.396064
862.339062	2538.115097
862.651708	2538.256250
862.964312	2540.234902
863.276873	2539.866898
863.589392	2542.125335
863.901869	2537.084181
864.214303	2539.980324
864.526696	2539.745911
864.839045	2539.105684
865.151353	2542.067362
865.463619	2537.560570
865.775842	2541.908566
866.088023	2539.887063
866.400162	2541.323792
866.712258	2539.491332
867.024313	2541.971580
867.336325	2541.291024
867.648296	2542.175747
867.960224	2540.015612
868.272110	2541.273380
868.583954	2541.280942
868.895755	2542.674821
869.207515	2540.313040
869.519233	2544.668597
869.830909	2539.191384
870.142542	2539.861857
870.454134	2538.752803
870.765684	2541.361600
871.077191	2541.883360
871.388657	2540.328164
871.700081	2541.578370
872.011463	2542.253885
872.322803	2540.481919
872.634101	2541.230530
872.945357	2540.885211
873.256571	2546.274205
873.567744	2541.641384
873.878874	2541.348998
874.189963	2543.798998
874.501010	2543.743546
874.812015	2542.263967
875.122979	2544.877805
875.433900	2542.800850
875.744780	2544.343443
876.055618	2542.992414
876.366415	2544.567774
876.677169	2540.499563
876.987882	2540.965870
877.298554	2541.283462
877.609183	2539.332536
877.919771	2541.946374
878.230317	2541.999306
878.540822	2544.925696
878.851285	2546.133053
879.161707	2552.051367
879.472087	2553.621687
879.782425	2557.601677
880.092722	2566.632905
880.402977	2576.022054
880.713191	2598.205651
881.023363	2617.558641
881.333494	2635.500107
881.643583	2641.345325
881.953631	2637.803915
882.263637	2630.156484
882.573602	2621.815895
882.883526	2611.988166
883.193408	2601.086671
883.503248	2593.096442
883.813048	2583.238465
884.122806	2577.342836
884.432522	2571.974007
884.742197	2565.642318
885.051831	2562.726010
885.361424	2558.594785
885.670975	2555.741492
885.980485	2553.571275
886.289954	2551.736295
886.599382	2551.796789
886.908768	2551.385935
887.218113	2549.621531
887.527417	2546.828732
887.836680	2546.624565
888.145901	2544.247661
888.455082	2547.065666
888.764221	2545.828063
889.073319	2541.679193
889.382376	2546.231355
889.691392	2544.845038
890.000366	2542.639533
890.309300	2543.922507
890.618193	2544.436704
890.927044	2543.806560
891.235855	2543.614996
891.544625	2543.501570
891.853353	2546.551468
892.162041	2545.641540
892.470687	2547.824360
892.779293	2546.916952
893.087858	2544.051056
893.396381	2547.539534
893.704864	2550.297046
894.013306	2556.734599
894.321707	2565.843964
894.630068	2571.999213
894.938387	2575.712023
895.246665	2577.869637
895.554903	2571.931157
895.863100	2564.094684
896.171256	2560.777604
896.479371	2559.091338
896.787446	2554.773590
897.095480	2553.898950
897.403473	2549.306459
897.711425	2548.391489
898.019336	2547.153886
898.327207	2544.711447
898.635038	2546.435522
898.942827	2548.197405
899.250576	2546.415357
899.558284	2542.543751
899.865952	2543.330171
900.173579	2545.669266
900.481165	2541.071734
900.788711	2540.796991
901.096216	2544.073741
901.403681	2541.094419
901.711105	2541.953936
902.018489	2540.739018
902.325832	2542.306817
902.633135	2543.461241
902.940397	2545.754966
903.247619	2547.441232
903.554800	2555.799465
903.861941	2565.864129
904.169041	2579.618917
904.476101	2586.384145
904.783121	2587.962027
905.090100	2580.211253
905.397039	2572.984758
905.703938	2566.476629
906.010796	2560.981771
906.317614	2553.667057
906.624391	2552.827705
906.931129	2547.526932
907.237826	2545.747404
907.544483	2542.205994
907.851099	2541.137269
908.157675	2543.047866
908.464211	2542.846220
908.770707	2540.426466
909.077163	2538.334387
909.383578	2536.002854
909.689954	2538.064686
909.996289	2533.136958
910.302584	2540.628113
910.608839	2540.686086
910.915054	2539.743390
911.221229	2535.009747
911.527363	2538.097453
911.833458	2540.023174
912.139513	2539.536703
912.445527	2539.798843
912.751502	2539.685417
913.057436	2539.692978
913.363331	2540.431508
913.669186	2540.701209
913.975000	2544.361087
914.280775	2544.880326
914.586510	2550.997766
914.892205	2554.839125
915.197859	2558.904816
915.503475	2565.977555
915.809050	2575.041549
916.114585	2583.356932
916.420081	2584.476069
916.725536	2582.063877
917.030952	2578.290573
917.336328	2573.362845
917.641665	2566.640466
917.946961	2562.854560
918.252218	2558.867007
918.557435	2555.751574
918.862612	2554.352654
919.167750	2549.646737
919.472848	2546.806047
919.777906	2550.178578
920.082925	2546.672456
920.387904	2544.565254
920.692843	2545.298742
920.997743	2540.970911
921.302603	2540.572660
921.607423	2543.930068
921.912204	2540.943185
922.216946	2538.747762
922.521647	2543.133566
922.826310	2542.145500
923.130932	2538.848585
923.435516	2537.298430
923.740059	2535.776002
924.044564	2536.988399
924.349028	2535.077802
924.653454	2532.655528
924.957840	2535.032432
925.262186	2533.184849
925.566493	2535.849099
925.870761	2531.879190
926.174989	2537.517721
926.479178	2535.362627
926.783328	2535.362627
927.087438	2534.810621
927.391509	2535.065199
927.695541	2537.061496
927.999533	2535.468492
928.303486	2533.676361
928.607400	2535.304654
928.911275	2536.617875
929.215110	2534.127545
929.518906	2533.046217
929.822663	2535.231557
930.126381	2534.397246
930.430060	2536.267514
930.733699	2533.976310
931.037299	2535.153419
931.340861	2535.660055
931.644383	2534.984541
931.947866	2534.477905
932.251309	2536.731301
932.554714	2536.690971
932.858080	2536.438914
933.161407	2534.679551
933.464694	2534.601413
933.767943	2535.211393
934.071153	2534.147709
934.374323	2536.280117
934.677455	2534.225847
934.980548	2530.999509
935.283602	2533.731814
935.586617	2534.399767
935.889593	2534.044366
936.192530	2533.517565
936.495428	2535.876825
936.798287	2533.842719
937.101108	2535.786084
937.403890	2532.973120
937.706632	2535.755837
938.009336	2538.611651
938.312002	2535.216434
938.614628	2538.120138
938.917216	2538.102494
939.219765	2536.368337
939.522275	2536.844727
939.824747	2539.728267
940.127179	2534.296423
940.429573	2534.614016
940.731929	2533.499921
941.034246	2532.584952
941.336524	2535.435724
941.638763	2532.436237
941.940964	2536.045704
942.243126	2535.990251
942.545250	2537.343801
942.847335	2536.282638
943.149381	2536.179294
943.451389	2536.602751
943.753359	2535.392874
944.055290	2536.411187
944.357182	2534.906403
944.659036	2534.684592
944.960851	2533.895652
945.262628	2532.252235
945.564367	2536.597710
945.866067	2534.659386
946.167729	2534.142668
946.469352	2534.946732
946.770937	2534.062010
947.072484	2535.707946
947.373992	2536.030580
947.675462	2535.218954
947.976893	2534.848430
948.278286	2530.901206
948.579641	2535.279448
948.880958	2537.696682
949.182236	2533.449509
949.483476	2531.143182
949.784678	2533.479756
950.085841	2533.169725
950.386967	2537.285828
950.688054	2532.963038
950.989103	2535.299613
951.290114	2534.563604
951.591087	2533.371372
951.892021	2535.077802
952.192917	2539.387989
952.493776	2532.688295
952.794596	2536.960673
953.095378	2535.052596
953.396122	2534.296423
953.696828	2536.136444
953.997496	2533.729293
954.298126	2534.699716
954.598718	2533.641073
954.899272	2532.390867
955.199788	2533.013450
955.500266	2535.947401
955.800706	2531.428007
956.101108	2528.489014
956.401472	2530.460105
956.701798	2527.707635
957.002087	2529.774508
957.302337	2532.743748
957.602550	2527.601771
957.902724	2533.336083
958.202861	2530.598737
958.502960	2530.628984
958.803022	2531.319622
959.103045	2531.080167
959.403031	2532.234591
959.702979	2530.815507
960.002889	2534.102339
960.302762	2532.955476
960.602596	2531.579241
960.902393	2530.896165
961.202153	2533.300795
961.501875	2528.877183
961.801559	2528.519261
962.101205	2531.896834
962.400814	2529.202337
962.700385	2531.342307
962.999918	2531.639735
963.299414	2532.600075
963.598873	2530.266021
963.898293	2527.800897
964.197677	2530.336597
964.497022	2530.132430
964.796331	2531.765764
965.095601	2529.835002
965.394835	2534.893800
965.694030	2531.196114
965.993189	2533.479756
966.292309	2530.170239
966.591393	2529.729138
966.890439	2533.552853
967.189447	2531.826258
967.488419	2528.829292
967.787353	2531.196114
968.086249	2531.354910
968.385108	2530.560928
968.683930	2532.058151
968.982714	2532.037986
969.281462	2528.234436
969.580172	2531.864067
969.878844	2526.404497
970.177480	2529.724097
970.476078	2531.922040
970.774639	2531.521268
971.073162	2532.587472
971.371649	2529.285516
971.670098	2527.052285
971.968510	2527.672347
972.266885	2524.146060
972.565223	2531.289375
972.863524	2529.439272
973.161788	2531.586803
973.460014	2527.914323
973.758204	2530.465146
974.056356	2532.264838
974.354471	2532.930271
974.652550	2530.122348
974.950591	2531.397760
975.248595	2527.906761
975.546563	2529.567821
975.844493	2528.720907
976.142386	2528.297450
976.440243	2528.378109
976.738062	2529.744261
977.035845	2529.406504
977.333590	2529.192255
977.631299	2527.770650
977.928971	2528.567152
978.226606	2531.357431
978.524204	2528.799045
978.821765	2530.455064
979.119290	2531.412883
979.416777	2528.141174
979.714228	2529.202337
980.011642	2530.177801
980.309020	2533.167205
980.606360	2528.998171
980.903664	2526.500279
981.200931	2531.581762
981.498162	2530.533202
981.795356	2531.049920
982.092513	2530.397091
982.389633	2530.145033
982.686717	2531.705270
982.983764	2531.869108
983.280775	2532.801721
983.577749	2532.287523
983.874686	2531.196114
984.171587	2528.599919
984.468451	2531.876669
984.765279	2530.666793
985.062070	2528.541946
985.358824	2530.152595
985.655543	2529.651000
985.952224	2532.532019
986.248869	2526.301153
986.545478	2524.367871
986.842050	2528.037831
987.138586	2524.067922
987.435086	2526.981709
987.731549	2521.935514
988.027975	2530.495393
988.324366	2527.853829
988.620719	2529.353572
988.917037	2526.641431
989.213318	2529.323325
989.509563	2529.237625
989.805772	2525.507172
990.101944	2525.882737
990.398080	2528.801566
990.694180	2525.413910
990.990244	2529.668644
991.286271	2529.000691
991.582262	2529.159488
991.878217	2526.585978
992.174136	2528.615043
992.470019	2526.810310
992.765865	2526.641431
993.061676	2527.992460
993.357450	2529.164529
993.653188	2527.468180
993.948890	2527.677388
994.244556	2526.553211
994.540186	2529.867770
994.835780	2530.094622
995.131337	2528.993129
995.426859	2531.049920
995.722345	2527.495907
996.017795	2531.853984
996.313208	2530.134951
996.608586	2528.166380
996.903928	2531.710311
997.199234	2531.790970
997.494504	2531.027235
997.789738	2527.188396
998.084936	2534.293903
998.380099	2529.955990
998.675225	2527.959693
998.970316	2530.029087
999.265371	2528.395753
999.560390	2524.703108
999.855373	2527.639580
1000.150320	2527.342152
1000.445232	2528.766278
1000.740108	2523.818385
1001.034948	2529.303160
1001.329752	2528.579755
1001.624521	2529.519930
1001.919254	2521.275123
1002.213951	2526.734693
1002.508613	2522.681605
1002.803239	2526.548170
1003.097829	2523.828467
1003.392384	2528.499096
1003.686903	2526.432223
1003.981386	2527.742923
1004.275834	2528.420958
1004.570246	2527.596730
1004.864623	2527.798376
1005.158964	2527.659744
1005.453270	2528.063037
1005.747540	2528.927594
1006.041775	2526.187727
1006.335974	2527.170752
1006.630138	2525.849970
1006.924266	2526.565814
1007.218359	2527.150588
1007.512416	2528.834333
1007.806438	2529.640918
1008.100425	2526.964065
1008.394376	2525.494569
1008.688292	2529.177132
1008.982172	2528.700742
1009.276017	2526.964065
1009.569827	2524.924918
1009.863602	2527.609333
1010.157341	2527.760567
1010.451045	2525.242511
1010.744714	2527.884076
1011.038347	2527.977337
1011.331945	2525.426513
1011.625508	2529.595547
1011.919036	2525.348375
1012.212528	2526.787625
1012.505986	2528.390712
1012.799408	2526.671678
1013.092795	2525.696215
1013.386147	2526.691843
1013.679464	2525.325690
1013.972745	2526.414579
1014.265992	2525.824764
1014.559204	2528.794004
1014.852380	2529.482121
1015.145521	2527.780732
1015.438628	2527.611853
1015.731699	2525.262676
1016.024736	2526.215454
1016.317737	2524.844260
1016.610703	2526.046575
1016.903635	2525.814682
1017.196531	2522.948786
1017.489393	2522.961389
1017.782219	2523.543642
1018.075011	2527.304343
1018.367768	2528.166380
1018.660490	2527.765608
1018.953177	2527.765608
1019.245829	2527.765608
