Dividing Wavelength (nm)	Counts (n)	Blue Motor Position (mm): 0.000000	Red Motor Position (mm): 40.600000	
326.493990	2129.027983
326.888308	2129.027983
327.282561	2129.027983
327.676750	2095.385843
328.070874	2095.229567
328.464933	2097.704774
328.858929	2104.497729
329.252859	2114.350664
329.646726	2124.659823
330.040528	2136.504014
330.434265	2153.802734
330.827938	2172.034067
331.221547	2190.023424
331.615091	2209.567978
332.008571	2227.138919
332.401986	2245.539131
332.795338	2267.662235
333.188625	2286.102775
333.581847	2305.165899
333.975006	2324.123158
334.368100	2341.767196
334.761129	2358.957531
335.154095	2376.979656
335.546996	2398.278531
335.939833	2416.940882
336.332606	2432.550815
336.725315	2443.790068
337.117960	2453.219546
337.510540	2461.058540
337.903056	2474.727629
338.295508	2478.538741
338.687896	2491.151708
339.080220	2494.171359
339.472480	2504.906496
339.864676	2508.526045
340.256807	2511.412105
340.648875	2518.363857
341.040879	2522.217819
341.432818	2522.265710
341.824694	2521.320493
342.216506	2525.285361
342.608253	2524.377953
342.999937	2523.299146
343.391557	2524.259486
343.783113	2520.385359
344.174605	2518.414268
344.566033	2517.491737
344.957397	2519.319155
345.348697	2515.893691
345.739934	2515.220697
346.131106	2513.927641
346.522215	2508.856240
346.913260	2507.245592
347.304241	2506.146620
347.695159	2506.814573
348.086012	2504.830879
348.476802	2499.623367
348.867528	2499.782163
349.258191	2497.138078
349.648789	2495.431648
350.039324	2494.735968
350.429796	2499.663696
350.820203	2493.856287
351.210548	2493.838643
351.600828	2491.497027
351.991045	2493.725217
352.381198	2491.681029
352.771288	2491.857470
353.161314	2492.999291
353.551276	2492.021307
353.941175	2492.265803
354.331010	2491.350834
354.720782	2491.527274
355.110490	2490.380412
355.500135	2490.980309
355.889717	2492.636328
356.279235	2491.035762
356.668689	2493.087511
357.058080	2494.478870
357.447408	2490.617346
357.836672	2490.824033
358.225873	2491.844867
358.615010	2486.866727
359.004084	2494.347800
359.393095	2495.414004
359.782043	2494.055413
360.170927	2493.974754
360.559748	2496.727224
360.948505	2499.172184
361.337199	2500.752586
361.725830	2500.669407
362.114398	2499.320898
362.502903	2501.319715
362.891344	2504.546054
363.279722	2500.069509
363.668037	2502.948008
364.056289	2501.004643
364.444478	2504.127638
364.832603	2506.113853
365.220665	2505.453462
365.608665	2507.200221
365.996601	2506.643174
366.384474	2507.041425
366.772284	2510.537465
367.160031	2509.874553
367.547715	2513.277332
367.935336	2514.456962
368.322893	2517.340502
368.710388	2520.304701
369.097820	2528.448685
369.485189	2527.422810
369.872495	2536.227185
370.259738	2546.493495
370.646918	2550.307128
371.034035	2557.470607
371.421090	2569.410580
371.808081	2577.468865
372.195010	2588.335072
372.581875	2601.953749
372.968678	2612.930862
373.355418	2623.648355
373.742096	2643.407157
374.128710	2654.190185
374.515262	2670.641991
374.901751	2688.588498
375.288177	2700.384798
375.674540	2721.759291
376.060841	2736.398802
376.447079	2759.494848
376.833254	2780.473610
377.219367	2791.589354
377.605417	2829.224088
377.991404	2838.104080
378.377329	2861.744571
378.763191	2881.394989
379.148991	2915.790782
379.534727	2940.570573
379.920402	2970.993937
380.306013	2981.812253
380.691563	3034.731766
381.077049	3054.276319
381.462474	3073.115111
381.847835	3109.313116
382.233134	3133.576190
382.618371	3130.327166
383.003545	3202.997919
383.388657	3208.122252
383.773706	3239.689957
384.158693	3256.812237
384.543618	3283.091772
384.928480	3320.066114
385.313280	3369.063609
385.698017	3362.081611
386.082692	3415.583377
386.467305	3418.517328
386.851856	3452.643419
387.236344	3477.191318
387.620770	3509.794981
388.005133	3533.543856
388.389435	3561.885223
388.773674	3573.116914
389.157851	3613.829272
389.541965	3631.528764
389.926018	3594.249431
390.310008	3668.571162
390.693936	3685.045653
391.077802	3725.261458
391.461606	3711.897359
391.845348	3775.851957
392.229027	3777.618882
392.612645	3789.027013
392.996200	3868.392418
393.379694	3909.097215
393.763125	3972.318325
394.146494	3938.572842
394.529801	3999.890916
394.913047	4051.227507
395.296230	4018.391951
395.679351	4069.088315
396.062410	4093.968929
396.445408	4078.409408
396.828343	4107.988378
397.211217	4131.417141
397.594028	4051.061148
397.976778	4114.630098
398.359466	4143.203358
398.742092	4173.556146
399.124656	4096.728961
399.507158	4178.650232
399.889598	4202.812482
400.271977	4263.303808
400.654294	4234.039910
401.036549	4241.087443
401.418742	4215.075089
401.800874	4315.313392
402.182944	4335.961958
402.564952	4397.380856
402.946898	4392.319538
403.328783	4384.311665
403.710606	4296.709014
404.092367	4492.830063
404.474067	4453.120894
404.855705	4463.157831
405.237282	4390.832397
405.618797	4500.427082
406.000250	4532.773645
406.381642	4616.136686
406.762972	4576.999688
407.144240	4584.989917
407.525447	4583.729628
407.906593	4650.804701
408.287677	4689.102347
408.668700	4616.744145
409.049661	4671.145757
409.430560	4712.281572
409.811399	4637.745592
410.192176	4798.366836
410.572891	4739.612188
410.953545	4842.867621
411.334138	4724.511411
411.714669	4787.583808
412.095139	4684.890463
412.475547	4826.839273
412.855894	4808.078619
413.236180	4814.231347
413.616405	4770.610243
413.996568	4854.298438
414.376670	4799.130571
414.756711	4751.448817
415.136691	4783.760092
415.516609	4864.184140
415.896466	4900.256117
416.276262	4931.854069
416.655997	4915.026698
417.035670	5097.589563
417.415283	5187.604407
417.794834	5130.175582
418.174324	5082.249332
418.553753	4994.818081
418.933121	5175.926574
419.312428	5243.977109
419.691674	5188.075754
420.070859	5310.689219
420.449983	5219.260332
420.829045	5336.588147
421.208047	5243.775463
421.586988	5314.097039
421.965867	5326.906611
422.344686	5461.109688
422.723444	5315.385054
423.102141	5134.006859
423.480777	5433.307724
423.859352	5201.913722
424.237866	5458.084996
424.616319	5452.083502
424.994712	5558.555192
425.373044	5437.804434
425.751314	5578.891206
426.129524	5385.885590
426.507673	5582.765333
426.885762	5660.315923
427.263789	5594.856541
427.641756	5474.433457
428.019662	5598.145893
428.397508	5602.690494
428.775292	5550.774171
429.153016	5645.270600
429.530679	5575.180917
429.908282	5662.513866
430.285824	5530.808681
430.663305	5805.286905
431.040726	5540.049116
431.418086	5535.020565
431.795385	5649.711856
432.172624	5659.728629
432.549802	5653.792670
432.926920	5664.963867
433.303977	5670.889743
433.680974	5711.687802
434.057910	5730.035081
434.434786	5735.587912
434.811601	5706.079518
435.188355	5939.371515
435.565050	5813.362833
435.941683	5795.605369
436.318257	6010.343399
436.694770	5994.859495
437.071222	6026.964084
437.447614	5958.517817
437.823946	5863.552561
438.200218	6027.412746
438.576429	5888.896962
438.952580	5988.444627
439.328670	6034.104878
439.704700	5937.831443
440.080670	5925.155461
440.456580	6194.779054
440.832429	6079.679429
441.208218	5925.238640
441.583947	6083.508186
441.959616	6085.391057
442.335224	6016.047465
442.710773	6154.094422
443.086261	6178.289440
443.461689	5975.146063
443.837057	6123.424042
444.212365	6275.283760
444.587612	6167.723181
444.962800	6317.705070
445.337927	6300.202184
445.712995	5913.069295
446.088002	6487.723025
446.462949	6323.341080
446.837837	6253.614361
447.212664	6421.389002
447.587431	6563.095836
447.962139	7105.975173
448.336786	8033.590331
448.711374	7773.315558
449.085901	6854.638366
449.460369	6767.751559
449.834776	6700.805036
450.209124	7094.556960
450.583412	7243.223108
450.957640	7396.345635
451.331808	7157.566342
451.705917	6710.620163
452.079965	6632.903214
452.453954	6842.945410
452.827883	6722.444189
453.201752	6813.431975
453.575562	6613.151973
453.949311	6815.816440
454.323001	6709.432971
454.696632	6781.763446
455.070202	6919.487769
455.443713	7072.943013
455.817164	7179.150042
456.190556	7256.592247
456.563888	7330.382137
456.937160	7375.011472
457.310373	7029.919285
457.683526	7054.252935
458.056619	6946.014321
458.429653	6939.007117
458.802628	6873.502364
459.175542	6980.831050
459.548398	7340.373704
459.921194	7494.506983
460.293930	7493.201324
460.666607	8027.838374
461.039224	8336.598965
461.411782	8464.989592
461.784280	8482.742015
462.156719	8376.356025
462.529099	8253.871110
462.901419	7842.402051
463.273680	7731.894917
463.645882	7745.473265
464.018024	7608.726926
464.390106	7778.205477
464.762130	8167.548912
465.134094	8631.037638
465.505999	9658.424792
465.877845	10874.272962
466.249631	11530.525328
466.621358	11143.732717
466.993026	10518.276759
467.364634	10263.821998
467.736184	9892.503209
468.107674	9559.802178
468.479105	9593.721582
468.850477	9364.374288
469.221790	9127.329152
469.593043	8802.177249
469.964238	8663.283378
470.335373	8680.340122
470.706449	8735.991940
471.077467	8717.836225
471.448425	10021.929793
471.819324	11099.710841
472.190164	11121.024839
472.560945	9877.074758
472.931667	9084.582688
473.302330	8954.425137
473.672934	8597.435827
474.043479	8951.433212
474.413965	8898.712825
474.784393	8775.360831
475.154761	8931.407228
475.525070	9016.665742
475.895321	8844.835493
476.265513	9026.710242
476.635645	9192.922125
477.005719	9194.598309
477.375734	9305.231471
477.745691	9543.587307
478.115588	9679.648049
478.485427	9918.429863
478.855207	10462.445980
479.224928	11265.000193
479.594591	11900.881257
479.964194	11709.806403
480.333739	11659.296562
480.703226	11566.123436
481.072653	11658.008547
481.442022	11897.690207
481.811333	12084.112076
482.180584	11889.488249
482.549777	11604.839498
482.918912	11426.090264
483.287988	11449.093049
483.657005	11454.187135
484.025964	11141.819599
484.394864	11270.467325
484.763706	11244.034034
485.132489	10994.743936
485.501213	10963.322424
485.869879	11039.307736
486.238487	10878.991482
486.607036	10991.961219
486.975527	10769.081725
487.343959	10960.406116
487.712333	11003.560914
488.080648	10935.767477
488.448905	10989.072638
488.817104	10922.678121
489.185244	11186.476660
489.553326	11343.959786
489.921350	11878.622042
490.289315	12935.832662
490.657222	13285.850056
491.025070	13193.929657
491.392861	13069.453486
491.760593	12691.419880
492.128267	12344.258300
492.495883	12012.290757
492.863440	11671.901967
493.230939	11332.539052
493.598380	11268.599577
493.965763	11138.071501
494.333088	11033.384380
494.700354	10956.776485
495.067563	11024.196877
495.434713	10851.713798
495.801805	10977.641821
496.168839	10902.604246
496.535815	10832.822074
496.902733	10838.821047
497.269593	10771.834195
497.636395	10872.614422
498.003139	10857.122956
498.369825	10726.481454
498.736453	10871.215502
499.103023	10806.524895
499.469535	10839.867087
499.835989	10823.758079
500.202385	10786.687955
500.568723	10636.227156
500.935003	10863.086641
501.301226	10663.003245
501.667390	10919.910527
502.033497	11021.567915
502.399546	10876.912006
502.765537	10785.092429
503.131470	10865.511436
503.497345	11038.082735
503.863163	10650.319702
504.228923	10955.828748
504.594625	11025.308451
504.960269	10776.794690
505.325856	10990.403502
505.691385	10785.581421
506.056856	10941.070771
506.422270	10966.528598
506.787625	10853.752945
507.152924	10971.395832
507.518164	10956.176588
507.883347	10872.644669
508.248472	10791.451845
508.613540	11024.557319
508.978550	10905.838146
509.343503	10884.703109
509.708398	10998.434060
510.073236	11110.675351
510.438016	11117.516196
510.802738	11069.201778
511.167403	11120.188008
511.532010	11017.512307
511.896561	11249.181053
512.261053	11322.648308
512.625488	11189.667711
512.989866	11169.677015
513.354186	11159.221662
513.718449	11062.998638
514.082655	11259.815367
514.446803	11144.766153
514.810894	11269.489341
515.174927	11142.495114
515.538904	11163.244503
515.902822	11312.639097
516.266684	11199.800430
516.630488	11141.905299
516.994235	11190.864985
517.357925	11259.351580
517.721558	11347.788542
518.085133	11365.780420
518.448651	11378.884900
518.812112	11261.020202
519.175516	11269.645617
519.538863	11388.039635
519.902152	11309.637090
520.265385	11471.778242
520.628560	11382.275076
520.991678	11361.702127
521.354739	11421.533061
521.717743	11349.663852
522.080690	11329.637868
522.443580	11469.469393
522.806413	11420.648339
523.169189	11454.597989
523.531908	11505.377532
523.894569	11324.218627
524.257174	11323.139821
524.619722	11451.374172
524.982213	11397.837118
525.344647	11442.486617
525.707025	11400.002293
526.069345	11490.294400
526.431608	11409.943449
526.793815	11519.510407
527.155964	11307.907974
527.518057	11361.707168
527.880093	11307.918057
528.242072	11373.324507
528.603995	11286.949377
528.965860	11202.119361
529.327669	11258.519790
529.689421	11199.492920
530.051117	11171.506954
530.412755	11283.871753
530.774337	11170.118116
531.135862	11154.248564
531.497331	11170.692808
531.858743	11024.073369
532.220098	11183.971207
532.581396	11060.969574
532.942638	11040.719259
533.303824	11007.840853
533.664953	11026.427588
534.026025	10926.683318
534.387040	11035.647858
534.747999	11037.664319
535.108902	11095.627506
535.469748	10851.817142
535.830537	10957.673811
536.191270	10933.907291
536.551947	10951.949581
536.912567	10953.439242
537.273131	10887.332071
537.633638	10852.225475
537.994089	10849.921668
538.354483	10795.948554
538.714821	10936.889133
539.075103	10948.859353
539.435328	10913.760320
539.795497	10747.369475
540.155609	10896.519573
540.515665	10984.323871
540.875665	10716.288241
541.235609	10784.411874
541.595496	10786.662749
541.955328	10942.242839
542.315102	10822.923768
542.674821	10774.201017
543.034483	10772.028279
543.394090	10777.629001
543.753640	10700.592609
544.113134	10937.181520
544.472571	10786.572008
544.831953	10930.381004
545.191278	10733.261806
545.550548	10765.247927
545.909761	10897.439584
546.268918	10875.429906
546.628019	10955.826228
546.987064	10817.126442
547.346053	10739.966541
547.704986	10835.534215
548.063863	10825.890488
548.422684	10814.739455
548.781449	10732.427495
549.140158	10830.402320
549.498811	10706.420183
549.857408	10563.994983
550.215949	10791.958481
550.574434	10646.241408
550.932864	10746.666234
551.291237	10802.053392
551.649555	10750.464744
552.007817	10759.979922
552.366022	10728.870961
552.724173	10725.768131
553.082267	10710.667355
553.440305	10835.254431
553.798288	10644.081274
554.156215	10797.574326
554.514086	10774.702611
554.871902	10624.204004
555.229661	10667.356281
555.587365	10634.303956
555.945014	10528.850579
556.302606	10657.309262
556.660143	10551.281193
557.017625	10704.552435
557.375050	10602.826992
557.732421	10738.618032
558.089735	10649.578652
558.446994	10648.986317
558.804197	10687.810763
559.161345	10683.276245
559.518437	10536.739985
559.875474	10618.993972
560.232455	10652.895732
560.589381	10600.392114
560.946251	10598.471435
561.303065	10711.317663
561.659825	10647.113528
562.016528	10566.976826
562.373177	10453.692017
562.729770	10569.993957
563.086307	10478.885183
563.442789	10577.477549
563.799216	10449.646491
564.155587	10496.483851
564.511904	10447.362848
564.868164	10433.406414
565.224370	10454.523807
565.580520	10382.072344
565.936615	10388.406554
566.292654	10252.796995
566.648638	10384.043435
567.004567	10338.713380
567.360441	10323.637809
567.716260	10227.008972
568.072023	10325.954219
568.427732	10276.576117
568.783385	10184.456593
569.138982	10254.276573
569.494525	10271.708883
569.850013	10146.534513
570.205445	10229.426206
570.560823	10118.639288
570.916145	10036.833964
571.271412	10101.877452
571.626625	10050.825687
571.981782	10026.219815
572.336884	9998.430454
572.691931	10008.316157
573.046923	9944.777454
573.401860	9904.619622
573.756743	9838.252832
574.111570	9885.622034
574.466342	9864.030772
574.821059	9891.235359
575.175722	9774.774623
575.530330	9785.638309
575.884882	9781.839800
576.239380	9703.588489
576.593823	9681.782978
576.948211	9693.964926
577.302544	9573.244415
577.656823	9589.018186
578.011047	9586.381662
578.365216	9556.434688
578.719330	9478.216145
579.073389	9490.584616
579.427394	9436.540926
579.781344	9408.328108
580.135239	9360.608546
580.489080	9372.208241
580.842866	9261.575079
581.196597	9264.330069
581.550273	9295.373495
581.903895	9266.212940
582.257463	9326.540428
582.610975	9205.832520
582.964434	9228.021159
583.317837	9149.535434
583.671186	9124.062484
584.024481	9116.377245
584.377721	9036.926140
584.730906	9011.301955
585.084037	9037.634422
585.437113	8974.133527
585.790135	8983.840269
586.143103	8885.257985
586.496016	8855.308490
586.848874	8902.934791
587.201679	8892.091269
587.554428	8775.547354
587.907124	8816.685690
588.259765	8782.201677
588.612352	8778.221686
588.964884	8656.818099
589.317362	8667.943925
589.669786	8650.962798
590.022155	8703.166467
590.374470	8702.402732
590.726731	8652.460021
591.078937	8498.382195
591.431090	8596.762833
591.783188	8467.618554
592.135232	8459.761915
592.487222	8456.712017
592.839157	8499.647525
593.191038	8427.609436
593.542866	8369.653811
593.894639	8260.785053
594.246358	8308.003020
594.598022	8321.619177
594.949633	8213.166313
595.301190	8182.029627
595.652692	8199.477060
596.004141	8303.130745
596.355535	8075.875529
596.706876	8051.864514
597.058162	7982.117630
597.409395	8049.049029
597.760573	8097.030732
598.111698	8002.103284
598.462768	7988.172055
598.813785	7941.680014
599.164748	7909.225066
599.515657	7888.279071
599.866511	7792.963455
600.217312	7906.447390
600.568060	7761.907427
600.918753	7850.276333
601.269392	7814.839542
601.619978	7719.334882
601.970510	7769.602748
602.320988	7759.709484
602.671412	7804.401833
603.021783	7738.836586
603.372100	7692.644493
603.722363	7691.520316
604.072572	7660.439082
604.422728	7661.225502
604.772830	7577.789365
605.122878	7577.002945
605.472872	7566.582880
605.822813	7575.465393
606.172701	7518.492793
606.522534	7576.866834
606.872314	7560.228505
607.222041	7524.947990
607.571714	7557.085346
607.921333	7516.304932
608.270899	7502.093919
608.620411	7573.355670
608.969870	7470.501008
609.319276	7454.112217
609.668627	7455.397711
610.017926	7475.350598
610.367171	7494.938001
610.716362	7464.214689
611.065500	7438.189733
611.414585	7442.336082
611.763616	7428.677075
612.112594	7395.899493
612.461518	7390.066878
612.810389	7426.945439
613.159207	7361.899431
613.507971	7304.258878
613.856682	7385.308029
614.205340	7332.822055
614.553945	7384.612349
614.902496	7279.539580
615.250994	7308.271636
615.599439	7276.204857
615.947830	7269.074144
616.296169	7225.906744
616.644454	7226.141158
616.992686	7202.654422
617.340864	7230.421097
617.688990	7134.482898
618.037063	7192.700664
618.385082	7132.753783
618.733048	7183.787904
619.080961	7111.548169
619.428821	7111.906091
619.776628	7098.877229
620.124382	7037.649895
620.472083	7012.116451
620.819731	7014.838674
621.167326	6914.181955
621.514868	6912.432674
621.862357	6806.762528
622.209793	6807.037271
622.557176	6734.870633
622.904506	6696.850251
623.251783	6633.056969
623.599007	6583.000832
623.946179	6565.404685
624.293297	6514.652868
624.640363	6444.235511
624.987376	6412.884575
625.334336	6360.050762
625.681243	6297.845444
626.028097	6277.380880
626.374899	6243.768987
626.721647	6221.141768
627.068343	6154.469988
627.414987	6112.220078
627.761577	6065.047480
628.108115	6077.922587
628.454600	5981.351724
628.801032	5997.692624
629.147412	5956.884483
629.493739	5931.046049
629.840014	5869.581781
630.186236	5891.503239
630.532405	5793.011695
630.878521	5813.670344
631.224585	5769.479589
631.570597	5695.724988
631.916556	5696.314803
632.262462	5686.504718
632.608316	5636.529239
632.954117	5606.700732
633.299866	5585.931178
633.645562	5562.870419
633.991206	5494.537579
634.336797	5442.749806
634.682336	5406.655144
635.027823	5363.646540
635.373257	5350.070713
635.718639	5287.537720
636.063968	5283.966062
636.409245	5203.368095
636.754470	5181.812121
637.099642	5139.274865
637.444762	5093.425570
637.789829	5077.462757
638.134845	5028.487947
638.479808	5003.723279
638.824719	4995.130632
639.169577	4939.083084
639.514383	4937.172486
639.859137	4878.327097
640.203839	4873.038927
640.548489	4846.164536
640.893086	4821.901462
641.237632	4788.448366
641.582125	4788.453407
641.926566	4757.031895
642.270955	4754.458386
642.615292	4740.179317
642.959576	4733.877875
643.303809	4719.654260
643.647990	4702.968040
643.992118	4685.238302
644.336195	4644.946880
644.680219	4640.538391
645.024192	4629.830980
645.368112	4663.185775
645.711981	4662.595960
646.055797	4698.002504
646.399562	4656.407943
646.743274	4705.407959
647.086935	4724.506370
647.430544	4706.748906
647.774101	4698.234397
648.117606	4692.870609
648.461059	4675.423176
648.804460	4638.642917
649.147810	4579.989092
649.491108	4546.546078
649.834354	4523.878529
650.177548	4466.094303
650.520690	4407.929470
650.863781	4383.605903
651.206820	4379.152044
651.549807	4330.328469
651.892742	4283.803660
652.235626	4280.463895
652.578458	4259.507819
652.921238	4204.488666
653.263967	4212.078123
653.606644	4176.096887
653.949269	4158.440246
654.291843	4123.938589
654.634365	4140.549191
654.976836	4100.701390
655.319255	4092.025565
655.661622	4068.546391
656.003938	4051.726581
656.346203	4033.195299
656.688416	4028.310421
657.030577	4002.172038
657.372687	3976.479798
657.714746	3962.256182
658.056753	3966.006801
658.398708	3928.971964
658.740612	3922.710851
659.082465	3923.083896
659.424266	3913.470416
659.766016	3902.420207
660.107715	3879.533368
660.449362	3877.078326
660.790958	3866.668344
661.132503	3849.137731
661.473996	3852.457331
661.815438	3836.292871
662.156829	3831.178621
662.498168	3816.392916
662.839456	3799.605874
663.180693	3801.584527
663.521879	3794.612611
663.863013	3782.599542
664.204097	3768.290226
664.545129	3785.472999
664.886110	3765.164711
665.227040	3766.906430
665.567918	3752.443359
665.908746	3747.205600
666.249522	3739.716966
666.590248	3733.904516
666.930922	3732.233373
667.271545	3722.982856
667.612118	3716.348698
667.952639	3699.133157
668.293109	3691.762990
668.633528	3670.789270
668.973896	3660.039009
669.314213	3649.112308
669.654480	3629.945841
669.994695	3619.155252
670.334859	3605.869291
670.674973	3588.689038
671.015035	3584.751897
671.355047	3571.564239
671.695008	3558.275757
672.034918	3546.567677
672.374777	3542.149106
672.714585	3529.808361
673.054342	3525.334337
673.394049	3512.164323
673.733705	3512.250022
674.073310	3495.982219
674.412864	3486.714058
674.752368	3468.139926
675.091820	3460.517702
675.431223	3430.853032
675.770574	3424.203750
676.109875	3401.258938
676.449125	3391.824419
676.788324	3371.667365
677.127473	3356.979963
677.466571	3340.137468
677.805619	3329.450222
678.144616	3319.781289
678.483562	3303.964669
678.822458	3289.433543
679.161303	3282.325516
679.500098	3273.465688
679.838842	3261.606374
680.177535	3256.429109
680.516179	3256.267792
680.854771	3252.275198
681.193314	3266.662651
681.531805	3288.085034
681.870247	3321.593584
682.208638	3344.185515
682.546978	3338.564628
682.885268	3322.049808
683.223508	3294.643576
683.561697	3274.657921
683.899836	3260.981271
684.237925	3245.860330
684.575963	3235.707446
684.913951	3217.955023
685.251889	3230.015983
685.589776	3221.030127
685.927614	3213.007130
686.265401	3216.593911
686.603137	3215.338664
686.940824	3224.760580
687.278460	3226.943400
687.616046	3228.022207
687.953582	3240.708271
688.291068	3233.895151
688.628504	3243.952253
688.965889	3230.782239
689.303224	3214.343036
689.640510	3194.730427
689.977745	3169.733866
690.314930	3141.851244
690.652065	3122.836011
690.989150	3097.652927
691.326185	3074.761048
691.663170	3053.321020
692.000105	3031.999460
692.336990	3014.216790
692.673825	3001.059378
693.010610	2986.644199
693.347345	2967.185345
693.684030	2953.100361
694.020665	2943.070986
694.357251	2926.064653
694.693786	2924.978285
695.030272	2915.228693
695.366707	2904.987589
695.703093	2898.119017
696.039429	2894.635580
696.375716	2888.520660
696.711952	2882.640154
697.048139	2878.806357
697.384276	2875.005327
697.720363	2872.938453
698.056400	2870.990047
698.392388	2859.612163
698.728326	2856.557224
699.064214	2849.560102
699.400053	2842.139524
699.735842	2830.239880
700.071581	2828.601505
700.407270	2816.512818
700.742910	2812.215235
701.078501	2802.299285
701.414042	2798.024387
701.749533	2787.934517
702.084974	2781.630554
702.420366	2782.560647
702.755709	2772.982455
703.091002	2762.542225
703.426246	2766.131527
703.761440	2762.317894
704.096584	2754.781369
704.431679	2752.843045
704.766725	2747.731315
705.101721	2743.242168
705.436668	2746.786099
705.771565	2739.194121
706.106413	2738.649677
706.441212	2739.741087
706.775961	2739.161354
707.110661	2734.621795
707.445311	2738.261508
707.779913	2736.754203
708.114465	2738.765623
708.448967	2740.207393
708.783421	2743.877353
709.117825	2744.598238
709.452180	2746.460945
709.786485	2750.481265
710.120742	2760.263624
710.454949	2760.291350
710.789107	2765.733276
711.123216	2773.166457
711.457275	2772.632095
711.791286	2781.935544
712.125247	2781.953188
712.459159	2777.383382
712.793023	2781.998559
713.126837	2771.588576
713.460602	2766.232350
713.794318	2756.051740
714.127985	2751.585277
714.461602	2741.979359
714.795171	2734.793194
715.128691	2721.071173
715.462162	2714.172354
715.795584	2705.027701
716.128957	2702.663400
716.462281	2697.904551
716.795556	2690.804086
717.128782	2684.742098
717.461960	2677.293793
717.795088	2677.676921
718.128167	2673.028977
718.461198	2666.183090
718.794180	2665.968841
719.127113	2661.325938
719.459997	2663.564211
719.792833	2654.694301
720.125619	2654.623724
720.458357	2649.660708
720.791046	2646.333547
721.123686	2647.760193
721.456278	2643.364307
721.788821	2644.382620
722.121315	2639.593524
722.453761	2637.819038
722.786158	2638.217289
723.118506	2637.357772
723.450805	2635.558081
723.783056	2635.343832
724.115259	2635.089253
724.447412	2634.174284
724.779518	2634.217134
725.111574	2632.762761
725.443582	2634.428862
725.775542	2633.740745
726.107453	2639.631333
726.439315	2637.070427
726.771129	2643.684421
727.102895	2638.441621
727.434612	2642.802219
727.766281	2645.572333
728.097901	2641.773823
728.429473	2638.814666
728.760996	2638.948257
729.092471	2636.210910
729.423897	2637.224182
729.755276	2636.669655
730.086606	2636.185704
730.417887	2638.567649
730.749120	2642.298103
731.080305	2644.009575
731.411442	2643.323978
731.742530	2641.728453
732.073570	2641.355407
732.404562	2643.296252
732.735506	2642.454379
733.066401	2638.658390
733.397249	2635.285858
733.728048	2626.123561
734.058798	2620.863117
734.389501	2616.772221
734.720156	2613.470265
735.050762	2608.603031
735.381320	2609.775099
735.711831	2603.589603
736.042293	2603.186311
736.372707	2601.399222
736.703073	2601.363934
737.033391	2600.711105
737.363661	2603.171188
737.693883	2601.187494
738.024056	2608.865171
738.354182	2603.902155
738.684260	2605.764861
739.014290	2608.887856
739.344272	2609.943978
739.674207	2610.932044
740.004093	2612.678804
740.333931	2609.956581
740.663722	2609.099585
740.993464	2610.856427
741.323159	2607.385592
741.652806	2606.697475
741.982405	2603.534151
742.311956	2598.780343
742.641460	2601.331167
742.970915	2598.165322
743.300323	2595.122986
743.629683	2592.335227
743.958996	2591.911771
744.288260	2590.638879
744.617477	2586.512695
744.946647	2585.517067
745.275768	2584.012282
745.604842	2579.644123
745.933869	2577.189081
746.262847	2579.424832
746.591778	2580.160841
746.920662	2578.313258
747.249498	2579.134966
747.578286	2584.642427
747.907027	2584.571851
748.235720	2583.825760
748.564365	2582.759556
748.892963	2579.550861
749.221514	2582.656212
749.550017	2584.387848
749.878473	2581.169072
750.206881	2578.585480
750.535242	2581.436253
750.863555	2580.407857
751.191821	2578.648495
751.520039	2575.341498
751.848210	2577.133628
752.176334	2576.006930
752.504411	2579.132446
752.832440	2577.539441
753.160421	2574.275294
753.488356	2577.385686
753.816243	2576.500963
754.144082	2574.945767
754.471875	2573.693041
754.799620	2573.650191
755.127318	2572.800756
755.454969	2574.534913
755.782572	2574.565160
756.110129	2572.858730
756.437638	2570.822103
756.765100	2572.883935
757.092515	2573.861919
757.419882	2570.123904
757.747203	2571.666497
758.074477	2574.870150
758.401703	2574.348391
758.728882	2573.176322
759.056014	2574.827300
759.383099	2573.584656
759.710138	2577.083217
760.037129	2573.420818
760.364073	2575.487691
760.690970	2575.230592
761.017820	2573.463668
761.344623	2572.647001
761.671379	2575.628844
761.998088	2575.553226
762.324751	2575.265881
762.651366	2588.607294
762.977935	2609.691920
763.304456	2619.960751
763.630931	2622.829167
763.957359	2614.617127
764.283740	2602.304109
764.610074	2594.215578
764.936362	2588.095617
765.262602	2579.266036
765.588796	2576.513566
765.914943	2573.587176
766.241044	2572.896538
766.567097	2567.658779
766.893104	2568.588872
767.219064	2564.596278
767.544978	2564.815569
767.870845	2565.228943
768.196665	2564.054354
768.522438	2563.933367
768.848165	2560.366750
769.173846	2562.683161
769.499479	2560.964127
769.825066	2561.075033
770.150607	2559.534960
770.476101	2557.493293
770.801548	2559.734086
771.126949	2559.277861
771.452303	2557.697459
771.777611	2556.177552
772.102872	2555.693601
772.428087	2554.493806
772.753256	2557.470608
773.078378	2555.633107
773.403453	2554.909701
773.728482	2554.536656
774.053465	2555.428940
774.378401	2556.285936
774.703291	2554.125802
775.028135	2552.288301
775.352932	2550.801161
775.677683	2554.357695
776.002388	2552.126984
776.327046	2552.396686
776.651658	2554.675288
776.976224	2552.978939
777.300743	2554.067829
777.625216	2551.275029
777.949643	2555.411296
778.274024	2553.243600
778.598359	2550.155893
778.922647	2551.466593
779.246889	2551.801830
779.571086	2547.383259
779.895236	2552.066491
780.219339	2550.279402
780.543397	2552.288301
780.867409	2550.854093
781.191374	2552.691594
781.515294	2551.862324
781.839167	2550.710420
782.162995	2552.895760
782.486776	2549.694628
782.810511	2548.787220
783.134201	2553.510781
783.457844	2550.665050
783.781441	2552.936090
784.104993	2552.119423
784.428498	2551.441388
784.751958	2549.631613
785.075372	2550.387786
785.398739	2551.103630
785.722061	2548.948537
786.045337	2551.305276
786.368568	2549.820657
786.691752	2549.765204
787.014891	2551.554813
787.337983	2551.317879
787.661030	2553.107489
787.984031	2554.455997
788.306987	2557.153015
788.629897	2556.537994
788.952760	2557.752912
789.275579	2557.924311
789.598351	2554.760987
789.921078	2554.128322
790.243759	2552.734443
790.566395	2549.394679
790.888984	2552.063970
791.211529	2552.794937
791.534027	2552.568085
791.856480	2550.281922
792.178888	2549.132539
792.501249	2550.213867
792.823566	2551.859803
793.145836	2549.266130
793.468062	2550.881819
793.790241	2547.577343
794.112375	2548.966181
794.434464	2548.787220
794.756507	2552.709238
795.078505	2551.506922
795.400457	2552.061449
795.722364	2549.939124
796.044226	2550.788558
796.366042	2548.152035
796.687812	2549.682025
797.009538	2552.578168
797.331218	2554.934907
797.652852	2552.615976
797.974442	2552.615976
798.295986	2550.949875
798.617484	2551.456511
798.938938	2549.233362
799.260346	2550.826367
799.581709	2548.641027
799.903026	2551.126315
800.224299	2549.132539
800.545526	2548.643547
800.866708	2549.051881
801.187845	2548.426778
801.508936	2547.721016
801.829983	2548.454504
802.150984	2548.071376
802.471940	2548.794782
802.792851	2547.141283
803.113717	2548.210008
803.434538	2544.731612
803.755314	2545.853268
804.076045	2545.828063
804.396731	2549.117416
804.717372	2547.214380
805.037967	2549.203115
805.358518	2549.308979
805.679024	2547.945347
805.999485	2545.873433
806.319901	2547.448794
806.640272	2548.401572
806.960598	2547.337888
807.280879	2547.955430
807.601115	2548.487271
807.921306	2547.836963
808.241453	2546.135573
808.561554	2545.717157
808.881611	2547.494164
809.201623	2548.653629
809.521590	2548.020965
809.841513	2549.636654
810.161390	2546.979966
810.481223	2547.169010
810.801011	2546.369987
811.120755	2546.475851
811.440453	2548.867878
811.760107	2548.701520
812.079716	2547.393341
812.399281	2542.702547
812.718801	2543.897301
813.038276	2541.792619
813.357707	2547.002652
813.677093	2544.706406
813.996434	2549.374514
814.315731	2544.913093
814.634983	2545.384441
814.954191	2546.881664
815.273354	2545.449976
815.592473	2547.257230
815.911547	2546.740512
816.230577	2548.699000
816.549562	2549.926521
816.868502	2548.353681
817.187399	2550.133208
817.506250	2550.274360
817.825058	2548.877961
818.143821	2549.150183
818.462539	2548.656150
818.781213	2551.910215
819.099843	2551.423743
819.418429	2557.417675
819.736970	2558.496482
820.055466	2563.325908
820.373919	2566.698440
820.692327	2571.106929
821.010691	2580.894329
821.329011	2604.131527
821.647286	2648.488640
821.965517	2696.939170
822.283704	2729.515106
822.601847	2736.643297
822.919945	2713.426263
823.237999	2680.994000
823.556010	2656.272182
823.873976	2632.263687
824.191897	2615.408589
824.509775	2601.815117
824.827609	2591.112748
825.145398	2587.740216
825.463144	2585.320462
825.780845	2584.833991
826.098502	2593.497213
826.416116	2602.551126
826.733685	2617.117540
827.051210	2623.481997
827.368692	2620.094341
827.686129	2604.418873
828.003522	2592.241966
828.320872	2575.769996
828.638177	2568.961918
828.955439	2560.409600
829.272656	2559.882800
829.589830	2553.344423
829.906960	2557.223591
830.224046	2553.631769
830.541088	2554.171172
830.858086	2551.363250
831.175041	2549.649257
831.491952	2549.465255
831.808819	2551.741336
832.125642	2550.584391
832.442421	2555.764177
832.759157	2560.399518
833.075849	2567.071485
833.392497	2579.321489
833.709101	2584.649988
834.025662	2587.215936
834.342179	2578.212435
834.658653	2573.322516
834.975083	2568.538461
835.291469	2565.944787
835.607811	2557.026986
835.924110	2550.695297
836.240366	2550.796120
836.556578	2549.402241
836.872746	2548.963660
837.188871	2548.197405
837.504952	2547.395862
837.820990	2545.649102
838.136984	2545.565923
838.452935	2545.608772
838.768842	2547.048022
839.084706	2543.446117
839.400526	2552.142108
839.716303	2552.610935
840.032037	2561.488407
840.347727	2561.228788
840.663373	2557.561348
840.978977	2552.295863
841.294537	2549.119936
841.610054	2545.117260
841.925527	2544.754297
842.240957	2543.728422
842.556344	2544.207332
842.871687	2543.108360
843.186987	2542.818494
843.502244	2539.771116
843.817458	2540.960829
844.132629	2541.152392
844.447756	2540.318082
844.762840	2535.622247
845.077881	2537.444624
845.392879	2537.028729
845.707833	2537.779861
846.022745	2537.558050
846.337613	2541.437218
846.652438	2539.337577
846.967221	2541.013761
847.281960	2540.658359
847.596656	2540.121477
847.911309	2542.140459
848.225919	2541.311189
848.540485	2541.807743
848.855009	2541.326312
849.169490	2538.606610
849.483928	2540.643236
849.798323	2537.648791
850.112675	2540.325643
850.426984	2539.884542
850.741251	2540.912938
851.055474	2538.848585
851.369654	2541.459903
851.683792	2539.733308
851.997887	2540.365973
852.311938	2537.129552
852.625947	2542.500901
852.939914	2538.883873
853.253837	2539.332536
853.567718	2540.025695
853.881555	2541.046528
854.195350	2540.078627
854.509103	2538.430169
854.822812	2538.596527
855.136479	2540.809594
855.450103	2537.457227
855.763685	2540.481919
856.077224	2538.364634
856.390720	2539.274563
856.704173	2539.992927
857.017584	2541.210366
857.330953	2540.376055
857.644278	2538.152906
857.957561	2545.691952
858.270802	2543.864533
858.584000	2541.326312
858.897155	2539.012423
859.210268	2540.933102
859.523339	2538.346990
859.836367	2536.078471
860.149352	2538.956970
860.462295	2542.531148
860.775195	2537.333718
861.088054	2536.239788
861.400869	2538.893956
861.713642	2534.334232
862.026373	2540.882691
862.339062	2539.209028
862.651708	2540.726415
862.964312	2541.548123
863.276873	2540.512166
863.589392	2539.516538
863.901869	2540.229861
864.214303	2540.688606
864.526696	2540.484440
864.839045	2540.504604
865.151353	2541.709440
865.463619	2540.164326
865.775842	2541.346477
866.088023	2540.204656
866.400162	2543.640202
866.712258	2541.316230
867.024313	2541.487629
867.336325	2538.699871
867.648296	2543.146169
867.960224	2539.294727
868.272110	2541.560726
868.583954	2540.741538
868.895755	2542.657177
869.207515	2542.982331
869.519233	2541.477547
869.830909	2540.802032
870.142542	2540.250026
870.454134	2542.238761
870.765684	2541.696837
871.077191	2540.585263
871.388657	2543.020140
871.700081	2544.555171
872.011463	2545.366797
872.322803	2543.773793
872.634101	2544.910573
872.945357	2546.596839
873.256571	2542.442928
873.567744	2543.504091
873.878874	2544.817311
874.189963	2544.875285
874.501010	2544.673638
874.812015	2544.633309
875.122979	2543.773793
875.433900	2545.762528
875.744780	2544.683721
876.055618	2543.246992
876.366415	2545.051725
876.677169	2543.357897
876.987882	2543.715819
877.298554	2543.458720
877.609183	2542.851261
877.919771	2542.180788
878.230317	2544.870243
878.540822	2547.289997
878.851285	2549.117416
879.161707	2550.221428
879.472087	2554.027499
879.782425	2557.770556
880.092722	2566.582493
880.402977	2579.140007
880.713191	2600.690940
881.023363	2623.998715
881.333494	2639.648977
881.643583	2645.322796
881.953631	2642.645943
882.263637	2636.760396
882.573602	2630.015332
882.883526	2616.925976
883.193408	2604.547423
883.503248	2592.821699
883.813048	2587.094948
884.122806	2577.481468
884.432522	2573.536765
884.742197	2568.979562
885.051831	2565.115517
885.361424	2557.808365
885.670975	2560.079405
885.980485	2554.682849
886.289954	2553.649413
886.599382	2551.905174
886.908768	2551.985832
887.218113	2549.067004
887.527417	2550.319731
887.836680	2548.794782
888.145901	2544.668597
888.455082	2546.400234
888.764221	2548.187323
889.073319	2546.352343
889.382376	2546.254040
889.691392	2546.433001
890.000366	2545.797816
890.309300	2547.138763
890.618193	2546.939637
890.927044	2545.102137
891.235855	2545.114739
891.544625	2544.575336
891.853353	2547.284956
892.162041	2546.150697
892.470687	2551.088507
892.779293	2549.555996
893.087858	2546.468289
893.396381	2549.399720
893.704864	2553.909032
894.013306	2557.770556
894.321707	2568.954356
894.630068	2573.539285
894.938387	2577.736046
895.246665	2577.715881
895.554903	2573.284707
895.863100	2569.173646
896.171256	2563.220043
896.479371	2560.850701
896.787446	2557.226112
897.095480	2553.331820
897.403473	2551.587581
897.711425	2552.396686
898.019336	2549.722354
898.327207	2549.220759
898.635038	2550.193702
898.942827	2546.763197
899.250576	2547.390820
899.558284	2543.607434
899.865952	2547.718495
900.173579	2544.325799
900.481165	2546.369987
900.788711	2544.174564
901.096216	2546.206149
901.403681	2542.984852
901.711105	2542.004347
902.018489	2542.964687
902.325832	2542.957126
902.633135	2545.397044
902.940397	2547.252189
903.247619	2551.940462
903.554800	2554.009855
903.861941	2567.038718
904.169041	2584.642427
904.476101	2591.430340
904.783121	2592.211719
905.090100	2585.474217
905.397039	2575.389389
905.703938	2569.904613
906.010796	2562.428582
906.317614	2556.195196
906.624391	2551.542211
906.931129	2549.583722
907.237826	2546.322096
907.544483	2543.438556
907.851099	2544.179605
908.157675	2544.368649
908.464211	2544.192208
908.770707	2536.960673
909.077163	2539.670293
909.383578	2535.796167
909.689954	2540.527289
909.996289	2537.263142
910.302584	2542.463092
910.608839	2537.706764
910.915054	2537.933616
911.221229	2540.731456
911.527363	2541.782537
911.833458	2537.545447
912.139513	2540.358411
912.445527	2538.205838
912.751502	2542.447969
913.057436	2541.848072
913.363331	2544.167003
913.669186	2543.539379
913.975000	2546.153217
914.280775	2546.591797
914.586510	2552.563044
914.892205	2557.294167
915.197859	2564.513099
915.503475	2567.873028
915.809050	2579.215625
916.114585	2584.818867
916.420081	2586.779876
916.725536	2582.263002
917.030952	2581.622776
917.336328	2574.706313
917.641665	2574.078689
917.946961	2566.403532
918.252218	2560.873386
918.557435	2555.335679
918.862612	2553.359547
919.167750	2551.436346
919.472848	2548.482230
919.777906	2550.533980
920.082925	2549.626572
920.387904	2546.526263
920.692843	2547.355532
920.997743	2541.099460
921.302603	2541.104502
921.607423	2545.611293
921.912204	2544.441745
922.216946	2541.729605
922.521647	2540.557536
922.826310	2539.924872
923.130932	2540.562578
923.435516	2541.248174
923.740059	2541.467465
924.044564	2540.786909
924.349028	2538.909079
924.653454	2535.402957
924.957840	2537.414377
925.262186	2533.462112
925.566493	2533.837678
925.870761	2534.697195
926.174989	2538.294058
926.479178	2534.906403
926.783328	2534.767771
927.087438	2535.791125
927.391509	2537.079140
927.695541	2534.084695
927.999533	2536.741383
928.303486	2537.984027
928.607400	2536.416228
928.911275	2534.656866
929.215110	2536.338091
929.518906	2536.683410
929.822663	2537.169881
930.126381	2535.397915
930.430060	2534.097298
930.733699	2537.240457
931.037299	2535.332380
931.340861	2535.090405
931.644383	2535.745755
931.947866	2533.993954
932.251309	2537.764737
932.554714	2534.581248
932.858080	2539.060314
933.161407	2536.285158
933.464694	2535.337422
933.767943	2532.597554
934.071153	2535.523944
934.374323	2537.069058
934.677455	2536.282638
934.980548	2536.443955
935.283602	2535.975128
935.586617	2533.605785
935.889593	2537.462268
936.192530	2536.305323
936.495428	2533.767102
936.798287	2533.908254
937.101108	2535.604603
937.403890	2538.135262
937.706632	2537.177443
938.009336	2538.594007
938.312002	2535.037473
938.614628	2538.848585
938.917216	2536.277597
939.219765	2541.144831
939.522275	2540.746580
939.824747	2539.256919
940.127179	2537.172402
940.429573	2534.838347
940.731929	2536.305323
941.034246	2532.244674
941.336524	2536.990920
941.638763	2539.120808
941.940964	2539.229192
942.243126	2537.580735
942.545250	2535.796167
942.847335	2536.448996
943.149381	2535.095446
943.451389	2536.411187
943.753359	2536.653163
944.055290	2533.872966
944.357182	2535.854140
944.659036	2538.397402
944.960851	2536.529654
945.262628	2536.696013
945.564367	2536.701054
945.866067	2534.069571
946.167729	2537.174922
946.469352	2534.182997
946.770937	2537.827752
947.072484	2536.350693
947.373992	2533.711649
947.675462	2532.098480
947.976893	2536.562422
948.278286	2535.183666
948.579641	2537.119469
948.880958	2534.566125
949.182236	2535.889428
949.483476	2536.257432
949.784678	2536.320447
950.085841	2533.073943
950.386967	2534.724921
950.688054	2533.928419
950.989103	2537.658873
951.290114	2534.969417
951.591087	2530.679395
951.892021	2536.960673
952.192917	2537.865560
952.493776	2537.525282
952.794596	2537.036290
953.095378	2534.024201
953.396122	2540.063503
953.696828	2535.128214
953.997496	2537.895807
954.298126	2534.114942
954.598718	2535.367668
954.899272	2534.893800
955.199788	2535.972607
955.500266	2533.683923
955.800706	2531.496062
956.101108	2530.205527
956.401472	2529.615712
956.701798	2528.972965
957.002087	2529.656041
957.302337	2533.792308
957.602550	2529.981196
957.902724	2537.774819
958.202861	2535.022349
958.502960	2533.106711
958.803022	2533.363810
959.103045	2532.065713
959.403031	2531.738038
959.702979	2533.260466
960.002889	2533.570497
960.302762	2530.767616
960.602596	2532.171577
960.902393	2533.809952
961.202153	2532.254756
961.501875	2529.890455
961.801559	2532.385826
962.101205	2530.820548
962.400814	2531.869108
962.700385	2528.904909
962.999918	2532.090918
963.299414	2534.926568
963.598873	2534.374561
963.898293	2534.049407
964.197677	2533.406660
964.497022	2532.738707
964.796331	2531.606968
965.095601	2531.067564
965.394835	2534.782895
965.694030	2533.101670
965.993189	2530.001360
966.292309	2530.429858
966.591393	2532.174097
966.890439	2532.768954
967.189447	2531.793490
967.488419	2530.520599
967.787353	2530.810465
968.086249	2530.691998
968.385108	2531.700229
968.683930	2532.411032
968.982714	2532.446320
969.281462	2529.698891
969.580172	2529.716535
969.878844	2531.312060
970.177480	2531.738038
970.476078	2529.829961
970.774639	2532.864736
971.073162	2530.233253
971.371649	2529.608150
971.670098	2525.219826
971.968510	2527.974816
972.266885	2522.807634
972.565223	2530.802904
972.863524	2533.348686
973.161788	2530.487832
973.460014	2532.968079
973.758204	2533.872966
974.056356	2530.145033
974.354471	2531.730476
974.652550	2530.374406
974.950591	2532.847092
975.248595	2529.693850
975.546563	2531.193593
975.844493	2530.497914
976.142386	2529.784591
976.440243	2532.176618
976.738062	2529.179652
977.035845	2529.683768
977.333590	2532.947915
977.631299	2530.969262
977.928971	2531.692667
978.226606	2529.179652
978.524204	2530.079498
978.821765	2530.573531
979.119290	2531.049920
979.416777	2530.260980
979.714228	2531.216278
980.011642	2530.122348
980.309020	2530.855836
980.606360	2531.349869
980.903664	2531.422966
981.200931	2531.238963
981.498162	2529.383819
981.795356	2528.274765
982.092513	2530.762574
982.389633	2533.341125
982.686717	2534.682072
982.983764	2533.416742
983.280775	2532.370703
983.577749	2530.850795
983.874686	2534.611495
984.171587	2531.143182
984.468451	2533.757020
984.765279	2530.626463
985.062070	2534.881197
985.358824	2531.057482
985.655543	2529.484642
985.952224	2530.255938
986.248869	2530.444982
986.545478	2526.001205
986.842050	2528.052954
987.138586	2527.702594
987.435086	2525.431554
987.731549	2524.877027
988.027975	2528.451205
988.324366	2528.489014
988.620719	2531.397760
988.917037	2528.597399
989.213318	2527.382481
989.509563	2529.245187
989.805772	2531.196114
990.101944	2530.134951
990.398080	2531.188552
990.694180	2528.665454
990.990244	2527.979857
991.286271	2529.028418
991.582262	2525.963396
991.878217	2528.897347
992.174136	2530.339118
992.470019	2526.210412
992.765865	2529.683768
993.061676	2529.434230
993.357450	2528.214271
993.653188	2529.953469
993.948890	2530.054292
994.244556	2527.468180
994.540186	2528.378109
994.835780	2528.579755
995.131337	2528.675537
995.426859	2529.686288
995.722345	2529.381298
996.017795	2529.509848
996.313208	2530.177801
996.608586	2529.101514
996.903928	2529.552698
997.199234	2529.560259
997.494504	2530.480270
997.789738	2525.817202
998.084936	2531.143182
998.380099	2526.399456
998.675225	2526.969106
998.970316	2528.693181
999.265371	2528.436082
999.560390	2529.628315
999.855373	2530.868439
1000.150320	2527.632018
1000.445232	2531.526309
1000.740108	2528.799045
1001.034948	2529.703932
1001.329752	2528.978006
1001.624521	2530.530681
1001.919254	2523.951976
1002.213951	2527.468180
1002.508613	2522.384177
1002.803239	2528.967924
1003.097829	2522.001049
1003.392384	2528.126051
1003.686903	2527.440454
1003.981386	2528.514220
1004.275834	2527.120341
1004.570246	2527.765608
1004.864623	2527.818541
1005.158964	2527.894158
1005.453270	2529.071267
1005.747540	2524.070443
1006.041775	2528.645290
1006.335974	2529.527492
1006.630138	2526.603623
1006.924266	2528.635208
1007.218359	2525.877696
1007.512416	2529.429189
1007.806438	2529.083870
1008.100425	2527.632018
1008.394376	2527.594209
1008.688292	2525.368540
1008.982172	2527.175793
1009.276017	2527.049765
1009.569827	2527.677388
1009.863602	2530.099663
1010.157341	2524.428365
1010.451045	2527.090094
1010.744714	2528.705784
1011.038347	2528.630166
1011.331945	2527.886596
1011.625508	2529.532533
1011.919036	2527.634538
1012.212528	2525.676050
1012.505986	2529.262831
1012.799408	2529.971113
1013.092795	2526.275947
1013.386147	2527.140505
1013.679464	2530.013963
1013.972745	2526.573376
1014.265992	2526.974147
1014.559204	2527.906761
1014.852380	2527.256452
1015.145521	2527.569003
1015.438628	2527.349713
1015.731699	2529.202337
1016.024736	2524.347706
1016.317737	2528.799045
1016.610703	2527.311905
1016.903635	2523.175638
1017.196531	2523.331914
1017.489393	2525.232429
1017.782219	2524.020031
1018.075011	2527.175793
1018.367768	2525.696215
1018.660490	2525.217305
1018.953177	2525.217305
1019.245829	2525.217305
