Dividing Wavelength (nm)	Counts (n)	Blue Motor Position (mm): 0.000000	Red Motor Position (mm): 4.900000	
326.493990	2081.996538
326.888308	2081.996538
327.282561	2081.996538
327.676750	2041.667308
328.070874	2094.599423
328.464933	2069.393654
328.858929	2069.393654
329.252859	2076.955385
329.646726	2094.599423
330.040528	2094.599423
330.434265	2152.572692
330.827938	2142.490385
331.221547	2137.449231
331.615091	2200.463654
332.008571	2119.805192
332.401986	2195.422500
332.795338	2240.792885
333.188625	2177.778462
333.581847	2253.395769
333.975006	2268.519231
334.368100	2235.751731
334.761129	2329.013077
335.154095	2313.889615
335.546996	2361.780577
335.939833	2359.260000
336.332606	2417.233269
336.725315	2344.136538
337.117960	2326.492500
337.510540	2439.918462
337.903056	2419.753846
338.295508	2351.698269
338.687896	2482.768269
339.080220	2482.768269
339.472480	2535.700385
339.864676	2439.918462
340.256807	2510.494615
340.648875	2480.247692
341.040879	2500.412308
341.432818	2447.480192
341.824694	2475.206538
342.216506	2555.865000
342.608253	2515.535769
342.999937	2500.412308
343.391557	2523.097500
343.783113	2381.945192
344.174605	2533.179808
344.566033	2477.727115
344.957397	2485.288846
345.348697	2450.000769
345.739934	2460.083077
346.131106	2490.330000
346.522215	2472.685962
346.913260	2502.932885
347.304241	2505.453462
347.695159	2424.795000
348.086012	2460.083077
348.476802	2404.630385
348.867528	2404.630385
349.258191	2502.932885
349.648789	2457.562500
350.039324	2389.506923
350.429796	2553.344423
350.820203	2452.521346
351.210548	2475.206538
351.600828	2502.932885
351.991045	2450.000769
352.381198	2540.741538
352.771288	2434.877308
353.161314	2432.356731
353.551276	2470.165385
353.941175	2545.782692
354.331010	2470.165385
354.720782	2381.945192
355.110490	2455.041923
355.500135	2475.206538
355.889717	2442.439038
356.279235	2409.671538
356.668689	2404.630385
357.058080	2487.809423
357.447408	2407.150962
357.836672	2424.795000
358.225873	2525.618077
358.615010	2412.192115
359.004084	2467.644808
359.393095	2533.179808
359.782043	2492.850577
360.170927	2457.562500
360.559748	2384.465769
360.948505	2402.109808
361.337199	2510.494615
361.725830	2414.712692
362.114398	2497.891731
362.502903	2457.562500
362.891344	2525.618077
363.279722	2475.206538
363.668037	2467.644808
364.056289	2381.945192
364.444478	2467.644808
364.832603	2412.192115
365.220665	2467.644808
365.608665	2472.685962
365.996601	2490.330000
366.384474	2457.562500
366.772284	2424.795000
367.160031	2452.521346
367.547715	2444.959615
367.935336	2490.330000
368.322893	2487.809423
368.710388	2437.397885
369.097820	2429.836154
369.485189	2417.233269
369.872495	2490.330000
370.259738	2497.891731
370.646918	2422.274423
371.034035	2570.988462
371.421090	2477.727115
371.808081	2444.959615
372.195010	2467.644808
372.581875	2500.412308
372.968678	2434.877308
373.355418	2392.027500
373.742096	2432.356731
374.128710	2442.439038
374.515262	2485.288846
374.901751	2497.891731
375.288177	2540.741538
375.674540	2455.041923
376.060841	2515.535769
376.447079	2452.521346
376.833254	2492.850577
377.219367	2465.124231
377.605417	2447.480192
377.991404	2427.315577
378.377329	2429.836154
378.763191	2460.083077
379.148991	2392.027500
379.534727	2487.809423
379.920402	2437.397885
380.306013	2470.165385
380.691563	2450.000769
381.077049	2530.659231
381.462474	2467.644808
381.847835	2472.685962
382.233134	2475.206538
382.618371	2570.988462
383.003545	2510.494615
383.388657	2543.262115
383.773706	2455.041923
384.158693	2477.727115
384.543618	2404.630385
384.928480	2485.288846
385.313280	2419.753846
385.698017	2477.727115
386.082692	2351.698269
386.467305	2442.439038
386.851856	2402.109808
387.236344	2530.659231
387.620770	2392.027500
388.005133	2460.083077
388.389435	2450.000769
388.773674	2535.700385
389.157851	2500.412308
389.541965	2490.330000
389.926018	2470.165385
390.310008	2444.959615
390.693936	2462.603654
391.077802	2510.494615
391.461606	2465.124231
391.845348	2510.494615
392.229027	2513.015192
392.612645	2490.330000
392.996200	2530.659231
393.379694	2447.480192
393.763125	2510.494615
394.146494	2434.877308
394.529801	2520.576923
394.913047	2555.865000
395.296230	2442.439038
395.679351	2434.877308
396.062410	2437.397885
396.445408	2475.206538
396.828343	2437.397885
397.211217	2389.506923
397.594028	2487.809423
397.976778	2507.974038
398.359466	2482.768269
398.742092	2462.603654
399.124656	2424.795000
399.507158	2427.315577
399.889598	2477.727115
400.271977	2394.548077
400.654294	2455.041923
401.036549	2482.768269
401.418742	2386.986346
401.800874	2502.932885
402.182944	2477.727115
402.564952	2462.603654
402.946898	2419.753846
403.328783	2412.192115
403.710606	2460.083077
404.092367	2502.932885
404.474067	2465.124231
404.855705	2500.412308
405.237282	2485.288846
405.618797	2399.589231
406.000250	2515.535769
406.381642	2548.303269
406.762972	2485.288846
407.144240	2502.932885
407.525447	2434.877308
407.906593	2422.274423
408.287677	2462.603654
408.668700	2457.562500
409.049661	2455.041923
409.430560	2502.932885
409.811399	2434.877308
410.192176	2500.412308
410.572891	2442.439038
410.953545	2452.521346
411.334138	2414.712692
411.714669	2502.932885
412.095139	2455.041923
412.475547	2515.535769
412.855894	2500.412308
413.236180	2477.727115
413.616405	2500.412308
413.996568	2513.015192
414.376670	2432.356731
414.756711	2465.124231
415.136691	2432.356731
415.516609	2419.753846
415.896466	2455.041923
416.276262	2429.836154
416.655997	2437.397885
417.035670	2444.959615
417.415283	2500.412308
417.794834	2447.480192
418.174324	2444.959615
418.553753	2513.015192
418.933121	2487.809423
419.312428	2460.083077
419.691674	2513.015192
420.070859	2487.809423
420.449983	2560.906154
420.829045	2447.480192
421.208047	2495.371154
421.586988	2525.618077
421.965867	2543.262115
422.344686	2465.124231
422.723444	2513.015192
423.102141	2442.439038
423.480777	2588.632500
423.859352	2394.548077
424.237866	2467.644808
424.616319	2414.712692
424.994712	2540.741538
425.373044	2477.727115
425.751314	2497.891731
426.129524	2528.138654
426.507673	2467.644808
426.885762	2515.535769
427.263789	2477.727115
427.641756	2533.179808
428.019662	2487.809423
428.397508	2477.727115
428.775292	2457.562500
429.153016	2482.768269
429.530679	2545.782692
429.908282	2462.603654
430.285824	2432.356731
430.663305	2518.056346
431.040726	2450.000769
431.418086	2467.644808
431.795385	2475.206538
432.172624	2450.000769
432.549802	2492.850577
432.926920	2475.206538
433.303977	2452.521346
433.680974	2417.233269
434.057910	2535.700385
434.434786	2460.083077
434.811601	2477.727115
435.188355	2485.288846
435.565050	2558.385577
435.941683	2492.850577
436.318257	2495.371154
436.694770	2487.809423
437.071222	2502.932885
437.447614	2502.932885
437.823946	2485.288846
438.200218	2432.356731
438.576429	2497.891731
438.952580	2465.124231
439.328670	2485.288846
439.704700	2452.521346
440.080670	2515.535769
440.456580	2467.644808
440.832429	2482.768269
441.208218	2447.480192
441.583947	2525.618077
441.959616	2523.097500
442.335224	2427.315577
442.710773	2495.371154
443.086261	2427.315577
443.461689	2558.385577
443.837057	2490.330000
444.212365	2482.768269
444.587612	2457.562500
444.962800	2467.644808
445.337927	2457.562500
445.712995	2480.247692
446.088002	2465.124231
446.462949	2538.220962
446.837837	2533.179808
447.212664	2437.397885
447.587431	2510.494615
447.962139	2523.097500
448.336786	2507.974038
448.711374	2485.288846
449.085901	2507.974038
449.460369	2515.535769
449.834776	2576.029615
450.209124	2477.727115
450.583412	2407.150962
450.957640	2376.904038
451.331808	2422.274423
451.705917	2497.891731
452.079965	2553.344423
452.453954	2502.932885
452.827883	2538.220962
453.201752	2510.494615
453.575562	2412.192115
453.949311	2450.000769
454.323001	2525.618077
454.696632	2487.809423
455.070202	2515.535769
455.443713	2475.206538
455.817164	2460.083077
456.190556	2588.632500
456.563888	2528.138654
456.937160	2462.603654
457.310373	2513.015192
457.683526	2535.700385
458.056619	2497.891731
458.429653	2497.891731
458.802628	2444.959615
459.175542	2485.288846
459.548398	2513.015192
459.921194	2497.891731
460.293930	2452.521346
460.666607	2618.879423
461.039224	2467.644808
461.411782	2444.959615
461.784280	2487.809423
462.156719	2500.412308
462.529099	2472.685962
462.901419	2442.439038
463.273680	2472.685962
463.645882	2528.138654
464.018024	2550.823846
464.390106	2455.041923
464.762130	2565.947308
465.134094	2424.795000
465.505999	2543.262115
465.877845	2555.865000
466.249631	2452.521346
466.621358	2533.179808
466.993026	2447.480192
467.364634	2485.288846
467.736184	2513.015192
468.107674	2535.700385
468.479105	2439.918462
468.850477	2492.850577
469.221790	2507.974038
469.593043	2490.330000
469.964238	2386.986346
470.335373	2540.741538
470.706449	2500.412308
471.077467	2462.603654
471.448425	2485.288846
471.819324	2422.274423
472.190164	2545.782692
472.560945	2500.412308
472.931667	2505.453462
473.302330	2502.932885
473.672934	2560.906154
474.043479	2528.138654
474.413965	2439.918462
474.784393	2457.562500
475.154761	2515.535769
475.525070	2389.506923
475.895321	2437.397885
476.265513	2465.124231
476.635645	2472.685962
477.005719	2487.809423
477.375734	2475.206538
477.745691	2497.891731
478.115588	2502.932885
478.485427	2419.753846
478.855207	2528.138654
479.224928	2513.015192
479.594591	2543.262115
479.964194	2576.029615
480.333739	2490.330000
480.703226	2533.179808
481.072653	2460.083077
481.442022	2369.342308
481.811333	2518.056346
482.180584	2586.111923
482.549777	2495.371154
482.918912	2490.330000
483.287988	2424.795000
483.657005	2538.220962
484.025964	2518.056346
484.394864	2507.974038
484.763706	2485.288846
485.132489	2497.891731
485.501213	2467.644808
485.869879	2492.850577
486.238487	2492.850577
486.607036	2472.685962
486.975527	2528.138654
487.343959	2457.562500
487.712333	2414.712692
488.080648	2444.959615
488.448905	2485.288846
488.817104	2487.809423
489.185244	2482.768269
489.553326	2528.138654
489.921350	2502.932885
490.289315	2492.850577
490.657222	2422.274423
491.025070	2570.988462
491.392861	2518.056346
491.760593	2465.124231
492.128267	2490.330000
492.495883	2525.618077
492.863440	2515.535769
493.230939	2467.644808
493.598380	2477.727115
493.965763	2480.247692
494.333088	2432.356731
494.700354	2492.850577
495.067563	2502.932885
495.434713	2492.850577
495.801805	2520.576923
496.168839	2525.618077
496.535815	2515.535769
496.902733	2475.206538
497.269593	2399.589231
497.636395	2576.029615
498.003139	2513.015192
498.369825	2457.562500
498.736453	2492.850577
499.103023	2586.111923
499.469535	2523.097500
499.835989	2480.247692
500.202385	2447.480192
500.568723	2495.371154
500.935003	2568.467885
501.301226	2480.247692
501.667390	2555.865000
502.033497	2462.603654
502.399546	2492.850577
502.765537	2502.932885
503.131470	2505.453462
503.497345	2467.644808
503.863163	2576.029615
504.228923	2450.000769
504.594625	2520.576923
504.960269	2492.850577
505.325856	2533.179808
505.691385	2558.385577
506.056856	2570.988462
506.422270	2439.918462
506.787625	2500.412308
507.152924	2520.576923
507.518164	2583.591346
507.883347	2495.371154
508.248472	2515.535769
508.613540	2490.330000
508.978550	2530.659231
509.343503	2500.412308
509.708398	2538.220962
510.073236	2492.850577
510.438016	2485.288846
510.802738	2490.330000
511.167403	2490.330000
511.532010	2472.685962
511.896561	2591.153077
512.261053	2472.685962
512.625488	2439.918462
512.989866	2510.494615
513.354186	2475.206538
513.718449	2480.247692
514.082655	2505.453462
514.446803	2485.288846
514.810894	2419.753846
515.174927	2548.303269
515.538904	2404.630385
515.902822	2502.932885
516.266684	2502.932885
516.630488	2555.865000
516.994235	2523.097500
517.357925	2462.603654
517.721558	2439.918462
518.085133	2596.194231
518.448651	2432.356731
518.812112	2510.494615
519.175516	2576.029615
519.538863	2591.153077
519.902152	2578.550192
520.265385	2495.371154
520.628560	2475.206538
520.991678	2518.056346
521.354739	2460.083077
521.717743	2548.303269
522.080690	2472.685962
522.443580	2487.809423
522.806413	2447.480192
523.169189	2485.288846
523.531908	2487.809423
523.894569	2555.865000
524.257174	2502.932885
524.619722	2538.220962
524.982213	2487.809423
525.344647	2528.138654
525.707025	2402.109808
526.069345	2570.988462
526.431608	2457.562500
526.793815	2487.809423
527.155964	2528.138654
527.518057	2485.288846
527.880093	2399.589231
528.242072	2548.303269
528.603995	2502.932885
528.965860	2518.056346
529.327669	2523.097500
529.689421	2475.206538
530.051117	2603.755962
530.412755	2470.165385
530.774337	2487.809423
531.135862	2480.247692
531.497331	2548.303269
531.858743	2495.371154
532.220098	2470.165385
532.581396	2538.220962
532.942638	2434.877308
533.303824	2533.179808
533.664953	2452.521346
534.026025	2520.576923
534.387040	2477.727115
534.747999	2533.179808
535.108902	2530.659231
535.469748	2515.535769
535.830537	2450.000769
536.191270	2507.974038
536.551947	2480.247692
536.912567	2480.247692
537.273131	2533.179808
537.633638	2460.083077
537.994089	2553.344423
538.354483	2444.959615
538.714821	2465.124231
539.075103	2586.111923
539.435328	2510.494615
539.795497	2565.947308
540.155609	2497.891731
540.515665	2497.891731
540.875665	2518.056346
541.235609	2586.111923
541.595496	2523.097500
541.955328	2442.439038
542.315102	2523.097500
542.674821	2608.797115
543.034483	2467.644808
543.394090	2565.947308
543.753640	2475.206538
544.113134	2520.576923
544.472571	2502.932885
544.831953	2558.385577
545.191278	2432.356731
545.550548	2548.303269
545.909761	2525.618077
546.268918	2530.659231
546.628019	2482.768269
546.987064	2490.330000
547.346053	2513.015192
547.704986	2528.138654
548.063863	2485.288846
548.422684	2480.247692
548.781449	2455.041923
549.140158	2485.288846
549.498811	2472.685962
549.857408	2482.768269
550.215949	2460.083077
550.574434	2502.932885
550.932864	2492.850577
551.291237	2540.741538
551.649555	2576.029615
552.007817	2439.918462
552.366022	2550.823846
552.724173	2525.618077
553.082267	2495.371154
553.440305	2462.603654
553.798288	2485.288846
554.156215	2465.124231
554.514086	2513.015192
554.871902	2452.521346
555.229661	2515.535769
555.587365	2472.685962
555.945014	2502.932885
556.302606	2565.947308
556.660143	2465.124231
557.017625	2507.974038
557.375050	2485.288846
557.732421	2490.330000
558.089735	2462.603654
558.446994	2639.044038
558.804197	2427.315577
559.161345	2518.056346
559.518437	2450.000769
559.875474	2455.041923
560.232455	2467.644808
560.589381	2578.550192
560.946251	2482.768269
561.303065	2545.782692
561.659825	2467.644808
562.016528	2528.138654
562.373177	2518.056346
562.729770	2439.918462
563.086307	2568.467885
563.442789	2487.809423
563.799216	2578.550192
564.155587	2497.891731
564.511904	2550.823846
564.868164	2573.509038
565.224370	2518.056346
565.580520	2462.603654
565.936615	2452.521346
566.292654	2475.206538
566.648638	2510.494615
567.004567	2371.862885
567.360441	2450.000769
567.716260	2515.535769
568.072023	2467.644808
568.427732	2510.494615
568.783385	2450.000769
569.138982	2414.712692
569.494525	2528.138654
569.850013	2482.768269
570.205445	2455.041923
570.560823	2490.330000
570.916145	2477.727115
571.271412	2477.727115
571.626625	2500.412308
571.981782	2548.303269
572.336884	2530.659231
572.691931	2523.097500
573.046923	2487.809423
573.401860	2525.618077
573.756743	2477.727115
574.111570	2485.288846
574.466342	2495.371154
574.821059	2518.056346
575.175722	2553.344423
575.530330	2513.015192
575.884882	2553.344423
576.239380	2507.974038
576.593823	2502.932885
576.948211	2545.782692
577.302544	2510.494615
577.656823	2455.041923
578.011047	2558.385577
578.365216	2510.494615
578.719330	2533.179808
579.073389	2535.700385
579.427394	2538.220962
579.781344	2477.727115
580.135239	2480.247692
580.489080	2495.371154
580.842866	2538.220962
581.196597	2472.685962
581.550273	2573.509038
581.903895	2576.029615
582.257463	2437.397885
582.610975	2487.809423
582.964434	2510.494615
583.317837	2500.412308
583.671186	2381.945192
584.024481	2492.850577
584.377721	2528.138654
584.730906	2480.247692
585.084037	2530.659231
585.437113	2429.836154
585.790135	2616.358846
586.143103	2618.879423
586.496016	2540.741538
586.848874	2465.124231
587.201679	2500.412308
587.554428	2543.262115
587.907124	2502.932885
588.259765	2535.700385
588.612352	2568.467885
588.964884	2606.276538
589.317362	2570.988462
589.669786	2424.795000
590.022155	2553.344423
590.374470	2543.262115
590.726731	2462.603654
591.078937	2490.330000
591.431090	2472.685962
591.783188	2555.865000
592.135232	2540.741538
592.487222	2495.371154
592.839157	2545.782692
593.191038	2450.000769
593.542866	2543.262115
593.894639	2500.412308
594.246358	2447.480192
594.598022	2487.809423
594.949633	2520.576923
595.301190	2505.453462
595.652692	2450.000769
596.004141	2583.591346
596.355535	2442.439038
596.706876	2409.671538
597.058162	2422.274423
597.409395	2505.453462
597.760573	2530.659231
598.111698	2525.618077
598.462768	2490.330000
598.813785	2606.276538
599.164748	2548.303269
599.515657	2439.918462
599.866511	2497.891731
600.217312	2530.659231
600.568060	2437.397885
600.918753	2518.056346
601.269392	2490.330000
601.619978	2513.015192
601.970510	2500.412308
602.320988	2472.685962
602.671412	2538.220962
603.021783	2515.535769
603.372100	2429.836154
603.722363	2475.206538
604.072572	2530.659231
604.422728	2538.220962
604.772830	2568.467885
605.122878	2460.083077
605.472872	2507.974038
605.822813	2500.412308
606.172701	2502.932885
606.522534	2553.344423
606.872314	2455.041923
607.222041	2558.385577
607.571714	2485.288846
607.921333	2560.906154
608.270899	2510.494615
608.620411	2487.809423
608.969870	2507.974038
609.319276	2482.768269
609.668627	2500.412308
610.017926	2545.782692
610.367171	2543.262115
610.716362	2442.439038
611.065500	2535.700385
611.414585	2525.618077
611.763616	2472.685962
612.112594	2490.330000
612.461518	2455.041923
612.810389	2497.891731
613.159207	2568.467885
613.507971	2490.330000
613.856682	2515.535769
614.205340	2513.015192
614.553945	2442.439038
614.902496	2462.603654
615.250994	2389.506923
615.599439	2502.932885
615.947830	2570.988462
616.296169	2465.124231
616.644454	2500.412308
616.992686	2505.453462
617.340864	2450.000769
617.688990	2545.782692
618.037063	2528.138654
618.385082	2465.124231
618.733048	2639.044038
619.080961	2490.330000
619.428821	2507.974038
619.776628	2472.685962
620.124382	2487.809423
620.472083	2513.015192
620.819731	2520.576923
621.167326	2422.274423
621.514868	2455.041923
621.862357	2502.932885
622.209793	2485.288846
622.557176	2480.247692
622.904506	2505.453462
623.251783	2397.068654
623.599007	2505.453462
623.946179	2492.850577
624.293297	2525.618077
624.640363	2502.932885
624.987376	2482.768269
625.334336	2573.509038
625.681243	2515.535769
626.028097	2533.179808
626.374899	2455.041923
626.721647	2560.906154
627.068343	2505.453462
627.414987	2482.768269
627.761577	2540.741538
628.108115	2513.015192
628.454600	2535.700385
628.801032	2422.274423
629.147412	2570.988462
629.493739	2444.959615
629.840014	2500.412308
630.186236	2513.015192
630.532405	2530.659231
630.878521	2465.124231
631.224585	2452.521346
631.570597	2470.165385
631.916556	2495.371154
632.262462	2450.000769
632.608316	2477.727115
632.954117	2490.330000
633.299866	2550.823846
633.645562	2558.385577
633.991206	2470.165385
634.336797	2573.509038
634.682336	2510.494615
635.027823	2530.659231
635.373257	2437.397885
635.718639	2510.494615
636.063968	2429.836154
636.409245	2455.041923
636.754470	2485.288846
637.099642	2467.644808
637.444762	2475.206538
637.789829	2555.865000
638.134845	2482.768269
638.479808	2543.262115
638.824719	2487.809423
639.169577	2467.644808
639.514383	2538.220962
639.859137	2555.865000
640.203839	2510.494615
640.548489	2553.344423
640.893086	2528.138654
641.237632	2548.303269
641.582125	2528.138654
641.926566	2495.371154
642.270955	2419.753846
642.615292	2538.220962
642.959576	2523.097500
643.303809	2457.562500
643.647990	2518.056346
643.992118	2384.465769
644.336195	2523.097500
644.680219	2490.330000
645.024192	2528.138654
645.368112	2497.891731
645.711981	2492.850577
646.055797	2520.576923
646.399562	2485.288846
646.743274	2543.262115
647.086935	2523.097500
647.430544	2434.877308
647.774101	2510.494615
648.117606	2533.179808
648.461059	2465.124231
648.804460	2550.823846
649.147810	2563.426731
649.491108	2535.700385
649.834354	2530.659231
650.177548	2518.056346
650.520690	2480.247692
650.863781	2520.576923
651.206820	2538.220962
651.549807	2490.330000
651.892742	2523.097500
652.235626	2419.753846
652.578458	2444.959615
652.921238	2533.179808
653.263967	2444.959615
653.606644	2520.576923
653.949269	2465.124231
654.291843	2447.480192
654.634365	2576.029615
654.976836	2417.233269
655.319255	2525.618077
655.661622	2447.480192
656.003938	2538.220962
656.346203	2518.056346
656.688416	2477.727115
657.030577	2467.644808
657.372687	2497.891731
657.714746	2533.179808
658.056753	2432.356731
658.398708	2487.809423
658.740612	2528.138654
659.082465	2588.632500
659.424266	2485.288846
659.766016	2470.165385
660.107715	2563.426731
660.449362	2518.056346
660.790958	2462.603654
661.132503	2422.274423
661.473996	2389.506923
661.815438	2555.865000
662.156829	2543.262115
662.498168	2485.288846
662.839456	2444.959615
663.180693	2586.111923
663.521879	2507.974038
663.863013	2505.453462
664.204097	2618.879423
664.545129	2548.303269
664.886110	2558.385577
665.227040	2513.015192
665.567918	2523.097500
665.908746	2427.315577
666.249522	2533.179808
666.590248	2523.097500
666.930922	2495.371154
667.271545	2510.494615
667.612118	2392.027500
667.952639	2475.206538
668.293109	2444.959615
668.633528	2487.809423
668.973896	2570.988462
669.314213	2490.330000
669.654480	2639.044038
669.994695	2513.015192
670.334859	2497.891731
670.674973	2510.494615
671.015035	2565.947308
671.355047	2487.809423
671.695008	2475.206538
672.034918	2528.138654
672.374777	2485.288846
672.714585	2502.932885
673.054342	2462.603654
673.394049	2497.891731
673.733705	2507.974038
674.073310	2487.809423
674.412864	2515.535769
674.752368	2384.465769
675.091820	2386.986346
675.431223	2477.727115
675.770574	2502.932885
676.109875	2523.097500
676.449125	2502.932885
676.788324	2472.685962
677.127473	2437.397885
677.466571	2475.206538
677.805619	2490.330000
678.144616	2490.330000
678.483562	2530.659231
678.822458	2548.303269
679.161303	2502.932885
679.500098	2535.700385
679.838842	2505.453462
680.177535	2470.165385
680.516179	2523.097500
680.854771	2485.288846
681.193314	2513.015192
681.531805	2543.262115
681.870247	2444.959615
682.208638	2525.618077
682.546978	2528.138654
682.885268	2465.124231
683.223508	2510.494615
683.561697	2432.356731
683.899836	2533.179808
684.237925	2457.562500
684.575963	2543.262115
684.913951	2470.165385
685.251889	2465.124231
685.589776	2480.247692
685.927614	2432.356731
686.265401	2520.576923
686.603137	2545.782692
686.940824	2492.850577
687.278460	2465.124231
687.616046	2485.288846
687.953582	2510.494615
688.291068	2407.150962
688.628504	2495.371154
688.965889	2507.974038
689.303224	2477.727115
689.640510	2570.988462
689.977745	2513.015192
690.314930	2477.727115
690.652065	2513.015192
690.989150	2573.509038
691.326185	2560.906154
691.663170	2500.412308
692.000105	2467.644808
692.336990	2485.288846
692.673825	2525.618077
693.010610	2525.618077
693.347345	2525.618077
693.684030	2533.179808
694.020665	2513.015192
694.357251	2467.644808
694.693786	2523.097500
695.030272	2457.562500
695.366707	2535.700385
695.703093	2505.453462
696.039429	2457.562500
696.375716	2500.412308
696.711952	2528.138654
697.048139	2502.932885
697.384276	2533.179808
697.720363	2487.809423
698.056400	2455.041923
698.392388	2497.891731
698.728326	2520.576923
699.064214	2465.124231
699.400053	2452.521346
699.735842	2472.685962
700.071581	2533.179808
700.407270	2455.041923
700.742910	2477.727115
701.078501	2419.753846
701.414042	2550.823846
701.749533	2394.548077
702.084974	2427.315577
702.420366	2482.768269
702.755709	2505.453462
703.091002	2450.000769
703.426246	2598.714808
703.761440	2482.768269
704.096584	2475.206538
704.431679	2472.685962
704.766725	2505.453462
705.101721	2427.315577
705.436668	2591.153077
705.771565	2462.603654
706.106413	2540.741538
706.441212	2507.974038
706.775961	2452.521346
707.110661	2525.618077
707.445311	2450.000769
707.779913	2560.906154
708.114465	2513.015192
708.448967	2505.453462
708.783421	2482.768269
709.117825	2535.700385
709.452180	2460.083077
709.786485	2535.700385
710.120742	2507.974038
710.454949	2581.070769
710.789107	2422.274423
711.123216	2540.741538
711.457275	2492.850577
711.791286	2523.097500
712.125247	2439.918462
712.459159	2596.194231
712.793023	2555.865000
713.126837	2550.823846
713.460602	2540.741538
713.794318	2570.988462
714.127985	2447.480192
714.461602	2533.179808
714.795171	2530.659231
715.128691	2455.041923
715.462162	2550.823846
715.795584	2462.603654
716.128957	2565.947308
716.462281	2500.412308
716.795556	2482.768269
717.128782	2490.330000
717.461960	2525.618077
717.795088	2558.385577
718.128167	2530.659231
718.461198	2500.412308
718.794180	2565.947308
719.127113	2447.480192
719.459997	2507.974038
719.792833	2429.836154
720.125619	2500.412308
720.458357	2528.138654
720.791046	2462.603654
721.123686	2593.673654
721.456278	2460.083077
721.788821	2525.618077
722.121315	2518.056346
722.453761	2586.111923
722.786158	2515.535769
723.118506	2545.782692
723.450805	2467.644808
723.783056	2397.068654
724.115259	2477.727115
724.447412	2573.509038
724.779518	2492.850577
725.111574	2472.685962
725.443582	2538.220962
725.775542	2462.603654
726.107453	2465.124231
726.439315	2500.412308
726.771129	2520.576923
727.102895	2553.344423
727.434612	2490.330000
727.766281	2528.138654
728.097901	2525.618077
728.429473	2495.371154
728.760996	2429.836154
729.092471	2470.165385
729.423897	2452.521346
729.755276	2533.179808
730.086606	2427.315577
730.417887	2444.959615
730.749120	2555.865000
731.080305	2545.782692
731.411442	2434.877308
731.742530	2533.179808
732.073570	2442.439038
732.404562	2452.521346
732.735506	2513.015192
733.066401	2507.974038
733.397249	2520.576923
733.728048	2520.576923
734.058798	2545.782692
734.389501	2510.494615
734.720156	2457.562500
735.050762	2470.165385
735.381320	2490.330000
735.711831	2492.850577
736.042293	2419.753846
736.372707	2523.097500
736.703073	2450.000769
737.033391	2485.288846
737.363661	2560.906154
737.693883	2480.247692
738.024056	2490.330000
738.354182	2535.700385
738.684260	2528.138654
739.014290	2460.083077
739.344272	2540.741538
739.674207	2439.918462
740.004093	2477.727115
740.333931	2412.192115
740.663722	2505.453462
740.993464	2475.206538
741.323159	2535.700385
741.652806	2477.727115
741.982405	2480.247692
742.311956	2462.603654
742.641460	2497.891731
742.970915	2452.521346
743.300323	2568.467885
743.629683	2565.947308
743.958996	2505.453462
744.288260	2472.685962
744.617477	2545.782692
744.946647	2407.150962
745.275768	2593.673654
745.604842	2422.274423
745.933869	2450.000769
746.262847	2497.891731
746.591778	2513.015192
746.920662	2490.330000
747.249498	2450.000769
747.578286	2505.453462
747.907027	2502.932885
748.235720	2495.371154
748.564365	2450.000769
748.892963	2515.535769
749.221514	2553.344423
749.550017	2460.083077
749.878473	2528.138654
750.206881	2414.712692
750.535242	2513.015192
750.863555	2465.124231
751.191821	2500.412308
751.520039	2472.685962
751.848210	2568.467885
752.176334	2596.194231
752.504411	2507.974038
752.832440	2460.083077
753.160421	2470.165385
753.488356	2502.932885
753.816243	2467.644808
754.144082	2457.562500
754.471875	2429.836154
754.799620	2500.412308
755.127318	2505.453462
755.454969	2412.192115
755.782572	2634.002885
756.110129	2490.330000
756.437638	2560.906154
756.765100	2497.891731
757.092515	2485.288846
757.419882	2530.659231
757.747203	2424.795000
758.074477	2515.535769
758.401703	2402.109808
758.728882	2538.220962
759.056014	2535.700385
759.383099	2543.262115
759.710138	2422.274423
760.037129	2520.576923
760.364073	2341.615962
760.690970	2553.344423
761.017820	2480.247692
761.344623	2429.836154
761.671379	2505.453462
761.998088	2530.659231
762.324751	2545.782692
762.651366	2515.535769
762.977935	2465.124231
763.304456	2482.768269
763.630931	2535.700385
763.957359	2502.932885
764.283740	2492.850577
764.610074	2447.480192
764.936362	2545.782692
765.262602	2447.480192
765.588796	2505.453462
765.914943	2515.535769
766.241044	2507.974038
766.567097	2417.233269
766.893104	2462.603654
767.219064	2502.932885
767.544978	2477.727115
767.870845	2497.891731
768.196665	2538.220962
768.522438	2525.618077
768.848165	2480.247692
769.173846	2497.891731
769.499479	2452.521346
769.825066	2578.550192
770.150607	2462.603654
770.476101	2500.412308
770.801548	2487.809423
771.126949	2490.330000
771.452303	2467.644808
771.777611	2515.535769
772.102872	2409.671538
772.428087	2502.932885
772.753256	2505.453462
773.078378	2518.056346
773.403453	2507.974038
773.728482	2545.782692
774.053465	2439.918462
774.378401	2513.015192
774.703291	2528.138654
775.028135	2482.768269
775.352932	2452.521346
775.677683	2505.453462
776.002388	2570.988462
776.327046	2518.056346
776.651658	2490.330000
776.976224	2500.412308
777.300743	2492.850577
777.625216	2485.288846
777.949643	2518.056346
778.274024	2495.371154
778.598359	2560.906154
778.922647	2455.041923
779.246889	2497.891731
779.571086	2432.356731
779.895236	2447.480192
780.219339	2470.165385
780.543397	2573.509038
780.867409	2417.233269
781.191374	2530.659231
781.515294	2472.685962
781.839167	2475.206538
782.162995	2535.700385
782.486776	2528.138654
782.810511	2444.959615
783.134201	2545.782692
783.457844	2492.850577
783.781441	2543.262115
784.104993	2538.220962
784.428498	2573.509038
784.751958	2573.509038
785.075372	2429.836154
785.398739	2581.070769
785.722061	2492.850577
786.045337	2535.700385
786.368568	2455.041923
786.691752	2515.535769
787.014891	2444.959615
787.337983	2510.494615
787.661030	2487.809423
787.984031	2507.974038
788.306987	2457.562500
788.629897	2447.480192
788.952760	2495.371154
789.275579	2533.179808
789.598351	2422.274423
789.921078	2507.974038
790.243759	2386.986346
790.566395	2452.521346
790.888984	2500.412308
791.211529	2485.288846
791.534027	2477.727115
791.856480	2407.150962
792.178888	2429.836154
792.501249	2414.712692
792.823566	2467.644808
793.145836	2492.850577
793.468062	2523.097500
793.790241	2540.741538
794.112375	2548.303269
794.434464	2442.439038
794.756507	2525.618077
795.078505	2485.288846
795.400457	2480.247692
795.722364	2558.385577
796.044226	2414.712692
796.366042	2573.509038
796.687812	2492.850577
797.009538	2465.124231
797.331218	2492.850577
797.652852	2487.809423
797.974442	2500.412308
798.295986	2535.700385
798.617484	2492.850577
798.938938	2611.317692
799.260346	2482.768269
799.581709	2505.453462
799.903026	2437.397885
800.224299	2525.618077
800.545526	2470.165385
800.866708	2510.494615
801.187845	2462.603654
801.508936	2548.303269
801.829983	2553.344423
802.150984	2455.041923
802.471940	2495.371154
802.792851	2485.288846
803.113717	2407.150962
803.434538	2515.535769
803.755314	2553.344423
804.076045	2528.138654
804.396731	2497.891731
804.717372	2502.932885
805.037967	2492.850577
805.358518	2540.741538
805.679024	2472.685962
805.999485	2447.480192
806.319901	2480.247692
806.640272	2540.741538
806.960598	2399.589231
807.280879	2460.083077
807.601115	2482.768269
807.921306	2399.589231
808.241453	2490.330000
808.561554	2429.836154
808.881611	2364.301154
809.201623	2520.576923
809.521590	2485.288846
809.841513	2460.083077
810.161390	2505.453462
810.481223	2518.056346
810.801011	2540.741538
811.120755	2487.809423
811.440453	2485.288846
811.760107	2407.150962
812.079716	2432.356731
812.399281	2439.918462
812.718801	2518.056346
813.038276	2432.356731
813.357707	2518.056346
813.677093	2515.535769
813.996434	2439.918462
814.315731	2427.315577
814.634983	2565.947308
814.954191	2457.562500
815.273354	2568.467885
815.592473	2475.206538
815.911547	2462.603654
816.230577	2487.809423
816.549562	2462.603654
816.868502	2553.344423
817.187399	2482.768269
817.506250	2515.535769
817.825058	2528.138654
818.143821	2444.959615
818.462539	2495.371154
818.781213	2490.330000
819.099843	2502.932885
819.418429	2523.097500
819.736970	2457.562500
820.055466	2457.562500
820.373919	2460.083077
820.692327	2505.453462
821.010691	2535.700385
821.329011	2507.974038
821.647286	2528.138654
821.965517	2510.494615
822.283704	2487.809423
822.601847	2518.056346
822.919945	2422.274423
823.237999	2477.727115
823.556010	2530.659231
823.873976	2538.220962
824.191897	2452.521346
824.509775	2490.330000
824.827609	2573.509038
825.145398	2419.753846
825.463144	2386.986346
825.780845	2510.494615
826.098502	2480.247692
826.416116	2419.753846
826.733685	2490.330000
827.051210	2563.426731
827.368692	2475.206538
827.686129	2535.700385
828.003522	2394.548077
828.320872	2490.330000
828.638177	2424.795000
828.955439	2392.027500
829.272656	2457.562500
829.589830	2477.727115
829.906960	2616.358846
830.224046	2548.303269
830.541088	2530.659231
830.858086	2432.356731
831.175041	2432.356731
831.491952	2548.303269
831.808819	2452.521346
832.125642	2525.618077
832.442421	2570.988462
832.759157	2545.782692
833.075849	2477.727115
833.392497	2490.330000
833.709101	2497.891731
834.025662	2495.371154
834.342179	2462.603654
834.658653	2462.603654
834.975083	2439.918462
835.291469	2482.768269
835.607811	2507.974038
835.924110	2500.412308
836.240366	2530.659231
836.556578	2586.111923
836.872746	2429.836154
837.188871	2518.056346
837.504952	2480.247692
837.820990	2500.412308
838.136984	2462.603654
838.452935	2500.412308
838.768842	2528.138654
839.084706	2560.906154
839.400526	2500.412308
839.716303	2480.247692
840.032037	2495.371154
840.347727	2427.315577
840.663373	2505.453462
840.978977	2434.877308
841.294537	2565.947308
841.610054	2492.850577
841.925527	2472.685962
842.240957	2477.727115
842.556344	2583.591346
842.871687	2467.644808
843.186987	2465.124231
843.502244	2525.618077
843.817458	2477.727115
844.132629	2570.988462
844.447756	2492.850577
844.762840	2598.714808
845.077881	2472.685962
845.392879	2427.315577
845.707833	2369.342308
846.022745	2555.865000
846.337613	2578.550192
846.652438	2560.906154
846.967221	2502.932885
847.281960	2470.165385
847.596656	2482.768269
847.911309	2447.480192
848.225919	2495.371154
848.540485	2560.906154
848.855009	2560.906154
849.169490	2535.700385
849.483928	2497.891731
849.798323	2482.768269
850.112675	2495.371154
850.426984	2480.247692
850.741251	2447.480192
851.055474	2563.426731
851.369654	2480.247692
851.683792	2518.056346
851.997887	2545.782692
852.311938	2543.262115
852.625947	2530.659231
852.939914	2480.247692
853.253837	2538.220962
853.567718	2548.303269
853.881555	2419.753846
854.195350	2530.659231
854.509103	2555.865000
854.822812	2442.439038
855.136479	2523.097500
855.450103	2485.288846
855.763685	2520.576923
856.077224	2437.397885
856.390720	2581.070769
856.704173	2505.453462
857.017584	2487.809423
857.330953	2500.412308
857.644278	2472.685962
857.957561	2500.412308
858.270802	2487.809423
858.584000	2507.974038
858.897155	2439.918462
859.210268	2475.206538
859.523339	2490.330000
859.836367	2422.274423
860.149352	2583.591346
860.462295	2621.400000
860.775195	2568.467885
861.088054	2470.165385
861.400869	2495.371154
861.713642	2475.206538
862.026373	2475.206538
862.339062	2427.315577
862.651708	2434.877308
862.964312	2462.603654
863.276873	2502.932885
863.589392	2442.439038
863.901869	2427.315577
864.214303	2467.644808
864.526696	2450.000769
864.839045	2480.247692
865.151353	2429.836154
865.463619	2523.097500
865.775842	2507.974038
866.088023	2495.371154
866.400162	2460.083077
866.712258	2565.947308
867.024313	2490.330000
867.336325	2487.809423
867.648296	2543.262115
867.960224	2444.959615
868.272110	2432.356731
868.583954	2515.535769
868.895755	2432.356731
869.207515	2495.371154
869.519233	2487.809423
869.830909	2470.165385
870.142542	2482.768269
870.454134	2490.330000
870.765684	2462.603654
871.077191	2482.768269
871.388657	2505.453462
871.700081	2490.330000
872.011463	2510.494615
872.322803	2444.959615
872.634101	2510.494615
872.945357	2533.179808
873.256571	2485.288846
873.567744	2535.700385
873.878874	2573.509038
874.189963	2520.576923
874.501010	2500.412308
874.812015	2523.097500
875.122979	2482.768269
875.433900	2500.412308
875.744780	2460.083077
876.055618	2510.494615
876.366415	2465.124231
876.677169	2434.877308
876.987882	2490.330000
877.298554	2490.330000
877.609183	2414.712692
877.919771	2457.562500
878.230317	2583.591346
878.540822	2515.535769
878.851285	2455.041923
879.161707	2447.480192
879.472087	2417.233269
879.782425	2465.124231
880.092722	2507.974038
880.402977	2472.685962
880.713191	2437.397885
881.023363	2432.356731
881.333494	2482.768269
881.643583	2497.891731
881.953631	2444.959615
882.263637	2397.068654
882.573602	2455.041923
882.883526	2495.371154
883.193408	2472.685962
883.503248	2513.015192
883.813048	2437.397885
884.122806	2432.356731
884.432522	2497.891731
884.742197	2520.576923
885.051831	2485.288846
885.361424	2447.480192
885.670975	2475.206538
885.980485	2553.344423
886.289954	2515.535769
886.599382	2477.727115
886.908768	2518.056346
887.218113	2452.521346
887.527417	2495.371154
887.836680	2563.426731
888.145901	2487.809423
888.455082	2467.644808
888.764221	2399.589231
889.073319	2442.439038
889.382376	2576.029615
889.691392	2487.809423
890.000366	2422.274423
890.309300	2480.247692
890.618193	2455.041923
890.927044	2568.467885
891.235855	2392.027500
891.544625	2490.330000
891.853353	2439.918462
892.162041	2487.809423
892.470687	2492.850577
892.779293	2530.659231
893.087858	2485.288846
893.396381	2485.288846
893.704864	2492.850577
894.013306	2460.083077
894.321707	2444.959615
894.630068	2492.850577
894.938387	2482.768269
895.246665	2505.453462
895.554903	2495.371154
895.863100	2492.850577
896.171256	2535.700385
896.479371	2550.823846
896.787446	2467.644808
897.095480	2513.015192
897.403473	2545.782692
897.711425	2472.685962
898.019336	2586.111923
898.327207	2492.850577
898.635038	2439.918462
898.942827	2482.768269
899.250576	2434.877308
899.558284	2437.397885
899.865952	2495.371154
900.173579	2419.753846
900.481165	2545.782692
900.788711	2472.685962
901.096216	2528.138654
901.403681	2538.220962
901.711105	2485.288846
902.018489	2457.562500
902.325832	2460.083077
902.633135	2447.480192
902.940397	2427.315577
903.247619	2553.344423
903.554800	2523.097500
903.861941	2530.659231
904.169041	2482.768269
904.476101	2472.685962
904.783121	2510.494615
905.090100	2450.000769
905.397039	2505.453462
905.703938	2480.247692
906.010796	2510.494615
906.317614	2500.412308
906.624391	2490.330000
906.931129	2502.932885
907.237826	2465.124231
907.544483	2550.823846
907.851099	2550.823846
908.157675	2596.194231
908.464211	2460.083077
908.770707	2457.562500
909.077163	2450.000769
909.383578	2475.206538
909.689954	2427.315577
909.996289	2455.041923
910.302584	2462.603654
910.608839	2480.247692
910.915054	2558.385577
911.221229	2548.303269
911.527363	2497.891731
911.833458	2485.288846
912.139513	2500.412308
912.445527	2548.303269
912.751502	2528.138654
913.057436	2502.932885
913.363331	2457.562500
913.669186	2535.700385
913.975000	2482.768269
914.280775	2477.727115
914.586510	2505.453462
914.892205	2518.056346
915.197859	2538.220962
915.503475	2439.918462
915.809050	2513.015192
916.114585	2492.850577
916.420081	2497.891731
916.725536	2472.685962
917.030952	2500.412308
917.336328	2480.247692
917.641665	2505.453462
917.946961	2472.685962
918.252218	2530.659231
918.557435	2586.111923
918.862612	2460.083077
919.167750	2487.809423
919.472848	2545.782692
919.777906	2495.371154
920.082925	2437.397885
920.387904	2465.124231
920.692843	2467.644808
920.997743	2538.220962
921.302603	2598.714808
921.607423	2462.603654
921.912204	2528.138654
922.216946	2543.262115
922.521647	2492.850577
922.826310	2523.097500
923.130932	2470.165385
923.435516	2518.056346
923.740059	2465.124231
924.044564	2510.494615
924.349028	2460.083077
924.653454	2434.877308
924.957840	2477.727115
925.262186	2487.809423
925.566493	2444.959615
925.870761	2550.823846
926.174989	2507.974038
926.479178	2563.426731
926.783328	2538.220962
927.087438	2457.562500
927.391509	2495.371154
927.695541	2507.974038
927.999533	2565.947308
928.303486	2472.685962
928.607400	2497.891731
928.911275	2432.356731
929.215110	2487.809423
929.518906	2432.356731
929.822663	2545.782692
930.126381	2492.850577
930.430060	2560.906154
930.733699	2497.891731
931.037299	2520.576923
931.340861	2538.220962
931.644383	2510.494615
931.947866	2651.646923
932.251309	2467.644808
932.554714	2480.247692
932.858080	2447.480192
933.161407	2520.576923
933.464694	2480.247692
933.767943	2437.397885
934.071153	2570.988462
934.374323	2518.056346
934.677455	2465.124231
934.980548	2530.659231
935.283602	2477.727115
935.586617	2419.753846
935.889593	2513.015192
936.192530	2502.932885
936.495428	2490.330000
936.798287	2502.932885
937.101108	2525.618077
937.403890	2434.877308
937.706632	2545.782692
938.009336	2500.412308
938.312002	2399.589231
938.614628	2528.138654
938.917216	2528.138654
939.219765	2447.480192
939.522275	2490.330000
939.824747	2419.753846
940.127179	2528.138654
940.429573	2507.974038
940.731929	2427.315577
941.034246	2520.576923
941.336524	2444.959615
941.638763	2538.220962
941.940964	2447.480192
942.243126	2442.439038
942.545250	2515.535769
942.847335	2502.932885
943.149381	2518.056346
943.451389	2558.385577
943.753359	2641.564615
944.055290	2452.521346
944.357182	2490.330000
944.659036	2472.685962
944.960851	2422.274423
945.262628	2636.523462
945.564367	2490.330000
945.866067	2399.589231
946.167729	2550.823846
946.469352	2540.741538
946.770937	2487.809423
947.072484	2419.753846
947.373992	2500.412308
947.675462	2460.083077
947.976893	2555.865000
948.278286	2427.315577
948.579641	2480.247692
948.880958	2490.330000
949.182236	2485.288846
949.483476	2533.179808
949.784678	2502.932885
950.085841	2525.618077
950.386967	2485.288846
950.688054	2553.344423
950.989103	2470.165385
951.290114	2525.618077
951.591087	2457.562500
951.892021	2573.509038
952.192917	2505.453462
952.493776	2404.630385
952.794596	2371.862885
953.095378	2568.467885
953.396122	2450.000769
953.696828	2487.809423
953.997496	2507.974038
954.298126	2591.153077
954.598718	2513.015192
954.899272	2490.330000
955.199788	2467.644808
955.500266	2452.521346
955.800706	2414.712692
956.101108	2515.535769
956.401472	2444.959615
956.701798	2558.385577
957.002087	2450.000769
957.302337	2507.974038
957.602550	2513.015192
957.902724	2558.385577
958.202861	2523.097500
958.502960	2495.371154
958.803022	2518.056346
959.103045	2364.301154
959.403031	2447.480192
959.702979	2475.206538
960.002889	2482.768269
960.302762	2533.179808
960.602596	2558.385577
960.902393	2437.397885
961.202153	2392.027500
961.501875	2500.412308
961.801559	2419.753846
962.101205	2477.727115
962.400814	2492.850577
962.700385	2485.288846
962.999918	2530.659231
963.299414	2525.618077
963.598873	2462.603654
963.898293	2485.288846
964.197677	2392.027500
964.497022	2480.247692
964.796331	2492.850577
965.095601	2439.918462
965.394835	2437.397885
965.694030	2460.083077
965.993189	2555.865000
966.292309	2475.206538
966.591393	2520.576923
966.890439	2472.685962
967.189447	2444.959615
967.488419	2543.262115
967.787353	2457.562500
968.086249	2510.494615
968.385108	2439.918462
968.683930	2593.673654
968.982714	2444.959615
969.281462	2533.179808
969.580172	2429.836154
969.878844	2480.247692
970.177480	2530.659231
970.476078	2513.015192
970.774639	2500.412308
971.073162	2545.782692
971.371649	2540.741538
971.670098	2485.288846
971.968510	2510.494615
972.266885	2434.877308
972.565223	2462.603654
972.863524	2525.618077
973.161788	2487.809423
973.460014	2460.083077
973.758204	2548.303269
974.056356	2515.535769
974.354471	2492.850577
974.652550	2543.262115
974.950591	2576.029615
975.248595	2432.356731
975.546563	2462.603654
975.844493	2455.041923
976.142386	2475.206538
976.440243	2472.685962
976.738062	2545.782692
977.035845	2535.700385
977.333590	2447.480192
977.631299	2432.356731
977.928971	2505.453462
978.226606	2502.932885
978.524204	2472.685962
978.821765	2563.426731
979.119290	2490.330000
979.416777	2361.780577
979.714228	2535.700385
980.011642	2455.041923
980.309020	2485.288846
980.606360	2505.453462
980.903664	2535.700385
981.200931	2492.850577
981.498162	2518.056346
981.795356	2538.220962
982.092513	2477.727115
982.389633	2447.480192
982.686717	2490.330000
982.983764	2558.385577
983.280775	2477.727115
983.577749	2477.727115
983.874686	2502.932885
984.171587	2570.988462
984.468451	2487.809423
984.765279	2502.932885
985.062070	2487.809423
985.358824	2450.000769
985.655543	2545.782692
985.952224	2477.727115
986.248869	2500.412308
986.545478	2523.097500
986.842050	2470.165385
987.138586	2538.220962
987.435086	2558.385577
987.731549	2510.494615
988.027975	2555.865000
988.324366	2505.453462
988.620719	2452.521346
988.917037	2427.315577
989.213318	2480.247692
989.509563	2457.562500
989.805772	2477.727115
990.101944	2530.659231
990.398080	2462.603654
990.694180	2470.165385
990.990244	2457.562500
991.286271	2518.056346
991.582262	2460.083077
991.878217	2490.330000
992.174136	2470.165385
992.470019	2558.385577
992.765865	2437.397885
993.061676	2510.494615
993.357450	2530.659231
993.653188	2470.165385
993.948890	2452.521346
994.244556	2427.315577
994.540186	2485.288846
994.835780	2485.288846
995.131337	2475.206538
995.426859	2475.206538
995.722345	2492.850577
996.017795	2523.097500
996.313208	2487.809423
996.608586	2467.644808
996.903928	2482.768269
997.199234	2450.000769
997.494504	2450.000769
997.789738	2553.344423
998.084936	2447.480192
998.380099	2490.330000
998.675225	2490.330000
998.970316	2470.165385
999.265371	2570.988462
999.560390	2447.480192
999.855373	2520.576923
1000.150320	2470.165385
1000.445232	2455.041923
1000.740108	2409.671538
1001.034948	2543.262115
1001.329752	2560.906154
1001.624521	2424.795000
1001.919254	2497.891731
1002.213951	2550.823846
1002.508613	2460.083077
1002.803239	2475.206538
1003.097829	2462.603654
1003.392384	2477.727115
1003.686903	2550.823846
1003.981386	2399.589231
1004.275834	2518.056346
1004.570246	2460.083077
1004.864623	2477.727115
1005.158964	2525.618077
1005.453270	2480.247692
1005.747540	2477.727115
1006.041775	2530.659231
1006.335974	2487.809423
1006.630138	2578.550192
1006.924266	2455.041923
1007.218359	2558.385577
1007.512416	2434.877308
1007.806438	2533.179808
1008.100425	2523.097500
1008.394376	2462.603654
1008.688292	2528.138654
1008.982172	2462.603654
1009.276017	2515.535769
1009.569827	2525.618077
1009.863602	2460.083077
1010.157341	2462.603654
1010.451045	2465.124231
1010.744714	2507.974038
1011.038347	2467.644808
1011.331945	2409.671538
1011.625508	2465.124231
1011.919036	2588.632500
1012.212528	2457.562500
1012.505986	2513.015192
1012.799408	2450.000769
1013.092795	2457.562500
1013.386147	2462.603654
1013.679464	2407.150962
1013.972745	2485.288846
1014.265992	2510.494615
1014.559204	2502.932885
1014.852380	2490.330000
1015.145521	2533.179808
1015.438628	2487.809423
1015.731699	2570.988462
1016.024736	2434.877308
1016.317737	2525.618077
1016.610703	2429.836154
1016.903635	2457.562500
1017.196531	2520.576923
1017.489393	2472.685962
1017.782219	2573.509038
1018.075011	2475.206538
1018.367768	2447.480192
1018.660490	2530.659231
1018.953177	2530.659231
1019.245829	2530.659231
