Dividing Wavelength (nm)	Counts (n)	Blue Motor Position (mm): 0.000000	Red Motor Position (mm): 35.500000	
326.493990	2079.004614
326.888308	2079.004614
327.282561	2079.004614
327.676750	2054.978474
328.070874	2056.243804
328.464933	2062.875442
328.858929	2072.176371
329.252859	2085.434605
329.646726	2099.373396
330.040528	2115.542897
330.434265	2133.870012
330.827938	2152.665954
331.221547	2173.596824
331.615091	2193.713549
332.008571	2213.832794
332.401986	2237.324571
332.795338	2257.234608
333.188625	2274.545930
333.581847	2296.245577
333.975006	2314.018165
334.368100	2328.738334
334.761129	2346.301714
335.154095	2365.233767
335.546996	2391.528426
335.939833	2431.550146
336.332606	2442.232351
336.725315	2459.309260
337.117960	2462.964096
337.510540	2470.984572
337.903056	2481.384473
338.295508	2486.569299
338.687896	2492.913591
339.080220	2501.526403
339.472480	2505.405571
339.864676	2509.955212
340.256807	2513.252127
340.648875	2517.716068
341.040879	2516.980060
341.432818	2518.381501
341.824694	2519.193126
342.216506	2517.960564
342.608253	2518.716737
342.999937	2515.560975
343.391557	2518.094155
343.783113	2515.750018
344.174605	2512.901766
344.566033	2510.502177
344.957397	2511.830521
345.348697	2511.238186
345.739934	2506.640653
346.131106	2504.568739
346.522215	2505.191322
346.913260	2501.498676
347.304241	2502.670745
347.695159	2500.434993
348.086012	2501.105466
348.476802	2497.168325
348.867528	2496.943994
349.258191	2494.614981
349.648789	2495.101452
350.039324	2494.103304
350.429796	2492.225474
350.820203	2492.021307
351.210548	2491.310504
351.600828	2492.449805
351.991045	2491.643221
352.381198	2490.266986
352.771288	2490.503920
353.161314	2492.512820
353.551276	2492.162459
353.941175	2492.870742
354.331010	2490.778663
354.720782	2489.949393
355.110490	2493.095073
355.500135	2491.544918
355.889717	2491.865031
356.279235	2493.352172
356.668689	2493.526092
357.058080	2495.877790
357.447408	2491.552480
357.836672	2490.871924
358.225873	2492.074239
358.615010	2493.836123
359.004084	2497.362410
359.393095	2498.668068
359.782043	2499.998933
360.170927	2503.409274
360.559748	2499.797287
360.948505	2500.981958
361.337199	2500.795435
361.725830	2503.116887
362.114398	2503.865498
362.502903	2508.465551
362.891344	2507.590911
363.279722	2505.594614
363.668037	2507.568226
364.056289	2508.044615
364.444478	2511.094513
364.832603	2511.134842
365.220665	2511.008813
365.608665	2509.738442
365.996601	2513.463855
366.384474	2516.390245
366.772284	2513.708351
367.160031	2516.196160
367.547715	2516.904443
367.935336	2518.414268
368.322893	2516.894360
368.710388	2519.258661
369.097820	2519.639268
369.485189	2518.862931
369.872495	2524.042716
370.259738	2525.590351
370.646918	2526.712007
371.034035	2530.414735
371.421090	2531.483459
371.808081	2534.193080
372.195010	2540.403781
372.581875	2541.860675
372.968678	2547.637837
373.355418	2555.015566
373.742096	2562.786504
374.128710	2572.667166
374.515262	2582.331058
374.901751	2596.489138
375.288177	2612.882971
375.674540	2628.064405
376.060841	2647.407313
376.447079	2666.767864
376.833254	2692.114786
377.219367	2714.918445
377.605417	2747.156624
377.991404	2767.747217
378.377329	2805.563432
378.763191	2835.318843
379.148991	2881.896584
379.534727	2928.013059
379.920402	2969.058134
380.306013	3018.602594
380.691563	3078.877150
381.077049	3129.127371
381.462474	3182.036802
381.847835	3252.796957
382.233134	3322.604335
382.618371	3376.116183
383.003545	3457.019141
383.388657	3532.333979
383.773706	3619.792957
384.158693	3690.033875
384.543618	3779.733646
384.928480	3849.838452
385.313280	3954.535655
385.698017	4051.298083
386.082692	4165.966689
386.467305	4227.173858
386.851856	4343.226261
387.236344	4491.736132
387.620770	4554.548909
388.005133	4666.212988
388.389435	4803.889420
388.773674	4890.352770
389.157851	5012.890617
389.541965	5140.371316
389.926018	5164.430222
390.310008	5332.769473
390.693936	5452.892607
391.077802	5566.558023
391.461606	5692.753228
391.845348	5799.572757
392.229027	5918.337301
392.612645	6132.354446
392.996200	6244.784780
393.379694	6413.202168
393.763125	6627.531865
394.146494	6717.244239
394.529801	6847.159814
394.913047	7081.029024
395.296230	7081.071873
395.679351	7136.217055
396.062410	7384.274592
396.445408	7282.652492
396.828343	7441.398427
397.211217	7565.131027
397.594028	7457.144471
397.976778	7652.461456
398.359466	7816.409862
398.742092	7802.846637
399.124656	7939.459386
399.507158	8130.161195
399.889598	8157.580030
400.271977	8363.168367
400.654294	8390.937562
401.036549	8589.685053
401.418742	8617.769321
401.800874	8911.454341
402.182944	8997.138833
402.564952	9348.983645
402.946898	9189.816774
403.328783	9242.360721
403.710606	9433.105379
404.092367	9689.281694
404.474067	10040.506445
404.855705	9847.168112
405.237282	9805.538264
405.618797	10219.386748
406.000250	10460.845414
406.381642	10820.357821
406.762972	10770.725141
407.144240	10585.268653
407.525447	10836.192085
407.906593	10784.122007
408.287677	11045.568849
408.668700	11189.193842
409.049661	11178.352841
409.430560	11332.319762
409.811399	11310.466360
410.192176	11475.070115
410.572891	11550.062320
410.953545	12018.377950
411.334138	11510.774087
411.714669	12091.056265
412.095139	11447.860487
412.475547	11916.130748
412.855894	11783.979420
413.236180	12102.260230
413.616405	11800.647995
413.996568	12070.770662
414.376670	12057.444372
414.756711	11933.227821
415.136691	12215.444216
415.516609	12386.818241
415.896466	12465.225827
416.276262	12752.967327
416.655997	13216.894633
417.035670	13260.997168
417.415283	13874.296383
417.794834	13962.166215
418.174324	13711.068863
418.553753	13632.973828
418.933121	14113.763793
419.312428	13940.310293
419.691674	13844.911497
420.070859	14316.697962
420.449983	13967.081340
420.829045	14519.155742
421.208047	14279.133804
421.586988	14728.323297
421.965867	14969.555112
422.344686	14975.135669
422.723444	15540.460743
423.102141	14251.243621
423.480777	15431.619711
423.859352	14931.459112
424.237866	16034.856783
424.616319	15748.085706
424.994712	16401.484779
425.373044	16197.111361
425.751314	16885.511166
426.129524	16022.639547
426.507673	17094.519925
426.885762	16819.439283
427.263789	16987.781054
427.641756	17188.938216
428.019662	17251.728307
428.397508	17290.005789
428.775292	17582.775839
429.153016	17564.347902
429.530679	17631.937172
429.908282	17667.189961
430.285824	17404.621462
430.663305	18116.868445
431.040726	17733.420640
431.418086	17565.570381
431.795385	18199.066979
432.172624	18633.324575
432.549802	18198.512452
432.926920	18414.420031
433.303977	18287.390515
433.680974	18543.960040
434.057910	18853.028142
434.434786	18892.170181
434.811601	18818.760898
435.188355	19866.015239
435.565050	19529.336739
435.941683	19493.599999
436.318257	20384.883561
436.694770	20189.057419
437.071222	20787.603698
437.447614	19867.073882
437.823946	19882.285563
438.200218	20063.963707
438.576429	19846.647126
438.952580	20144.811212
439.328670	20106.818556
439.704700	20537.302847
440.080670	20106.669842
440.456580	20724.826209
440.832429	20888.635982
441.208218	19910.395037
441.583947	20338.353711
441.959616	20469.411108
442.335224	20713.342460
442.710773	20852.407730
443.086261	21408.517576
443.461689	20735.483208
443.837057	20924.009759
444.212365	21558.988456
444.587612	21565.272254
444.962800	21170.093684
445.337927	21600.104107
445.712995	20307.312806
446.088002	22201.959903
446.462949	22407.699474
446.837837	22592.031785
447.212664	22612.889559
447.587431	25567.910600
447.962139	28535.569813
448.336786	30831.001244
448.711374	29181.291209
449.085901	25449.902229
449.460369	25472.312679
449.834776	25460.702901
450.209124	28009.076747
450.583412	27495.776380
450.957640	27997.330858
451.331808	26637.083878
451.705917	25271.657112
452.079965	25306.373018
452.453954	25694.622522
452.827883	25615.645285
453.201752	25405.313223
453.575562	25566.201648
453.949311	26694.628649
454.323001	26770.193024
454.696632	26548.246144
455.070202	28145.863415
455.443713	28334.556324
455.817164	28924.555326
456.190556	29473.310128
456.563888	28889.176509
456.937160	29327.988786
457.310373	27627.385783
457.683526	28068.043123
458.056619	28067.294512
458.429653	28039.303505
458.802628	28656.237392
459.175542	28790.644636
459.548398	30181.078046
459.921194	31789.811061
460.293930	32535.007026
460.666607	34618.145386
461.039224	36420.199089
461.411782	36764.184743
461.784280	35487.331049
462.156719	34942.223522
462.529099	34358.430181
462.901419	33024.379556
463.273680	31980.250730
463.645882	32123.999232
464.018024	32121.718110
464.390106	33052.078176
464.762130	35966.855686
465.134094	40297.874792
465.505999	45793.912115
465.877845	50324.210553
466.249631	51332.932835
466.621358	49472.351335
466.993026	47236.178668
467.364634	45104.746055
467.736184	43142.371056
468.107674	41859.132741
468.479105	41087.148085
468.850477	40353.443431
469.221790	38912.961446
469.593043	37128.685371
469.964238	36227.420325
470.335373	36164.794071
470.706449	38030.000829
471.077467	40802.474128
471.448425	45483.979456
471.819324	48234.264115
472.190164	46267.299146
472.560945	42617.740696
472.931667	39455.548396
473.302330	38335.661110
473.672934	37511.528238
474.043479	38043.942140
474.413965	37249.410924
474.784393	36876.529377
475.154761	37792.590209
475.525070	37849.923252
475.895321	37367.961218
476.265513	38003.156685
476.635645	39005.363275
477.005719	38824.532046
477.375734	39335.306795
477.745691	40084.399571
478.115588	41447.197375
478.485427	43569.465171
478.855207	47042.885706
479.224928	49701.880111
479.594591	51254.512646
479.964194	50147.376959
480.333739	50274.512338
480.703226	50344.748214
481.072653	50990.237717
481.442022	51481.732573
481.811333	51682.113397
482.180584	50397.002294
482.549777	49864.515296
482.918912	49341.064566
483.287988	49013.409730
483.657005	48197.352787
484.025964	47502.651540
484.394864	47475.517529
484.763706	47039.992084
485.132489	46164.643610
485.501213	45991.182547
485.869879	46146.155178
486.238487	45727.782258
486.607036	45911.534837
486.975527	45371.050048
487.343959	45572.242498
487.712333	45631.062681
488.080648	45518.208890
488.448905	45981.858933
488.817104	45783.055990
489.185244	46782.089174
489.553326	48560.567922
489.921350	51317.879950
490.289315	54146.577237
490.657222	54653.346789
491.025070	54905.618731
491.392861	53970.338499
491.760593	52693.898180
492.128267	50993.872389
492.495883	49431.102094
492.863440	48006.789610
493.230939	46621.069679
493.598380	45515.390885
493.965763	45188.585484
494.333088	44345.971742
494.700354	43858.716497
495.067563	43553.237697
495.434713	43391.121751
495.801805	43486.780166
496.168839	43076.747836
496.535815	42727.179104
496.902733	42746.970674
497.269593	42317.424038
497.636395	42251.596651
498.003139	42639.793223
498.369825	42082.798655
498.736453	42374.003428
499.103023	41893.818400
499.469535	41777.065277
499.835989	41845.309898
500.202385	41508.621314
500.568723	41516.367047
500.935003	41708.717313
501.301226	41496.777123
501.667390	42104.901594
502.033497	42354.254708
502.399546	41774.937910
502.765537	41063.258057
503.131470	41445.581686
503.497345	41801.595532
503.863163	40426.918248
504.228923	41068.284088
504.594625	41476.176448
504.960269	40725.193239
505.325856	41425.696854
505.691385	40797.090175
506.056856	40923.605493
506.422270	41347.634587
506.787625	40910.730386
507.152924	41109.288833
507.518164	41189.677593
507.883347	40398.231562
508.248472	40643.720631
508.613540	41127.996555
508.978550	41404.622311
509.343503	41152.867088
509.708398	41349.499814
510.073236	41870.026675
510.438016	41860.622402
510.802738	41312.356592
511.167403	41932.811725
511.532010	42141.999445
511.896561	42437.032974
512.261053	43262.902524
512.625488	42789.276038
512.989866	42667.615351
513.354186	42491.089267
513.718449	42482.799089
514.082655	43139.011127
514.446803	42784.192034
514.810894	43327.847709
515.174927	43191.625649
515.538904	43104.756486
515.902822	43754.835960
516.266684	43174.521014
516.630488	43600.498514
516.994235	43422.649127
517.357925	44000.627498
517.721558	44142.566226
518.085133	44428.591213
518.448651	44519.374832
518.812112	44283.274912
519.175516	44361.566552
519.538863	44672.396536
519.902152	44606.569149
520.265385	45051.181274
520.628560	45044.899997
520.991678	44816.598742
521.354739	45030.104210
521.717743	45300.242001
522.080690	45163.840981
522.443580	45700.615480
522.806413	45692.660540
523.169189	45612.783457
523.531908	45754.850734
523.894569	45582.382779
524.257174	45705.999433
524.619722	45960.733978
524.982213	45896.242497
525.344647	45776.855371
525.707025	45802.293033
526.069345	46152.267577
526.431608	46027.259564
526.793815	46296.298383
527.155964	45784.825435
527.518057	45915.477019
527.880093	45627.110416
528.242072	46105.646986
528.603995	45758.525735
528.965860	45706.785853
529.327669	45731.396766
529.689421	45601.352641
530.051117	45494.540673
530.412755	45591.154386
530.774337	45600.745182
531.135862	45351.674373
531.497331	45466.017824
531.858743	45319.355536
532.220098	45578.579228
532.581396	45226.149642
532.942638	44824.566286
533.303824	45064.207616
533.664953	44965.325383
534.026025	44612.976456
534.387040	44993.805382
534.747999	44868.590682
535.108902	44972.922402
535.469748	44411.431125
535.830537	44442.015805
536.191270	44551.839863
536.551947	44135.982479
536.912567	44334.941698
537.273131	44388.040171
537.633638	43803.609123
537.994089	44042.017892
538.354483	43572.918362
538.714821	44039.255339
539.075103	44256.319862
539.435328	43946.198160
539.795497	43730.056168
540.155609	43636.870439
540.515665	43991.225746
540.875665	43355.657234
541.235609	43564.756734
541.595496	43448.968992
541.955328	43971.164474
542.315102	43252.890792
542.674821	42947.233032
543.034483	42890.215061
543.394090	42751.278340
543.753640	42606.226700
544.113134	43435.680510
544.472571	42384.584810
544.831953	43418.621245
545.191278	42573.917945
545.550548	42209.192985
545.909761	42510.994263
546.268918	42561.869588
546.628019	42721.512848
546.987064	42186.661548
547.346053	41398.134346
547.704986	42067.481109
548.063863	41558.054869
548.422684	41576.790317
548.781449	41301.989459
549.140158	41536.970243
549.498811	41252.296285
549.857408	40605.629673
550.215949	41219.569115
550.574434	41011.293843
550.932864	40656.517600
551.291237	41141.453915
551.649555	40651.484008
552.007817	40718.627136
552.366022	40265.823136
552.724173	40249.724211
553.082267	40436.735896
553.440305	40520.925685
553.798288	39766.569944
554.156215	39878.798632
554.514086	39889.251464
554.871902	39511.893373
555.229661	39352.517294
555.587365	39040.114469
555.945014	38962.584044
556.302606	38734.252542
556.660143	38732.271369
557.017625	38639.221751
557.375050	38284.468193
557.732421	38404.094774
558.089735	38207.691420
558.446994	37966.875501
558.804197	38146.862337
559.161345	37898.877897
559.518437	37113.718186
559.875474	37175.724378
560.232455	37150.679926
560.589381	37088.086439
560.946251	36660.979720
561.303065	37010.508122
561.659825	36644.898440
562.016528	36196.288679
562.373177	35791.539478
562.729770	35976.176779
563.086307	35409.760295
563.442789	35552.818158
563.799216	35385.961007
564.155587	35032.876071
564.511904	34842.690981
564.868164	34696.797468
565.224370	34692.658681
565.580520	34277.776760
565.936615	34220.610076
566.292654	33801.601971
566.648638	33775.834113
567.004567	33541.410377
567.360441	33350.552292
567.716260	33036.606875
568.072023	33032.629404
568.427732	32792.920018
568.783385	32257.972937
569.138982	32315.547955
569.494525	32072.153485
569.850013	31672.528617
570.205445	31450.480914
570.560823	31205.319520
570.916145	30903.742573
571.271412	30697.277076
571.626625	30307.308538
571.981782	30111.137077
572.336884	29693.500167
572.691931	29665.534366
573.046923	29207.396825
573.401860	28877.234015
573.756743	28630.240162
574.111570	28487.724222
574.466342	28174.015739
574.821059	28018.430608
575.175722	27501.120003
575.530330	27298.878993
575.884882	26907.256956
576.239380	26660.671437
576.593823	26427.646621
576.948211	26172.034915
577.302544	25671.549161
577.656823	25460.609640
578.011047	25384.710028
578.365216	25025.495049
578.719330	24679.830691
579.073389	24379.070412
579.427394	24199.761610
579.781344	23965.479027
580.135239	23579.682043
580.489080	23397.386358
580.842866	22903.249938
581.196597	22908.946442
581.550273	22672.904495
581.903895	22399.678998
582.257463	22384.671483
582.610975	21876.964276
582.964434	21802.577010
583.317837	21410.347514
583.671186	21120.642485
584.024481	21022.874348
584.377721	20587.880744
584.730906	20511.945843
585.084037	20323.313428
585.437113	19995.154478
585.790135	19794.239291
586.143103	19423.666592
586.496016	19272.381565
586.848874	19080.782431
587.201679	18882.576865
587.554428	18474.941603
587.907124	18350.503241
588.259765	18050.577272
588.612352	17958.916493
588.964884	17510.372267
589.317362	17437.686391
589.669786	17222.366107
590.022155	16938.831450
590.374470	16909.333138
590.726731	16560.061835
591.078937	16192.528952
591.431090	16055.775051
591.783188	15745.648308
592.135232	15464.588857
592.487222	15374.135434
592.839157	15218.204984
593.191038	14947.089209
593.542866	14697.264748
593.894639	14348.371532
594.246358	14269.442186
594.598022	14092.023817
594.949633	13818.566427
595.301190	13644.331547
595.652692	13433.830607
596.004141	13368.351059
596.355535	12935.290738
596.706876	12747.331317
597.058162	12557.158829
597.409395	12514.374557
597.760573	12396.449365
598.111698	12139.456383
598.462768	11990.986841
598.813785	11858.805267
599.164748	11582.610530
599.515657	11538.334075
599.866511	11290.256374
600.217312	11290.531117
600.568060	10934.728999
600.918753	10965.023813
601.269392	10817.827162
601.619978	10618.154620
601.970510	10535.446929
602.320988	10450.059865
602.671412	10383.950174
603.021783	10209.296878
603.372100	10023.487509
603.722363	9920.416078
604.072572	9815.854985
604.422728	9705.728459
604.772830	9549.598883
605.122878	9454.245458
605.472872	9332.060492
605.822813	9263.324359
606.172701	9132.519020
606.522534	9062.073936
606.872314	9009.338425
607.222041	8860.571455
607.571714	8819.153335
607.921333	8629.074108
608.270899	8573.286179
608.620411	8530.547277
608.969870	8405.967763
609.319276	8308.108884
609.668627	8221.189310
610.017926	8198.282307
610.367171	8128.605999
610.716362	8054.919453
611.065500	7950.645706
611.414585	7880.770273
611.763616	7842.911207
612.112594	7749.780931
612.461518	7687.583175
612.810389	7647.513564
613.159207	7546.297277
613.507971	7476.366391
613.856682	7446.565610
614.205340	7363.373968
614.553945	7360.797939
614.902496	7224.454892
615.250994	7199.521345
615.599439	7136.605224
615.947830	7078.843683
616.296169	7023.980806
616.644454	6966.778833
616.992686	6917.937614
617.340864	6912.135246
617.688990	6816.996070
618.037063	6810.994577
618.385082	6749.522747
618.733048	6712.810544
619.080961	6654.406256
619.428821	6592.546257
619.776628	6540.544235
620.124382	6454.572397
620.472083	6399.454941
620.819731	6346.099369
621.167326	6255.716522
621.514868	6182.629873
621.862357	6084.879380
622.209793	6025.050966
622.557176	5933.833808
622.904506	5848.681157
623.251783	5762.530359
623.599007	5689.433628
623.946179	5619.008709
624.293297	5554.948246
624.640363	5464.709072
624.987376	5410.123458
625.334336	5345.523592
625.681243	5275.915340
626.028097	5228.715016
626.374899	5175.031769
626.721647	5135.120954
627.068343	5084.517852
627.414987	5030.063308
627.761577	4980.370134
628.108115	4960.933965
628.454600	4888.394282
628.801032	4865.058781
629.147412	4824.424560
629.493739	4795.692504
629.840014	4738.651848
630.186236	4724.463520
630.532405	4671.939738
630.878521	4652.170854
631.224585	4618.226244
631.570597	4573.296961
631.916556	4551.423394
632.262462	4518.834855
632.608316	4493.825691
632.954117	4460.110454
633.299866	4426.140639
633.645562	4388.624372
633.991206	4342.868339
634.336797	4283.418012
634.682336	4253.523969
635.027823	4211.526117
635.373257	4174.032535
635.718639	4128.861276
636.063968	4098.455556
636.409245	4043.912792
636.754470	4024.101058
637.099642	3984.245695
637.444762	3946.275725
637.789829	3925.985080
638.134845	3892.005183
638.479808	3868.284033
638.824719	3841.817976
639.169577	3808.372441
639.514383	3787.827218
639.859137	3760.332765
640.203839	3750.202566
640.548489	3718.221486
640.893086	3696.181562
641.237632	3672.352028
641.582125	3662.045388
641.926566	3638.062099
642.270955	3625.101292
642.615292	3606.416256
642.959576	3593.977209
643.303809	3577.621185
643.647990	3566.371850
643.992118	3550.623286
644.336195	3533.818599
644.680219	3526.476159
645.024192	3519.375693
645.368112	3519.602545
645.711981	3507.037469
646.055797	3517.903677
646.399562	3509.863036
646.743274	3526.352650
647.086935	3527.249976
647.430544	3511.476205
647.774101	3503.995133
648.117606	3495.745285
648.461059	3489.539624
648.804460	3467.628249
649.147810	3438.593724
649.491108	3419.525559
649.834354	3399.038310
650.177548	3367.964638
650.520690	3347.714323
650.863781	3335.986078
651.206820	3324.411589
651.549807	3304.506593
651.892742	3283.258130
652.235626	3270.115842
652.578458	3260.792228
652.921238	3239.329515
653.263967	3238.452354
653.606644	3225.047926
653.949269	3217.813870
654.291843	3200.610933
654.634365	3199.307795
654.976836	3185.444622
655.319255	3179.052438
655.661622	3171.926768
656.003938	3160.352278
656.346203	3149.017244
656.688416	3148.956750
657.030577	3135.489307
657.372687	3129.039151
657.714746	3127.937659
658.056753	3123.130919
658.398708	3100.760799
658.740612	3100.377671
659.082465	3098.802310
659.424266	3090.214705
659.766016	3085.319744
660.107715	3083.852769
660.449362	3081.697675
660.790958	3079.403950
661.132503	3072.989082
661.473996	3069.442630
661.815438	3066.143195
662.156829	3064.688822
662.498168	3055.594581
662.839456	3054.523336
663.180693	3049.290618
663.521879	3049.799774
663.863013	3040.002292
664.204097	3037.847199
664.545129	3042.285935
664.886110	3037.905172
665.227040	3035.044317
665.567918	3032.407794
665.908746	3031.318904
666.249522	3029.723379
666.590248	3025.745909
666.930922	3024.893954
667.271545	3023.064015
667.612118	3020.399765
667.952639	3012.979187
668.293109	3012.701923
668.633528	3006.266890
668.973896	3001.659276
669.314213	2996.943276
669.654480	2990.062101
669.994695	2988.098572
670.334859	2985.804847
670.674973	2979.667242
671.015035	2979.465596
671.355047	2977.171871
671.695008	2972.551653
672.034918	2968.652321
672.374777	2968.226343
672.714585	2964.551342
673.054342	2964.644604
673.394049	2959.331228
673.733705	2959.946248
674.073310	2954.733695
674.412864	2952.480299
674.752368	2945.077365
675.091820	2945.735236
675.431223	2938.576797
675.770574	2929.638831
676.109875	2926.004159
676.449125	2922.964344
676.788324	2915.727767
677.127473	2909.665780
677.466571	2902.212434
677.805619	2901.574728
678.144616	2902.993813
678.483562	2900.279151
678.822458	2892.908984
679.161303	2890.796741
679.500098	2886.846997
679.838842	2885.790875
680.177535	2885.924466
680.516179	2885.833725
680.854771	2887.131822
681.193314	2895.338821
681.531805	2908.418094
681.870247	2912.647622
682.208638	2920.262285
682.546978	2921.701535
682.885268	2919.538880
683.223508	2913.053435
683.561697	2905.383320
683.899836	2902.923237
684.237925	2897.148595
684.575963	2895.452247
684.913951	2886.491596
685.251889	2891.200033
685.589776	2885.599311
685.927614	2886.471431
686.265401	2888.308932
686.603137	2886.789024
686.940824	2891.900754
687.278460	2893.692884
687.616046	2891.426885
687.953582	2900.120355
688.291068	2895.517782
688.628504	2900.032135
688.965889	2897.438461
689.303224	2892.505692
689.640510	2885.702655
689.977745	2875.862323
690.314930	2868.174563
690.652065	2860.355733
690.989150	2856.398428
691.326185	2843.009123
691.663170	2833.970334
692.000105	2824.921463
692.336990	2817.810916
692.673825	2815.015596
693.010610	2805.828093
693.347345	2799.735858
693.684030	2789.787141
694.020665	2789.159518
694.357251	2779.903959
694.693786	2781.007972
695.030272	2778.603342
695.366707	2769.839296
695.703093	2766.756630
696.039429	2768.349635
696.375716	2763.101793
696.711952	2762.902668
697.048139	2759.963675
697.384276	2760.959303
697.720363	2761.415527
698.056400	2758.811772
698.392388	2756.674322
698.728326	2753.392531
699.064214	2750.786255
699.400053	2747.852303
699.735842	2747.088568
700.071581	2744.293248
700.407270	2742.808629
700.742910	2736.965931
701.078501	2733.537947
701.414042	2733.769840
701.749533	2729.290775
702.084974	2725.895557
702.420366	2726.261041
702.755709	2720.955227
703.091002	2716.627396
703.426246	2719.742829
703.761440	2717.204608
704.096584	2715.707386
704.431679	2711.760162
704.766725	2712.135728
705.101721	2710.724205
705.436668	2712.294524
705.771565	2708.430480
706.106413	2712.440718
706.441212	2710.719164
706.775961	2713.456510
707.110661	2711.049359
707.445311	2714.167313
707.779913	2712.707899
708.114465	2715.452807
708.448967	2717.481872
708.783421	2724.743654
709.117825	2726.036710
709.452180	2729.532750
709.786485	2731.955024
710.120742	2739.799060
710.454949	2740.731673
710.789107	2740.235120
711.123216	2745.765265
711.457275	2750.077972
711.791286	2752.916142
712.125247	2755.209867
712.459159	2753.384969
712.793023	2763.121958
713.126837	2749.767942
713.460602	2755.083838
713.794318	2750.687952
714.127985	2743.794174
714.461602	2736.983575
714.795171	2736.176991
715.128691	2725.063767
715.462162	2719.977243
715.795584	2718.006152
716.128957	2715.420040
716.462281	2707.858309
716.795556	2709.410984
717.128782	2704.929399
717.461960	2700.778008
717.795088	2700.417566
718.128167	2694.408511
718.461198	2688.258303
718.794180	2691.179652
719.127113	2684.139680
719.459997	2684.966429
719.792833	2679.131294
720.125619	2681.916531
720.458357	2676.613237
720.791046	2674.780778
721.123686	2673.104594
721.456278	2672.492094
721.788821	2670.427742
722.121315	2671.057886
722.453761	2668.108811
722.786158	2670.367248
723.118506	2666.903975
723.450805	2668.277690
723.783056	2671.146106
724.115259	2667.380364
724.447412	2665.373985
724.779518	2669.600992
725.111574	2670.687361
725.443582	2670.883966
725.775542	2674.233813
726.107453	2676.900583
726.439315	2677.578618
726.771129	2686.546831
727.102895	2685.528518
727.434612	2687.035823
727.766281	2685.533559
728.097901	2684.716892
728.429473	2687.368539
728.760996	2687.734023
729.092471	2686.529187
729.423897	2688.916173
729.755276	2689.528674
730.086606	2689.047243
730.417887	2694.622760
730.749120	2700.896476
731.080305	2703.084336
731.411442	2703.538040
731.742530	2701.897145
732.073570	2706.482074
732.404562	2710.764534
732.735506	2706.272866
733.066401	2705.804039
733.397249	2700.563759
733.728048	2694.416072
734.058798	2689.750484
734.389501	2680.716737
734.720156	2677.069462
735.050762	2669.638801
735.381320	2668.595282
735.711831	2664.511948
736.042293	2661.893068
736.372707	2660.073212
736.703073	2659.052378
737.033391	2660.620177
737.363661	2659.206133
737.693883	2665.237874
738.024056	2665.484890
738.354182	2666.914057
738.684260	2672.197187
739.014290	2671.395643
739.344272	2673.147444
739.674207	2674.057372
740.004093	2678.612055
740.333931	2676.588032
740.663722	2679.900070
740.993464	2677.140038
741.323159	2677.399657
741.652806	2671.826662
741.982405	2671.367917
742.311956	2667.105621
742.641460	2664.211999
742.970915	2662.490445
743.300323	2662.356854
743.629683	2661.252842
743.958996	2656.970382
744.288260	2653.625576
744.617477	2651.919145
744.946647	2649.080976
745.275768	2643.208032
745.604842	2640.324492
745.933869	2642.913124
746.262847	2640.291724
746.591778	2645.766417
746.920662	2645.829432
747.249498	2643.074441
747.578286	2641.763741
747.907027	2646.424288
748.235720	2647.644247
748.564365	2648.738177
748.892963	2647.349339
749.221514	2646.726757
749.550017	2647.180461
749.878473	2647.273722
750.206881	2645.320275
750.535242	2643.016468
750.863555	2643.636530
751.191821	2638.988586
751.520039	2641.685603
751.848210	2640.836169
752.176334	2642.406488
752.504411	2642.787095
752.832440	2641.524286
753.160421	2643.084523
753.488356	2638.607979
753.816243	2636.939357
754.144082	2635.220323
754.471875	2634.597741
754.799620	2638.020684
755.127318	2634.330560
755.454969	2634.181846
755.782572	2633.062709
756.110129	2635.996661
756.437638	2634.844757
756.765100	2632.051958
757.092515	2634.133955
757.419882	2635.162350
757.747203	2634.204531
758.074477	2636.964562
758.401703	2634.562453
758.728882	2637.960190
759.056014	2636.621764
759.383099	2640.495891
759.710138	2641.163844
760.037129	2642.943371
760.364073	2642.721560
760.690970	2643.702065
761.017820	2646.789771
761.344623	2644.332209
761.671379	2650.303456
761.998088	2654.023827
762.324751	2674.420336
762.651366	2705.524255
762.977935	2748.807602
763.304456	2769.884666
763.630931	2778.489916
763.957359	2770.277876
764.283740	2747.990935
764.610074	2725.237687
764.936362	2703.732125
765.262602	2687.572706
765.588796	2668.091167
765.914943	2659.798469
766.241044	2646.237765
766.567097	2635.182515
766.893104	2633.602113
767.219064	2628.361833
767.544978	2622.617439
767.870845	2618.307252
768.196665	2615.370780
768.522438	2612.651077
768.848165	2613.165275
769.173846	2609.452465
769.499479	2608.819801
769.825066	2606.140427
770.150607	2605.137238
770.476101	2604.179418
770.801548	2602.989706
771.126949	2601.321084
771.452303	2599.254211
771.777611	2597.618357
772.102872	2597.668768
772.428087	2596.199272
772.753256	2594.767584
773.078378	2592.756164
773.403453	2593.247676
773.728482	2588.158632
774.053465	2587.102510
774.378401	2585.910277
774.703291	2587.384814
775.028135	2586.943713
775.352932	2585.149063
775.677683	2581.766448
776.002388	2583.798033
776.327046	2582.678897
776.651658	2582.331058
776.976224	2581.043043
777.300743	2581.766448
777.625216	2580.690162
777.949643	2580.339802
778.274024	2580.390213
778.598359	2574.814697
778.922647	2574.539954
779.246889	2577.816704
779.571086	2576.276632
779.895236	2578.305696
780.219339	2577.907445
780.543397	2579.308886
780.867409	2579.664287
781.191374	2579.933989
781.515294	2578.068762
781.839167	2580.669997
782.162995	2579.419791
782.486776	2580.097827
782.810511	2579.898701
783.134201	2577.778896
783.457844	2576.311920
783.781441	2579.669328
784.104993	2575.689338
784.428498	2576.669842
784.751958	2578.562795
785.075372	2574.151786
785.398739	2576.715212
785.722061	2573.032649
786.045337	2577.136149
786.368568	2578.744277
786.691752	2576.291755
787.014891	2582.184864
787.337983	2582.084041
787.661030	2593.288006
787.984031	2601.142123
788.306987	2602.898965
788.629897	2603.508945
788.952760	2603.622371
789.275579	2601.744541
789.598351	2595.793459
789.921078	2594.409662
790.243759	2590.752305
790.566395	2586.116964
790.888984	2586.311049
791.211529	2580.659915
791.534027	2580.526325
791.856480	2577.473906
792.178888	2576.074986
792.501249	2572.626837
792.823566	2575.666652
793.145836	2572.712536
793.468062	2573.108267
793.790241	2573.693041
794.112375	2574.171950
794.434464	2575.427197
794.756507	2574.701271
795.078505	2580.715368
795.400457	2579.064390
795.722364	2581.688311
796.044226	2585.375915
796.366042	2585.673343
796.687812	2585.091089
797.009538	2590.233066
797.331218	2589.779362
797.652852	2588.463621
797.974442	2587.601584
798.295986	2584.276943
798.617484	2584.070256
798.938938	2580.677559
799.260346	2581.355594
799.581709	2581.116140
799.903026	2582.232755
800.224299	2576.866447
800.545526	2574.222362
800.866708	2574.086251
801.187845	2573.778740
801.508936	2573.312433
801.829983	2574.265212
802.150984	2568.609037
802.471940	2570.708677
802.792851	2569.113152
803.113717	2572.528534
803.434538	2568.946794
803.755314	2568.200703
804.076045	2569.750858
804.396731	2567.830179
804.717372	2566.693398
805.037967	2566.406053
805.358518	2569.231619
805.679024	2569.090467
805.999485	2570.436455
806.319901	2572.291600
806.640272	2571.709347
806.960598	2573.622464
807.280879	2571.711867
807.601115	2571.671538
807.921306	2571.149778
808.241453	2570.749007
808.561554	2573.652711
808.881611	2571.051476
809.201623	2571.984089
809.521590	2574.242526
809.841513	2570.317988
810.161390	2569.634912
810.481223	2568.233471
810.801011	2569.168605
811.120755	2569.067782
811.440453	2570.990982
811.760107	2565.982596
812.079716	2564.674416
812.399281	2564.510579
812.718801	2565.985116
813.038276	2562.647872
813.357707	2566.290106
813.677093	2567.351269
813.996434	2566.678275
814.315731	2564.787842
814.634983	2562.874724
814.954191	2568.162895
815.273354	2566.280024
815.592473	2568.810683
815.911547	2569.120714
816.230577	2573.942578
816.549562	2575.031467
816.868502	2576.430387
817.187399	2577.637743
817.506250	2578.681262
817.825058	2578.817373
818.143821	2582.656212
818.462539	2584.498754
818.781213	2593.179621
819.099843	2604.267639
819.418429	2610.997579
819.736970	2626.947790
820.055466	2641.972949
820.373919	2659.198572
820.692327	2687.998683
821.010691	2746.135790
821.329011	2860.743902
821.647286	3044.181408
821.965517	3236.730800
822.283704	3342.194259
822.601847	3377.686503
822.919945	3296.793628
823.237999	3200.568083
823.556010	3106.248095
823.873976	3021.178623
824.191897	2939.738783
824.509775	2879.002962
824.827609	2826.108655
825.145398	2793.941052
825.463144	2777.257353
825.780845	2781.708692
826.098502	2803.254584
826.416116	2848.945082
826.733685	2890.932852
827.051210	2900.390057
827.368692	2877.911552
827.686129	2829.440857
828.003522	2786.364198
828.320872	2738.203535
828.638177	2706.151878
828.955439	2679.378310
829.272656	2655.180772
829.589830	2638.174439
829.906960	2623.761781
830.224046	2613.142590
830.541088	2602.866198
830.858086	2597.424272
831.175041	2595.342276
831.491952	2592.892275
831.808819	2593.741709
832.125642	2599.428131
832.442421	2611.443721
832.759157	2637.428349
833.075849	2675.105932
833.392497	2710.101622
833.709101	2733.704305
834.025662	2728.869838
834.342179	2710.880481
834.658653	2684.585822
834.975083	2662.066988
835.291469	2644.153248
835.607811	2626.393263
835.924110	2614.254164
836.240366	2604.648246
836.556578	2590.495206
836.872746	2581.153948
837.188871	2576.755542
837.504952	2570.469223
837.820990	2566.267421
838.136984	2568.694737
838.452935	2563.257852
838.768842	2562.224416
839.084706	2570.386044
839.400526	2586.837849
839.716303	2606.820983
840.032037	2621.581482
840.347727	2615.529576
840.663373	2604.980962
840.978977	2592.655341
841.294537	2581.446335
841.610054	2573.168761
841.925527	2568.984603
842.240957	2561.493448
842.556344	2555.988508
842.871687	2554.335010
843.186987	2547.171530
843.502244	2545.868392
843.817458	2546.322096
844.132629	2540.933102
844.447756	2541.248174
844.762840	2535.009747
845.077881	2536.658204
845.392879	2534.886238
845.707833	2538.407484
846.022745	2532.602596
846.337613	2537.502597
846.652438	2535.511341
846.967221	2535.465971
847.281960	2534.790456
847.596656	2536.537216
847.911309	2534.082174
848.225919	2531.853984
848.540485	2533.530168
848.855009	2534.261135
849.169490	2534.671989
849.483928	2533.129396
849.798323	2531.889272
850.112675	2533.104190
850.426984	2532.829448
850.741251	2533.595703
851.055474	2528.917512
851.369654	2532.012781
851.683792	2534.102339
851.997887	2529.892975
852.311938	2532.610157
852.625947	2532.801721
852.939914	2531.019673
853.253837	2535.463450
853.567718	2531.206196
853.881555	2531.949766
854.195350	2529.756864
854.509103	2532.884900
854.822812	2529.587986
855.136479	2533.822555
855.450103	2532.698377
855.763685	2533.878007
856.077224	2529.923222
856.390720	2533.484798
856.704173	2531.624612
857.017584	2533.502442
857.330953	2529.724097
857.644278	2536.292720
857.957561	2533.938501
858.270802	2530.422297
858.584000	2536.857329
858.897155	2532.400949
859.210268	2531.685106
859.523339	2532.595034
859.836367	2531.755682
860.149352	2532.378264
860.462295	2533.378933
860.775195	2529.250228
861.088054	2528.854498
861.400869	2531.067564
861.713642	2525.529857
862.026373	2531.634694
862.339062	2532.156453
862.651708	2530.770136
862.964312	2531.579241
863.276873	2534.193080
863.589392	2533.845240
863.901869	2535.009747
864.214303	2537.515200
864.526696	2540.418905
864.839045	2540.300438
865.151353	2542.442928
865.463619	2536.476722
865.775842	2540.237423
866.088023	2538.904038
866.400162	2540.844882
866.712258	2537.711805
867.024313	2540.900335
867.336325	2539.866898
867.648296	2541.759852
867.960224	2537.021167
868.272110	2539.831610
868.583954	2541.341436
868.895755	2541.706919
869.207515	2539.198945
869.519233	2541.621220
869.830909	2539.279604
870.142542	2541.739687
870.454134	2542.919317
870.765684	2540.860006
871.077191	2542.405119
871.388657	2543.020140
871.700081	2542.427804
872.011463	2546.909390
872.322803	2543.070552
872.634101	2545.946530
872.945357	2544.103988
873.256571	2547.700851
873.567744	2550.118085
873.878874	2545.989380
874.189963	2547.778989
874.501010	2548.378887
874.812015	2548.381407
875.122979	2549.835780
875.433900	2548.746891
875.744780	2551.905174
876.055618	2550.841490
876.366415	2549.787889
876.677169	2550.075235
876.987882	2553.999773
877.298554	2551.159083
877.609183	2553.407437
877.919771	2556.308622
878.230317	2556.444733
878.540822	2567.499983
878.851285	2572.412587
879.161707	2578.252764
879.472087	2597.998964
879.782425	2623.555093
880.092722	2663.128151
880.402977	2722.008828
880.713191	2795.173614
881.023363	2864.376054
881.333494	2904.591858
881.643583	2919.687594
881.953631	2913.444125
882.263637	2891.419323
882.573602	2865.573328
882.883526	2833.776250
883.193408	2808.701551
883.503248	2777.559823
883.813048	2752.018817
884.122806	2723.685012
884.432522	2698.645600
884.742197	2678.304545
885.051831	2660.068171
885.361424	2640.226189
885.670975	2623.398817
885.980485	2614.438167
886.289954	2604.844851
886.599382	2595.186000
886.908768	2586.129567
887.218113	2577.962898
887.527417	2579.389544
887.836680	2569.778585
888.145901	2566.685837
888.455082	2563.842626
888.764221	2560.943963
889.073319	2557.886503
889.382376	2557.142932
889.691392	2553.054557
890.000366	2558.529250
890.309300	2556.701832
890.618193	2557.785680
890.927044	2554.415668
891.235855	2550.556665
891.544625	2557.132850
891.853353	2556.195196
892.162041	2560.248283
892.470687	2563.898079
892.779293	2570.189439
893.087858	2574.071127
893.396381	2583.729978
893.704864	2601.968872
894.013306	2621.533591
894.321707	2643.865902
894.630068	2658.419713
894.938387	2661.603202
895.246665	2657.852583
895.554903	2647.596356
895.863100	2634.378451
896.171256	2624.495268
896.479371	2613.611417
896.787446	2608.421549
897.095480	2598.359406
897.403473	2594.205496
897.711425	2587.715010
898.019336	2583.233424
898.327207	2575.906107
898.635038	2574.008113
898.942827	2566.569890
899.250576	2566.285065
899.558284	2559.847512
899.865952	2557.826009
900.173579	2555.164280
900.481165	2551.383414
900.788711	2549.739998
901.096216	2549.508105
901.403681	2550.738147
901.711105	2548.421736
902.018489	2550.034906
902.325832	2555.234856
902.633135	2554.435833
902.940397	2563.149467
903.247619	2581.622776
903.554800	2611.050511
903.861941	2649.083496
904.169041	2678.448217
904.476101	2685.203364
904.783121	2679.582477
905.090100	2663.574293
905.397039	2648.869247
905.703938	2634.312916
906.010796	2620.948817
906.317614	2608.731580
906.624391	2599.907041
906.931129	2591.011925
907.237826	2579.941551
907.544483	2573.398133
907.851099	2564.283727
908.157675	2558.355330
908.464211	2552.212684
908.770707	2542.266487
909.077163	2541.684234
909.383578	2535.060158
909.689954	2536.116280
909.996289	2530.354241
910.302584	2533.656197
910.608839	2534.366999
910.915054	2532.373223
911.221229	2532.678213
911.527363	2533.179808
911.833458	2533.530168
912.139513	2534.709798
912.445527	2535.115611
912.751502	2538.168029
913.057436	2537.328677
913.363331	2543.146169
913.669186	2547.206818
913.975000	2553.903991
914.280775	2565.148285
914.586510	2576.997517
914.892205	2592.534353
915.197859	2614.329782
915.503475	2639.646456
915.809050	2662.944149
916.114585	2674.682476
916.420081	2678.944771
916.725536	2676.764472
917.030952	2668.093687
917.336328	2659.425423
917.641665	2650.137097
917.946961	2640.511014
918.252218	2632.609006
918.557435	2621.710031
918.862612	2611.791561
919.167750	2604.255036
919.472848	2597.267997
919.777906	2588.135946
920.082925	2579.734863
920.387904	2571.855540
920.692843	2569.224058
920.997743	2561.150650
921.302603	2555.570093
921.607423	2551.665719
921.912204	2549.931562
922.216946	2547.463917
922.521647	2544.613145
922.826310	2544.149358
923.130932	2541.026364
923.435516	2535.017308
923.740059	2536.259953
924.044564	2533.033614
924.349028	2534.974458
924.653454	2527.657224
924.957840	2525.807120
925.262186	2524.312418
925.566493	2526.071781
925.870761	2523.352078
926.174989	2524.037675
926.479178	2525.358458
926.783328	2523.470545
927.087438	2522.386697
927.391509	2525.197141
927.695541	2518.300842
927.999533	2522.994156
928.303486	2519.745133
928.607400	2523.069774
928.911275	2517.537107
929.215110	2519.412417
929.518906	2521.393590
929.822663	2521.675895
930.126381	2518.719258
930.430060	2520.612211
930.733699	2519.162879
931.037299	2520.413086
931.340861	2520.886954
931.644383	2521.678415
931.947866	2520.244207
932.251309	2518.754546
932.554714	2522.769825
932.858080	2518.144566
933.161407	2519.651871
933.464694	2520.206398
933.767943	2518.290760
934.071153	2522.084228
934.374323	2518.346213
934.677455	2518.562982
934.980548	2517.998373
935.283602	2520.032478
935.586617	2518.986439
935.889593	2517.411078
936.192530	2519.747653
936.495428	2519.946779
936.798287	2516.339833
937.101108	2521.822088
937.403890	2521.406193
937.706632	2523.037006
938.009336	2525.726462
938.312002	2526.349044
938.614628	2527.198479
938.917216	2529.771988
939.219765	2529.663603
939.522275	2532.310209
939.824747	2533.416742
940.127179	2526.260824
940.429573	2527.321987
940.731929	2525.751667
941.034246	2527.422810
941.336524	2527.947090
941.638763	2526.205371
941.940964	2529.073788
942.243126	2526.414579
942.545250	2530.757533
942.847335	2528.468849
943.149381	2525.822244
943.451389	2524.002387
943.753359	2525.534898
944.055290	2521.300329
944.357182	2523.518436
944.659036	2525.575227
944.960851	2522.444671
945.262628	2519.999711
945.564367	2524.955165
945.866067	2521.073477
946.167729	2519.906450
946.469352	2521.469207
946.770937	2525.386184
947.072484	2517.070801
947.373992	2522.560617
947.675462	2521.380987
947.976893	2521.514578
948.278286	2520.551717
948.579641	2522.001049
948.880958	2519.634227
949.182236	2519.634227
949.483476	2517.758918
949.784678	2519.293949
950.085841	2520.460977
950.386967	2520.032478
950.688054	2521.237314
950.989103	2520.017355
951.290114	2521.146573
951.591087	2521.156656
951.892021	2523.107582
952.192917	2522.976512
952.493776	2522.643796
952.794596	2524.471214
953.095378	2523.296626
953.396122	2525.005577
953.696828	2524.743437
953.997496	2523.765453
954.298126	2519.314114
954.598718	2526.407018
954.899272	2520.231604
955.199788	2520.697911
955.500266	2519.109947
955.800706	2516.145749
956.101108	2514.061232
956.401472	2516.022241
956.701798	2512.783299
957.002087	2514.789678
957.302337	2513.572240
957.602550	2512.001920
957.902724	2511.996879
958.202861	2512.647188
958.502960	2510.469410
958.803022	2513.025275
959.103045	2511.820439
959.403031	2509.922444
959.702979	2509.509070
960.002889	2510.265243
960.302762	2510.066117
960.602596	2511.260871
960.902393	2506.945643
961.202153	2508.775582
961.501875	2509.662825
961.801559	2506.872546
962.101205	2509.257012
962.400814	2508.001765
962.700385	2511.328926
962.999918	2507.956394
963.299414	2505.413132
963.598873	2509.791374
963.898293	2509.345232
964.197677	2507.001096
964.497022	2505.982783
964.796331	2506.620489
965.095601	2505.725684
965.394835	2504.707371
965.694030	2508.337002
965.993189	2505.818945
966.292309	2506.827176
966.591393	2505.975221
966.890439	2506.413801
967.189447	2503.888183
967.488419	2506.650736
967.787353	2503.850375
968.086249	2505.947495
968.385108	2505.687875
968.683930	2505.763493
968.982714	2504.921620
969.281462	2506.900273
969.580172	2508.468072
969.878844	2506.186949
970.177480	2506.693585
970.476078	2508.944461
970.774639	2510.086282
971.073162	2507.371621
971.371649	2506.938081
971.670098	2506.159223
971.968510	2504.349449
972.266885	2504.422546
972.565223	2509.312465
972.863524	2506.388596
973.161788	2510.103926
973.460014	2508.034532
973.758204	2506.870026
974.056356	2508.674759
974.354471	2506.882629
974.652550	2510.497136
974.950591	2508.992352
975.248595	2506.610406
975.546563	2508.016888
975.844493	2509.191477
976.142386	2511.011334
976.440243	2505.982783
976.738062	2508.931858
977.035845	2507.658966
977.333590	2505.304748
977.631299	2506.983452
977.928971	2507.227948
978.226606	2507.076713
978.524204	2508.969666
978.821765	2507.192660
979.119290	2507.064110
979.416777	2505.450941
979.714228	2506.849861
980.011642	2506.807011
980.309020	2507.951353
980.606360	2505.849192
980.903664	2510.608041
981.200931	2507.653925
981.498162	2508.422701
981.795356	2511.654081
982.092513	2519.820750
982.389633	2518.351254
982.686717	2520.173631
982.983764	2523.916688
983.280775	2524.314939
983.577749	2524.135978
983.874686	2524.415762
984.171587	2525.560104
984.468451	2520.297139
984.765279	2520.564320
985.062070	2515.974350
985.358824	2517.501819
985.655543	2515.452590
985.952224	2514.068793
986.248869	2509.879595
986.545478	2507.500170
986.842050	2504.480519
987.138586	2505.425735
987.435086	2505.055210
987.731549	2502.388440
988.027975	2504.982114
988.324366	2502.905158
988.620719	2503.989006
988.917037	2502.940446
989.213318	2504.626712
989.509563	2501.619664
989.805772	2503.860457
990.101944	2503.986486
990.398080	2505.771054
990.694180	2503.840292
990.990244	2501.886845
991.286271	2500.971876
991.582262	2503.368944
991.878217	2502.254849
992.174136	2504.727535
992.470019	2502.816938
992.765865	2502.146465
993.061676	2503.434479
993.357450	2503.971362
993.653188	2502.118738
993.948890	2504.278873
994.244556	2504.677124
994.540186	2506.496980
994.835780	2504.891373
995.131337	2507.543020
995.426859	2505.120745
995.722345	2509.493946
996.017795	2512.601818
996.313208	2512.387569
996.608586	2514.088958
996.903928	2515.069462
997.199234	2514.038547
997.494504	2515.719771
997.789738	2515.697086
998.084936	2510.698782
998.380099	2513.055522
998.675225	2510.081241
998.970316	2508.858761
999.265371	2506.262567
999.560390	2505.849192
999.855373	2509.027640
1000.150320	2504.276352
1000.445232	2505.214007
1000.740108	2502.544716
1001.034948	2504.165447
1001.329752	2503.096722
1001.624521	2501.770899
1001.919254	2499.283089
1002.213951	2500.971876
1002.508613	2498.741165
1002.803239	2500.581186
1003.097829	2496.104642
1003.392384	2501.140754
1003.686903	2500.495487
1003.981386	2501.599499
1004.275834	2500.611433
1004.570246	2501.367606
1004.864623	2500.122441
1005.158964	2498.940291
1005.453270	2499.469612
1005.747540	2500.248470
1006.041775	2498.111021
1006.335974	2502.355673
1006.630138	2500.674448
1006.924266	2500.981958
1007.218359	2499.560353
1007.512416	2500.417349
1007.806438	2500.498007
1008.100425	2497.899293
1008.394376	2498.247132
1008.688292	2500.369458
1008.982172	2499.484735
1009.276017	2499.492297
1009.569827	2501.518841
1009.863602	2501.712925
1010.157341	2499.862822
1010.451045	2502.595127
1010.744714	2497.952225
1011.038347	2500.911382
1011.331945	2498.300064
1011.625508	2499.189828
1011.919036	2502.582524
1012.212528	2498.466422
1012.505986	2497.995074
1012.799408	2498.211844
1013.092795	2498.589931
1013.386147	2500.097236
1013.679464	2499.759478
1013.972745	2498.103459
1014.265992	2498.723521
1014.559204	2498.473984
1014.852380	2501.397853
1015.145521	2501.110508
1015.438628	2496.507934
1015.731699	2498.431134
1016.024736	2501.365086
1016.317737	2498.627739
1016.610703	2498.206803
1016.903635	2496.417193
1017.196531	2495.552635
1017.489393	2497.876607
1017.782219	2492.512820
1018.075011	2494.551966
1018.367768	2501.428100
1018.660490	2498.925167
1018.953177	2498.925167
1019.245829	2498.925167
