Dividing Wavelength (nm)	Counts (n)	Blue Motor Position (mm): 0.000000	Red Motor Position (mm): 8.100000	
326.493990	2129.897582
326.888308	2129.897582
327.282561	2129.897582
327.676750	2093.981882
328.070874	2092.799731
328.464933	2097.704774
328.858929	2103.282811
329.252859	2112.082145
329.646726	2123.898609
330.040528	2136.753552
330.434265	2154.211067
330.827938	2172.298727
331.221547	2187.616273
331.615091	2208.272401
332.008571	2228.162274
332.401986	2247.449728
332.795338	2265.776843
333.188625	2287.234514
333.581847	2304.840744
333.975006	2323.702221
334.368100	2340.083451
334.761129	2357.989629
335.154095	2376.190715
335.546996	2395.793242
335.939833	2406.926630
336.332606	2423.784249
336.725315	2436.215734
337.117960	2444.647064
337.510540	2452.596963
337.903056	2464.751185
338.295508	2469.373923
338.687896	2479.050418
339.080220	2487.789258
339.472480	2497.337204
339.864676	2498.423573
340.256807	2502.806856
340.648875	2503.802484
341.040879	2511.281035
341.432818	2511.240706
341.824694	2512.863958
342.216506	2509.655263
342.608253	2511.712054
342.999937	2513.854544
343.391557	2513.892353
343.783113	2509.168792
344.174605	2509.924965
344.566033	2508.687362
344.957397	2507.303565
345.348697	2504.039418
345.739934	2503.439521
346.131106	2499.819972
346.522215	2500.682009
346.913260	2497.185969
347.304241	2495.771926
347.695159	2495.189672
348.086012	2494.151195
348.476802	2492.558190
348.867528	2490.198930
349.258191	2489.823364
349.648789	2488.482417
350.039324	2483.947899
350.429796	2487.151553
350.820203	2482.024699
351.210548	2484.217601
351.600828	2480.729123
351.991045	2482.851448
352.381198	2480.734164
352.771288	2480.371201
353.161314	2479.579739
353.551276	2480.857672
353.941175	2477.805253
354.331010	2479.930100
354.720782	2480.547641
355.110490	2480.464462
355.500135	2480.598052
355.889717	2479.451190
356.279235	2478.173258
356.668689	2480.504791
357.058080	2477.109574
357.447408	2479.627630
357.836672	2477.270891
358.225873	2481.611324
358.615010	2475.352732
359.004084	2482.702734
359.393095	2479.405820
359.782043	2485.861017
360.170927	2484.809937
360.559748	2482.425471
360.948505	2486.236583
361.337199	2484.310862
361.725830	2483.877323
362.114398	2487.000318
362.502903	2488.600884
362.891344	2486.591984
363.279722	2488.164824
363.668037	2486.985194
364.056289	2487.857314
364.444478	2488.668940
364.832603	2492.187665
365.220665	2488.537870
365.608665	2491.481904
365.996601	2492.016266
366.384474	2494.214209
366.772284	2494.786380
367.160031	2495.557677
367.547715	2498.100939
367.935336	2498.645383
368.322893	2501.740652
368.710388	2504.702330
369.097820	2511.880933
369.485189	2514.308248
369.872495	2518.484844
370.259738	2526.575896
370.646918	2532.547143
371.034035	2544.471992
371.421090	2547.559699
371.808081	2562.746175
372.195010	2573.219172
372.581875	2582.951120
372.968678	2594.994436
373.355418	2606.498349
373.742096	2622.277161
374.128710	2635.827782
374.515262	2649.801861
374.901751	2662.873573
375.288177	2673.492763
375.674540	2693.969930
376.060841	2708.753114
376.447079	2722.346585
376.833254	2738.533730
377.219367	2744.507497
377.605417	2774.623351
377.991404	2775.200563
378.377329	2786.507871
378.763191	2795.425672
379.148991	2818.725885
379.534727	2829.609736
379.920402	2842.250429
380.306013	2841.973166
380.691563	2869.084491
381.077049	2872.472147
381.462474	2875.418701
381.847835	2890.237173
382.233134	2889.760784
382.618371	2875.428783
383.003545	2902.736714
383.388657	2892.039385
383.773706	2894.829664
384.158693	2889.531411
384.543618	2882.899773
384.928480	2883.534959
385.313280	2885.737943
385.698017	2865.974099
386.082692	2870.705222
386.467305	2853.814836
386.851856	2846.283352
387.236344	2837.441169
387.620770	2824.568582
388.005133	2811.955615
388.389435	2800.791980
388.773674	2788.032820
389.157851	2778.666356
389.541965	2762.204468
389.926018	2735.050293
390.310008	2734.473081
390.693936	2718.374156
391.077802	2707.633978
391.461606	2691.530012
391.845348	2682.977694
392.229027	2668.749037
392.612645	2653.807057
392.996200	2653.330668
393.379694	2640.478247
393.763125	2635.709315
394.146494	2617.142746
394.529801	2611.519338
394.913047	2600.794284
395.296230	2588.047726
395.679351	2580.725450
396.062410	2571.974007
396.445408	2563.867832
396.828343	2556.752243
397.211217	2544.318237
397.594028	2544.419060
397.976778	2535.909592
398.359466	2533.573018
398.742092	2533.212575
399.124656	2527.939528
399.507158	2528.105886
399.889598	2523.589013
400.271977	2524.637572
400.654294	2521.461646
401.036549	2521.554907
401.418742	2518.837725
401.800874	2520.324865
402.182944	2518.131963
402.564952	2516.173475
402.946898	2518.179854
403.328783	2517.093486
403.710606	2516.228928
404.092367	2516.027282
404.474067	2515.424864
404.855705	2516.344874
405.237282	2514.741787
405.618797	2515.520646
406.000250	2515.868485
406.381642	2516.032323
406.762972	2518.638599
407.144240	2514.890502
407.525447	2518.242869
407.906593	2515.306397
408.287677	2517.400996
408.668700	2513.615090
409.049661	2518.656243
409.430560	2515.230779
409.811399	2518.734381
410.192176	2514.913187
410.572891	2516.493588
410.953545	2516.632220
411.334138	2519.309073
411.714669	2521.489372
412.095139	2518.943589
412.475547	2516.589370
412.855894	2518.131963
413.236180	2515.243382
413.616405	2517.007786
413.996568	2517.572395
414.376670	2519.757736
414.756711	2515.818074
415.136691	2516.823784
415.516609	2520.062725
415.896466	2520.367715
416.276262	2519.508198
416.655997	2514.971160
417.035670	2513.473937
417.415283	2518.094155
417.794834	2513.370594
418.174324	2517.897550
418.553753	2516.939731
418.933121	2517.922756
419.312428	2521.892664
419.691674	2520.259330
420.070859	2520.768487
420.449983	2519.682118
420.829045	2520.760925
421.208047	2521.181862
421.586988	2522.094310
421.965867	2523.747809
422.344686	2521.917870
422.723444	2521.159176
423.102141	2522.729496
423.480777	2521.834691
423.859352	2522.162366
424.237866	2520.710514
424.616319	2521.935514
424.994712	2519.629186
425.373044	2521.209588
425.751314	2520.498785
426.129524	2523.876358
426.507673	2521.501975
426.885762	2522.306039
427.263789	2521.459125
427.641756	2520.962571
428.019662	2524.783766
428.397508	2522.182531
428.775292	2525.212264
429.153016	2521.476769
429.530679	2527.216123
429.908282	2520.836543
430.285824	2525.086235
430.663305	2520.869310
431.040726	2523.462984
431.418086	2520.556758
431.795385	2522.762263
432.172624	2525.507172
432.549802	2524.587161
432.926920	2519.810668
433.303977	2526.280989
433.680974	2523.435257
434.057910	2523.420134
434.434786	2524.778725
434.811601	2523.228570
435.188355	2524.753519
435.565050	2526.880886
435.941683	2525.466842
436.318257	2523.589013
436.694770	2523.044568
437.071222	2522.754702
437.447614	2523.082377
437.823946	2524.062881
438.200218	2528.219312
438.576429	2526.777542
438.952580	2524.418282
439.328670	2524.932480
439.704700	2526.346524
440.080670	2525.126564
440.456580	2527.420289
440.832429	2527.132944
441.208218	2528.478932
441.583947	2527.062368
441.959616	2527.616894
442.335224	2528.466329
442.710773	2528.194107
443.086261	2528.819210
443.461689	2526.134795
443.837057	2527.311905
444.212365	2528.365506
444.587612	2526.959024
444.962800	2528.325177
445.337927	2529.262831
445.712995	2527.223684
446.088002	2525.774353
446.462949	2525.698735
446.837837	2527.427851
447.212664	2528.660413
447.587431	2527.795855
447.962139	2527.264014
448.336786	2530.843233
448.711374	2531.680064
449.085901	2529.711494
449.460369	2527.533715
449.834776	2528.834333
450.209124	2528.552028
450.583412	2532.592513
450.957640	2530.097142
451.331808	2531.881711
451.705917	2527.763088
452.079965	2528.446164
452.453954	2528.743592
452.827883	2527.717718
453.201752	2529.363654
453.575562	2531.208717
453.949311	2528.403314
454.323001	2529.968593
454.696632	2530.311391
455.070202	2531.629653
455.443713	2532.990764
455.817164	2529.802235
456.190556	2524.929959
456.563888	2527.800897
456.937160	2528.519261
457.310373	2532.511855
457.683526	2532.960518
458.056619	2532.330373
458.429653	2530.795342
458.802628	2530.626463
459.175542	2531.231402
459.548398	2532.017822
459.921194	2531.909437
460.293930	2535.012267
460.666607	2531.518748
461.039224	2533.653676
461.411782	2529.867770
461.784280	2532.862215
462.156719	2534.515713
462.529099	2532.645445
462.901419	2533.028573
463.273680	2531.833820
463.645882	2528.897347
464.018024	2532.403470
464.390106	2533.078985
464.762130	2534.271217
465.134094	2534.392205
465.505999	2534.581248
465.877845	2533.792308
466.249631	2533.013450
466.621358	2537.547967
466.993026	2537.066537
467.364634	2537.454706
467.736184	2538.667104
468.107674	2533.908254
468.479105	2532.957997
468.850477	2532.292565
469.221790	2535.105528
469.593043	2531.730476
469.964238	2532.476567
470.335373	2534.737524
470.706449	2532.912627
471.077467	2534.278779
471.448425	2537.207690
471.819324	2537.149716
472.190164	2537.520241
472.560945	2538.483102
472.931667	2532.106042
473.302330	2533.862884
473.672934	2533.386495
474.043479	2533.552853
474.413965	2535.092926
474.784393	2530.797862
475.154761	2532.526978
475.525070	2529.903058
475.895321	2530.497914
476.265513	2528.957841
476.635645	2533.215096
477.005719	2534.780374
477.375734	2535.294572
477.745691	2533.323481
478.115588	2536.872453
478.485427	2536.017977
478.855207	2535.758358
479.224928	2535.092926
479.594591	2539.904707
479.964194	2536.116280
480.333739	2536.612833
480.703226	2538.170550
481.072653	2538.581404
481.442022	2536.363296
481.811333	2538.694830
482.180584	2536.728780
482.549777	2536.829603
482.918912	2538.747762
483.287988	2537.215251
483.657005	2536.882535
484.025964	2535.707946
484.394864	2536.542257
484.763706	2538.341949
485.132489	2535.481094
485.501213	2536.920344
485.869879	2537.739531
486.238487	2534.828265
486.607036	2538.530993
486.975527	2538.543595
487.343959	2536.028060
487.712333	2536.960673
488.080648	2538.856147
488.448905	2536.862371
488.817104	2537.348842
489.185244	2540.539892
489.553326	2536.111239
489.921350	2539.425797
490.289315	2538.934285
490.657222	2543.652805
491.025070	2539.256919
491.392861	2539.544264
491.760593	2538.722556
492.128267	2537.671476
492.495883	2536.146527
492.863440	2540.960829
493.230939	2537.716846
493.598380	2539.188863
493.965763	2535.032432
494.333088	2536.539737
494.700354	2533.651156
495.067563	2536.590148
495.434713	2531.445651
495.801805	2539.050231
496.168839	2535.725590
496.535815	2537.825231
496.902733	2538.029398
497.269593	2538.009233
497.636395	2538.614172
498.003139	2540.272711
498.369825	2539.443441
498.736453	2539.592155
499.103023	2539.156096
499.469535	2535.518903
499.835989	2541.724563
500.202385	2538.737680
500.568723	2540.217258
500.935003	2539.612320
501.301226	2538.246167
501.667390	2537.996630
502.033497	2541.986703
502.399546	2538.646939
502.765537	2539.604758
503.131470	2539.919830
503.497345	2538.399923
503.863163	2541.956457
504.228923	2538.258770
504.594625	2541.505273
504.960269	2540.260108
505.325856	2540.454193
505.691385	2539.181301
506.056856	2538.407484
506.422270	2538.646939
506.787625	2538.770447
507.152924	2541.127187
507.518164	2539.357742
507.883347	2539.093081
508.248472	2540.106353
508.613540	2537.192566
508.978550	2539.047711
509.343503	2539.705581
509.708398	2538.914120
510.073236	2539.899666
510.438016	2540.260108
510.802738	2540.030736
511.167403	2540.857485
511.532010	2538.745242
511.896561	2541.399409
512.261053	2541.409491
512.625488	2537.747093
512.989866	2535.592000
513.354186	2538.606610
513.718449	2536.466640
514.082655	2538.047042
514.446803	2539.095602
514.810894	2542.775644
515.174927	2541.863195
515.538904	2541.996786
515.902822	2539.314892
516.266684	2539.206507
516.630488	2537.608461
516.994235	2540.973432
517.357925	2541.545603
517.721558	2539.246836
518.085133	2541.966539
518.448651	2543.781354
518.812112	2541.182639
519.175516	2540.045859
519.538863	2539.221631
519.902152	2542.226158
520.265385	2542.407640
520.628560	2543.625078
520.991678	2539.289686
521.354739	2541.018802
521.717743	2539.813966
522.080690	2542.072403
522.443580	2540.297917
522.806413	2542.987372
523.169189	2538.740200
523.531908	2540.290355
523.894569	2541.394368
524.257174	2540.489481
524.619722	2542.266488
524.982213	2543.781354
525.344647	2542.732794
525.707025	2543.166333
526.069345	2541.008720
526.431608	2542.019471
526.793815	2539.556867
527.155964	2541.820345
527.518057	2539.922351
527.880093	2541.976621
528.242072	2542.513504
528.603995	2539.660211
528.965860	2542.059800
529.327669	2542.185829
529.689421	2539.899666
530.051117	2543.060469
530.412755	2542.914276
530.774337	2540.602907
531.135862	2545.530635
531.497331	2537.800025
531.858743	2538.775488
532.220098	2540.025695
532.581396	2538.412525
532.942638	2536.983358
533.303824	2540.202135
533.664953	2541.762372
534.026025	2539.395550
534.387040	2539.735828
534.747999	2541.674152
535.108902	2542.072403
535.469748	2543.100798
535.830537	2539.002340
536.191270	2543.002496
536.551947	2541.099460
536.912567	2542.342105
537.273131	2541.724563
537.633638	2543.879657
537.994089	2540.703730
538.354483	2542.326981
538.714821	2544.570295
539.075103	2541.396888
539.435328	2543.093237
539.795497	2542.458051
540.155609	2541.643905
540.515665	2542.190870
540.875665	2542.815973
541.235609	2543.055428
541.595496	2543.733463
541.955328	2541.732125
542.315102	2542.851261
542.674821	2544.928217
543.034483	2544.512322
543.394090	2543.632640
543.753640	2541.800181
544.113134	2543.244471
544.472571	2544.905532
544.831953	2543.909904
545.191278	2544.363608
545.550548	2541.596014
545.909761	2543.771272
546.268918	2543.622558
546.628019	2544.038453
546.987064	2541.545603
547.346053	2542.223638
547.704986	2541.129707
548.063863	2544.250182
548.422684	2543.650284
548.781449	2543.080634
549.140158	2540.242464
549.498811	2544.860161
549.857408	2541.664070
550.215949	2541.948895
550.574434	2538.634336
550.932864	2541.439738
551.291237	2540.136600
551.649555	2543.194060
552.007817	2542.684903
552.366022	2542.705068
552.724173	2541.989224
553.082267	2542.153062
553.440305	2541.893442
553.798288	2544.151879
554.156215	2542.843700
554.514086	2545.674308
554.871902	2540.552495
555.229661	2543.557023
555.587365	2540.333205
555.945014	2543.289842
556.302606	2543.246992
556.660143	2542.737835
557.017625	2540.706250
557.375050	2543.342774
557.732421	2542.878988
558.089735	2545.588608
558.446994	2544.880326
558.804197	2542.936961
559.161345	2541.560726
559.518437	2542.599204
559.875474	2542.299255
560.232455	2542.271529
560.589381	2541.890922
560.946251	2543.405788
561.303065	2546.513660
561.659825	2542.914276
562.016528	2542.944523
562.373177	2543.741025
562.729770	2541.220448
563.086307	2543.173895
563.442789	2543.078113
563.799216	2542.778165
564.155587	2545.744884
564.511904	2544.189688
564.868164	2543.365459
565.224370	2543.836807
565.580520	2543.947712
565.936615	2542.947043
566.292654	2542.314378
566.648638	2545.976777
567.004567	2540.933102
567.360441	2543.511653
567.716260	2542.790768
568.072023	2544.643392
568.427732	2540.512166
568.783385	2543.491488
569.138982	2539.882022
569.494525	2539.178781
569.850013	2538.954449
570.205445	2543.463762
570.560823	2544.008206
570.916145	2542.972249
571.271412	2541.989224
571.626625	2541.840510
571.981782	2543.700696
572.336884	2544.076262
572.691931	2541.964018
573.046923	2542.216076
573.401860	2540.580222
573.756743	2543.741025
574.111570	2542.269008
574.466342	2541.727084
574.821059	2541.701878
575.175722	2544.025850
575.530330	2541.331353
575.884882	2543.322609
576.239380	2541.613658
576.593823	2546.821170
576.948211	2541.399409
577.302544	2540.814635
577.656823	2543.620037
578.011047	2544.499719
578.365216	2546.801005
578.719330	2542.274049
579.073389	2539.478729
579.427394	2541.346477
579.781344	2539.241795
580.135239	2541.296065
580.489080	2543.723381
580.842866	2543.607434
581.196597	2544.167002
581.550273	2545.321427
581.903895	2542.755479
582.257463	2544.197249
582.610975	2541.585932
582.964434	2542.518545
583.317837	2542.947043
583.671186	2544.782023
584.024481	2542.478216
584.377721	2542.092568
584.730906	2544.509801
585.084037	2542.402599
585.437113	2544.930737
585.790135	2541.754810
586.143103	2544.797147
586.496016	2543.196580
586.848874	2537.101825
587.201679	2542.148020
587.554428	2540.431507
587.907124	2541.505273
588.259765	2538.616692
588.612352	2544.532486
588.964884	2541.727084
589.317362	2542.274049
589.669786	2541.628782
590.022155	2542.677342
590.374470	2543.695655
590.726731	2544.033412
591.078937	2543.811601
591.431090	2543.453679
591.783188	2542.349667
592.135232	2542.110212
592.487222	2541.064172
592.839157	2544.159441
593.191038	2540.766744
593.542866	2543.758669
593.894639	2542.329502
594.246358	2540.035777
594.598022	2544.043494
594.949633	2542.700027
595.301190	2544.207332
595.652692	2541.918648
596.004141	2541.041487
596.355535	2542.659698
596.706876	2542.415202
597.058162	2541.066693
597.409395	2543.599873
597.760573	2542.498381
598.111698	2540.681045
598.462768	2540.418905
598.813785	2541.028884
599.164748	2544.053577
599.515657	2542.662218
599.866511	2541.671631
600.217312	2541.558205
600.568060	2538.226003
600.918753	2542.498381
601.269392	2542.649615
601.619978	2539.854295
601.970510	2541.527958
602.320988	2539.786240
602.671412	2542.296734
603.021783	2544.378731
603.372100	2542.463093
603.722363	2541.260777
604.072572	2544.779503
604.422728	2543.698175
604.772830	2540.615510
605.122878	2538.213400
605.472872	2538.157947
605.822813	2537.961342
606.172701	2541.144831
606.522534	2539.408153
606.872314	2541.850592
607.222041	2542.092568
607.571714	2540.890252
607.921333	2541.921168
608.270899	2545.344112
608.620411	2543.257074
608.969870	2543.763710
609.319276	2540.630633
609.668627	2547.514329
610.017926	2548.101623
610.367171	2549.036757
610.716362	2548.940975
611.065500	2547.728578
611.414585	2545.366797
611.763616	2544.822352
612.112594	2546.518701
612.461518	2543.519214
612.810389	2544.167002
613.159207	2544.774462
613.507971	2541.485109
613.856682	2542.579039
614.205340	2542.208514
614.553945	2544.151879
614.902496	2541.502753
615.250994	2542.203473
615.599439	2541.895963
615.947830	2544.628268
616.296169	2542.332023
616.644454	2541.555685
616.992686	2542.873947
617.340864	2544.706406
617.688990	2539.297248
618.037063	2542.936961
618.385082	2540.529810
618.733048	2540.943185
619.080961	2539.884542
619.428821	2542.732794
619.776628	2540.499563
620.124382	2543.420912
620.472083	2541.507794
620.819731	2539.788760
621.167326	2540.471837
621.514868	2541.543082
621.862357	2540.701209
622.209793	2541.326312
622.557176	2541.762372
622.904506	2540.242464
623.251783	2536.433873
623.599007	2540.015612
623.946179	2535.465971
624.293297	2538.883873
624.640363	2541.855633
624.987376	2543.967877
625.334336	2537.802546
625.681243	2537.895807
626.028097	2540.754141
626.374899	2539.806404
626.721647	2539.478729
627.068343	2542.430325
627.414987	2542.092568
627.761577	2541.827907
628.108115	2539.950077
628.454600	2541.890922
628.801032	2540.403781
629.147412	2541.709440
629.493739	2541.482588
629.840014	2542.074924
630.186236	2541.893442
630.532405	2543.448638
630.878521	2540.396219
631.224585	2542.463093
631.570597	2539.287166
631.916556	2541.865716
632.262462	2539.304810
632.608316	2540.023174
632.954117	2538.162988
633.299866	2540.149203
633.645562	2540.436549
633.991206	2540.522248
634.336797	2539.203987
634.682336	2539.095602
635.027823	2539.393030
635.373257	2537.520241
635.718639	2538.276414
636.063968	2538.755324
636.409245	2539.690458
636.754470	2540.297917
637.099642	2538.956970
637.444762	2541.162475
637.789829	2540.386137
638.134845	2539.687937
638.479808	2538.120138
638.824719	2537.893287
639.169577	2540.991076
639.514383	2541.530479
639.859137	2537.064017
640.203839	2540.444110
640.548489	2540.507125
640.893086	2536.418749
641.237632	2535.700385
641.582125	2536.960673
641.926566	2534.871115
642.270955	2539.955118
642.615292	2538.261291
642.959576	2540.620551
643.303809	2537.391692
643.647990	2540.043339
643.992118	2540.381096
644.336195	2537.212731
644.680219	2539.067875
645.024192	2538.432690
645.368112	2538.021836
645.711981	2536.703574
646.055797	2537.724408
646.399562	2541.671631
646.743274	2537.996630
647.086935	2539.221631
647.430544	2538.838503
647.774101	2538.541075
648.117606	2541.845551
648.461059	2539.345139
648.804460	2540.489481
649.147810	2536.741383
649.491108	2538.362114
649.834354	2540.060983
650.177548	2542.480737
650.520690	2540.295396
650.863781	2539.786240
651.206820	2541.404450
651.549807	2538.410005
651.892742	2540.083668
652.235626	2539.519059
652.578458	2537.260622
652.921238	2536.479243
653.263967	2540.106353
653.606644	2536.534696
653.949269	2538.956970
654.291843	2538.410005
654.634365	2538.573842
654.976836	2539.778678
655.319255	2541.119625
655.661622	2539.821528
656.003938	2537.779861
656.346203	2539.503935
656.688416	2540.572660
657.030577	2537.570653
657.372687	2542.011909
657.714746	2535.828934
658.056753	2537.074099
658.398708	2532.048069
658.740612	2536.993441
659.082465	2532.499252
659.424266	2534.384643
659.766016	2532.998326
660.107715	2537.212731
660.449362	2538.074768
660.790958	2539.070396
661.132503	2538.649460
661.473996	2539.302289
661.815438	2537.326157
662.156829	2540.688606
662.498168	2537.817669
662.839456	2540.905376
663.180693	2537.673996
663.521879	2538.455375
663.863013	2540.406302
664.204097	2534.934129
664.545129	2537.946219
664.886110	2539.655170
665.227040	2535.962525
665.567918	2540.411343
665.908746	2537.754655
666.249522	2539.198945
666.590248	2539.403112
666.930922	2539.594676
667.271545	2536.489325
667.612118	2541.119625
667.952639	2537.288348
668.293109	2537.346321
668.633528	2539.360262
668.973896	2537.416897
669.314213	2536.834644
669.654480	2536.428831
669.994695	2536.353214
670.334859	2540.035777
670.674973	2537.792463
671.015035	2538.440252
671.355047	2533.774664
671.695008	2540.371014
672.034918	2538.326826
672.374777	2537.414377
672.714585	2536.869932
673.054342	2538.276414
673.394049	2538.483102
673.733705	2538.684748
674.073310	2541.800181
674.412864	2538.886394
674.752368	2539.735828
675.091820	2539.987886
675.431223	2537.028729
675.770574	2537.540406
676.109875	2532.932791
676.449125	2533.555374
676.788324	2534.533358
677.127473	2535.914634
677.466571	2533.764582
677.805619	2538.170550
678.144616	2537.058976
678.483562	2539.440921
678.822458	2537.253060
679.161303	2537.714326
679.500098	2539.619882
679.838842	2536.784233
680.177535	2539.130890
680.516179	2537.852957
680.854771	2538.291538
681.193314	2537.550488
681.531805	2536.985879
681.870247	2539.375386
682.208638	2539.120808
682.546978	2538.838503
682.885268	2537.265663
683.223508	2540.214738
683.561697	2537.401774
683.899836	2540.423946
684.237925	2539.075437
684.575963	2537.245498
684.913951	2536.146527
685.251889	2538.677186
685.589776	2536.925385
685.927614	2537.752134
686.265401	2538.170550
686.603137	2536.915303
686.940824	2537.442103
687.278460	2541.245654
687.616046	2538.473019
687.953582	2539.241795
688.291068	2536.819521
688.628504	2538.762886
688.965889	2537.142155
689.303224	2539.486291
689.640510	2535.244160
689.977745	2537.729449
690.314930	2536.605272
690.652065	2537.429500
690.989150	2537.726928
691.326185	2535.667617
691.663170	2536.522093
692.000105	2537.313554
692.336990	2537.033770
692.673825	2535.816331
693.010610	2537.038811
693.347345	2535.939839
693.684030	2533.368851
694.020665	2534.344314
694.357251	2532.668131
694.693786	2534.162833
695.030272	2536.476722
695.366707	2535.745755
695.703093	2534.495549
696.039429	2535.728111
696.375716	2535.491177
696.711952	2537.515200
697.048139	2536.602751
697.384276	2537.573173
697.720363	2535.990251
698.056400	2537.048893
698.392388	2537.033770
698.728326	2536.128883
699.064214	2539.506456
699.400053	2535.619726
699.735842	2535.881866
700.071581	2537.394212
700.407270	2537.961342
700.742910	2535.115611
701.078501	2536.862371
701.414042	2537.850437
701.749533	2534.576207
702.084974	2535.602082
702.420366	2535.881866
702.755709	2537.376568
703.091002	2534.309026
703.426246	2539.191384
703.761440	2536.040662
704.096584	2536.799356
704.431679	2539.866898
704.766725	2538.473019
705.101721	2537.195087
705.436668	2537.497556
705.771565	2537.379089
706.106413	2539.352701
706.441212	2535.667617
706.775961	2535.995292
707.110661	2537.258101
707.445311	2534.671989
707.779913	2536.937988
708.114465	2539.501415
708.448967	2532.955476
708.783421	2536.461599
709.117825	2535.584438
709.452180	2537.671476
709.786485	2533.338604
710.120742	2539.030067
710.454949	2538.611651
710.789107	2535.859181
711.123216	2532.448840
711.457275	2535.765920
711.791286	2533.840199
712.125247	2535.087884
712.459159	2536.559901
712.793023	2536.002854
713.126837	2533.633512
713.460602	2535.700385
713.794318	2534.359438
714.127985	2538.273894
714.461602	2533.152081
714.795171	2536.282638
715.128691	2537.847916
715.462162	2535.801208
715.795584	2536.025539
716.128957	2538.631816
716.462281	2535.453368
716.795556	2535.400436
717.128782	2537.789943
717.461960	2535.702905
717.795088	2538.692309
718.128167	2534.808100
718.461198	2536.222144
718.794180	2535.314736
719.127113	2535.954963
719.459997	2538.873791
719.792833	2536.000333
720.125619	2535.251722
720.458357	2536.015457
720.791046	2536.212062
721.123686	2536.118800
721.456278	2536.585107
721.788821	2532.809283
722.121315	2537.346321
722.453761	2535.002185
722.786158	2534.689633
723.118506	2533.230219
723.450805	2534.472864
723.783056	2538.074768
724.115259	2534.551002
724.447412	2537.762217
724.779518	2534.246012
725.111574	2539.466127
725.443582	2533.903213
725.775542	2538.200797
726.107453	2537.515200
726.439315	2537.169881
726.771129	2538.624254
727.102895	2537.202648
727.434612	2536.373379
727.766281	2533.648635
728.097901	2533.094108
728.429473	2532.519417
728.760996	2533.487318
729.092471	2531.183511
729.423897	2536.060827
729.755276	2535.226516
730.086606	2535.186187
730.417887	2537.295910
730.749120	2535.251722
731.080305	2537.406815
731.411442	2536.340611
731.742530	2536.605272
732.073570	2538.631816
732.404562	2536.617875
732.735506	2533.867925
733.066401	2536.862371
733.397249	2532.826927
733.728048	2533.149561
734.058798	2535.428162
734.389501	2534.223327
734.720156	2534.470343
735.050762	2535.483615
735.381320	2532.988244
735.711831	2535.491177
736.042293	2534.233409
736.372707	2534.067051
736.703073	2535.960004
737.033391	2532.085877
737.363661	2535.972607
737.693883	2534.858512
738.024056	2536.391023
738.354182	2533.641073
738.684260	2533.691485
739.014290	2534.089736
739.344272	2534.868594
739.674207	2532.015301
740.004093	2533.089067
740.333931	2532.469005
740.663722	2536.073430
740.993464	2535.254243
741.323159	2536.358255
741.652806	2534.682072
741.982405	2536.063348
742.311956	2533.099149
742.641460	2534.878677
742.970915	2534.437576
743.300323	2535.397915
743.629683	2533.880528
743.958996	2534.364479
744.288260	2534.939170
744.617477	2535.791125
744.946647	2529.018335
745.275768	2534.364479
745.604842	2531.922040
745.933869	2530.893644
746.262847	2530.036648
746.591778	2536.615354
746.920662	2535.642411
747.249498	2533.646114
747.578286	2535.080323
747.907027	2537.006043
748.235720	2536.706095
748.564365	2534.855991
748.892963	2533.487318
749.221514	2535.702905
749.550017	2535.218954
749.878473	2533.789787
750.206881	2534.175436
750.535242	2534.823224
750.863555	2533.653676
751.191821	2533.676361
751.520039	2534.430014
751.848210	2533.961187
752.176334	2534.876156
752.504411	2534.989582
752.832440	2537.058976
753.160421	2534.722401
753.488356	2535.380271
753.816243	2533.774664
754.144082	2535.564273
754.471875	2535.115611
754.799620	2535.334901
755.127318	2531.790970
755.454969	2532.055630
755.782572	2535.294572
756.110129	2535.115611
756.437638	2534.601413
756.765100	2532.912627
757.092515	2537.610982
757.419882	2534.505631
757.747203	2531.952287
758.074477	2532.000178
758.401703	2533.497400
758.728882	2534.616537
759.056014	2533.235260
759.383099	2533.880528
759.710138	2534.233409
760.037129	2532.884900
760.364073	2537.265663
760.690970	2536.766589
761.017820	2537.442103
761.344623	2532.680733
761.671379	2536.156609
761.998088	2529.134282
762.324751	2531.957328
762.651366	2529.328366
762.977935	2534.329191
763.304456	2532.910106
763.630931	2535.287010
763.957359	2536.060827
764.283740	2536.154088
764.610074	2533.941022
764.936362	2534.140148
765.262602	2535.135775
765.588796	2533.830117
765.914943	2533.525127
766.241044	2534.435055
766.567097	2536.849768
766.893104	2533.250384
767.219064	2533.096629
767.544978	2533.313398
767.870845	2532.829447
768.196665	2536.602751
768.522438	2536.287679
768.848165	2534.893800
769.173846	2530.800383
769.499479	2533.399098
769.825066	2533.268028
770.150607	2534.608975
770.476101	2533.971269
770.801548	2533.401618
771.126949	2532.617719
771.452303	2530.908768
771.777611	2535.655014
772.102872	2532.186700
772.428087	2533.573018
772.753256	2531.606968
773.078378	2534.833306
773.403453	2533.845240
773.728482	2531.304498
774.053465	2532.758871
774.378401	2531.473377
774.703291	2531.150743
775.028135	2531.180990
775.352932	2530.732328
775.677683	2534.152750
776.002388	2533.469674
776.327046	2531.491021
776.651658	2532.428676
776.976224	2531.922040
777.300743	2531.165867
777.625216	2532.814324
777.949643	2532.184180
778.274024	2536.496887
778.598359	2530.460105
778.922647	2531.072605
779.246889	2531.478418
779.571086	2527.107738
779.895236	2535.544109
780.219339	2531.783408
780.543397	2532.710980
780.867409	2532.121165
781.191374	2533.338604
781.515294	2532.300126
781.839167	2530.223171
782.162995	2532.000178
782.486776	2532.806762
782.810511	2536.363296
783.134201	2533.915816
783.457844	2534.240971
783.781441	2531.541433
784.104993	2531.274252
784.428498	2532.355579
784.751958	2532.930271
785.075372	2533.386495
785.398739	2533.212575
785.722061	2533.053779
786.045337	2535.138296
786.368568	2530.470188
786.691752	2535.130734
787.014891	2533.144520
787.337983	2531.629653
787.661030	2531.438089
787.984031	2533.855322
788.306987	2534.790456
788.629897	2531.569159
788.952760	2534.850950
789.275579	2530.298788
789.598351	2531.725435
789.921078	2532.912627
790.243759	2531.566638
790.566395	2532.627801
790.888984	2533.096629
791.211529	2531.269210
791.534027	2533.320960
791.856480	2532.012781
792.178888	2531.808614
792.501249	2534.041845
792.823566	2534.760209
793.145836	2534.024201
793.468062	2532.831968
793.790241	2532.312729
794.112375	2530.535723
794.434464	2533.285672
794.756507	2529.527492
795.078505	2532.917668
795.400457	2530.311391
795.722364	2528.728469
796.044226	2530.631504
796.366042	2528.027748
796.687812	2531.052441
797.009538	2531.967410
797.331218	2532.819365
797.652852	2531.571680
797.974442	2530.656710
798.295986	2532.131248
798.617484	2529.829961
798.938938	2533.391536
799.260346	2531.410363
799.581709	2532.635363
799.903026	2533.179808
800.224299	2532.905065
800.545526	2531.869108
800.866708	2529.719056
801.187845	2531.541433
801.508936	2532.831968
801.829983	2533.454551
802.150984	2531.911958
802.471940	2530.518078
802.792851	2532.572349
803.113717	2531.639735
803.434538	2531.612009
803.755314	2531.339787
804.076045	2531.657379
804.396731	2535.254243
804.717372	2528.632687
805.037967	2531.667462
805.358518	2534.190559
805.679024	2533.222657
805.999485	2531.977493
806.319901	2529.439272
806.640272	2531.438089
806.960598	2532.665610
807.280879	2530.419776
807.601115	2530.966741
807.921306	2531.589324
808.241453	2533.898172
808.561554	2531.828778
808.881611	2533.961187
809.201623	2533.207534
809.521590	2531.964890
809.841513	2533.547812
810.161390	2534.223327
810.481223	2532.559746
810.801011	2534.850950
811.120755	2530.112266
811.440453	2532.965559
811.760107	2530.916330
812.079716	2531.526309
812.399281	2528.047913
812.718801	2530.525640
813.038276	2527.374919
813.357707	2530.802904
813.677093	2533.159643
813.996434	2533.610826
814.315731	2530.147554
814.634983	2531.115455
814.954191	2533.252904
815.273354	2530.780218
815.592473	2530.825589
815.911547	2532.355579
816.230577	2531.939684
816.549562	2529.494724
816.868502	2530.649148
817.187399	2531.569159
817.506250	2531.869108
817.825058	2531.317101
818.143821	2528.685619
818.462539	2532.063192
818.781213	2533.318439
819.099843	2530.807945
819.418429	2532.658048
819.736970	2532.315250
820.055466	2533.908254
820.373919	2532.683254
820.692327	2531.518748
821.010691	2535.629808
821.329011	2534.919006
821.647286	2539.766075
821.965517	2541.386806
822.283704	2540.204656
822.601847	2542.790768
822.919945	2538.992258
823.237999	2539.284645
823.556010	2534.056968
823.873976	2535.652494
824.191897	2535.017308
824.509775	2534.712318
824.827609	2535.425642
825.145398	2534.949253
825.463144	2534.987061
825.780845	2535.710467
826.098502	2534.888759
826.416116	2534.424973
826.733685	2537.616023
827.051210	2534.636701
827.368692	2535.675179
827.686129	2531.521268
828.003522	2534.145189
828.320872	2527.924405
828.638177	2529.953469
828.955439	2528.204189
829.272656	2529.507327
829.589830	2527.800897
829.906960	2529.903058
830.224046	2531.135620
830.541088	2531.982534
830.858086	2534.714839
831.175041	2531.755682
831.491952	2533.346166
831.808819	2532.816845
832.125642	2532.789118
832.442421	2531.145702
832.759157	2528.322656
833.075849	2535.196269
833.392497	2533.399098
833.709101	2536.370858
834.025662	2534.848430
834.342179	2534.419932
834.658653	2532.428676
834.975083	2532.537061
835.291469	2536.333049
835.607811	2534.172915
835.924110	2530.223171
836.240366	2532.600075
836.556578	2531.899355
836.872746	2528.935156
837.188871	2528.874662
837.504952	2530.303829
837.820990	2535.077802
838.136984	2530.810465
838.452935	2530.419776
838.768842	2531.301978
839.084706	2530.109745
839.400526	2531.312060
839.716303	2531.443130
840.032037	2531.700229
840.347727	2531.642256
840.663373	2532.007739
840.978977	2529.973634
841.294537	2530.787780
841.610054	2529.903058
841.925527	2529.134282
842.240957	2534.906403
842.556344	2530.679395
842.871687	2532.398429
843.186987	2528.846936
843.502244	2533.315919
843.817458	2529.078829
844.132629	2530.220650
844.447756	2530.107224
844.762840	2525.872655
845.077881	2527.241328
845.392879	2527.538757
845.707833	2528.647810
846.022745	2527.654703
846.337613	2529.353572
846.652438	2528.501617
846.967221	2532.516896
847.281960	2528.892306
847.596656	2532.776515
847.911309	2529.729138
848.225919	2531.065044
848.540485	2530.797862
848.855009	2530.702081
849.169490	2531.687626
849.483928	2528.178983
849.798323	2531.654859
850.112675	2531.692667
850.426984	2532.242153
850.741251	2530.127389
851.055474	2530.520599
851.369654	2530.666792
851.683792	2530.165198
851.997887	2532.761392
852.311938	2531.145702
852.625947	2528.554549
852.939914	2528.446164
853.253837	2534.747607
853.567718	2530.694519
853.881555	2529.582944
854.195350	2530.470188
854.509103	2532.731145
854.822812	2529.494724
855.136479	2533.542771
855.450103	2530.823068
855.763685	2531.420445
856.077224	2528.630166
856.390720	2533.494880
856.704173	2530.931453
857.017584	2529.509848
857.330953	2528.637728
857.644278	2530.034128
857.957561	2533.212575
858.270802	2531.478418
858.584000	2530.495393
858.897155	2531.619571
859.210268	2530.563449
859.523339	2529.038500
859.836367	2529.817358
860.149352	2532.022863
860.462295	2528.196627
860.775195	2525.066071
861.088054	2526.850639
861.400869	2529.903058
861.713642	2522.651358
862.026373	2530.777698
862.339062	2529.754344
862.651708	2531.470857
862.964312	2529.895496
863.276873	2530.644107
863.589392	2532.358100
863.901869	2527.369878
864.214303	2528.499096
864.526696	2529.086391
864.839045	2529.774508
865.151353	2529.920702
865.463619	2529.340969
865.775842	2533.210055
866.088023	2526.805269
866.400162	2528.839374
866.712258	2528.998171
867.024313	2529.593027
867.336325	2530.497914
867.648296	2531.821217
867.960224	2529.509848
868.272110	2531.866587
868.583954	2531.596885
868.895755	2528.844415
869.207515	2529.023376
869.519233	2530.712163
869.830909	2528.577234
870.142542	2532.249715
870.454134	2530.961700
870.765684	2531.707791
871.077191	2531.034797
871.388657	2532.342976
871.700081	2531.612009
872.011463	2528.511699
872.322803	2527.959693
872.634101	2530.863397
872.945357	2528.743592
873.256571	2532.043028
873.567744	2530.329035
873.878874	2528.254600
874.189963	2528.925074
874.501010	2531.238963
874.812015	2533.273069
875.122979	2532.854653
875.433900	2528.463808
875.744780	2530.104704
876.055618	2529.111597
876.366415	2531.206196
876.677169	2530.714683
876.987882	2527.926925
877.298554	2526.538087
877.609183	2529.056144
877.919771	2524.665299
878.230317	2526.510361
878.540822	2531.561597
878.851285	2534.684592
879.161707	2531.004550
879.472087	2532.199303
879.782425	2527.982378
880.092722	2529.666123
880.402977	2533.966228
880.713191	2532.317770
881.023363	2533.530168
881.333494	2536.186856
881.643583	2536.096115
881.953631	2533.600744
882.263637	2533.605785
882.573602	2533.923378
882.883526	2534.724921
883.193408	2533.154602
883.503248	2531.249046
883.813048	2532.867256
884.122806	2529.948428
884.432522	2532.847092
884.742197	2531.455733
885.051831	2531.221319
885.361424	2529.131761
885.670975	2532.411032
885.980485	2530.565969
886.289954	2530.848274
886.599382	2529.633356
886.908768	2530.132430
887.218113	2528.589837
887.527417	2532.055630
887.836680	2529.875331
888.145901	2530.671834
888.455082	2530.923891
888.764221	2529.499765
889.073319	2530.034128
889.382376	2528.436082
889.691392	2528.612522
890.000366	2530.112266
890.309300	2530.540764
890.618193	2528.660413
890.927044	2530.225692
891.235855	2531.813655
891.544625	2529.398942
891.853353	2528.851977
892.162041	2528.688140
892.470687	2530.344159
892.779293	2530.124868
893.087858	2528.211751
893.396381	2523.924249
893.704864	2528.390712
894.013306	2528.768798
894.321707	2528.105886
894.630068	2527.589168
894.938387	2530.195445
895.246665	2533.479756
895.554903	2532.184180
895.863100	2529.714014
896.171256	2527.778211
896.479371	2532.020342
896.787446	2530.722245
897.095480	2529.270393
897.403473	2530.833151
897.711425	2524.803931
898.019336	2527.470701
898.327207	2526.175124
898.635038	2530.082019
898.942827	2528.824251
899.250576	2527.102697
899.558284	2527.314425
899.865952	2530.097142
900.173579	2528.146216
900.481165	2532.443799
900.788711	2527.621936
901.096216	2530.550846
901.403681	2529.232584
901.711105	2528.713345
902.018489	2527.972296
902.325832	2530.747451
902.633135	2530.984385
902.940397	2529.025897
903.247619	2531.266690
903.554800	2527.458098
903.861941	2526.964065
904.169041	2532.491690
904.476101	2529.409025
904.783121	2530.578572
905.090100	2531.783408
905.397039	2529.030938
905.703938	2530.757533
906.010796	2530.124868
906.317614	2528.763757
906.624391	2527.873993
906.931129	2532.156453
907.237826	2528.015146
907.544483	2529.010773
907.851099	2530.870959
908.157675	2529.000691
908.464211	2529.003212
908.770707	2526.134795
909.077163	2526.422141
909.383578	2525.403828
909.689954	2528.516740
909.996289	2523.546163
910.302584	2528.075639
910.608839	2529.620753
910.915054	2527.412728
911.221229	2529.782070
911.527363	2528.078160
911.833458	2527.778211
912.139513	2530.533202
912.445527	2528.040351
912.751502	2529.106555
913.057436	2525.728982
913.363331	2529.020856
913.669186	2529.782070
913.975000	2530.192924
914.280775	2526.981709
914.586510	2529.494724
914.892205	2527.556401
915.197859	2530.253418
915.503475	2530.107224
915.809050	2530.656710
916.114585	2532.166536
916.420081	2533.641073
916.725536	2529.582944
917.030952	2531.944725
917.336328	2531.864067
917.641665	2530.175280
917.946961	2528.347862
918.252218	2528.461288
918.557435	2530.213089
918.862612	2527.926925
919.167750	2527.798376
919.472848	2528.055475
919.777906	2526.999353
920.082925	2529.845084
920.387904	2526.570855
920.692843	2528.857018
920.997743	2525.797038
921.302603	2526.959024
921.607423	2529.464477
921.912204	2528.844415
922.216946	2525.272758
922.521647	2530.049251
922.826310	2528.610002
923.130932	2530.805424
923.435516	2529.010773
923.740059	2531.294416
924.044564	2530.298788
924.349028	2528.398273
924.653454	2522.802593
924.957840	2524.635052
925.262186	2523.452901
925.566493	2530.742410
925.870761	2523.190761
926.174989	2528.083201
926.479178	2528.158818
926.783328	2528.536905
927.087438	2530.006401
927.391509	2527.465660
927.695541	2525.870135
927.999533	2530.371885
928.303486	2527.284178
928.607400	2527.420289
928.911275	2529.411545
929.215110	2529.706453
929.518906	2527.042203
929.822663	2527.319466
930.126381	2529.182173
930.430060	2527.410207
930.733699	2527.989940
931.037299	2526.306194
931.340861	2525.393746
931.644383	2525.761750
931.947866	2527.891637
932.251309	2524.332583
932.554714	2528.564631
932.858080	2527.047244
933.161407	2526.805269
933.464694	2527.758047
933.767943	2527.672347
934.071153	2530.868439
934.374323	2523.803262
934.677455	2526.457429
934.980548	2526.333921
935.283602	2528.983047
935.586617	2526.840557
935.889593	2528.932636
936.192530	2526.646472
936.495428	2527.891637
936.798287	2526.187727
937.101108	2525.875176
937.403890	2526.953983
937.706632	2528.332738
938.009336	2525.038344
938.312002	2527.372398
938.614628	2525.862573
938.917216	2528.685619
939.219765	2527.140505
939.522275	2527.773170
939.824747	2531.528830
940.127179	2523.571368
940.429573	2525.925587
940.731929	2525.371060
941.034246	2522.802592
941.336524	2527.150588
941.638763	2528.554549
941.940964	2528.317615
942.243126	2526.666637
942.545250	2526.144878
942.847335	2526.018849
943.149381	2526.568334
943.451389	2527.511030
943.753359	2526.298633
944.055290	2527.937008
944.357182	2526.291071
944.659036	2529.000691
944.960851	2526.712007
945.262628	2526.782583
945.564367	2526.759898
945.866067	2528.209230
946.167729	2525.124044
946.469352	2527.185876
946.770937	2526.953983
947.072484	2525.202182
947.373992	2527.672347
947.675462	2527.551359
947.976893	2529.328366
948.278286	2528.277286
948.579641	2524.635052
948.880958	2528.269724
949.182236	2530.245856
949.483476	2527.493386
949.784678	2528.292409
950.085841	2527.821061
950.386967	2529.774508
950.688054	2527.879034
950.989103	2525.209743
951.290114	2525.204702
951.591087	2527.397604
951.892021	2526.321318
952.192917	2527.989940
952.493776	2525.678571
952.794596	2528.562111
953.095378	2524.909795
953.396122	2528.688140
953.696828	2526.306194
953.997496	2529.900537
954.298126	2528.589837
954.598718	2527.324507
954.899272	2526.732172
955.199788	2526.533046
955.500266	2529.963552
955.800706	2525.429034
956.101108	2524.312418
956.401472	2524.965248
956.701798	2523.752850
957.002087	2524.657737
957.302337	2525.446678
957.602550	2528.249559
957.902724	2526.860721
958.202861	2528.640249
958.502960	2526.780063
958.803022	2526.981709
959.103045	2525.839888
959.403031	2529.098994
959.702979	2528.683098
960.002889	2526.011287
960.302762	2526.643952
960.602596	2523.662109
960.902393	2527.077491
961.202153	2528.375588
961.501875	2526.013807
961.801559	2526.389373
962.101205	2527.788294
962.400814	2527.102697
962.700385	2528.000022
962.999918	2528.877183
963.299414	2526.376771
963.598873	2527.702594
963.898293	2526.840557
964.197677	2525.759229
964.497022	2528.476411
964.796331	2528.514220
965.095601	2527.621936
965.394835	2526.535567
965.694030	2529.421627
965.993189	2526.676719
966.292309	2525.902902
966.591393	2528.310053
966.890439	2523.878879
967.189447	2527.271575
967.488419	2525.756709
967.787353	2524.254445
968.086249	2526.341482
968.385108	2530.550846
968.683930	2528.650331
968.982714	2529.681247
969.281462	2525.686133
969.580172	2528.678057
969.878844	2528.113448
970.177480	2525.930628
970.476078	2524.539270
970.774639	2527.994981
971.073162	2526.280989
971.371649	2525.739065
971.670098	2522.248066
971.968510	2523.384846
972.266885	2521.348220
972.565223	2525.449198
972.863524	2526.235618
973.161788	2528.247039
973.460014	2527.705115
973.758204	2525.746626
974.056356	2526.870804
974.354471	2525.948273
974.652550	2528.015146
974.950591	2527.059847
975.248595	2527.770650
975.546563	2526.921215
975.844493	2526.338962
976.142386	2527.500948
976.440243	2527.372398
976.738062	2527.521113
977.035845	2524.882068
977.333590	2525.388704
977.631299	2525.751668
977.928971	2527.644621
978.226606	2530.195445
978.524204	2524.451050
978.821765	2527.518592
979.119290	2526.802748
979.416777	2525.781914
979.714228	2524.209074
980.011642	2525.328211
980.309020	2529.010773
980.606360	2527.574045
980.903664	2529.421628
981.200931	2526.333921
981.498162	2526.240659
981.795356	2525.827285
982.092513	2525.744106
982.389633	2524.201513
982.686717	2529.945908
982.983764	2526.971627
983.280775	2527.551359
983.577749	2526.724610
983.874686	2526.286030
984.171587	2525.098838
984.468451	2526.757378
984.765279	2527.460619
985.062070	2526.515402
985.358824	2526.258303
985.655543	2525.068591
985.952224	2524.292253
986.248869	2525.751668
986.545478	2524.451050
986.842050	2524.229239
987.138586	2523.039527
987.435086	2522.542973
987.731549	2521.383508
988.027975	2524.652696
988.324366	2526.454908
988.620719	2528.990609
988.917037	2526.311236
989.213318	2528.229395
989.509563	2525.686133
989.805772	2528.413397
990.101944	2525.239990
990.398080	2524.917357
990.694180	2525.197141
990.990244	2524.793848
991.286271	2527.231246
991.582262	2526.444826
991.878217	2524.251924
992.174136	2526.477594
992.470019	2524.609846
992.765865	2527.732841
993.061676	2526.906092
993.357450	2527.647141
993.653188	2524.624970
993.948890	2525.287881
994.244556	2527.016997
994.540186	2526.480114
994.835780	2525.844929
995.131337	2527.337110
995.426859	2526.903571
995.722345	2522.905936
996.017795	2525.439116
996.313208	2523.576410
996.608586	2525.371060
996.903928	2526.054137
997.199234	2526.974147
997.494504	2528.574714
997.789738	2523.999867
998.084936	2526.613705
998.380099	2525.756709
998.675225	2525.746626
998.970316	2526.520443
999.265371	2525.252593
999.560390	2525.381143
999.855373	2525.116482
1000.150320	2522.762263
1000.445232	2524.277130
1000.740108	2525.597912
1001.034948	2527.679909
1001.329752	2526.991791
1001.624521	2526.669158
1001.919254	2517.728671
1002.213951	2525.330731
1002.508613	2520.786131
1002.803239	2524.483817
1003.097829	2518.298322
1003.392384	2527.851308
1003.686903	2527.407687
1003.981386	2526.578417
1004.275834	2526.835516
1004.570246	2527.334590
1004.864623	2523.974661
1005.158964	2524.587161
1005.453270	2526.477594
1005.747540	2525.386184
1006.041775	2524.667819
1006.335974	2527.122861
1006.630138	2524.892151
1006.924266	2524.151101
1007.218359	2525.645803
1007.512416	2526.190248
1007.806438	2524.521626
1008.100425	2524.380474
1008.394376	2525.431554
1008.688292	2525.751667
1008.982172	2527.533715
1009.276017	2525.199661
1009.569827	2526.570855
1009.863602	2528.035310
1010.157341	2525.285361
1010.451045	2524.904754
1010.744714	2523.800741
1011.038347	2524.052799
1011.331945	2525.393746
1011.625508	2527.170752
1011.919036	2523.359640
1012.212528	2525.366019
1012.505986	2524.836698
1012.799408	2524.433406
1013.092795	2526.485155
1013.386147	2527.228726
1013.679464	2524.503982
1013.972745	2525.434075
1014.265992	2526.729651
1014.559204	2525.663447
1014.852380	2524.612367
1015.145521	2526.454908
1015.438628	2526.104548
1015.731699	2524.700587
1016.024736	2525.439116
1016.317737	2526.785104
1016.610703	2526.439785
1016.903635	2523.583971
1017.196531	2522.290915
1017.489393	2521.920391
1017.782219	2520.849145
1018.075011	2520.821419
1018.367768	2523.084897
1018.660490	2525.313087
1018.953177	2525.313087
1019.245829	2525.313087
