Dividing Wavelength (nm)	Counts (n)	Blue Motor Position (mm): 0.000000	Red Motor Position (mm): 50.000000	
326.493990	2133.315485
326.888308	2133.315485
327.282561	2133.315485
327.676750	2109.543924
328.070874	2111.285642
328.464933	2117.708072
328.858929	2123.560852
329.252859	2137.809673
329.646726	2150.480613
330.040528	2165.621719
330.434265	2186.272806
330.827938	2203.584128
331.221547	2223.494165
331.615091	2242.217011
332.008571	2260.329876
332.401986	2283.924997
332.795338	2301.206072
333.188625	2322.641058
333.581847	2342.417505
333.975006	2360.401821
334.368100	2381.362939
334.761129	2396.806514
335.154095	2414.175809
335.546996	2439.492484
335.939833	2471.241671
336.332606	2486.097951
336.725315	2496.611278
337.117960	2505.972700
337.510540	2512.190964
337.903056	2519.919052
338.295508	2527.695032
338.687896	2533.797349
339.080220	2539.433359
339.472480	2547.642878
339.864676	2551.650595
340.256807	2554.551779
340.648875	2556.522871
341.040879	2562.269786
341.432818	2559.275341
341.824694	2557.969682
342.216506	2559.035886
342.608253	2559.925649
342.999937	2559.376164
343.391557	2557.911708
343.783113	2557.866338
344.174605	2554.811399
344.566033	2555.479352
344.957397	2553.253682
345.348697	2552.832746
345.739934	2550.377704
346.131106	2550.702858
346.522215	2547.509288
346.913260	2545.903680
347.304241	2544.270346
347.695159	2541.139790
348.086012	2538.175591
348.476802	2539.241795
348.867528	2537.343801
349.258191	2533.837678
349.648789	2534.845909
350.039324	2535.604603
350.429796	2535.367668
350.820203	2532.567307
351.210548	2531.158305
351.600828	2532.952956
351.991045	2528.834333
352.381198	2529.724097
352.771288	2528.882224
353.161314	2529.799714
353.551276	2529.459436
353.941175	2529.739220
354.331010	2530.376926
354.720782	2529.479601
355.110490	2529.010773
355.500135	2529.083870
355.889717	2528.536905
356.279235	2527.465660
356.668689	2529.923222
357.058080	2532.315250
357.447408	2526.394415
357.836672	2529.587986
358.225873	2527.679909
358.615010	2530.628984
359.004084	2533.021011
359.393095	2531.929602
359.782043	2534.556043
360.170927	2532.751310
360.559748	2532.562266
360.948505	2536.978317
361.337199	2534.130065
361.725830	2535.254243
362.114398	2538.465457
362.502903	2536.880015
362.891344	2538.717515
363.279722	2538.745242
363.668037	2536.398584
364.056289	2539.841692
364.444478	2538.669624
364.832603	2540.915458
365.220665	2540.184491
365.608665	2541.177598
365.996601	2540.663401
366.384474	2542.735315
366.772284	2543.788916
367.160031	2542.929399
367.547715	2542.798329
367.935336	2544.295552
368.322893	2542.505942
368.710388	2545.477703
369.097820	2545.770089
369.485189	2544.590459
369.872495	2543.849410
370.259738	2546.649771
370.646918	2544.260264
371.034035	2545.558361
371.421090	2547.526932
371.808081	2548.104144
372.195010	2547.484082
372.581875	2548.953578
372.968678	2549.109854
373.355418	2550.420554
373.742096	2552.673950
374.128710	2553.140256
374.515262	2552.442057
374.901751	2554.655123
375.288177	2554.801317
375.674540	2556.931204
376.060841	2557.127809
376.447079	2558.675443
376.833254	2561.324570
377.219367	2559.633262
377.605417	2564.497976
377.991404	2565.012174
378.377329	2566.093501
378.763191	2569.080385
379.148991	2577.660429
379.534727	2580.632189
379.920402	2584.014803
380.306013	2586.608477
380.691563	2593.683736
381.077049	2594.147522
381.462474	2600.542226
381.847835	2606.626899
382.233134	2610.727877
382.618371	2614.102930
383.003545	2618.496295
383.388657	2627.096504
383.773706	2634.474232
384.158693	2641.274749
384.543618	2648.322282
384.928480	2651.225987
385.313280	2660.511792
385.698017	2668.373472
386.082692	2676.419153
386.467305	2680.706654
386.851856	2692.886082
387.236344	2701.125848
387.620770	2709.085830
388.005133	2718.487582
388.389435	2729.636094
388.773674	2733.308574
389.157851	2745.356932
389.541965	2755.953437
389.926018	2756.326483
390.310008	2767.817793
390.693936	2780.282046
391.077802	2789.053653
391.461606	2798.437761
391.845348	2806.435552
392.229027	2814.340081
392.612645	2832.833554
392.996200	2839.482836
393.379694	2853.403982
393.763125	2870.120448
394.146494	2876.691593
394.529801	2884.747356
394.913047	2903.543298
395.296230	2906.802404
395.679351	2912.052766
396.062410	2928.534819
396.445408	2927.571958
396.828343	2939.963114
397.211217	2946.196501
397.594028	2940.131993
397.976778	2957.067749
398.359466	2966.345993
398.742092	2964.861373
399.124656	2980.768734
399.507158	2994.158039
399.889598	2997.560818
400.271977	3013.798374
400.654294	3020.699714
401.036549	3030.308153
401.418742	3032.226312
401.800874	3060.040878
402.182944	3068.628484
402.564952	3097.229470
402.946898	3085.536514
403.328783	3097.254676
403.710606	3108.556943
404.092367	3132.605767
404.474067	3160.538801
404.855705	3148.689569
405.237282	3152.442708
405.618797	3184.469158
406.000250	3205.072354
406.381642	3235.185687
406.762972	3237.227354
407.144240	3228.473390
407.525447	3252.464241
407.906593	3253.258223
408.287677	3271.923095
408.668700	3296.153401
409.049661	3290.603091
409.430560	3303.765543
409.811399	3308.920123
410.192176	3329.510716
410.572891	3338.425997
410.953545	3379.345043
411.334138	3343.991431
411.714669	3397.498238
412.095139	3341.831296
412.475547	3392.217629
412.855894	3384.476937
413.236180	3414.978438
413.616405	3391.874830
413.996568	3419.696958
414.376670	3420.944644
414.756711	3414.849889
415.136691	3444.018005
415.516609	3462.183803
415.896466	3468.860811
416.276262	3498.757374
416.655997	3529.296684
417.035670	3534.829351
417.415283	3604.147737
417.794834	3623.588946
418.174324	3607.401801
418.553753	3605.065227
418.933121	3648.910662
419.312428	3639.889517
419.691674	3638.278869
420.070859	3675.142306
420.449983	3656.542969
420.829045	3702.251111
421.208047	3690.563196
421.586988	3735.263107
421.965867	3764.743775
422.344686	3768.643107
422.723444	3806.860094
423.102141	3713.886094
423.480777	3816.508863
423.859352	3785.914100
424.237866	3879.349366
424.616319	3869.244373
424.994712	3928.621604
425.373044	3915.746497
425.751314	3983.287876
426.129524	3914.851692
426.507673	4014.331302
426.885762	3990.078310
427.263789	4014.013709
427.641756	4018.059235
428.019662	4044.595869
428.397508	4051.683731
428.775292	4085.398968
429.153016	4093.094289
429.530679	4103.842029
429.908282	4112.848051
430.285824	4095.743416
430.663305	4164.499713
431.040726	4123.212663
431.418086	4114.718319
431.795385	4191.472407
432.172624	4223.735791
432.549802	4187.739432
432.926920	4206.086712
433.303977	4201.960527
433.680974	4243.976024
434.057910	4263.795320
434.434786	4269.864869
434.811601	4264.785907
435.188355	4372.414542
435.565050	4342.286086
435.941683	4335.041948
436.318257	4428.630969
436.694770	4434.019962
437.071222	4488.839990
437.447614	4425.197943
437.823946	4428.388993
438.200218	4443.716622
438.576429	4425.737346
438.952580	4453.282211
439.328670	4456.596770
439.704700	4504.321373
440.080670	4463.011638
440.456580	4525.113612
440.832429	4558.594435
441.208218	4461.748829
441.583947	4515.827807
441.959616	4533.527298
442.335224	4556.404054
442.710773	4578.380964
443.086261	4630.632524
443.461689	4583.706943
443.837057	4592.833952
444.212365	4670.187938
444.587612	4676.454092
444.962800	4642.237260
445.337927	4681.545657
445.712995	4570.683122
446.088002	4764.596146
446.462949	4780.344711
446.837837	4800.600067
447.212664	4791.142862
447.587431	5014.002192
447.962139	5307.631759
448.336786	5647.639942
448.711374	5638.008817
449.085901	5283.557729
449.460369	5219.809818
449.834776	5151.469416
450.209124	5384.766454
450.583412	5393.648967
450.957640	5516.980796
451.331808	5384.690837
451.705917	5229.960181
452.079965	5222.519438
452.453954	5262.624338
452.827883	5228.563782
453.201752	5234.240121
453.575562	5263.967805
453.949311	5395.483947
454.323001	5403.320421
454.696632	5395.841869
455.070202	5545.027255
455.443713	5576.050516
455.817164	5670.153735
456.190556	5739.693932
456.563888	5716.764243
456.937160	5792.464730
457.310373	5634.802644
457.683526	5696.219021
458.056619	5680.777967
458.429653	5669.047202
458.802628	5719.375561
459.175542	5746.363378
459.548398	5880.193410
459.921194	6066.784158
460.293930	6129.491071
460.666607	6377.770418
461.039224	6591.243119
461.411782	6722.413942
461.784280	6634.745756
462.156719	6644.520553
462.529099	6605.615448
462.901419	6459.273273
463.273680	6336.702658
463.645882	6325.009702
464.018024	6320.530637
464.390106	6386.297530
464.762130	6641.679863
465.134094	7021.825713
465.505999	7656.479256
465.877845	8360.423458
466.249631	8716.119712
466.621358	8643.320409
466.993026	8448.421840
467.364634	8235.743121
467.736184	7956.269113
468.107674	7805.704971
468.479105	7717.754481
468.850477	7650.273595
469.221790	7480.550548
469.593043	7259.082577
469.964238	7159.000550
470.335373	7134.767724
470.706449	7285.772967
471.077467	7469.054197
471.448425	8119.156356
471.819324	8706.607055
472.190164	8750.248323
472.560945	8271.106815
472.931667	7801.256153
473.302330	7607.917821
473.672934	7482.511557
474.043479	7562.877632
474.413965	7463.395502
474.784393	7412.663850
475.154761	7565.909886
475.525070	7573.794250
475.895321	7533.381841
476.265513	7631.298692
476.635645	7790.271479
477.005719	7782.903833
477.375734	7866.161009
477.745691	7973.393913
478.115588	8179.864451
478.485427	8414.804905
478.855207	8884.527018
479.224928	9315.419643
479.594591	9700.548673
479.964194	9708.561587
480.333739	9788.710892
480.703226	9788.589905
481.072653	9896.354650
481.442022	10002.254169
481.811333	10160.765690
482.180584	10002.170990
482.549777	9938.738151
482.918912	9876.671465
483.287988	9868.071257
483.657005	9768.901678
484.025964	9687.678607
484.394864	9752.449873
484.763706	9714.530313
485.132489	9624.122260
485.501213	9616.288307
485.869879	9671.683026
486.238487	9612.265467
486.607036	9679.484212
486.975527	9628.845822
487.343959	9681.475468
487.712333	9734.425227
488.080648	9772.924519
488.448905	9879.635664
488.817104	9881.742866
489.185244	10046.702023
489.553326	10255.062993
489.921350	10715.307737
490.289315	11351.632422
490.657222	11628.800102
491.025070	11813.218112
491.392861	11735.599467
491.760593	11574.539642
492.128267	11331.067035
492.495883	11095.037691
492.863440	10858.910045
493.230939	10630.218101
493.598380	10451.909969
493.965763	10428.118243
494.333088	10296.218973
494.700354	10226.303211
495.067563	10205.122803
495.434713	10200.996618
495.801805	10243.092774
496.168839	10209.256549
496.535815	10176.025263
496.902733	10221.040246
497.269593	10176.216827
497.636395	10192.403972
498.003139	10294.298294
498.369825	10222.156862
498.736453	10320.882819
499.103023	10261.346792
499.469535	10268.369119
499.835989	10313.300923
500.202385	10278.751375
500.568723	10297.007914
500.935003	10362.129539
501.301226	10336.086939
501.667390	10499.566517
502.033497	10600.840777
502.399546	10527.373521
502.765537	10436.252145
503.131470	10541.793742
503.497345	10627.503440
503.863163	10398.682946
504.228923	10535.209995
504.594625	10650.115535
504.960269	10565.303163
505.325856	10715.426204
505.691385	10595.981105
506.056856	10662.257154
506.422270	10760.756259
506.787625	10694.928872
507.152924	10753.086144
507.518164	10814.994033
507.883347	10676.110245
508.248472	10748.876780
508.613540	10856.442400
508.978550	10935.649010
509.343503	10914.206462
509.708398	10966.904163
510.073236	11097.054153
510.438016	11105.067067
510.802738	11013.658345
511.167403	11147.498459
511.532010	11210.001205
511.896561	11301.251131
512.261053	11495.494350
512.625488	11416.144068
512.989866	11397.600183
513.354186	11380.576207
513.718449	11393.952909
514.082655	11526.605831
514.446803	11488.104018
514.810894	11592.944895
515.174927	11592.488671
515.538904	11578.829664
515.902822	11744.930642
516.266684	11613.815272
516.630488	11717.032897
516.994235	11700.553365
517.357925	11813.182824
517.721558	11876.857638
518.085133	11935.161103
518.448651	11964.707306
518.812112	11926.036615
519.175516	11927.700196
519.538863	12024.727284
519.902152	12037.201619
520.265385	12133.981690
520.628560	12159.817604
520.991678	12105.995725
521.354739	12166.406392
521.717743	12233.141187
522.080690	12201.107174
522.443580	12331.090806
522.806413	12348.949093
523.169189	12338.087927
523.531908	12398.022205
523.894569	12365.199253
524.257174	12380.189124
524.619722	12477.037251
524.982213	12460.824900
525.344647	12449.699073
525.707025	12461.611320
526.069345	12562.381465
526.431608	12536.666539
526.793815	12621.030249
527.155964	12518.833457
527.518057	12545.057540
527.880093	12506.953978
528.242072	12628.269346
528.603995	12556.357286
528.965860	12565.738873
529.327669	12599.391096
529.689421	12539.915563
530.051117	12559.838203
530.412755	12594.228954
530.774337	12596.873039
531.135862	12555.802759
531.497331	12606.504164
531.858743	12579.279413
532.220098	12660.598265
532.581396	12588.991195
532.942638	12507.173268
533.303824	12577.141963
533.664953	12565.363307
534.026025	12515.246676
534.387040	12620.198458
534.747999	12593.999582
535.108902	12645.963796
535.469748	12513.315914
535.830537	12544.462683
536.191270	12583.655134
536.551947	12509.656037
536.912567	12576.221953
537.273131	12601.788164
537.633638	12480.860966
537.994089	12536.913556
538.354483	12451.584465
538.714821	12580.015421
539.075103	12663.713698
539.435328	12596.779778
539.795497	12574.926376
540.155609	12574.482755
540.515665	12682.615505
540.875665	12544.112323
541.235609	12638.959112
541.595496	12605.274122
541.955328	12763.160540
542.315102	12610.532046
542.674821	12554.517265
543.034483	12567.924213
543.394090	12562.792319
543.753640	12545.871686
544.113134	12782.127882
544.472571	12549.292109
544.831953	12823.687154
545.191278	12647.952531
545.550548	12583.294692
545.909761	12699.546220
546.268918	12734.063000
546.628019	12800.986838
546.987064	12687.807893
547.346053	12543.676263
547.704986	12728.119480
548.063863	12616.790638
548.422684	12674.317765
548.781449	12625.663069
549.140158	12721.230743
549.498811	12670.158813
549.857408	12536.845500
550.215949	12744.994742
550.574434	12711.075339
550.932864	12649.573262
551.291237	12849.437368
551.649555	12738.451325
552.007817	12799.217393
552.366022	12723.776526
552.724173	12766.805294
553.082267	12852.759488
553.440305	12944.473200
553.798288	12769.209925
554.156215	12844.146677
554.514086	12891.611661
554.871902	12830.611179
555.229661	12854.269314
555.587365	12802.521869
555.945014	12816.838746
556.302606	12798.148668
556.660143	12857.578831
557.017625	12891.962021
557.375050	12847.456194
557.732421	12964.927682
558.089735	12952.831433
558.446994	12916.910691
558.804197	13043.131101
559.161345	13038.273950
559.518437	12846.778159
559.875474	12948.518726
560.232455	12972.416316
560.589381	13024.796425
560.946251	12961.920633
561.303065	13135.790030
561.659825	13092.773864
562.016528	12997.039832
562.373177	12929.208586
562.729770	13064.417373
563.086307	12942.451697
563.442789	13059.424111
563.799216	13093.429214
564.155587	13036.844782
564.511904	13051.806927
564.868164	13074.318200
565.224370	13128.429945
565.580520	13070.060945
565.936615	13142.850166
566.292654	13078.015886
566.648638	13150.984067
567.004567	13141.602480
567.360441	13149.683450
567.716260	13114.108027
568.072023	13203.407026
568.427732	13186.277185
568.783385	13082.789859
569.138982	13197.821428
569.494525	13200.057179
569.850013	13143.107264
570.205445	13143.634065
570.560823	13145.469045
570.916145	13101.013630
571.271412	13113.767749
571.626625	13067.190008
571.981782	13064.651787
572.336884	13005.687931
572.691931	13086.588368
573.046923	12988.726969
573.401860	12973.031337
573.756743	12966.379534
574.111570	12997.100326
574.466342	12970.785502
574.821059	13025.124100
575.175722	12900.113567
575.530330	12909.815267
575.884882	12851.020290
576.239380	12851.665558
576.593823	12831.332064
576.948211	12824.624808
577.302544	12706.724823
577.656823	12722.445661
578.011047	12780.353395
578.365216	12724.933471
578.719330	12663.035663
579.073389	12634.843010
579.427394	12639.765697
579.781344	12628.634829
580.135239	12559.019015
580.489080	12571.150552
580.842866	12460.003192
581.196597	12552.271431
581.550273	12543.472097
581.903895	12511.503620
582.257463	12619.240639
582.610975	12467.368318
582.964434	12531.113708
583.317837	12453.885752
583.671186	12409.120306
584.024481	12465.530817
584.377721	12359.041483
584.730906	12423.333839
585.084037	12444.312601
585.437113	12357.045186
585.790135	12387.027449
586.143103	12295.212914
586.496016	12306.011065
586.848874	12311.352168
587.201679	12313.227477
587.554428	12195.619878
587.907124	12239.165365
588.259765	12183.556397
588.612352	12241.585119
588.964884	12111.641817
589.317362	12157.758293
589.669786	12160.059579
590.022155	12107.462701
590.374470	12205.528266
590.726731	12090.078282
591.078937	11976.738020
591.431090	12005.394459
591.783188	11937.863162
592.135232	11861.275432
592.487222	11924.045359
592.839157	11931.523911
593.191038	11871.151052
593.542866	11817.825727
593.894639	11673.338696
594.246358	11737.890671
594.598022	11742.468039
594.949633	11650.063689
595.301190	11642.116310
595.652692	11591.964391
596.004141	11682.100221
596.355535	11466.195164
596.706876	11437.765577
597.058162	11412.816906
597.409395	11503.272850
597.760573	11525.348063
598.111698	11430.418095
598.462768	11419.604820
598.813785	11428.288207
599.164748	11306.385546
599.515657	11376.046730
599.866511	11254.925447
600.217312	11388.878987
600.568060	11156.096147
600.918753	11316.019191
601.269392	11314.549694
601.619978	11212.904909
601.970510	11261.652867
602.320988	11301.780452
602.671412	11367.847293
603.021783	11288.159254
603.372100	11218.367000
603.722363	11240.699311
604.072572	11247.393963
604.422728	11253.377813
604.772830	11193.670387
605.122878	11199.140039
605.472872	11176.079281
605.822813	11231.804195
606.172701	11193.020078
606.522534	11234.344937
606.872314	11282.308995
607.222041	11214.225692
607.571714	11290.725201
607.921333	11153.003399
608.270899	11211.611853
608.620411	11273.512182
608.969870	11214.472708
609.319276	11201.378311
609.668627	11219.881866
610.017926	11296.938423
610.367171	11329.461428
610.716362	11327.936478
611.065500	11294.143104
611.414585	11310.998202
611.763616	11371.605474
612.112594	11339.092552
612.461518	11366.082890
612.810389	11412.365723
613.159207	11357.339008
613.507971	11351.924809
613.856682	11454.983638
614.205340	11413.126937
614.553945	11554.206148
614.902496	11423.342836
615.250994	11478.626649
615.599439	11469.245062
615.947830	11508.739982
616.296169	11472.786473
616.644454	11487.209214
616.992686	11500.898467
617.340864	11595.654515
617.688990	11484.880201
618.037063	11616.136723
618.385082	11595.936820
618.733048	11624.802467
619.080961	11620.940943
619.428821	11605.026020
619.776628	11612.159253
620.124382	11551.930067
620.472083	11572.727348
620.819731	11592.579411
621.167326	11527.987107
621.514868	11508.576144
621.862357	11408.355485
622.209793	11391.545758
622.557176	11315.991464
622.904506	11251.033677
623.251783	11174.335041
623.599007	11119.545261
623.946179	11069.947869
624.293297	11042.352592
624.640363	10905.671788
624.987376	10893.394058
625.334336	10824.189098
625.681243	10743.739844
626.028097	10721.808305
626.374899	10688.244302
626.721647	10652.860443
627.068343	10617.698395
627.414987	10550.081399
627.761577	10484.427932
628.108115	10526.902173
628.454600	10409.171067
628.801032	10425.380897
629.147412	10400.588502
629.493739	10382.589062
629.840014	10296.816350
630.186236	10350.595379
630.532405	10241.807279
630.878521	10276.016549
631.224585	10233.801927
631.570597	10165.852214
631.916556	10165.854735
632.262462	10152.830914
632.608316	10126.112799
632.954117	10102.086659
633.299866	10094.920659
633.645562	10069.094828
633.991206	9967.354261
634.336797	9869.830619
634.682336	9858.903918
635.027823	9808.043717
635.373257	9760.644268
635.718639	9694.542138
636.063968	9676.893059
636.409245	9555.562568
636.754470	9543.799036
637.099642	9489.568823
637.444762	9394.719513
637.789829	9402.533302
638.134845	9325.819543
638.479808	9298.791397
638.824719	9279.690465
639.169577	9191.283750
639.514383	9184.984828
639.859137	9114.194425
640.203839	9157.533225
640.548489	9074.260925
640.893086	9082.115043
641.237632	9009.834979
641.582125	9019.261937
641.926566	9002.696705
642.270955	8992.702618
642.615292	8980.250968
642.959576	8958.997463
643.303809	8956.098800
643.647990	8966.700346
643.992118	8941.134134
644.336195	8924.906660
644.680219	8920.835928
645.024192	8959.688101
645.368112	9025.548256
645.711981	9009.991255
646.055797	9148.585177
646.399562	9104.873332
646.743274	9269.756871
647.086935	9332.211726
647.430544	9311.308582
647.774101	9336.806738
648.117606	9360.888330
648.461059	9419.418647
648.804460	9347.960291
649.147810	9232.938804
649.491108	9196.289616
649.834354	9134.250656
650.177548	8994.756888
650.520690	8901.072085
650.863781	8897.631497
651.206820	8865.000108
651.549807	8780.694372
651.892742	8692.690949
652.235626	8651.451790
652.578458	8612.697920
652.921238	8498.276331
653.263967	8541.068165
653.606644	8476.972415
653.949269	8457.682439
654.291843	8384.593270
654.634365	8447.615255
654.976836	8375.035243
655.319255	8361.209878
655.661622	8355.523457
656.003938	8317.049371
656.346203	8280.556458
656.688416	8314.213722
657.030577	8270.070858
657.372687	8232.415959
657.714746	8262.892255
658.056753	8280.707693
658.398708	8181.376797
658.740612	8173.421856
659.082465	8217.680667
659.424266	8171.052514
659.766016	8186.112961
660.107715	8162.182604
660.449362	8183.776386
660.790958	8176.895211
661.132503	8168.607554
661.473996	8161.565062
661.815438	8182.596756
662.156829	8216.740491
662.498168	8161.146647
662.839456	8156.508785
663.180693	8176.595263
663.521879	8191.030607
663.863013	8184.459463
664.204097	8174.157865
664.545129	8253.699711
664.886110	8241.603462
665.227040	8248.217456
665.567918	8256.507633
665.908746	8269.844006
666.249522	8286.603322
666.590248	8287.619114
666.930922	8295.430382
667.271545	8289.408724
667.612118	8304.201990
667.952639	8271.091692
668.293109	8275.167464
668.633528	8246.286694
668.973896	8239.050118
669.314213	8238.717402
669.654480	8206.519552
669.994695	8203.827576
670.334859	8175.012340
670.674973	8150.136767
671.015035	8181.439812
671.355047	8163.904158
671.695008	8154.073908
672.034918	8129.619271
672.374777	8133.047255
672.714585	8114.805840
673.054342	8143.484964
673.394049	8112.270140
673.733705	8151.543249
674.073310	8099.493335
674.412864	8112.968339
674.752368	8044.141466
675.091820	8101.101463
675.431223	8026.600771
675.770574	7980.645613
676.109875	7948.062115
676.449125	7908.627689
676.788324	7899.198211
677.127473	7813.125550
677.466571	7799.274980
677.805619	7740.384220
678.144616	7741.606700
678.483562	7719.014769
678.822458	7667.809249
679.161303	7654.856004
679.500098	7628.604196
679.838842	7610.856813
680.177535	7630.202241
680.516179	7659.960173
680.854771	7676.918614
681.193314	7791.181407
681.531805	7943.772093
681.870247	8073.904438
682.208638	8212.931900
682.546978	8299.291906
682.885268	8328.966658
683.223508	8262.040300
683.561697	8215.215542
683.899836	8178.349584
684.237925	8088.987571
684.575963	8062.448416
684.913951	7980.549831
685.251889	7997.727562
685.589776	7992.008373
685.927614	7976.083368
686.265401	7994.874269
686.603137	8002.496494
686.940824	8069.932009
687.278460	8124.578117
687.616046	8134.801577
687.953582	8251.179134
688.291068	8231.032163
688.628504	8291.412583
688.965889	8293.292933
689.303224	8252.247858
689.640510	8204.924027
689.977745	8104.489119
690.314930	7981.321127
690.652065	7908.468892
690.989150	7786.374667
691.326185	7639.508211
691.663170	7523.770881
692.000105	7414.231649
692.336990	7297.559184
692.673825	7223.161836
693.010610	7131.216231
693.347345	7039.104268
693.684030	6919.805362
694.020665	6872.970522
694.357251	6769.198370
694.693786	6758.962307
695.030272	6716.228446
695.366707	6618.467870
695.703093	6567.786630
696.039429	6564.003244
696.375716	6513.856366
696.711952	6507.915366
697.048139	6478.328834
697.384276	6443.096210
697.720363	6466.696372
698.056400	6439.096055
698.392388	6404.405354
698.728326	6405.963071
699.064214	6376.971395
699.400053	6375.804368
699.735842	6313.452857
700.071581	6266.663387
700.407270	6220.814093
700.742910	6193.496080
701.078501	6155.309340
701.414042	6110.017093
701.749533	6055.123969
702.084974	5996.744887
702.420366	6037.802564
702.755709	5961.839938
703.091002	5911.357823
703.426246	5915.967958
703.761440	5900.708386
704.096584	5855.559812
704.431679	5847.143605
704.766725	5831.977294
705.101721	5815.563297
705.436668	5839.554148
705.771565	5777.308501
706.106413	5838.107337
706.441212	5832.738508
706.775961	5851.037897
707.110661	5860.850503
707.445311	5921.351911
707.779913	5887.734976
708.114465	5926.977838
708.448967	5971.776052
708.783421	6081.912661
709.117825	6126.405884
709.452180	6166.979611
709.786485	6221.126645
710.120742	6350.969124
710.454949	6358.543457
710.789107	6430.591628
711.123216	6551.299536
711.457275	6581.657365
711.791286	6690.284148
712.125247	6704.714451
712.459159	6676.630183
712.793023	6807.974926
713.126837	6640.628782
713.460602	6694.294386
713.794318	6650.537170
714.127985	6599.245951
714.461602	6450.360513
714.795171	6462.764272
715.128691	6293.046266
715.462162	6204.654674
715.795584	6133.876874
716.128957	6092.025215
716.462281	6026.815370
716.795556	5985.669472
717.128782	5900.274846
717.461960	5807.222708
717.795088	5797.165606
718.128167	5729.120112
718.461198	5647.397967
718.794180	5622.335870
719.127113	5559.865892
719.459997	5529.951685
719.792833	5463.806705
720.125619	5457.175067
720.458357	5400.419237
720.791046	5368.818764
721.123686	5338.266851
721.456278	5298.272857
721.788821	5289.952433
722.121315	5245.749075
722.453761	5256.547227
722.786158	5234.593002
723.118506	5239.944186
723.450805	5216.959045
723.783056	5241.224639
724.115259	5223.449531
724.447412	5213.173139
724.779518	5256.138893
725.111574	5262.405047
725.443582	5297.569616
725.775542	5287.444458
726.107453	5373.252459
726.439315	5344.427141
726.771129	5416.626546
727.102895	5480.404704
727.434612	5520.156723
727.766281	5546.927770
728.097901	5599.469196
728.429473	5620.107680
728.760996	5631.576305
729.092471	5659.378269
729.423897	5644.511906
729.755276	5614.736331
730.086606	5630.174864
730.417887	5718.269028
730.749120	5809.919725
731.080305	5849.243246
731.411442	5918.843937
731.742530	5941.740857
732.073570	5964.156348
732.404562	6029.035998
732.735506	6026.187746
733.066401	6004.215877
733.397249	5938.028048
733.728048	5848.827351
734.058798	5706.780238
734.389501	5575.947172
734.720156	5491.238144
735.050762	5383.541454
735.381320	5312.496473
735.711831	5258.291466
736.042293	5181.744065
736.372707	5177.930432
736.703073	5128.325478
737.033391	5154.657946
737.363661	5142.158405
737.693883	5149.019415
738.024056	5172.274258
738.354182	5199.597312
738.684260	5245.449126
739.014290	5290.080982
739.344272	5326.039532
739.674207	5378.772522
740.004093	5410.925001
740.333931	5418.637967
740.663722	5436.718065
740.993464	5445.477070
741.323159	5428.397641
741.652806	5384.758892
741.982405	5354.491805
742.311956	5302.401562
742.641460	5290.776661
742.970915	5237.209360
743.300323	5178.520247
743.629683	5142.241584
743.958996	5092.482875
744.288260	5042.101583
744.617477	4985.101257
744.946647	4967.295901
745.275768	4919.820835
745.604842	4884.530237
745.933869	4852.944888
746.262847	4843.752344
746.591778	4834.169110
746.920662	4808.106345
747.249498	4803.813802
747.578286	4818.584383
747.907027	4839.490048
748.235720	4885.210793
748.564365	4892.822935
748.892963	4878.874063
749.221514	4894.942741
749.550017	4869.313514
749.878473	4869.734451
750.206881	4827.363553
750.535242	4821.808201
750.863555	4808.552487
751.191821	4783.702119
751.520039	4788.783602
751.848210	4770.693422
752.176334	4774.764153
752.504411	4760.192698
752.832440	4730.492740
753.160421	4740.774174
753.488356	4721.476637
753.816243	4705.639852
754.144082	4670.046785
754.471875	4661.169313
754.799620	4648.914268
755.127318	4637.561590
755.454969	4636.145026
755.782572	4627.892657
756.110129	4629.626814
756.437638	4614.059731
756.765100	4609.890696
757.092515	4612.605358
757.419882	4616.000575
757.747203	4607.859111
758.074477	4622.095330
758.401703	4616.487046
758.728882	4643.855470
759.056014	4653.781502
759.383099	4681.139844
759.710138	4709.241756
760.037129	4728.357812
760.364073	4742.019339
760.690970	4738.301488
761.017820	4737.510027
761.344623	4771.411786
761.671379	4829.390097
761.998088	4916.236574
762.324751	5136.628259
762.651366	5590.387558
762.977935	6277.184275
763.304456	6844.545976
763.630931	7161.669841
763.957359	7103.671366
764.283740	6816.005484
764.610074	6495.153685
764.936362	6100.839673
765.262602	5781.807731
765.588796	5435.919042
765.914943	5176.541594
766.241044	4954.267039
766.567097	4779.407056
766.893104	4629.899036
767.219064	4532.902195
767.544978	4431.534673
767.870845	4350.019216
768.196665	4304.916012
768.522438	4255.174947
768.848165	4217.449472
769.173846	4175.040766
769.499479	4144.322495
769.825066	4113.636991
770.150607	4066.731575
770.476101	4054.181623
770.801548	4029.399310
771.126949	3996.047037
771.452303	3979.554902
771.777611	3941.627781
772.102872	3939.525620
772.428087	3913.165426
772.753256	3889.177096
773.078378	3872.037173
773.403453	3838.460567
773.728482	3813.085919
774.053465	3802.244918
774.378401	3780.502422
774.703291	3757.713886
775.028135	3735.021132
775.352932	3724.822877
775.677683	3705.616081
776.002388	3685.791744
776.327046	3687.578833
776.651658	3665.057478
776.976224	3647.567195
777.300743	3649.422339
777.625216	3633.971203
777.949643	3625.486941
778.274024	3627.798310
778.598359	3605.949949
778.922647	3608.064713
779.246889	3597.947117
779.571086	3596.205399
779.895236	3597.914350
780.219339	3597.097683
780.543397	3598.264710
780.867409	3611.643932
781.191374	3613.773820
781.515294	3602.504320
781.839167	3622.361425
782.162995	3618.898153
782.486776	3609.602265
782.810511	3604.185545
783.134201	3593.372270
783.457844	3592.633741
783.781441	3583.153851
784.104993	3574.427614
784.428498	3569.767067
784.751958	3567.334711
785.075372	3564.025193
785.398739	3549.801577
785.722061	3558.598391
786.045337	3557.214594
786.368568	3580.396340
786.691752	3576.204621
787.014891	3622.096765
787.337983	3663.948424
787.661030	3751.014192
787.984031	3851.433977
788.306987	3926.650513
788.629897	3978.902072
788.952760	3985.768124
789.275579	3969.512923
789.598351	3923.131787
789.921078	3869.330073
790.243759	3805.428407
790.566395	3761.235132
790.888984	3710.576577
791.211529	3674.925537
791.534027	3629.696304
791.856480	3586.675097
792.178888	3570.661872
792.501249	3548.929458
792.823566	3516.719005
793.145836	3515.403264
793.468062	3504.892458
793.790241	3490.336127
794.112375	3495.967096
794.434464	3519.295035
794.756507	3515.436032
795.078505	3533.198537
795.400457	3569.416707
795.722364	3619.293883
796.044226	3665.571676
796.366042	3710.952142
796.687812	3713.707133
797.009538	3734.005339
797.331218	3722.766087
797.652852	3722.544276
797.974442	3695.924463
798.295986	3687.566230
798.617484	3659.050943
798.938938	3636.164105
799.260346	3621.310345
799.581709	3585.820622
799.903026	3573.583221
800.224299	3556.108061
800.545526	3522.508771
800.866708	3508.711132
801.187845	3493.214626
801.508936	3474.060762
801.829983	3465.193372
802.150984	3435.170780
802.471940	3422.295673
802.792851	3416.420208
803.113717	3410.625402
803.434538	3405.919485
803.755314	3393.666961
804.076045	3388.517422
804.396731	3374.571070
804.717372	3378.535937
805.037967	3374.800442
805.358518	3376.582490
805.679024	3389.414747
805.999485	3386.574057
806.319901	3393.457753
806.640272	3395.023031
806.960598	3406.600041
807.280879	3406.423600
807.601115	3415.860640
807.921306	3409.838982
808.241453	3408.561050
808.561554	3415.590939
808.881611	3412.949374
809.201623	3413.995413
809.521590	3404.732293
809.841513	3405.072571
810.161390	3411.172367
810.481223	3390.591857
810.801011	3388.343502
811.120755	3386.942061
811.440453	3376.789178
811.760107	3368.052858
812.079716	3362.822661
812.399281	3349.574508
812.718801	3349.907225
813.038276	3345.781040
813.357707	3337.644618
813.677093	3343.638550
813.996434	3330.143381
814.315731	3335.121520
814.634983	3337.009433
814.954191	3334.388033
815.273354	3354.706403
815.592473	3360.602033
815.911547	3381.777399
816.230577	3397.042013
816.549562	3421.723502
816.868502	3439.486008
817.187399	3462.375367
817.506250	3484.037205
817.825058	3496.521622
818.143821	3545.214128
818.462539	3587.784151
818.781213	3643.589724
819.099843	3723.539904
819.418429	3877.058162
819.736970	4029.593395
820.055466	4212.446127
820.373919	4450.514617
820.692327	4782.968631
821.010691	5285.120487
821.329011	6354.644125
821.647286	8069.102739
821.965517	10238.245704
822.283704	11875.748585
822.601847	12973.832880
822.919945	12586.624374
823.237999	11920.045203
823.556010	11020.831907
823.873976	10071.567514
824.191897	9099.146581
824.509775	8331.242739
824.827609	7530.762961
825.145398	6979.288457
825.463144	6594.303099
825.780845	6449.251459
826.098502	6509.127764
826.416116	6884.287913
826.733685	7389.134264
827.051210	7688.944287
827.368692	7605.790454
827.686129	7163.439286
828.003522	6611.148115
828.320872	6052.646242
828.638177	5588.252629
828.955439	5219.146906
829.272656	4884.542840
829.589830	4598.117082
829.906960	4327.828056
830.224046	4125.503867
830.541088	3951.833597
830.858086	3835.713138
831.175041	3736.215885
831.491952	3694.517981
831.808819	3673.143489
832.125642	3707.655228
832.442421	3810.739262
832.759157	4019.495964
833.075849	4396.100403
833.392497	4864.872258
833.709101	5253.094036
834.025662	5369.217015
834.342179	5248.620012
834.658653	4977.960462
834.975083	4705.581879
835.291469	4464.128253
835.607811	4238.569386
835.924110	4080.599789
836.240366	3916.399326
836.556578	3755.037033
836.872746	3618.073924
837.188871	3505.973786
837.504952	3407.504928
837.820990	3338.032787
838.136984	3280.147738
838.452935	3249.094230
838.768842	3231.029255
839.084706	3265.087291
839.400526	3394.070253
839.716303	3621.791775
840.032037	3832.481759
840.347727	3904.769384
840.663373	3818.852999
840.978977	3669.236594
841.294537	3537.881769
841.610054	3432.231788
841.925527	3352.339581
842.240957	3286.300466
842.556344	3223.036506
842.871687	3166.772188
843.186987	3101.249791
843.502244	3048.562171
843.817458	3010.148579
844.132629	2978.404433
844.447756	2956.107410
844.762840	2930.805858
845.077881	2917.897984
845.392879	2903.450037
845.707833	2896.480642
846.022745	2881.142931
846.337613	2878.521531
846.652438	2867.425952
846.967221	2860.484283
847.281960	2851.705113
847.596656	2849.822242
847.911309	2845.194463
848.225919	2840.864112
848.540485	2837.161385
848.855009	2834.746672
849.169490	2829.960096
849.483928	2828.230981
849.798323	2826.340548
850.112675	2823.525063
850.426984	2822.804178
850.741251	2820.707058
851.055474	2818.788899
851.369654	2817.546255
851.683792	2815.423929
851.997887	2815.915442
852.311938	2816.958961
852.625947	2815.202118
852.939914	2812.857982
853.253837	2812.968887
853.567718	2814.428301
853.881555	2814.743373
854.195350	2813.243630
854.509103	2816.114567
854.822812	2817.117757
855.136479	2812.744556
855.450103	2815.784372
855.763685	2811.569967
856.077224	2814.541727
856.390720	2814.932417
856.704173	2817.589105
857.017584	2816.364104
857.330953	2820.477686
857.644278	2825.241576
857.957561	2824.571103
858.270802	2828.299036
858.584000	2824.739982
858.897155	2826.781649
859.210268	2823.678819
859.523339	2819.492140
859.836367	2817.992397
860.149352	2818.083138
860.462295	2816.369146
860.775195	2811.098619
861.088054	2812.058959
861.400869	2810.970070
861.713642	2810.932261
862.026373	2812.147179
862.339062	2814.418219
862.651708	2816.061635
862.964312	2823.588078
863.276873	2823.388952
863.589392	2831.338852
863.901869	2835.923781
864.214303	2844.672704
864.526696	2849.986080
864.839045	2858.581247
865.151353	2864.703729
865.463619	2867.617516
865.775842	2868.832434
866.088023	2874.700337
866.400162	2873.840820
866.712258	2873.727394
867.024313	2877.001623
867.336325	2878.526573
867.648296	2877.679659
867.960224	2879.164278
868.272110	2881.513456
868.583954	2882.798950
868.895755	2887.560320
869.207515	2882.914897
869.519233	2890.650548
869.830909	2893.554252
870.142542	2898.585324
870.454134	2898.560118
870.765684	2906.265522
871.077191	2909.078485
871.388657	2917.013262
871.700081	2920.484096
872.011463	2930.384922
872.322803	2934.604368
872.634101	2937.437496
872.945357	2943.837241
873.256571	2957.607153
873.567744	2962.852473
873.878874	2965.017649
874.189963	2972.544092
874.501010	2975.495687
874.812015	2975.898980
875.122979	2983.311996
875.433900	2984.501709
875.744780	2991.024962
876.055618	2994.334479
876.366415	3000.351096
876.677169	3000.540140
876.987882	3010.065400
877.298554	3017.317100
877.609183	3032.997609
877.919771	3048.751214
878.230317	3072.681572
878.540822	3112.209259
878.851285	3157.176351
879.161707	3222.988615
879.472087	3332.364009
879.782425	3492.579440
880.092722	3766.977006
880.402977	4186.348074
880.713191	4726.018716
881.023363	5327.808977
881.333494	5768.239465
881.643583	6060.079423
881.953631	6136.702441
882.263637	6089.862560
882.573602	5954.517662
882.883526	5790.448269
883.193408	5586.299182
883.503248	5366.371284
883.813048	5149.107635
884.122806	4930.765180
884.432522	4689.621586
884.742197	4464.471052
885.051831	4254.620420
885.361424	4055.008372
885.670975	3884.955129
885.980485	3737.163622
886.289954	3612.780712
886.599382	3508.144003
886.908768	3424.438164
887.218113	3343.482274
887.527417	3278.327881
887.836680	3224.216136
888.145901	3172.914834
888.455082	3134.342445
888.764221	3103.651900
889.073319	3073.689802
889.382376	3053.895712
889.691392	3036.808721
890.000366	3030.335879
890.309300	3021.017307
890.618193	3018.209384
890.927044	3015.570340
891.235855	3011.721419
891.544625	3015.711492
891.853353	3019.227697
892.162041	3037.459030
892.470687	3062.077505
892.779293	3095.986826
893.087858	3141.367293
893.396381	3217.662636
893.704864	3322.899243
894.013306	3481.632575
894.321707	3668.084691
894.630068	3819.583967
894.938387	3900.481883
895.246665	3911.900097
895.554903	3850.907176
895.863100	3768.045730
896.171256	3694.535625
896.479371	3619.344295
896.787446	3538.930329
897.095480	3467.507262
897.403473	3415.601021
897.711425	3356.848893
898.019336	3306.739824
898.327207	3255.483892
898.635038	3206.972869
898.942827	3156.072339
899.250576	3114.704630
899.558284	3076.986717
899.865952	3047.498488
900.173579	3019.822553
900.481165	2997.580982
900.788711	2978.154896
901.096216	2961.083028
901.403681	2946.050308
901.711105	2939.990841
902.018489	2933.855757
902.325832	2942.387909
902.633135	2948.822942
902.940397	2982.689414
903.247619	3075.141655
903.554800	3246.145155
903.861941	3521.679501
904.169041	3787.892753
904.476101	3959.881799
904.783121	3986.075634
905.090100	3921.916869
905.397039	3814.840241
905.703938	3711.063048
906.010796	3607.202676
906.317614	3522.476003
906.624391	3435.911830
906.931129	3365.915409
907.237826	3300.057775
907.544483	3232.385326
907.851099	3161.216836
908.157675	3083.386462
908.464211	3012.424660
908.770707	2956.475414
909.077163	2907.820718
909.383578	2871.461395
909.689954	2840.473423
909.996289	2822.849549
910.302584	2810.523928
910.608839	2799.332566
910.915054	2791.959879
911.221229	2785.166924
911.527363	2785.509722
911.833458	2784.340175
912.139513	2789.681277
912.445527	2793.719241
912.751502	2804.792136
913.057436	2818.229331
913.363331	2840.836386
913.669186	2866.810931
913.975000	2906.101684
914.280775	2963.598564
914.586510	3044.622509
914.892205	3155.512771
915.197859	3301.648259
915.503475	3481.229282
915.809050	3658.806447
916.114585	3790.234369
916.420081	3868.485680
916.725536	3899.551790
917.030952	3863.545349
917.336328	3825.993794
917.641665	3778.291876
917.946961	3716.469685
918.252218	3658.143535
918.557435	3588.855396
918.862612	3520.789737
919.167750	3456.893112
919.472848	3387.504150
919.777906	3321.278512
920.082925	3249.711771
920.387904	3177.950946
920.692843	3119.677728
920.997743	3071.801890
921.302603	3019.464631
921.607423	2984.559682
921.912204	2950.068107
922.216946	2920.463931
922.521647	2898.608009
922.826310	2878.461038
923.130932	2854.996987
923.435516	2836.153154
923.740059	2824.308963
924.044564	2809.248516
924.349028	2795.531536
924.653454	2781.234824
924.957840	2769.252001
925.262186	2757.415372
925.566493	2749.447828
925.870761	2733.396794
926.174989	2731.425703
926.479178	2722.175186
926.783328	2714.081613
927.087438	2709.385779
927.391509	2705.884697
927.695541	2694.287523
927.999533	2688.147397
928.303486	2687.166893
928.607400	2681.808147
928.911275	2679.199349
929.215110	2677.029133
929.518906	2672.882784
929.822663	2669.485046
930.126381	2669.028822
930.430060	2671.715757
930.733699	2672.482012
931.037299	2671.796415
931.340861	2670.795746
931.644383	2670.914213
931.947866	2672.386230
932.251309	2673.094512
932.554714	2671.788853
932.858080	2671.546878
933.161407	2668.887669
933.464694	2667.297185
933.767943	2669.487567
934.071153	2666.757782
934.374323	2665.174859
934.677455	2665.021104
934.980548	2663.493635
935.283602	2660.531957
935.586617	2660.358037
935.889593	2661.885507
936.192530	2660.048006
936.495428	2662.772750
936.798287	2666.916578
937.101108	2673.860767
937.403890	2677.132476
937.706632	2684.807633
938.009336	2696.687112
938.312002	2708.218752
938.614628	2719.727706
938.917216	2731.670199
939.219765	2736.582804
939.522275	2745.752662
939.824747	2747.915317
940.127179	2746.113105
940.429573	2744.709144
940.731929	2747.083527
941.034246	2746.531521
941.336524	2744.973804
941.638763	2745.243506
941.940964	2747.030595
942.243126	2741.717219
942.545250	2739.080695
942.847335	2731.871845
943.149381	2724.526884
943.451389	2716.219063
943.753359	2712.967518
944.055290	2707.026519
944.357182	2701.715663
944.659036	2699.986547
944.960851	2697.508820
945.262628	2695.162163
945.564367	2694.312729
945.866067	2691.706452
946.167729	2689.518591
946.469352	2687.335772
946.770937	2687.935669
947.072484	2685.528518
947.373992	2684.520287
947.675462	2685.069773
947.976893	2681.906449
948.278286	2679.922755
948.579641	2681.651871
948.880958	2679.847138
949.182236	2677.379493
949.483476	2675.325223
949.784678	2677.891170
950.085841	2675.007630
950.386967	2678.581808
950.688054	2677.172806
950.989103	2683.940555
951.290114	2681.994669
951.591087	2689.309383
951.892021	2691.280475
952.192917	2698.396063
952.493776	2701.700540
952.794596	2702.681044
953.095378	2709.015254
953.396122	2702.996116
953.696828	2704.027032
953.997496	2705.297403
954.298126	2700.442772
954.598718	2698.239787
954.899272	2695.711649
955.199788	2691.325845
955.500266	2685.682273
955.800706	2677.203052
956.101108	2671.866991
956.401472	2664.643018
956.701798	2662.235867
957.002087	2650.875627
957.302337	2651.548621
957.602550	2645.486633
957.902724	2640.344656
958.202861	2633.355096
958.502960	2629.874180
958.803022	2626.388222
959.103045	2620.820267
959.403031	2616.270626
959.702979	2613.129987
960.002889	2613.198043
960.302762	2608.676128
960.602596	2606.752927
960.902393	2603.445931
961.202153	2600.373347
961.501875	2598.803028
961.801559	2598.127513
962.101205	2596.960486
962.400814	2595.919488
962.700385	2593.315732
962.999918	2592.945207
963.299414	2590.437233
963.598873	2592.988057
963.898293	2591.009404
964.197677	2588.614856
964.497022	2590.820361
964.796331	2588.526636
965.095601	2587.064701
965.394835	2585.398600
965.694030	2588.887078
965.993189	2587.455391
966.292309	2584.120667
966.591393	2587.619228
966.890439	2585.196954
967.189447	2587.024372
967.488419	2583.755184
967.787353	2587.135277
968.086249	2584.917170
968.385108	2587.639393
968.683930	2584.503795
968.982714	2587.518405
969.281462	2588.135946
969.580172	2588.307346
969.878844	2589.355906
970.177480	2593.260279
970.476078	2590.986719
970.774639	2595.183479
971.073162	2593.487131
971.371649	2591.256421
971.670098	2595.329673
971.968510	2594.850763
972.266885	2593.146853
972.565223	2597.361258
972.863524	2599.881835
973.161788	2600.436362
973.460014	2604.945674
973.758204	2603.957608
974.056356	2604.776795
974.354471	2602.835951
974.652550	2604.008019
974.950591	2605.926178
975.248595	2601.815117
975.546563	2600.448965
975.844493	2606.606734
976.142386	2602.004161
976.440243	2600.809407
976.738062	2600.673296
977.035845	2597.255394
977.333590	2601.502566
977.631299	2594.565938
977.928971	2594.921339
978.226606	2594.772625
978.524204	2593.293047
978.821765	2594.838160
979.119290	2591.747933
979.416777	2592.564600
979.714228	2592.453695
980.011642	2594.603747
980.309020	2597.507451
980.606360	2598.286310
980.903664	2600.627926
981.200931	2608.353494
981.498162	2613.681993
981.795356	2624.533077
982.092513	2640.682413
982.389633	2659.501041
982.686717	2677.036694
982.983764	2692.139991
983.280775	2704.710108
983.577749	2711.374514
983.874686	2713.121274
984.171587	2709.330326
984.468451	2706.540047
984.765279	2696.326670
985.062070	2689.649661
985.358824	2678.392765
985.655543	2675.657939
985.952224	2664.862308
986.248869	2652.040133
986.545478	2636.208389
986.842050	2624.770011
987.138586	2614.735595
987.435086	2600.368306
987.731549	2595.460743
988.027975	2595.634663
988.324366	2588.254413
988.620719	2585.935483
988.917037	2583.777869
989.213318	2580.980028
989.509563	2577.695717
989.805772	2577.325192
990.101944	2576.017012
990.398080	2574.527352
990.694180	2572.831003
990.990244	2577.763772
991.286271	2576.077506
991.582262	2577.778896
991.878217	2575.507856
992.174136	2576.508525
992.470019	2574.728998
992.765865	2577.736046
993.061676	2577.988104
993.357450	2579.301324
993.653188	2581.882395
993.948890	2584.183682
994.244556	2588.526636
994.540186	2588.652665
994.835780	2594.636514
995.131337	2602.866198
995.426859	2608.015737
995.722345	2616.651233
996.017795	2631.303347
996.313208	2637.950108
996.608586	2645.519401
996.903928	2648.836480
997.199234	2649.406130
997.494504	2651.987201
997.789738	2648.246665
998.084936	2644.581746
998.380099	2640.175777
998.675225	2634.096146
998.970316	2632.687143
999.265371	2621.364712
999.560390	2617.006634
999.855373	2610.732918
1000.150320	2601.736979
1000.445232	2599.571804
1000.740108	2591.516040
1001.034948	2587.125195
1001.329752	2584.899526
1001.624521	2581.370718
1001.919254	2575.601117
1002.213951	2573.675397
1002.508613	2571.376630
1002.803239	2570.595252
1003.097829	2566.635425
1003.392384	2570.232288
1003.686903	2569.483677
1003.981386	2570.015519
1004.275834	2565.785991
1004.570246	2565.614592
1004.864623	2568.452761
1005.158964	2566.118707
1005.453270	2564.976886
1005.747540	2564.845816
1006.041775	2563.865311
1006.335974	2564.066957
1006.630138	2565.188614
1006.924266	2567.134499
1007.218359	2562.307595
1007.512416	2560.631411
1007.806438	2562.728531
1008.100425	2563.061247
1008.394376	2564.611402
1008.688292	2562.562173
1008.982172	2563.535116
1009.276017	2563.416648
1009.569827	2561.952193
1009.863602	2562.846998
1010.157341	2562.456309
1010.451045	2561.589230
1010.744714	2560.961607
1011.038347	2562.153839
1011.331945	2560.694425
1011.625508	2565.332287
1011.919036	2563.393963
1012.212528	2561.508572
1012.505986	2561.304405
1012.799408	2560.374312
1013.092795	2562.040413
1013.386147	2560.434806
1013.679464	2560.185269
1013.972745	2562.973027
1014.265992	2561.501010
1014.559204	2560.510423
1014.852380	2559.179559
1015.145521	2558.879610
1015.438628	2561.546380
1015.731699	2558.234342
1016.024736	2561.974878
1016.317737	2561.201061
1016.610703	2560.218036
1016.903635	2558.703170
1017.196531	2557.054712
1017.489393	2560.583520
1017.782219	2557.258879
1018.075011	2560.422203
1018.367768	2562.473953
1018.660490	2561.816082
1018.953177	2561.816082
1019.245829	2561.816082
