Dividing Wavelength (nm)	Counts (n)	Blue Motor Position (mm): 0.000000	Red Motor Position (mm): 2.000000	
326.493990	2094.599423
326.888308	2094.599423
327.282561	2094.599423
327.676750	2089.558269
328.070874	2071.914231
328.464933	2049.229038
328.858929	2064.352500
329.252859	2069.393654
329.646726	2162.655000
330.040528	2064.352500
330.434265	2147.531538
330.827938	2094.599423
331.221547	2117.284615
331.615091	2245.834038
332.008571	2200.463654
332.401986	2192.901923
332.795338	2205.504808
333.188625	2248.354615
333.581847	2215.587115
333.975006	2288.683846
334.368100	2296.245577
334.761129	2301.286731
335.154095	2369.342308
335.546996	2386.986346
335.939833	2359.260000
336.332606	2271.039808
336.725315	2364.301154
337.117960	2379.424615
337.510540	2452.521346
337.903056	2460.083077
338.295508	2439.918462
338.687896	2437.397885
339.080220	2515.535769
339.472480	2465.124231
339.864676	2530.659231
340.256807	2470.165385
340.648875	2523.097500
341.040879	2543.262115
341.432818	2528.138654
341.824694	2414.712692
342.216506	2535.700385
342.608253	2379.424615
342.999937	2470.165385
343.391557	2513.015192
343.783113	2518.056346
344.174605	2457.562500
344.566033	2424.795000
344.957397	2485.288846
345.348697	2495.371154
345.739934	2487.809423
346.131106	2477.727115
346.522215	2442.439038
346.913260	2447.480192
347.304241	2402.109808
347.695159	2432.356731
348.086012	2452.521346
348.476802	2439.918462
348.867528	2392.027500
349.258191	2500.412308
349.648789	2424.795000
350.039324	2460.083077
350.429796	2389.506923
350.820203	2460.083077
351.210548	2500.412308
351.600828	2482.768269
351.991045	2490.330000
352.381198	2389.506923
352.771288	2450.000769
353.161314	2429.836154
353.551276	2495.371154
353.941175	2384.465769
354.331010	2434.877308
354.720782	2485.288846
355.110490	2460.083077
355.500135	2427.315577
355.889717	2472.685962
356.279235	2427.315577
356.668689	2351.698269
357.058080	2424.795000
357.447408	2417.233269
357.836672	2444.959615
358.225873	2422.274423
358.615010	2515.535769
359.004084	2467.644808
359.393095	2452.521346
359.782043	2437.397885
360.170927	2364.301154
360.559748	2397.068654
360.948505	2467.644808
361.337199	2444.959615
361.725830	2437.397885
362.114398	2462.603654
362.502903	2432.356731
362.891344	2502.932885
363.279722	2507.974038
363.668037	2432.356731
364.056289	2444.959615
364.444478	2480.247692
364.832603	2419.753846
365.220665	2452.521346
365.608665	2510.494615
365.996601	2507.974038
366.384474	2439.918462
366.772284	2490.330000
367.160031	2475.206538
367.547715	2455.041923
367.935336	2407.150962
368.322893	2495.371154
368.710388	2404.630385
369.097820	2563.426731
369.485189	2558.385577
369.872495	2487.809423
370.259738	2457.562500
370.646918	2462.603654
371.034035	2419.753846
371.421090	2402.109808
371.808081	2452.521346
372.195010	2467.644808
372.581875	2470.165385
372.968678	2500.412308
373.355418	2455.041923
373.742096	2439.918462
374.128710	2528.138654
374.515262	2490.330000
374.901751	2414.712692
375.288177	2457.562500
375.674540	2555.865000
376.060841	2392.027500
376.447079	2439.918462
376.833254	2417.233269
377.219367	2376.904038
377.605417	2452.521346
377.991404	2444.959615
378.377329	2475.206538
378.763191	2452.521346
379.148991	2432.356731
379.534727	2409.671538
379.920402	2523.097500
380.306013	2427.315577
380.691563	2470.165385
381.077049	2444.959615
381.462474	2465.124231
381.847835	2444.959615
382.233134	2518.056346
382.618371	2409.671538
383.003545	2482.768269
383.388657	2543.262115
383.773706	2417.233269
384.158693	2432.356731
384.543618	2480.247692
384.928480	2480.247692
385.313280	2535.700385
385.698017	2502.932885
386.082692	2444.959615
386.467305	2505.453462
386.851856	2505.453462
387.236344	2477.727115
387.620770	2500.412308
388.005133	2462.603654
388.389435	2467.644808
388.773674	2402.109808
389.157851	2487.809423
389.541965	2399.589231
389.926018	2515.535769
390.310008	2492.850577
390.693936	2505.453462
391.077802	2482.768269
391.461606	2530.659231
391.845348	2573.509038
392.229027	2490.330000
392.612645	2467.644808
392.996200	2455.041923
393.379694	2550.823846
393.763125	2550.823846
394.146494	2444.959615
394.529801	2462.603654
394.913047	2548.303269
395.296230	2460.083077
395.679351	2414.712692
396.062410	2462.603654
396.445408	2439.918462
396.828343	2548.303269
397.211217	2424.795000
397.594028	2513.015192
397.976778	2359.260000
398.359466	2419.753846
398.742092	2422.274423
399.124656	2462.603654
399.507158	2550.823846
399.889598	2485.288846
400.271977	2439.918462
400.654294	2586.111923
401.036549	2439.918462
401.418742	2520.576923
401.800874	2467.644808
402.182944	2470.165385
402.564952	2497.891731
402.946898	2565.947308
403.328783	2460.083077
403.710606	2422.274423
404.092367	2500.412308
404.474067	2442.439038
404.855705	2477.727115
405.237282	2455.041923
405.618797	2460.083077
406.000250	2555.865000
406.381642	2510.494615
406.762972	2412.192115
407.144240	2457.562500
407.525447	2465.124231
407.906593	2477.727115
408.287677	2480.247692
408.668700	2545.782692
409.049661	2472.685962
409.430560	2492.850577
409.811399	2477.727115
410.192176	2475.206538
410.572891	2538.220962
410.953545	2439.918462
411.334138	2475.206538
411.714669	2477.727115
412.095139	2432.356731
412.475547	2462.603654
412.855894	2576.029615
413.236180	2452.521346
413.616405	2523.097500
413.996568	2505.453462
414.376670	2505.453462
414.756711	2442.439038
415.136691	2505.453462
415.516609	2475.206538
415.896466	2502.932885
416.276262	2452.521346
416.655997	2450.000769
417.035670	2528.138654
417.415283	2422.274423
417.794834	2555.865000
418.174324	2444.959615
418.553753	2480.247692
418.933121	2543.262115
419.312428	2510.494615
419.691674	2487.809423
420.070859	2548.303269
420.449983	2535.700385
420.829045	2490.330000
421.208047	2485.288846
421.586988	2477.727115
421.965867	2518.056346
422.344686	2538.220962
422.723444	2500.412308
423.102141	2507.974038
423.480777	2417.233269
423.859352	2427.315577
424.237866	2447.480192
424.616319	2530.659231
424.994712	2492.850577
425.373044	2442.439038
425.751314	2407.150962
426.129524	2502.932885
426.507673	2515.535769
426.885762	2485.288846
427.263789	2510.494615
427.641756	2442.439038
428.019662	2490.330000
428.397508	2573.509038
428.775292	2462.603654
429.153016	2470.165385
429.530679	2525.618077
429.908282	2545.782692
430.285824	2490.330000
430.663305	2515.535769
431.040726	2450.000769
431.418086	2497.891731
431.795385	2427.315577
432.172624	2480.247692
432.549802	2467.644808
432.926920	2490.330000
433.303977	2432.356731
433.680974	2523.097500
434.057910	2500.412308
434.434786	2548.303269
434.811601	2530.659231
435.188355	2535.700385
435.565050	2404.630385
435.941683	2530.659231
436.318257	2502.932885
436.694770	2485.288846
437.071222	2417.233269
437.447614	2507.974038
437.823946	2470.165385
438.200218	2520.576923
438.576429	2437.397885
438.952580	2507.974038
439.328670	2573.509038
439.704700	2490.330000
440.080670	2495.371154
440.456580	2558.385577
440.832429	2447.480192
441.208218	2560.906154
441.583947	2455.041923
441.959616	2543.262115
442.335224	2518.056346
442.710773	2563.426731
443.086261	2535.700385
443.461689	2472.685962
443.837057	2505.453462
444.212365	2558.385577
444.587612	2480.247692
444.962800	2407.150962
445.337927	2510.494615
445.712995	2492.850577
446.088002	2492.850577
446.462949	2470.165385
446.837837	2457.562500
447.212664	2439.918462
447.587431	2394.548077
447.962139	2450.000769
448.336786	2434.877308
448.711374	2482.768269
449.085901	2560.906154
449.460369	2502.932885
449.834776	2465.124231
450.209124	2412.192115
450.583412	2520.576923
450.957640	2510.494615
451.331808	2480.247692
451.705917	2553.344423
452.079965	2510.494615
452.453954	2424.795000
452.827883	2485.288846
453.201752	2515.535769
453.575562	2409.671538
453.949311	2555.865000
454.323001	2492.850577
454.696632	2447.480192
455.070202	2442.439038
455.443713	2525.618077
455.817164	2533.179808
456.190556	2490.330000
456.563888	2412.192115
456.937160	2540.741538
457.310373	2437.397885
457.683526	2510.494615
458.056619	2429.836154
458.429653	2434.877308
458.802628	2576.029615
459.175542	2462.603654
459.548398	2505.453462
459.921194	2444.959615
460.293930	2477.727115
460.666607	2492.850577
461.039224	2530.659231
461.411782	2462.603654
461.784280	2472.685962
462.156719	2608.797115
462.529099	2490.330000
462.901419	2460.083077
463.273680	2419.753846
463.645882	2540.741538
464.018024	2452.521346
464.390106	2515.535769
464.762130	2470.165385
465.134094	2495.371154
465.505999	2520.576923
465.877845	2475.206538
466.249631	2538.220962
466.621358	2515.535769
466.993026	2573.509038
467.364634	2465.124231
467.736184	2548.303269
468.107674	2477.727115
468.479105	2432.356731
468.850477	2510.494615
469.221790	2432.356731
469.593043	2452.521346
469.964238	2467.644808
470.335373	2520.576923
470.706449	2485.288846
471.077467	2505.453462
471.448425	2460.083077
471.819324	2507.974038
472.190164	2444.959615
472.560945	2543.262115
472.931667	2457.562500
473.302330	2439.918462
473.672934	2472.685962
474.043479	2472.685962
474.413965	2394.548077
474.784393	2462.603654
475.154761	2450.000769
475.525070	2505.453462
475.895321	2444.959615
476.265513	2533.179808
476.635645	2500.412308
477.005719	2570.988462
477.375734	2563.426731
477.745691	2518.056346
478.115588	2520.576923
478.485427	2616.358846
478.855207	2520.576923
479.224928	2485.288846
479.594591	2467.644808
479.964194	2465.124231
480.333739	2477.727115
480.703226	2495.371154
481.072653	2548.303269
481.442022	2533.179808
481.811333	2558.385577
482.180584	2523.097500
482.549777	2442.439038
482.918912	2518.056346
483.287988	2505.453462
483.657005	2518.056346
484.025964	2439.918462
484.394864	2434.877308
484.763706	2513.015192
485.132489	2482.768269
485.501213	2518.056346
485.869879	2510.494615
486.238487	2447.480192
486.607036	2439.918462
486.975527	2510.494615
487.343959	2502.932885
487.712333	2414.712692
488.080648	2482.768269
488.448905	2434.877308
488.817104	2485.288846
489.185244	2545.782692
489.553326	2543.262115
489.921350	2565.947308
490.289315	2563.426731
490.657222	2518.056346
491.025070	2507.974038
491.392861	2409.671538
491.760593	2482.768269
492.128267	2439.918462
492.495883	2518.056346
492.863440	2442.439038
493.230939	2545.782692
493.598380	2465.124231
493.965763	2525.618077
494.333088	2523.097500
494.700354	2520.576923
495.067563	2538.220962
495.434713	2432.356731
495.801805	2472.685962
496.168839	2424.795000
496.535815	2520.576923
496.902733	2528.138654
497.269593	2460.083077
497.636395	2460.083077
498.003139	2437.397885
498.369825	2500.412308
498.736453	2573.509038
499.103023	2515.535769
499.469535	2505.453462
499.835989	2533.179808
500.202385	2490.330000
500.568723	2530.659231
500.935003	2457.562500
501.301226	2533.179808
501.667390	2465.124231
502.033497	2480.247692
502.399546	2510.494615
502.765537	2543.262115
503.131470	2545.782692
503.497345	2518.056346
503.863163	2485.288846
504.228923	2535.700385
504.594625	2545.782692
504.960269	2472.685962
505.325856	2593.673654
505.691385	2447.480192
506.056856	2467.644808
506.422270	2427.315577
506.787625	2485.288846
507.152924	2495.371154
507.518164	2573.509038
507.883347	2497.891731
508.248472	2533.179808
508.613540	2432.356731
508.978550	2472.685962
509.343503	2515.535769
509.708398	2502.932885
510.073236	2480.247692
510.438016	2475.206538
510.802738	2409.671538
511.167403	2543.262115
511.532010	2500.412308
511.896561	2581.070769
512.261053	2518.056346
512.625488	2495.371154
512.989866	2490.330000
513.354186	2460.083077
513.718449	2475.206538
514.082655	2573.509038
514.446803	2583.591346
514.810894	2485.288846
515.174927	2485.288846
515.538904	2462.603654
515.902822	2475.206538
516.266684	2490.330000
516.630488	2376.904038
516.994235	2442.439038
517.357925	2540.741538
517.721558	2497.891731
518.085133	2485.288846
518.448651	2447.480192
518.812112	2424.795000
519.175516	2505.453462
519.538863	2513.015192
519.902152	2538.220962
520.265385	2543.262115
520.628560	2462.603654
520.991678	2497.891731
521.354739	2460.083077
521.717743	2548.303269
522.080690	2444.959615
522.443580	2444.959615
522.806413	2497.891731
523.169189	2500.412308
523.531908	2447.480192
523.894569	2447.480192
524.257174	2482.768269
524.619722	2492.850577
524.982213	2570.988462
525.344647	2518.056346
525.707025	2487.809423
526.069345	2520.576923
526.431608	2520.576923
526.793815	2596.194231
527.155964	2518.056346
527.518057	2553.344423
527.880093	2434.877308
528.242072	2490.330000
528.603995	2447.480192
528.965860	2497.891731
529.327669	2404.630385
529.689421	2482.768269
530.051117	2525.618077
530.412755	2492.850577
530.774337	2507.974038
531.135862	2422.274423
531.497331	2465.124231
531.858743	2497.891731
532.220098	2414.712692
532.581396	2482.768269
532.942638	2470.165385
533.303824	2563.426731
533.664953	2533.179808
534.026025	2437.397885
534.387040	2429.836154
534.747999	2394.548077
535.108902	2500.412308
535.469748	2495.371154
535.830537	2598.714808
536.191270	2480.247692
536.551947	2603.755962
536.912567	2424.795000
537.273131	2543.262115
537.633638	2432.356731
537.994089	2455.041923
538.354483	2510.494615
538.714821	2482.768269
539.075103	2480.247692
539.435328	2540.741538
539.795497	2407.150962
540.155609	2500.412308
540.515665	2550.823846
540.875665	2550.823846
541.235609	2460.083077
541.595496	2528.138654
541.955328	2530.659231
542.315102	2515.535769
542.674821	2500.412308
543.034483	2550.823846
543.394090	2502.932885
543.753640	2515.535769
544.113134	2467.644808
544.472571	2389.506923
544.831953	2455.041923
545.191278	2515.535769
545.550548	2558.385577
545.909761	2528.138654
546.268918	2555.865000
546.628019	2457.562500
546.987064	2432.356731
547.346053	2507.974038
547.704986	2533.179808
548.063863	2497.891731
548.422684	2578.550192
548.781449	2621.400000
549.140158	2598.714808
549.498811	2460.083077
549.857408	2568.467885
550.215949	2472.685962
550.574434	2480.247692
550.932864	2558.385577
551.291237	2450.000769
551.649555	2472.685962
552.007817	2550.823846
552.366022	2565.947308
552.724173	2447.480192
553.082267	2495.371154
553.440305	2530.659231
553.798288	2515.535769
554.156215	2538.220962
554.514086	2518.056346
554.871902	2452.521346
555.229661	2535.700385
555.587365	2513.015192
555.945014	2583.591346
556.302606	2538.220962
556.660143	2555.865000
557.017625	2477.727115
557.375050	2510.494615
557.732421	2500.412308
558.089735	2513.015192
558.446994	2477.727115
558.804197	2477.727115
559.161345	2475.206538
559.518437	2455.041923
559.875474	2520.576923
560.232455	2432.356731
560.589381	2412.192115
560.946251	2422.274423
561.303065	2432.356731
561.659825	2465.124231
562.016528	2414.712692
562.373177	2500.412308
562.729770	2480.247692
563.086307	2485.288846
563.442789	2573.509038
563.799216	2528.138654
564.155587	2545.782692
564.511904	2439.918462
564.868164	2442.439038
565.224370	2510.494615
565.580520	2553.344423
565.936615	2583.591346
566.292654	2520.576923
566.648638	2500.412308
567.004567	2500.412308
567.360441	2475.206538
567.716260	2550.823846
568.072023	2540.741538
568.427732	2591.153077
568.783385	2505.453462
569.138982	2497.891731
569.494525	2460.083077
569.850013	2591.153077
570.205445	2455.041923
570.560823	2462.603654
570.916145	2487.809423
571.271412	2545.782692
571.626625	2470.165385
571.981782	2437.397885
572.336884	2525.618077
572.691931	2523.097500
573.046923	2462.603654
573.401860	2515.535769
573.756743	2538.220962
574.111570	2578.550192
574.466342	2505.453462
574.821059	2505.453462
575.175722	2482.768269
575.530330	2467.644808
575.884882	2487.809423
576.239380	2482.768269
576.593823	2502.932885
576.948211	2460.083077
577.302544	2457.562500
577.656823	2523.097500
578.011047	2515.535769
578.365216	2525.618077
578.719330	2560.906154
579.073389	2457.562500
579.427394	2565.947308
579.781344	2487.809423
580.135239	2497.891731
580.489080	2515.535769
580.842866	2513.015192
581.196597	2467.644808
581.550273	2482.768269
581.903895	2513.015192
582.257463	2457.562500
582.610975	2596.194231
582.964434	2623.920577
583.317837	2485.288846
583.671186	2485.288846
584.024481	2487.809423
584.377721	2523.097500
584.730906	2581.070769
585.084037	2553.344423
585.437113	2538.220962
585.790135	2492.850577
586.143103	2545.782692
586.496016	2545.782692
586.848874	2495.371154
587.201679	2487.809423
587.554428	2450.000769
587.907124	2447.480192
588.259765	2518.056346
588.612352	2513.015192
588.964884	2649.126346
589.317362	2409.671538
589.669786	2477.727115
590.022155	2487.809423
590.374470	2490.330000
590.726731	2507.974038
591.078937	2465.124231
591.431090	2467.644808
591.783188	2523.097500
592.135232	2530.659231
592.487222	2513.015192
592.839157	2472.685962
593.191038	2492.850577
593.542866	2505.453462
593.894639	2490.330000
594.246358	2465.124231
594.598022	2560.906154
594.949633	2475.206538
595.301190	2523.097500
595.652692	2444.959615
596.004141	2507.974038
596.355535	2465.124231
596.706876	2528.138654
597.058162	2450.000769
597.409395	2452.521346
597.760573	2437.397885
598.111698	2487.809423
598.462768	2477.727115
598.813785	2475.206538
599.164748	2560.906154
599.515657	2472.685962
599.866511	2482.768269
600.217312	2543.262115
600.568060	2507.974038
600.918753	2404.630385
601.269392	2460.083077
601.619978	2475.206538
601.970510	2581.070769
602.320988	2472.685962
602.671412	2513.015192
603.021783	2470.165385
603.372100	2452.521346
603.722363	2475.206538
604.072572	2500.412308
604.422728	2576.029615
604.772830	2460.083077
605.122878	2520.576923
605.472872	2457.562500
605.822813	2560.906154
606.172701	2452.521346
606.522534	2545.782692
606.872314	2470.165385
607.222041	2523.097500
607.571714	2530.659231
607.921333	2475.206538
608.270899	2502.932885
608.620411	2490.330000
608.969870	2495.371154
609.319276	2535.700385
609.668627	2492.850577
610.017926	2565.947308
610.367171	2450.000769
610.716362	2518.056346
611.065500	2447.480192
611.414585	2560.906154
611.763616	2497.891731
612.112594	2470.165385
612.461518	2482.768269
612.810389	2528.138654
613.159207	2515.535769
613.507971	2487.809423
613.856682	2515.535769
614.205340	2555.865000
614.553945	2497.891731
614.902496	2578.550192
615.250994	2432.356731
615.599439	2492.850577
615.947830	2487.809423
616.296169	2507.974038
616.644454	2497.891731
616.992686	2530.659231
617.340864	2535.700385
617.688990	2487.809423
618.037063	2513.015192
618.385082	2533.179808
618.733048	2485.288846
619.080961	2538.220962
619.428821	2487.809423
619.776628	2510.494615
620.124382	2414.712692
620.472083	2518.056346
620.819731	2513.015192
621.167326	2593.673654
621.514868	2485.288846
621.862357	2487.809423
622.209793	2507.974038
622.557176	2424.795000
622.904506	2439.918462
623.251783	2533.179808
623.599007	2497.891731
623.946179	2472.685962
624.293297	2482.768269
624.640363	2490.330000
624.987376	2565.947308
625.334336	2497.891731
625.681243	2404.630385
626.028097	2520.576923
626.374899	2475.206538
626.721647	2543.262115
627.068343	2482.768269
627.414987	2543.262115
627.761577	2565.947308
628.108115	2578.550192
628.454600	2475.206538
628.801032	2530.659231
629.147412	2495.371154
629.493739	2402.109808
629.840014	2502.932885
630.186236	2558.385577
630.532405	2490.330000
630.878521	2462.603654
631.224585	2475.206538
631.570597	2555.865000
631.916556	2487.809423
632.262462	2460.083077
632.608316	2490.330000
632.954117	2502.932885
633.299866	2482.768269
633.645562	2634.002885
633.991206	2495.371154
634.336797	2530.659231
634.682336	2465.124231
635.027823	2520.576923
635.373257	2450.000769
635.718639	2482.768269
636.063968	2550.823846
636.409245	2513.015192
636.754470	2495.371154
637.099642	2500.412308
637.444762	2565.947308
637.789829	2505.453462
638.134845	2535.700385
638.479808	2507.974038
638.824719	2475.206538
639.169577	2513.015192
639.514383	2492.850577
639.859137	2452.521346
640.203839	2513.015192
640.548489	2462.603654
640.893086	2485.288846
641.237632	2555.865000
641.582125	2450.000769
641.926566	2485.288846
642.270955	2470.165385
642.615292	2432.356731
642.959576	2447.480192
643.303809	2550.823846
643.647990	2497.891731
643.992118	2495.371154
644.336195	2510.494615
644.680219	2548.303269
645.024192	2500.412308
645.368112	2487.809423
645.711981	2482.768269
646.055797	2535.700385
646.399562	2487.809423
646.743274	2470.165385
647.086935	2513.015192
647.430544	2510.494615
647.774101	2477.727115
648.117606	2427.315577
648.461059	2510.494615
648.804460	2480.247692
649.147810	2525.618077
649.491108	2487.809423
649.834354	2523.097500
650.177548	2565.947308
650.520690	2434.877308
650.863781	2477.727115
651.206820	2523.097500
651.549807	2444.959615
651.892742	2538.220962
652.235626	2477.727115
652.578458	2563.426731
652.921238	2470.165385
653.263967	2482.768269
653.606644	2543.262115
653.949269	2437.397885
654.291843	2475.206538
654.634365	2490.330000
654.976836	2490.330000
655.319255	2429.836154
655.661622	2523.097500
656.003938	2477.727115
656.346203	2550.823846
656.688416	2465.124231
657.030577	2490.330000
657.372687	2505.453462
657.714746	2507.974038
658.056753	2505.453462
658.398708	2472.685962
658.740612	2510.494615
659.082465	2437.397885
659.424266	2386.986346
659.766016	2422.274423
660.107715	2540.741538
660.449362	2470.165385
660.790958	2482.768269
661.132503	2417.233269
661.473996	2560.906154
661.815438	2500.412308
662.156829	2555.865000
662.498168	2500.412308
662.839456	2412.192115
663.180693	2465.124231
663.521879	2460.083077
663.863013	2507.974038
664.204097	2510.494615
664.545129	2470.165385
664.886110	2452.521346
665.227040	2555.865000
665.567918	2543.262115
665.908746	2490.330000
666.249522	2510.494615
666.590248	2424.795000
666.930922	2442.439038
667.271545	2535.700385
667.612118	2520.576923
667.952639	2439.918462
668.293109	2518.056346
668.633528	2621.400000
668.973896	2487.809423
669.314213	2495.371154
669.654480	2414.712692
669.994695	2588.632500
670.334859	2424.795000
670.674973	2487.809423
671.015035	2457.562500
671.355047	2543.262115
671.695008	2432.356731
672.034918	2528.138654
672.374777	2523.097500
672.714585	2482.768269
673.054342	2485.288846
673.394049	2414.712692
673.733705	2603.755962
674.073310	2470.165385
674.412864	2545.782692
674.752368	2543.262115
675.091820	2452.521346
675.431223	2455.041923
675.770574	2545.782692
676.109875	2477.727115
676.449125	2540.741538
676.788324	2485.288846
677.127473	2553.344423
677.466571	2467.644808
677.805619	2487.809423
678.144616	2586.111923
678.483562	2487.809423
678.822458	2581.070769
679.161303	2472.685962
679.500098	2467.644808
679.838842	2518.056346
680.177535	2457.562500
680.516179	2586.111923
680.854771	2530.659231
681.193314	2578.550192
681.531805	2543.262115
681.870247	2538.220962
682.208638	2477.727115
682.546978	2576.029615
682.885268	2457.562500
683.223508	2460.083077
683.561697	2502.932885
683.899836	2533.179808
684.237925	2518.056346
684.575963	2432.356731
684.913951	2570.988462
685.251889	2515.535769
685.589776	2490.330000
685.927614	2487.809423
686.265401	2540.741538
686.603137	2490.330000
686.940824	2437.397885
687.278460	2520.576923
687.616046	2543.262115
687.953582	2455.041923
688.291068	2490.330000
688.628504	2538.220962
688.965889	2570.988462
689.303224	2470.165385
689.640510	2528.138654
689.977745	2470.165385
690.314930	2457.562500
690.652065	2470.165385
690.989150	2460.083077
691.326185	2513.015192
691.663170	2490.330000
692.000105	2578.550192
692.336990	2455.041923
692.673825	2555.865000
693.010610	2565.947308
693.347345	2470.165385
693.684030	2432.356731
694.020665	2457.562500
694.357251	2528.138654
694.693786	2487.809423
695.030272	2495.371154
695.366707	2444.959615
695.703093	2568.467885
696.039429	2533.179808
696.375716	2462.603654
696.711952	2487.809423
697.048139	2528.138654
697.384276	2467.644808
697.720363	2480.247692
698.056400	2470.165385
698.392388	2568.467885
698.728326	2553.344423
699.064214	2528.138654
699.400053	2490.330000
699.735842	2470.165385
700.071581	2523.097500
700.407270	2495.371154
700.742910	2462.603654
701.078501	2429.836154
701.414042	2465.124231
701.749533	2490.330000
702.084974	2452.521346
702.420366	2495.371154
702.755709	2475.206538
703.091002	2558.385577
703.426246	2510.494615
703.761440	2480.247692
704.096584	2447.480192
704.431679	2432.356731
704.766725	2543.262115
705.101721	2490.330000
705.436668	2490.330000
705.771565	2457.562500
706.106413	2394.548077
706.441212	2520.576923
706.775961	2460.083077
707.110661	2505.453462
707.445311	2472.685962
707.779913	2533.179808
708.114465	2455.041923
708.448967	2424.795000
708.783421	2497.891731
709.117825	2485.288846
709.452180	2485.288846
709.786485	2497.891731
710.120742	2462.603654
710.454949	2462.603654
710.789107	2492.850577
711.123216	2492.850577
711.457275	2467.644808
711.791286	2545.782692
712.125247	2485.288846
712.459159	2540.741538
712.793023	2485.288846
713.126837	2472.685962
713.460602	2502.932885
713.794318	2477.727115
714.127985	2520.576923
714.461602	2507.974038
714.795171	2475.206538
715.128691	2545.782692
715.462162	2437.397885
715.795584	2490.330000
716.128957	2523.097500
716.462281	2467.644808
716.795556	2558.385577
717.128782	2477.727115
717.461960	2530.659231
717.795088	2560.906154
718.128167	2523.097500
718.461198	2417.233269
718.794180	2502.932885
719.127113	2480.247692
719.459997	2450.000769
719.792833	2460.083077
720.125619	2558.385577
720.458357	2490.330000
720.791046	2455.041923
721.123686	2545.782692
721.456278	2475.206538
721.788821	2513.015192
722.121315	2515.535769
722.453761	2502.932885
722.786158	2487.809423
723.118506	2563.426731
723.450805	2530.659231
723.783056	2507.974038
724.115259	2570.988462
724.447412	2523.097500
724.779518	2510.494615
725.111574	2520.576923
725.443582	2563.426731
725.775542	2540.741538
726.107453	2555.865000
726.439315	2525.618077
726.771129	2560.906154
727.102895	2505.453462
727.434612	2520.576923
727.766281	2548.303269
728.097901	2573.509038
728.429473	2525.618077
728.760996	2462.603654
729.092471	2490.330000
729.423897	2447.480192
729.755276	2490.330000
730.086606	2613.838269
730.417887	2550.823846
730.749120	2465.124231
731.080305	2467.644808
731.411442	2475.206538
731.742530	2505.453462
732.073570	2530.659231
732.404562	2477.727115
732.735506	2447.480192
733.066401	2457.562500
733.397249	2492.850577
733.728048	2500.412308
734.058798	2518.056346
734.389501	2528.138654
734.720156	2593.673654
735.050762	2570.988462
735.381320	2500.412308
735.711831	2402.109808
736.042293	2492.850577
736.372707	2505.453462
736.703073	2495.371154
737.033391	2525.618077
737.363661	2535.700385
737.693883	2460.083077
738.024056	2482.768269
738.354182	2432.356731
738.684260	2513.015192
739.014290	2477.727115
739.344272	2470.165385
739.674207	2424.795000
740.004093	2525.618077
740.333931	2510.494615
740.663722	2442.439038
740.993464	2470.165385
741.323159	2578.550192
741.652806	2523.097500
741.982405	2545.782692
742.311956	2500.412308
742.641460	2530.659231
742.970915	2558.385577
743.300323	2606.276538
743.629683	2523.097500
743.958996	2429.836154
744.288260	2510.494615
744.617477	2507.974038
744.946647	2492.850577
745.275768	2500.412308
745.604842	2439.918462
745.933869	2455.041923
746.262847	2452.521346
746.591778	2485.288846
746.920662	2500.412308
747.249498	2515.535769
747.578286	2598.714808
747.907027	2500.412308
748.235720	2452.521346
748.564365	2520.576923
748.892963	2538.220962
749.221514	2492.850577
749.550017	2510.494615
749.878473	2485.288846
750.206881	2444.959615
750.535242	2432.356731
750.863555	2374.383462
751.191821	2480.247692
751.520039	2492.850577
751.848210	2492.850577
752.176334	2444.959615
752.504411	2507.974038
752.832440	2470.165385
753.160421	2540.741538
753.488356	2475.206538
753.816243	2452.521346
754.144082	2513.015192
754.471875	2500.412308
754.799620	2515.535769
755.127318	2497.891731
755.454969	2399.589231
755.782572	2490.330000
756.110129	2540.741538
756.437638	2467.644808
756.765100	2548.303269
757.092515	2505.453462
757.419882	2500.412308
757.747203	2455.041923
758.074477	2548.303269
758.401703	2502.932885
758.728882	2497.891731
759.056014	2490.330000
759.383099	2543.262115
759.710138	2583.591346
760.037129	2505.453462
760.364073	2472.685962
760.690970	2495.371154
761.017820	2525.618077
761.344623	2525.618077
761.671379	2533.179808
761.998088	2500.412308
762.324751	2513.015192
762.651366	2578.550192
762.977935	2452.521346
763.304456	2439.918462
763.630931	2631.482308
763.957359	2510.494615
764.283740	2654.167500
764.610074	2530.659231
764.936362	2515.535769
765.262602	2515.535769
765.588796	2525.618077
765.914943	2535.700385
766.241044	2530.659231
766.567097	2528.138654
766.893104	2543.262115
767.219064	2553.344423
767.544978	2487.809423
767.870845	2510.494615
768.196665	2477.727115
768.522438	2560.906154
768.848165	2429.836154
769.173846	2502.932885
769.499479	2480.247692
769.825066	2502.932885
770.150607	2434.877308
770.476101	2424.795000
770.801548	2520.576923
771.126949	2424.795000
771.452303	2495.371154
771.777611	2487.809423
772.102872	2573.509038
772.428087	2540.741538
772.753256	2573.509038
773.078378	2548.303269
773.403453	2432.356731
773.728482	2424.795000
774.053465	2480.247692
774.378401	2576.029615
774.703291	2457.562500
775.028135	2545.782692
775.352932	2492.850577
775.677683	2520.576923
776.002388	2578.550192
776.327046	2513.015192
776.651658	2568.467885
776.976224	2495.371154
777.300743	2490.330000
777.625216	2523.097500
777.949643	2485.288846
778.274024	2497.891731
778.598359	2518.056346
778.922647	2520.576923
779.246889	2520.576923
779.571086	2502.932885
779.895236	2452.521346
780.219339	2553.344423
780.543397	2384.465769
780.867409	2500.412308
781.191374	2550.823846
781.515294	2439.918462
781.839167	2525.618077
782.162995	2543.262115
782.486776	2500.412308
782.810511	2490.330000
783.134201	2455.041923
783.457844	2477.727115
783.781441	2560.906154
784.104993	2525.618077
784.428498	2545.782692
784.751958	2442.439038
785.075372	2447.480192
785.398739	2520.576923
785.722061	2472.685962
786.045337	2432.356731
786.368568	2429.836154
786.691752	2462.603654
787.014891	2465.124231
787.337983	2404.630385
787.661030	2540.741538
787.984031	2495.371154
788.306987	2505.453462
788.629897	2502.932885
788.952760	2502.932885
789.275579	2475.206538
789.598351	2528.138654
789.921078	2593.673654
790.243759	2460.083077
790.566395	2439.918462
790.888984	2427.315577
791.211529	2477.727115
791.534027	2495.371154
791.856480	2475.206538
792.178888	2495.371154
792.501249	2432.356731
792.823566	2487.809423
793.145836	2412.192115
793.468062	2487.809423
793.790241	2497.891731
794.112375	2460.083077
794.434464	2543.262115
794.756507	2384.465769
795.078505	2558.385577
795.400457	2507.974038
795.722364	2465.124231
796.044226	2500.412308
796.366042	2497.891731
796.687812	2452.521346
797.009538	2528.138654
797.331218	2502.932885
797.652852	2429.836154
797.974442	2543.262115
798.295986	2490.330000
798.617484	2462.603654
798.938938	2495.371154
799.260346	2525.618077
799.581709	2480.247692
799.903026	2515.535769
800.224299	2480.247692
800.545526	2422.274423
800.866708	2497.891731
801.187845	2475.206538
801.508936	2402.109808
801.829983	2525.618077
802.150984	2480.247692
802.471940	2533.179808
802.792851	2538.220962
803.113717	2550.823846
803.434538	2538.220962
803.755314	2439.918462
804.076045	2429.836154
804.396731	2513.015192
804.717372	2525.618077
805.037967	2492.850577
805.358518	2576.029615
805.679024	2455.041923
805.999485	2520.576923
806.319901	2452.521346
806.640272	2545.782692
806.960598	2548.303269
807.280879	2563.426731
807.601115	2495.371154
807.921306	2525.618077
808.241453	2533.179808
808.561554	2427.315577
808.881611	2465.124231
809.201623	2412.192115
809.521590	2507.974038
809.841513	2535.700385
810.161390	2477.727115
810.481223	2502.932885
810.801011	2450.000769
811.120755	2497.891731
811.440453	2422.274423
811.760107	2553.344423
812.079716	2495.371154
812.399281	2540.741538
812.718801	2467.644808
813.038276	2555.865000
813.357707	2581.070769
813.677093	2457.562500
813.996434	2510.494615
814.315731	2507.974038
814.634983	2467.644808
814.954191	2485.288846
815.273354	2507.974038
815.592473	2515.535769
815.911547	2518.056346
816.230577	2588.632500
816.549562	2477.727115
816.868502	2447.480192
817.187399	2412.192115
817.506250	2432.356731
817.825058	2482.768269
818.143821	2497.891731
818.462539	2548.303269
818.781213	2424.795000
819.099843	2545.782692
819.418429	2535.700385
819.736970	2442.439038
820.055466	2528.138654
820.373919	2487.809423
820.692327	2487.809423
821.010691	2563.426731
821.329011	2460.083077
821.647286	2477.727115
821.965517	2523.097500
822.283704	2477.727115
822.601847	2414.712692
822.919945	2565.947308
823.237999	2427.315577
823.556010	2465.124231
823.873976	2507.974038
824.191897	2492.850577
824.509775	2492.850577
824.827609	2402.109808
825.145398	2482.768269
825.463144	2533.179808
825.780845	2490.330000
826.098502	2495.371154
826.416116	2616.358846
826.733685	2510.494615
827.051210	2455.041923
827.368692	2455.041923
827.686129	2492.850577
828.003522	2472.685962
828.320872	2530.659231
828.638177	2528.138654
828.955439	2639.044038
829.272656	2480.247692
829.589830	2444.959615
829.906960	2460.083077
830.224046	2457.562500
830.541088	2497.891731
830.858086	2475.206538
831.175041	2492.850577
831.491952	2490.330000
831.808819	2482.768269
832.125642	2447.480192
832.442421	2477.727115
832.759157	2485.288846
833.075849	2520.576923
833.392497	2450.000769
833.709101	2568.467885
834.025662	2548.303269
834.342179	2487.809423
834.658653	2465.124231
834.975083	2450.000769
835.291469	2523.097500
835.607811	2482.768269
835.924110	2513.015192
836.240366	2487.809423
836.556578	2525.618077
836.872746	2540.741538
837.188871	2490.330000
837.504952	2424.795000
837.820990	2502.932885
838.136984	2452.521346
838.452935	2550.823846
838.768842	2530.659231
839.084706	2492.850577
839.400526	2550.823846
839.716303	2550.823846
840.032037	2470.165385
840.347727	2520.576923
840.663373	2434.877308
840.978977	2500.412308
841.294537	2520.576923
841.610054	2535.700385
841.925527	2470.165385
842.240957	2472.685962
842.556344	2530.659231
842.871687	2565.947308
843.186987	2482.768269
843.502244	2601.235385
843.817458	2374.383462
844.132629	2570.988462
844.447756	2437.397885
844.762840	2475.206538
845.077881	2525.618077
845.392879	2523.097500
845.707833	2535.700385
846.022745	2507.974038
846.337613	2538.220962
846.652438	2457.562500
846.967221	2555.865000
847.281960	2548.303269
847.596656	2492.850577
847.911309	2548.303269
848.225919	2528.138654
848.540485	2558.385577
848.855009	2447.480192
849.169490	2495.371154
849.483928	2482.768269
849.798323	2432.356731
850.112675	2497.891731
850.426984	2528.138654
850.741251	2568.467885
851.055474	2455.041923
851.369654	2470.165385
851.683792	2497.891731
851.997887	2482.768269
852.311938	2371.862885
852.625947	2518.056346
852.939914	2424.795000
853.253837	2462.603654
853.567718	2495.371154
853.881555	2505.453462
854.195350	2497.891731
854.509103	2543.262115
854.822812	2475.206538
855.136479	2507.974038
855.450103	2452.521346
855.763685	2417.233269
856.077224	2495.371154
856.390720	2422.274423
856.704173	2492.850577
857.017584	2475.206538
857.330953	2492.850577
857.644278	2492.850577
857.957561	2565.947308
858.270802	2470.165385
858.584000	2467.644808
858.897155	2470.165385
859.210268	2495.371154
859.523339	2538.220962
859.836367	2500.412308
860.149352	2528.138654
860.462295	2475.206538
860.775195	2538.220962
861.088054	2442.439038
861.400869	2540.741538
861.713642	2497.891731
862.026373	2467.644808
862.339062	2457.562500
862.651708	2465.124231
862.964312	2465.124231
863.276873	2477.727115
863.589392	2472.685962
863.901869	2487.809423
864.214303	2427.315577
864.526696	2477.727115
864.839045	2487.809423
865.151353	2515.535769
865.463619	2543.262115
865.775842	2513.015192
866.088023	2472.685962
866.400162	2558.385577
866.712258	2467.644808
867.024313	2485.288846
867.336325	2465.124231
867.648296	2520.576923
867.960224	2482.768269
868.272110	2492.850577
868.583954	2497.891731
868.895755	2513.015192
869.207515	2480.247692
869.519233	2505.453462
869.830909	2465.124231
870.142542	2538.220962
870.454134	2500.412308
870.765684	2565.947308
871.077191	2437.397885
871.388657	2422.274423
871.700081	2598.714808
872.011463	2465.124231
872.322803	2513.015192
872.634101	2432.356731
872.945357	2419.753846
873.256571	2543.262115
873.567744	2412.192115
873.878874	2470.165385
874.189963	2525.618077
874.501010	2520.576923
874.812015	2439.918462
875.122979	2490.330000
875.433900	2591.153077
875.744780	2548.303269
876.055618	2444.959615
876.366415	2515.535769
876.677169	2520.576923
876.987882	2540.741538
877.298554	2432.356731
877.609183	2497.891731
877.919771	2518.056346
878.230317	2545.782692
878.540822	2535.700385
878.851285	2525.618077
879.161707	2548.303269
879.472087	2502.932885
879.782425	2492.850577
880.092722	2467.644808
880.402977	2598.714808
880.713191	2447.480192
881.023363	2510.494615
881.333494	2475.206538
881.643583	2487.809423
881.953631	2472.685962
882.263637	2518.056346
882.573602	2510.494615
882.883526	2492.850577
883.193408	2543.262115
883.503248	2520.576923
883.813048	2543.262115
884.122806	2480.247692
884.432522	2439.918462
884.742197	2460.083077
885.051831	2450.000769
885.361424	2444.959615
885.670975	2555.865000
885.980485	2475.206538
886.289954	2490.330000
886.599382	2490.330000
886.908768	2538.220962
887.218113	2553.344423
887.527417	2502.932885
887.836680	2510.494615
888.145901	2505.453462
888.455082	2487.809423
888.764221	2475.206538
889.073319	2535.700385
889.382376	2510.494615
889.691392	2608.797115
890.000366	2513.015192
890.309300	2467.644808
890.618193	2467.644808
890.927044	2505.453462
891.235855	2447.480192
891.544625	2525.618077
891.853353	2477.727115
892.162041	2543.262115
892.470687	2603.755962
892.779293	2482.768269
893.087858	2543.262115
893.396381	2462.603654
893.704864	2495.371154
894.013306	2505.453462
894.321707	2505.453462
894.630068	2550.823846
894.938387	2419.753846
895.246665	2553.344423
895.554903	2583.591346
895.863100	2457.562500
896.171256	2470.165385
896.479371	2475.206538
896.787446	2429.836154
897.095480	2530.659231
897.403473	2467.644808
897.711425	2500.412308
898.019336	2437.397885
898.327207	2555.865000
898.635038	2485.288846
898.942827	2543.262115
899.250576	2460.083077
899.558284	2482.768269
899.865952	2477.727115
900.173579	2528.138654
900.481165	2560.906154
900.788711	2460.083077
901.096216	2500.412308
901.403681	2603.755962
901.711105	2472.685962
902.018489	2540.741538
902.325832	2465.124231
902.633135	2510.494615
902.940397	2495.371154
903.247619	2379.424615
903.554800	2429.836154
903.861941	2528.138654
904.169041	2565.947308
904.476101	2528.138654
904.783121	2439.918462
905.090100	2414.712692
905.397039	2533.179808
905.703938	2422.274423
906.010796	2412.192115
906.317614	2540.741538
906.624391	2513.015192
906.931129	2550.823846
907.237826	2465.124231
907.544483	2429.836154
907.851099	2520.576923
908.157675	2555.865000
908.464211	2475.206538
908.770707	2518.056346
909.077163	2490.330000
909.383578	2485.288846
909.689954	2502.932885
909.996289	2452.521346
910.302584	2538.220962
910.608839	2515.535769
910.915054	2502.932885
911.221229	2550.823846
911.527363	2490.330000
911.833458	2528.138654
912.139513	2452.521346
912.445527	2525.618077
912.751502	2540.741538
913.057436	2475.206538
913.363331	2538.220962
913.669186	2495.371154
913.975000	2482.768269
914.280775	2455.041923
914.586510	2417.233269
914.892205	2477.727115
915.197859	2462.603654
915.503475	2510.494615
915.809050	2442.439038
916.114585	2497.891731
916.420081	2603.755962
916.725536	2485.288846
917.030952	2555.865000
917.336328	2460.083077
917.641665	2487.809423
917.946961	2530.659231
918.252218	2523.097500
918.557435	2482.768269
918.862612	2485.288846
919.167750	2583.591346
919.472848	2399.589231
919.777906	2490.330000
920.082925	2535.700385
920.387904	2422.274423
920.692843	2550.823846
920.997743	2495.371154
921.302603	2545.782692
921.607423	2392.027500
921.912204	2570.988462
922.216946	2439.918462
922.521647	2513.015192
922.826310	2533.179808
923.130932	2555.865000
923.435516	2520.576923
923.740059	2455.041923
924.044564	2485.288846
924.349028	2444.959615
924.653454	2492.850577
924.957840	2495.371154
925.262186	2492.850577
925.566493	2523.097500
925.870761	2437.397885
926.174989	2424.795000
926.479178	2543.262115
926.783328	2500.412308
927.087438	2485.288846
927.391509	2538.220962
927.695541	2538.220962
927.999533	2460.083077
928.303486	2475.206538
928.607400	2543.262115
928.911275	2513.015192
929.215110	2548.303269
929.518906	2485.288846
929.822663	2472.685962
930.126381	2485.288846
930.430060	2510.494615
930.733699	2497.891731
931.037299	2523.097500
931.340861	2510.494615
931.644383	2487.809423
931.947866	2490.330000
932.251309	2407.150962
932.554714	2475.206538
932.858080	2490.330000
933.161407	2457.562500
933.464694	2450.000769
933.767943	2407.150962
934.071153	2533.179808
934.374323	2379.424615
934.677455	2543.262115
934.980548	2455.041923
935.283602	2482.768269
935.586617	2515.535769
935.889593	2495.371154
936.192530	2399.589231
936.495428	2427.315577
936.798287	2495.371154
937.101108	2462.603654
937.403890	2523.097500
937.706632	2480.247692
938.009336	2487.809423
938.312002	2457.562500
938.614628	2505.453462
938.917216	2480.247692
939.219765	2535.700385
939.522275	2548.303269
939.824747	2477.727115
940.127179	2533.179808
940.429573	2439.918462
940.731929	2543.262115
941.034246	2447.480192
941.336524	2543.262115
941.638763	2450.000769
941.940964	2515.535769
942.243126	2419.753846
942.545250	2538.220962
942.847335	2505.453462
943.149381	2455.041923
943.451389	2497.891731
943.753359	2565.947308
944.055290	2472.685962
944.357182	2482.768269
944.659036	2472.685962
944.960851	2593.673654
945.262628	2412.192115
945.564367	2520.576923
945.866067	2555.865000
946.167729	2586.111923
946.469352	2560.906154
946.770937	2540.741538
947.072484	2530.659231
947.373992	2442.439038
947.675462	2502.932885
947.976893	2495.371154
948.278286	2394.548077
948.579641	2495.371154
948.880958	2505.453462
949.182236	2540.741538
949.483476	2497.891731
949.784678	2513.015192
950.085841	2447.480192
950.386967	2487.809423
950.688054	2490.330000
950.989103	2442.439038
951.290114	2490.330000
951.591087	2447.480192
951.892021	2518.056346
952.192917	2505.453462
952.493776	2530.659231
952.794596	2530.659231
953.095378	2538.220962
953.396122	2462.603654
953.696828	2513.015192
953.997496	2475.206538
954.298126	2505.453462
954.598718	2452.521346
954.899272	2429.836154
955.199788	2510.494615
955.500266	2467.644808
955.800706	2422.274423
956.101108	2505.453462
956.401472	2510.494615
956.701798	2500.412308
957.002087	2477.727115
957.302337	2485.288846
957.602550	2523.097500
957.902724	2550.823846
958.202861	2470.165385
958.502960	2543.262115
958.803022	2442.439038
959.103045	2460.083077
959.403031	2460.083077
959.702979	2515.535769
960.002889	2545.782692
960.302762	2455.041923
960.602596	2606.276538
960.902393	2470.165385
961.202153	2548.303269
961.501875	2392.027500
961.801559	2482.768269
962.101205	2472.685962
962.400814	2485.288846
962.700385	2543.262115
962.999918	2500.412308
963.299414	2465.124231
963.598873	2565.947308
963.898293	2412.192115
964.197677	2485.288846
964.497022	2450.000769
964.796331	2492.850577
965.095601	2548.303269
965.394835	2535.700385
965.694030	2487.809423
965.993189	2414.712692
966.292309	2530.659231
966.591393	2452.521346
966.890439	2472.685962
967.189447	2397.068654
967.488419	2462.603654
967.787353	2455.041923
968.086249	2409.671538
968.385108	2495.371154
968.683930	2442.439038
968.982714	2450.000769
969.281462	2518.056346
969.580172	2525.618077
969.878844	2477.727115
970.177480	2450.000769
970.476078	2565.947308
970.774639	2528.138654
971.073162	2523.097500
971.371649	2477.727115
971.670098	2465.124231
971.968510	2452.521346
972.266885	2553.344423
972.565223	2444.959615
972.863524	2583.591346
973.161788	2442.439038
973.460014	2540.741538
973.758204	2450.000769
974.056356	2588.632500
974.354471	2581.070769
974.652550	2439.918462
974.950591	2500.412308
975.248595	2540.741538
975.546563	2558.385577
975.844493	2455.041923
976.142386	2480.247692
976.440243	2470.165385
976.738062	2439.918462
977.035845	2437.397885
977.333590	2528.138654
977.631299	2455.041923
977.928971	2455.041923
978.226606	2515.535769
978.524204	2477.727115
978.821765	2361.780577
979.119290	2467.644808
979.416777	2437.397885
979.714228	2528.138654
980.011642	2482.768269
980.309020	2495.371154
980.606360	2402.109808
980.903664	2467.644808
981.200931	2467.644808
981.498162	2520.576923
981.795356	2477.727115
982.092513	2490.330000
982.389633	2523.097500
982.686717	2447.480192
982.983764	2429.836154
983.280775	2502.932885
983.577749	2480.247692
983.874686	2470.165385
984.171587	2543.262115
984.468451	2485.288846
984.765279	2505.453462
985.062070	2505.453462
985.358824	2540.741538
985.655543	2444.959615
985.952224	2528.138654
986.248869	2492.850577
986.545478	2492.850577
986.842050	2525.618077
987.138586	2492.850577
987.435086	2462.603654
987.731549	2495.371154
988.027975	2465.124231
988.324366	2447.480192
988.620719	2490.330000
988.917037	2475.206538
989.213318	2477.727115
989.509563	2497.891731
989.805772	2507.974038
990.101944	2510.494615
990.398080	2558.385577
990.694180	2497.891731
990.990244	2553.344423
991.286271	2422.274423
991.582262	2510.494615
991.878217	2482.768269
992.174136	2467.644808
992.470019	2475.206538
992.765865	2535.700385
993.061676	2570.988462
993.357450	2495.371154
993.653188	2467.644808
993.948890	2548.303269
994.244556	2477.727115
994.540186	2460.083077
994.835780	2482.768269
995.131337	2513.015192
995.426859	2558.385577
995.722345	2467.644808
996.017795	2550.823846
996.313208	2485.288846
996.608586	2480.247692
996.903928	2467.644808
997.199234	2407.150962
997.494504	2616.358846
997.789738	2533.179808
998.084936	2480.247692
998.380099	2507.974038
998.675225	2482.768269
998.970316	2533.179808
999.265371	2490.330000
999.560390	2439.918462
999.855373	2497.891731
1000.150320	2515.535769
1000.445232	2480.247692
1000.740108	2475.206538
1001.034948	2500.412308
1001.329752	2553.344423
1001.624521	2422.274423
1001.919254	2480.247692
1002.213951	2502.932885
1002.508613	2505.453462
1002.803239	2394.548077
1003.097829	2450.000769
1003.392384	2460.083077
1003.686903	2515.535769
1003.981386	2553.344423
1004.275834	2533.179808
1004.570246	2460.083077
1004.864623	2505.453462
1005.158964	2417.233269
1005.453270	2565.947308
1005.747540	2460.083077
1006.041775	2495.371154
1006.335974	2452.521346
1006.630138	2492.850577
1006.924266	2477.727115
1007.218359	2505.453462
1007.512416	2462.603654
1007.806438	2525.618077
1008.100425	2490.330000
1008.394376	2477.727115
1008.688292	2467.644808
1008.982172	2490.330000
1009.276017	2533.179808
1009.569827	2545.782692
1009.863602	2462.603654
1010.157341	2507.974038
1010.451045	2485.288846
1010.744714	2565.947308
1011.038347	2472.685962
1011.331945	2560.906154
1011.625508	2502.932885
1011.919036	2482.768269
1012.212528	2513.015192
1012.505986	2475.206538
1012.799408	2530.659231
1013.092795	2455.041923
1013.386147	2485.288846
1013.679464	2470.165385
1013.972745	2548.303269
1014.265992	2525.618077
1014.559204	2553.344423
1014.852380	2502.932885
1015.145521	2505.453462
1015.438628	2407.150962
1015.731699	2472.685962
1016.024736	2475.206538
1016.317737	2505.453462
1016.610703	2513.015192
1016.903635	2507.974038
1017.196531	2490.330000
1017.489393	2533.179808
1017.782219	2472.685962
1018.075011	2460.083077
1018.367768	2477.727115
1018.660490	2545.782692
1018.953177	2545.782692
1019.245829	2545.782692
