Dividing Wavelength (nm)	Counts (n)	Blue Motor Position (mm): 0.000000	Red Motor Position (mm): 21.500000	
326.493990	2126.406583
326.888308	2126.406583
327.282561	2126.406583
327.676750	2096.114290
328.070874	2095.045565
328.464933	2097.361975
328.858929	2102.912286
329.252859	2114.668257
329.646726	2125.305091
330.040528	2138.434776
330.434265	2155.519247
330.827938	2172.646567
331.221547	2188.667354
331.615091	2210.830787
332.008571	2225.389639
332.401986	2245.947464
332.795338	2266.565784
333.188625	2285.114709
333.581847	2302.526855
333.975006	2323.356902
334.368100	2342.180571
334.761129	2359.910309
335.154095	2374.391023
335.546996	2390.280740
335.939833	2407.428225
336.332606	2423.065884
336.725315	2436.424942
337.117960	2445.451128
337.510540	2455.634259
337.903056	2463.856381
338.295508	2471.723101
338.687896	2483.673156
339.080220	2489.021821
339.472480	2497.841319
339.864676	2501.765858
340.256807	2504.838441
340.648875	2506.030674
341.040879	2508.929337
341.432818	2511.729698
341.824694	2514.751870
342.216506	2515.240862
342.608253	2511.984276
342.999937	2515.878568
343.391557	2515.041736
343.783113	2516.208763
344.174605	2514.681294
344.566033	2513.988135
344.957397	2510.290449
345.348697	2506.882629
345.739934	2505.037566
346.131106	2502.607730
346.522215	2499.925836
346.913260	2500.369458
347.304241	2496.737307
347.695159	2498.819303
348.086012	2495.794611
348.476802	2490.783704
348.867528	2491.920484
349.258191	2489.142808
349.648789	2491.151708
350.039324	2487.854793
350.429796	2488.994094
350.820203	2486.332365
351.210548	2484.525111
351.600828	2485.417396
351.991045	2484.358753
352.381198	2482.642240
352.771288	2482.836325
353.161314	2482.738022
353.551276	2483.181644
353.941175	2481.573516
354.331010	2484.378918
354.720782	2483.247179
355.110490	2482.838845
355.500135	2483.736171
355.889717	2482.750625
356.279235	2484.141984
356.668689	2484.615852
357.058080	2482.208701
357.447408	2481.681901
357.836672	2477.280973
358.225873	2482.677528
358.615010	2482.216263
359.004084	2487.207005
359.393095	2487.864876
359.782043	2486.586943
360.170927	2487.998466
360.559748	2489.682212
360.948505	2489.168014
361.337199	2489.145329
361.725830	2490.120792
362.114398	2489.382263
362.502903	2492.323776
362.891344	2492.313694
363.279722	2493.894096
363.668037	2493.006853
364.056289	2493.478201
364.444478	2496.724704
364.832603	2493.952069
365.220665	2494.420896
365.608665	2495.524909
365.996601	2497.836278
366.384474	2499.434324
366.772284	2499.923316
367.160031	2501.455827
367.547715	2502.499345
367.935336	2505.332474
368.322893	2506.295334
368.710388	2514.930831
369.097820	2519.046933
369.485189	2520.329907
369.872495	2526.936339
370.259738	2536.159130
370.646918	2541.631302
371.034035	2547.095913
371.421090	2558.269630
371.808081	2567.489901
372.195010	2575.845613
372.581875	2593.693818
372.968678	2601.973914
373.355418	2615.408589
373.742096	2635.545478
374.128710	2647.916469
374.515262	2662.331649
374.901751	2677.828156
375.288177	2690.541946
375.674540	2714.026161
376.060841	2730.026783
376.447079	2749.687283
376.833254	2772.669903
377.219367	2783.921759
377.605417	2822.806699
377.991404	2829.140909
378.377329	2852.534383
378.763191	2868.484594
379.148991	2909.181829
379.534727	2934.984975
379.920402	2961.103193
380.306013	2972.281952
380.691563	3022.121319
381.077049	3042.991696
381.462474	3061.182700
381.847835	3102.830192
382.233134	3123.675363
382.618371	3124.020682
383.003545	3190.455528
383.388657	3198.009697
383.773706	3232.491190
384.158693	3249.157244
384.543618	3273.808487
384.928480	3309.419198
385.313280	3357.499202
385.698017	3353.274715
386.082692	3410.544744
386.467305	3413.839138
386.851856	3444.592697
387.236344	3467.880307
387.620770	3498.139833
388.005133	3525.054553
388.389435	3553.839542
388.773674	3564.504103
389.157851	3604.535905
389.541965	3622.346302
389.926018	3586.997731
390.310008	3659.565141
390.693936	3675.596010
391.077802	3717.740056
391.461606	3710.823593
391.845348	3770.029424
392.229027	3771.887090
392.612645	3779.864716
392.996200	3859.421685
393.379694	3899.851739
393.763125	3963.801296
394.146494	3933.287192
394.529801	3990.194257
394.913047	4043.317936
395.296230	4003.656658
395.679351	4061.549269
396.062410	4082.807815
396.445408	4068.236360
396.828343	4097.986729
397.211217	4122.083444
397.594028	4043.451527
397.976778	4107.358234
398.359466	4134.668685
398.742092	4165.439888
399.124656	4089.787292
399.507158	4167.436185
399.889598	4193.675391
400.271977	4257.398096
400.654294	4225.555648
401.036549	4232.716607
401.418742	4201.290054
401.800874	4306.617402
402.182944	4325.299918
402.564952	4390.192171
402.946898	4379.063823
403.328783	4370.355230
403.710606	4287.738280
404.092367	4482.188187
404.474067	4445.281900
404.855705	4453.009989
405.237282	4379.336046
405.618797	4489.439887
406.000250	4521.141183
406.381642	4607.493628
406.762972	4561.782965
407.144240	4574.814348
407.525447	4576.427517
407.906593	4636.107217
408.287677	4679.148588
408.668700	4608.574955
409.049661	4659.210825
409.430560	4699.114078
409.811399	4625.122543
410.192176	4785.209424
410.572891	4726.180033
410.953545	4829.843800
411.334138	4708.019277
411.714669	4772.205768
412.095139	4669.199871
412.475547	4810.700019
412.855894	4791.505825
413.236180	4804.504441
413.616405	4750.927057
413.996568	4838.416282
414.376670	4780.011995
414.756711	4735.680088
415.136691	4765.541362
415.516609	4839.134647
415.896466	4878.760637
416.276262	4907.575872
416.655997	4884.043766
417.035670	5059.927103
417.415283	5152.099560
417.794834	5089.062452
418.174324	5037.526736
418.553753	4942.069967
418.933121	5119.049755
419.312428	5173.791645
419.691674	5105.650368
420.070859	5217.745465
420.449983	5129.663905
420.829045	5228.515891
421.208047	5125.686434
421.586988	5182.175084
421.965867	5182.588458
422.344686	5290.713647
422.723444	5142.564218
423.102141	4955.577739
423.480777	5220.140013
423.859352	4986.527903
424.237866	5205.805493
424.616319	5176.569321
424.994712	5259.836579
425.373044	5125.651146
425.751314	5228.430191
426.129524	5032.336868
426.507673	5176.642417
426.885762	5230.187033
427.263789	5133.706910
427.641756	5014.453375
428.019662	5083.892748
428.397508	5058.636568
428.775292	4975.263445
429.153016	5025.387638
429.530679	4937.555614
429.908282	4963.961178
430.285824	4829.861444
430.663305	5000.330582
431.040726	4762.904839
431.418086	4726.714396
431.795385	4763.257720
432.172624	4729.330754
432.549802	4681.074309
432.926920	4647.863188
433.303977	4608.448926
433.680974	4590.515022
434.057910	4552.250143
434.434786	4509.879245
434.811601	4446.937919
435.188355	4539.541394
435.565050	4414.228392
435.941683	4356.817212
436.318257	4416.111263
436.694770	4357.147407
437.071222	4319.865554
437.447614	4232.086463
437.823946	4141.481804
438.200218	4164.204805
438.576429	4049.402609
438.952580	4035.557080
439.328670	4007.671937
439.704700	3917.117691
440.080670	3869.299826
440.456580	3915.529727
440.832429	3824.569668
441.208218	3716.058831
441.583947	3724.051581
441.959616	3679.467616
442.335224	3608.042028
442.710773	3603.048765
443.086261	3562.643917
443.461689	3460.772280
443.837057	3453.250878
444.212365	3449.485137
444.587612	3386.195971
444.962800	3378.369579
445.337927	3331.668330
445.712995	3208.444886
446.088002	3285.667801
446.462949	3218.040722
446.837837	3168.130779
447.212664	3166.318484
447.587431	3148.513128
447.962139	3195.733617
448.336786	3294.404121
448.711374	3216.210783
449.085901	3059.861918
449.460369	3009.367200
449.834776	2972.476036
450.209124	2984.915083
450.583412	2968.916982
450.957640	2960.810806
451.331808	2909.874988
451.705917	2847.846110
452.079965	2822.204281
452.453954	2810.760862
452.827883	2785.209774
453.201752	2771.444903
453.575562	2745.361973
453.949311	2739.725963
454.323001	2720.594784
454.696632	2709.715974
455.070202	2702.325643
455.443713	2696.548480
455.817164	2684.585822
456.190556	2674.818587
456.563888	2667.072854
456.937160	2654.933755
457.310373	2642.918165
457.683526	2636.336939
458.056619	2623.723972
458.429653	2618.203908
458.802628	2610.732918
459.175542	2608.051025
459.548398	2608.996241
459.921194	2608.663525
460.293930	2606.402567
460.666607	2606.972218
461.039224	2606.079933
461.411782	2606.916765
461.784280	2603.856785
462.156719	2592.395721
462.529099	2592.756164
462.901419	2584.513877
463.273680	2580.475913
463.645882	2579.593711
464.018024	2580.112950
464.390106	2576.768144
464.762130	2580.309555
465.134094	2581.227045
465.505999	2590.180134
465.877845	2598.724890
466.249631	2596.834457
466.621358	2596.867225
466.993026	2592.398242
467.364634	2594.520568
467.736184	2586.618559
468.107674	2580.014647
468.479105	2578.887950
468.850477	2580.675039
469.221790	2576.445511
469.593043	2573.105746
469.964238	2572.425190
470.335373	2573.133472
470.706449	2573.740932
471.077467	2573.841755
471.448425	2581.027919
471.819324	2588.118302
472.190164	2588.037644
472.560945	2578.542631
472.931667	2573.977866
473.302330	2573.221693
473.672934	2572.664645
474.043479	2570.070972
474.413965	2574.315623
474.784393	2568.435117
475.154761	2571.028791
475.525070	2571.805128
475.895321	2569.466033
476.265513	2568.425035
476.635645	2572.888977
477.005719	2574.905438
477.375734	2574.028277
477.745691	2577.093299
478.115588	2577.972980
478.485427	2577.577250
478.855207	2581.968095
479.224928	2584.922211
479.594591	2590.986719
479.964194	2586.928590
480.333739	2589.736513
480.703226	2586.127047
481.072653	2589.923035
481.442022	2588.582088
481.811333	2592.574682
482.180584	2588.345154
482.549777	2589.706266
482.918912	2587.588981
483.287988	2589.640731
483.657005	2585.693507
484.025964	2584.904567
484.394864	2584.980184
484.763706	2586.752150
485.132489	2585.285174
485.501213	2587.006728
485.869879	2587.372212
486.238487	2583.256109
486.607036	2587.150401
486.975527	2584.100503
487.343959	2582.227714
487.712333	2587.170565
488.080648	2584.034968
488.448905	2583.510688
488.817104	2584.327355
489.185244	2585.123857
489.553326	2585.930442
489.921350	2589.207192
490.289315	2593.240115
490.657222	2594.510485
491.025070	2593.673654
491.392861	2594.848243
491.760593	2593.033427
492.128267	2593.479569
492.495883	2586.517736
492.863440	2586.313569
493.230939	2584.818867
493.598380	2586.041347
493.965763	2576.810994
494.333088	2581.955492
494.700354	2579.530697
495.067563	2579.659246
495.434713	2576.453072
495.801805	2580.808629
496.168839	2581.534555
496.535815	2580.579257
496.902733	2578.136818
497.269593	2578.489698
497.636395	2578.701427
498.003139	2580.828794
498.369825	2577.068093
498.736453	2578.272929
499.103023	2576.286714
499.469535	2577.572208
499.835989	2579.830645
500.202385	2575.195304
500.568723	2575.109605
500.935003	2575.666652
501.301226	2576.881570
501.667390	2580.221335
502.033497	2578.202353
502.399546	2580.067580
502.765537	2578.169585
503.131470	2577.834348
503.497345	2578.164544
503.863163	2577.599935
504.228923	2577.315110
504.594625	2579.979359
504.960269	2578.822415
505.325856	2580.359967
505.691385	2577.398289
506.056856	2577.027764
506.422270	2581.116140
506.787625	2580.944740
507.152924	2578.827456
507.518164	2578.156982
507.883347	2579.084555
508.248472	2578.653536
508.613540	2579.712178
508.978550	2576.105233
509.343503	2580.750656
509.708398	2578.998855
510.073236	2579.830645
510.438016	2580.133115
510.802738	2580.400296
511.167403	2582.557910
511.532010	2576.647157
511.896561	2581.050605
512.261053	2582.754515
512.625488	2576.049780
512.989866	2573.360324
513.354186	2579.976839
513.718449	2575.066755
514.082655	2581.463979
514.446803	2582.426840
514.810894	2582.212591
515.174927	2582.295770
515.538904	2580.561613
515.902822	2578.419122
516.266684	2579.707137
516.630488	2580.967426
516.994235	2580.128073
517.357925	2581.544638
517.721558	2582.147056
518.085133	2582.527663
518.448651	2582.837694
518.812112	2582.648650
519.175516	2586.172417
519.538863	2580.009606
519.902152	2583.399782
520.265385	2582.517580
520.628560	2584.743250
520.991678	2583.639237
521.354739	2584.821388
521.717743	2585.133939
522.080690	2580.821232
522.443580	2584.781058
522.806413	2586.104361
523.169189	2582.411716
523.531908	2585.688466
523.894569	2582.318455
524.257174	2584.365163
524.619722	2585.000349
524.982213	2587.483117
525.344647	2583.755184
525.707025	2583.359453
526.069345	2582.734350
526.431608	2585.650657
526.793815	2584.723085
527.155964	2584.433219
527.518057	2584.559248
527.880093	2582.542786
528.242072	2581.085893
528.603995	2583.661922
528.965860	2586.426995
529.327669	2585.330544
529.689421	2581.980697
530.051117	2583.157807
530.412755	2583.127560
530.774337	2582.867941
531.135862	2583.397262
531.497331	2581.136304
531.858743	2579.860892
532.220098	2583.729978
532.581396	2579.359297
532.942638	2582.126891
533.303824	2581.166551
533.664953	2582.953640
534.026025	2582.799885
534.387040	2582.628486
534.747999	2582.338619
535.108902	2583.137642
535.469748	2582.152097
535.830537	2583.765266
536.191270	2582.638568
536.551947	2584.791141
536.912567	2583.215780
537.273131	2584.856676
537.633638	2582.247879
537.994089	2582.565471
538.354483	2583.288877
538.714821	2583.152766
539.075103	2584.304669
539.435328	2582.406675
539.795497	2583.084710
540.155609	2583.586305
540.515665	2583.261151
540.875665	2583.896336
541.235609	2583.341809
541.595496	2584.614700
541.955328	2587.359609
542.315102	2583.823239
542.674821	2582.925914
543.034483	2582.411716
543.394090	2580.856520
543.753640	2585.713672
544.113134	2584.060173
544.472571	2584.491192
544.831953	2582.724268
545.191278	2584.266861
545.550548	2584.052612
545.909761	2584.549165
546.268918	2586.091758
546.628019	2586.215267
546.987064	2583.621593
547.346053	2582.240317
547.704986	2585.428847
548.063863	2588.362798
548.422684	2584.435739
548.781449	2581.716037
549.140158	2580.740574
549.498811	2585.776686
549.857408	2582.517580
550.215949	2579.616396
550.574434	2579.729822
550.932864	2582.973805
551.291237	2579.485326
551.649555	2585.496902
552.007817	2582.230235
552.366022	2587.594022
552.724173	2583.510688
553.082267	2585.522108
553.440305	2583.006572
553.798288	2585.310380
554.156215	2583.833322
554.514086	2583.157807
554.871902	2581.731160
555.229661	2584.897005
555.587365	2585.310380
555.945014	2585.887592
556.302606	2583.624114
556.660143	2584.269381
557.017625	2583.208218
557.375050	2582.426840
557.732421	2584.942375
558.089735	2586.006059
558.446994	2583.009093
558.804197	2584.975143
559.161345	2582.865420
559.518437	2584.760894
559.875474	2584.682756
560.232455	2584.022365
560.589381	2584.912128
560.946251	2585.380956
561.303065	2585.144022
561.659825	2583.026737
562.016528	2585.028075
562.373177	2584.816347
562.729770	2582.452045
563.086307	2584.155955
563.442789	2580.365008
563.799216	2584.037488
564.155587	2583.634196
564.511904	2584.476069
564.868164	2582.232755
565.224370	2581.093454
565.580520	2582.474731
565.936615	2582.729309
566.292654	2580.488516
566.648638	2583.553538
567.004567	2585.088569
567.360441	2585.539752
567.716260	2583.435070
568.072023	2583.513208
568.427732	2579.634040
568.783385	2580.624627
569.138982	2581.164031
569.494525	2579.795357
569.850013	2579.397106
570.205445	2581.302662
570.560823	2582.769638
570.916145	2580.410378
571.271412	2581.615214
571.626625	2582.661253
571.981782	2579.475244
572.336884	2582.021027
572.691931	2583.515729
573.046923	2579.709658
573.401860	2580.889288
573.756743	2581.713516
574.111570	2579.346695
574.466342	2582.457087
574.821059	2578.061200
575.175722	2580.082703
575.530330	2580.841397
575.884882	2582.515060
576.239380	2581.637899
576.593823	2580.841397
576.948211	2579.477765
577.302544	2579.775193
577.656823	2579.041705
578.011047	2579.984401
578.365216	2578.585480
578.719330	2580.057497
579.073389	2576.795871
579.427394	2574.817218
579.781344	2578.235120
580.135239	2577.741087
580.489080	2579.253433
580.842866	2574.696230
581.196597	2582.469689
581.550273	2578.033474
581.903895	2578.766962
582.257463	2578.217476
582.610975	2577.942733
582.964434	2577.526838
583.317837	2576.828638
583.671186	2579.515573
584.024481	2576.506004
584.377721	2579.366859
584.730906	2575.538103
585.084037	2578.013309
585.437113	2574.063565
585.790135	2573.758576
586.143103	2575.202866
586.496016	2576.465675
586.848874	2570.643142
587.201679	2574.303020
587.554428	2571.651373
587.907124	2574.378637
588.259765	2572.883935
588.612352	2576.352249
588.964884	2571.583318
589.317362	2572.677248
589.669786	2573.440983
590.022155	2577.050449
590.374470	2574.149265
590.726731	2574.693710
591.078937	2572.760427
591.431090	2574.108936
591.783188	2575.709502
592.135232	2574.766806
592.487222	2574.643298
592.839157	2575.354101
593.191038	2571.790005
593.542866	2574.925603
593.894639	2571.691702
594.246358	2572.251271
594.598022	2572.767989
594.949633	2572.604151
595.301190	2569.753379
595.652692	2574.355952
596.004141	2573.914851
596.355535	2573.980386
596.706876	2572.654563
597.058162	2569.062741
597.409395	2570.844789
597.760573	2572.150447
598.111698	2568.498132
598.462768	2572.039542
598.813785	2569.990313
599.164748	2571.835375
599.515657	2572.563822
599.866511	2569.834037
600.217312	2569.602144
600.568060	2571.903431
600.918753	2572.689851
601.269392	2568.462843
601.619978	2566.988306
601.970510	2570.880077
602.320988	2570.413770
602.671412	2567.747000
603.021783	2568.364541
603.372100	2568.377144
603.722363	2568.679613
604.072572	2573.017526
604.422728	2572.473081
604.772830	2564.709704
605.122878	2565.014694
605.472872	2567.908317
605.822813	2566.204407
606.172701	2566.471588
606.522534	2568.127607
606.872314	2570.302865
607.222041	2566.698440
607.571714	2568.740107
607.921333	2570.660787
608.270899	2567.535271
608.620411	2569.342525
608.969870	2568.054510
609.319276	2571.845458
609.668627	2572.838565
610.017926	2574.638257
610.367171	2577.327712
610.716362	2577.985583
611.065500	2576.145562
611.414585	2574.542475
611.763616	2572.667166
612.112594	2572.750345
612.461518	2570.673389
612.810389	2572.483164
613.159207	2573.824111
613.507971	2570.628019
613.856682	2570.121383
614.205340	2572.165571
614.553945	2569.708008
614.902496	2567.318502
615.250994	2570.880077
615.599439	2570.408729
615.947830	2569.566856
616.296169	2570.638101
616.644454	2571.558112
616.992686	2571.295972
617.340864	2571.167422
617.688990	2568.639284
618.037063	2569.337484
618.385082	2570.207083
618.733048	2568.780436
619.080961	2569.710529
619.428821	2569.425704
619.776628	2569.861764
620.124382	2570.890159
620.472083	2571.041394
620.819731	2570.791857
621.167326	2569.229099
621.514868	2569.261866
621.862357	2568.669531
622.209793	2568.924109
622.557176	2568.447720
622.904506	2565.579303
623.251783	2562.237018
623.599007	2563.673747
623.946179	2564.253480
624.293297	2564.651731
624.640363	2563.769529
624.987376	2566.965621
625.334336	2567.575600
625.681243	2569.211455
626.028097	2563.812379
626.374899	2565.871690
626.721647	2564.384550
627.068343	2563.053685
627.414987	2566.821948
627.761577	2564.601320
628.108115	2564.760116
628.454600	2562.395815
628.801032	2561.785835
629.147412	2566.547205
629.493739	2561.662327
629.840014	2564.744992
630.186236	2567.623491
630.532405	2563.577965
630.878521	2561.291802
631.224585	2567.883111
631.570597	2560.558314
631.916556	2563.477142
632.262462	2561.148129
632.608316	2559.771894
632.954117	2561.914385
633.299866	2566.615261
633.645562	2563.933367
633.991206	2562.615105
634.336797	2558.327604
634.682336	2563.676268
635.027823	2559.789538
635.373257	2558.541853
635.718639	2561.291802
636.063968	2561.173335
636.409245	2560.470094
636.754470	2560.596123
637.099642	2559.875238
637.444762	2559.731565
637.789829	2558.887172
638.134845	2561.662327
638.479808	2559.091338
638.824719	2558.125957
639.169577	2557.266441
639.514383	2560.787687
639.859137	2555.063457
640.203839	2557.785680
640.548489	2558.536812
640.893086	2557.687377
641.237632	2556.134702
641.582125	2554.851728
641.926566	2552.643703
642.270955	2557.195865
642.615292	2556.774928
642.959576	2561.503531
643.303809	2558.143602
643.647990	2559.764332
643.992118	2556.840463
644.336195	2557.513457
644.680219	2556.472459
645.024192	2556.669064
645.368112	2556.167469
645.711981	2558.332645
646.055797	2559.655948
646.399562	2560.679302
646.743274	2557.120247
647.086935	2559.981102
647.430544	2557.556307
647.774101	2558.874569
648.117606	2558.564538
648.461059	2557.344579
648.804460	2562.143757
649.147810	2559.298026
649.491108	2558.942624
649.834354	2557.490772
650.177548	2558.614949
650.520690	2557.021945
650.863781	2559.051009
651.206820	2561.294323
651.549807	2558.430947
651.892742	2554.856769
652.235626	2555.189485
652.578458	2556.832902
652.921238	2555.547407
653.263967	2559.605536
653.606644	2555.882644
653.949269	2555.234856
654.291843	2555.474311
654.634365	2558.685526
654.976836	2557.112686
655.319255	2556.540515
655.661622	2556.303580
656.003938	2555.819630
656.346203	2556.139743
656.688416	2555.504557
657.030577	2553.793086
657.372687	2554.156049
657.714746	2552.832746
658.056753	2554.529094
658.398708	2551.607746
658.740612	2551.224618
659.082465	2548.290666
659.424266	2553.914073
659.766016	2550.803682
660.107715	2555.940617
660.449362	2556.051523
660.790958	2555.255020
661.132503	2556.830381
661.473996	2554.544218
661.815438	2556.104455
662.156829	2556.953889
662.498168	2554.839125
662.839456	2553.911553
663.180693	2553.911553
663.521879	2556.003632
663.863013	2554.924825
664.204097	2554.314845
664.545129	2555.502037
664.886110	2557.057233
665.227040	2552.285781
665.567918	2555.678477
665.908746	2554.818961
666.249522	2558.773746
666.590248	2551.496840
666.930922	2557.369784
667.271545	2553.805689
667.612118	2558.040258
667.952639	2556.036399
668.293109	2556.081770
668.633528	2553.185627
668.973896	2556.716955
669.314213	2556.391801
669.654480	2554.970195
669.994695	2553.644372
670.334859	2554.755946
670.674973	2555.439023
671.015035	2553.893909
671.355047	2555.376008
671.695008	2554.574465
672.034918	2554.703014
672.374777	2556.595967
672.714585	2554.944989
673.054342	2556.817778
673.394049	2556.560679
673.733705	2555.265103
674.073310	2558.912377
674.412864	2554.498847
674.752368	2552.116902
675.091820	2553.838456
675.431223	2554.178734
675.770574	2553.840977
676.109875	2550.279402
676.449125	2552.310987
676.788324	2546.773279
677.127473	2554.403065
677.466571	2547.907539
677.805619	2552.883157
678.144616	2552.563044
678.483562	2552.036244
678.822458	2555.093703
679.161303	2557.274002
679.500098	2551.743857
679.838842	2551.655637
680.177535	2553.341903
680.516179	2551.143959
680.854771	2552.235369
681.193314	2554.602191
681.531805	2553.972047
681.870247	2554.554300
682.208638	2553.876265
682.546978	2554.743343
682.885268	2556.427089
683.223508	2555.290308
683.561697	2554.755946
683.899836	2553.079763
684.237925	2554.055226
684.575963	2554.251831
684.913951	2554.178734
685.251889	2554.700493
685.589776	2554.458518
685.927614	2552.890719
686.265401	2553.130174
686.603137	2552.807540
686.940824	2553.077242
687.278460	2553.798127
687.616046	2555.078580
687.953582	2554.866852
688.291068	2555.915412
688.628504	2554.609753
688.965889	2556.263251
689.303224	2554.292160
689.640510	2554.952551
689.977745	2553.848538
690.314930	2554.329969
690.652065	2553.382232
690.989150	2553.730071
691.326185	2552.956254
691.663170	2550.637323
692.000105	2550.788558
692.336990	2552.003476
692.673825	2552.779814
693.010610	2549.608928
693.347345	2547.564740
693.684030	2546.974925
694.020665	2543.935109
694.357251	2545.823022
694.693786	2548.376366
695.030272	2544.887887
695.366707	2550.113043
695.703093	2550.254196
696.039429	2549.810574
696.375716	2549.114895
696.711952	2546.145655
697.048139	2545.530635
697.384276	2548.610780
697.720363	2549.944165
698.056400	2545.296221
698.392388	2545.875954
698.728326	2549.561037
699.064214	2547.458876
699.400053	2549.213198
699.735842	2550.375183
700.071581	2549.987015
700.407270	2548.716644
700.742910	2547.721016
701.078501	2546.531304
701.414042	2547.393341
701.749533	2547.418547
702.084974	2547.340409
702.420366	2548.928372
702.755709	2549.785368
703.091002	2549.001469
703.426246	2545.810419
703.761440	2545.737322
704.096584	2549.371994
704.431679	2547.647919
704.766725	2547.693290
705.101721	2547.771428
705.436668	2546.163299
705.771565	2549.414844
706.106413	2547.572302
706.441212	2545.696993
706.775961	2547.506767
707.110661	2544.454348
707.445311	2548.169679
707.779913	2546.672456
708.114465	2547.811757
708.448967	2549.813095
708.783421	2550.312169
709.117825	2545.954092
709.452180	2546.188505
709.786485	2548.376366
710.120742	2550.322251
710.454949	2547.927703
710.789107	2546.949719
711.123216	2548.908208
711.457275	2545.820501
711.791286	2545.064328
712.125247	2546.574153
712.459159	2547.458876
712.793023	2549.596325
713.126837	2547.191695
713.460602	2550.171017
713.794318	2548.930893
714.127985	2550.201264
714.461602	2547.176571
714.795171	2550.307128
715.128691	2547.741181
715.462162	2547.365615
715.795584	2544.875285
716.128957	2546.286808
716.462281	2545.543238
716.795556	2548.348640
717.128782	2543.146169
717.461960	2545.134904
717.795088	2545.152548
718.128167	2547.658002
718.461198	2543.183977
718.794180	2545.631458
719.127113	2545.540717
719.459997	2546.211190
719.792833	2544.703885
720.125619	2546.468289
720.458357	2543.940151
720.791046	2544.567774
721.123686	2543.756148
721.456278	2548.262940
721.788821	2545.092054
722.121315	2544.910573
722.453761	2542.702547
722.786158	2545.034081
723.118506	2544.499719
723.450805	2544.136756
723.783056	2544.529966
724.115259	2544.829914
724.447412	2541.835469
724.779518	2543.181457
725.111574	2544.542568
725.443582	2546.155738
725.775542	2542.672300
726.107453	2543.670449
726.439315	2543.186498
726.771129	2549.561037
727.102895	2546.715306
727.434612	2546.448125
727.766281	2545.124822
728.097901	2544.013247
728.429473	2540.181970
728.760996	2542.024512
729.092471	2540.665921
729.423897	2545.475182
729.755276	2545.147507
730.086606	2545.013916
730.417887	2545.034081
730.749120	2544.383772
731.080305	2545.510470
731.411442	2547.902498
731.742530	2546.218752
732.073570	2547.514329
732.404562	2546.533824
732.735506	2547.859648
733.066401	2542.243802
733.397249	2545.807898
733.728048	2544.976108
734.058798	2546.748073
734.389501	2543.045346
734.720156	2544.315717
735.050762	2544.224976
735.381320	2543.010058
735.711831	2539.516538
736.042293	2545.676828
736.372707	2541.301107
736.703073	2545.359235
737.033391	2544.938299
737.363661	2541.026364
737.693883	2544.096426
738.024056	2542.931920
738.354182	2545.276056
738.684260	2542.168185
739.014290	2542.808412
739.344272	2544.046015
739.674207	2545.744884
740.004093	2546.617003
740.333931	2541.359080
740.663722	2546.347302
740.993464	2544.487116
741.323159	2543.758669
741.652806	2544.219935
741.982405	2545.434853
742.311956	2544.454348
742.641460	2544.552651
742.970915	2541.417053
743.300323	2544.219935
743.629683	2542.536189
743.958996	2544.280428
744.288260	2545.114739
744.617477	2542.105171
744.946647	2537.487474
745.275768	2540.539892
745.604842	2537.011085
745.933869	2536.060827
746.262847	2534.861032
746.591778	2539.178781
746.920662	2538.898997
747.249498	2540.829759
747.578286	2538.372196
747.907027	2544.323278
748.235720	2542.165664
748.564365	2542.112732
748.892963	2544.093906
749.221514	2541.129707
749.550017	2543.302445
749.878473	2545.918803
750.206881	2542.788247
750.535242	2540.471837
750.863555	2541.492670
751.191821	2541.895963
751.520039	2541.631302
751.848210	2540.673483
752.176334	2542.710109
752.504411	2542.372352
752.832440	2541.369162
753.160421	2543.826725
753.488356	2540.088709
753.816243	2541.749769
754.144082	2541.235572
754.471875	2544.330840
754.799620	2540.292876
755.127318	2541.568288
755.454969	2543.090716
755.782572	2540.781868
756.110129	2540.602907
756.437638	2542.397557
756.765100	2541.633823
757.092515	2540.131559
757.419882	2540.691127
757.747203	2544.575336
758.074477	2542.556354
758.401703	2543.292362
758.728882	2541.749769
759.056014	2541.626261
759.383099	2544.993752
759.710138	2540.388658
760.037129	2541.880839
760.364073	2543.516694
760.690970	2540.923020
761.017820	2541.974101
761.344623	2543.065510
761.671379	2543.178936
761.998088	2538.911600
762.324751	2540.222300
762.651366	2542.163144
762.977935	2549.921480
763.304456	2548.819987
763.630931	2553.341903
763.957359	2550.758311
764.283740	2550.851573
764.610074	2546.959802
764.936362	2548.966181
765.262602	2543.594832
765.588796	2543.650284
765.914943	2542.200952
766.241044	2545.271015
766.567097	2541.137269
766.893104	2540.877650
767.219064	2540.179450
767.544978	2541.013761
767.870845	2537.903369
768.196665	2537.941177
768.522438	2542.190870
768.848165	2541.222969
769.173846	2539.156096
769.499479	2540.882691
769.825066	2539.105684
770.150607	2537.666435
770.476101	2539.347659
770.801548	2540.098791
771.126949	2538.412525
771.452303	2540.484440
771.777611	2536.522093
772.102872	2536.983358
772.428087	2538.470499
772.753256	2538.667104
773.078378	2537.363965
773.403453	2538.208359
773.728482	2540.557536
774.053465	2538.707433
774.378401	2535.599562
774.703291	2538.979655
775.028135	2537.621064
775.352932	2537.943698
775.677683	2540.340767
776.002388	2539.861857
776.327046	2537.192566
776.651658	2538.036959
776.976224	2535.155940
777.300743	2537.895807
777.625216	2536.857329
777.949643	2537.459747
778.274024	2538.276414
778.598359	2535.173584
778.922647	2534.145189
779.246889	2533.666279
779.571086	2531.160826
779.895236	2537.553009
780.219339	2537.663914
780.543397	2537.207690
780.867409	2537.111908
781.191374	2537.971424
781.515294	2536.156609
781.839167	2534.556043
782.162995	2538.788091
782.486776	2540.156765
782.810511	2537.711805
783.134201	2538.087371
783.457844	2539.420756
783.781441	2535.579397
784.104993	2535.934798
784.428498	2536.040662
784.751958	2535.539068
785.075372	2535.357586
785.398739	2535.934798
785.722061	2538.140303
786.045337	2536.191897
786.368568	2539.312371
786.691752	2536.224665
787.014891	2537.036290
787.337983	2535.050076
787.661030	2538.425128
787.984031	2537.028729
788.306987	2540.388658
788.629897	2539.614841
788.952760	2539.632485
789.275579	2537.802546
789.598351	2539.599717
789.921078	2535.922195
790.243759	2539.052752
790.566395	2536.416228
790.888984	2539.733308
791.211529	2538.992258
791.534027	2538.228523
791.856480	2533.804911
792.178888	2540.159285
792.501249	2534.666948
792.823566	2534.722401
793.145836	2536.141486
793.468062	2538.478060
793.790241	2534.480425
794.112375	2539.120807
794.434464	2537.663914
794.756507	2539.009902
795.078505	2535.566794
795.400457	2537.661393
795.722364	2531.561597
796.044226	2536.045704
796.366042	2533.638553
796.687812	2535.619726
797.009538	2536.527134
797.331218	2539.703061
797.652852	2539.292207
797.974442	2536.517052
798.295986	2536.093595
798.617484	2539.871939
798.938938	2535.841537
799.260346	2538.057124
799.581709	2537.336239
799.903026	2537.984027
800.224299	2534.218285
800.545526	2536.703574
800.866708	2538.271373
801.187845	2535.851619
801.508936	2535.960004
801.829983	2535.738193
802.150984	2536.224665
802.471940	2534.205683
802.792851	2534.750127
803.113717	2537.696682
803.434538	2535.458409
803.755314	2538.034439
804.076045	2536.721218
804.396731	2534.994623
804.717372	2535.425642
805.037967	2536.466640
805.358518	2536.683410
805.679024	2536.103677
805.999485	2536.653163
806.319901	2536.509490
806.640272	2535.942360
806.960598	2535.433203
807.280879	2532.526978
807.601115	2536.045704
807.921306	2535.917154
808.241453	2535.019829
808.561554	2537.089223
808.881611	2535.481094
809.201623	2537.489994
809.521590	2539.133410
809.841513	2533.310878
810.161390	2533.058820
810.481223	2536.948070
810.801011	2535.576876
811.120755	2532.511855
811.440453	2535.120652
811.760107	2536.005374
812.079716	2535.692823
812.399281	2531.158305
812.718801	2535.672658
813.038276	2530.119827
813.357707	2533.494880
813.677093	2535.735673
813.996434	2534.490508
814.315731	2534.868594
814.634983	2534.724921
814.954191	2536.743903
815.273354	2536.877494
815.592473	2535.478574
815.911547	2535.919675
816.230577	2537.041332
816.549562	2536.711136
816.868502	2536.635519
817.187399	2537.036290
817.506250	2535.460930
817.825058	2536.801877
818.143821	2536.262473
818.462539	2537.971424
818.781213	2536.844727
819.099843	2539.254398
819.418429	2538.503266
819.736970	2540.696168
820.055466	2540.451672
820.373919	2541.238092
820.692327	2544.766900
821.010691	2548.182282
821.329011	2555.650751
821.647286	2574.857547
821.965517	2592.171390
822.283704	2601.923502
822.601847	2606.480705
822.919945	2599.614654
823.237999	2587.152921
823.556010	2575.971642
823.873976	2567.605847
824.191897	2563.320867
824.509775	2558.304918
824.827609	2551.348126
825.145398	2551.426264
825.463144	2552.638662
825.780845	2550.135729
826.098502	2552.545400
826.416116	2557.208468
826.733685	2561.667368
827.051210	2564.618964
827.368692	2564.175342
827.686129	2556.593447
828.003522	2548.835111
828.320872	2542.581560
828.638177	2543.337733
828.955439	2541.442259
829.272656	2537.807587
829.589830	2535.443286
829.906960	2538.203318
830.224046	2539.037628
830.541088	2536.829603
830.858086	2538.898997
831.175041	2537.139634
831.491952	2536.181815
831.808819	2537.918492
832.125642	2537.245498
832.442421	2537.696682
832.759157	2540.880170
833.075849	2543.544420
833.392497	2549.440049
833.709101	2551.058260
834.025662	2549.820657
834.342179	2548.247817
834.658653	2544.494677
834.975083	2545.197918
835.291469	2546.717826
835.607811	2539.095602
835.924110	2538.657021
836.240366	2540.393699
836.556578	2537.626105
836.872746	2537.295910
837.188871	2533.300795
837.504952	2536.441434
837.820990	2534.576207
838.136984	2533.847761
838.452935	2535.334901
838.768842	2533.636032
839.084706	2535.034952
839.400526	2535.329860
839.716303	2538.672145
840.032037	2540.970911
840.347727	2542.100129
840.663373	2539.970242
840.978977	2537.883204
841.294537	2535.284489
841.610054	2535.680220
841.925527	2534.843388
842.240957	2531.080167
842.556344	2534.067051
842.871687	2533.620909
843.186987	2532.516896
843.502244	2533.696526
843.817458	2533.346166
844.132629	2531.732997
844.447756	2532.640404
844.762840	2529.109076
845.077881	2531.014632
845.392879	2528.131092
845.707833	2529.845084
846.022745	2527.334590
846.337613	2532.479087
846.652438	2531.284334
846.967221	2532.511855
847.281960	2532.912627
847.596656	2534.114942
847.911309	2532.133768
848.225919	2534.268697
848.540485	2534.525796
848.855009	2533.003367
849.169490	2531.440610
849.483928	2530.860877
849.798323	2532.103521
850.112675	2531.712832
850.426984	2532.511855
850.741251	2532.103521
851.055474	2532.653007
851.369654	2531.186031
851.683792	2531.377595
851.997887	2531.034797
852.311938	2533.247863
852.625947	2531.727955
852.939914	2531.995137
853.253837	2531.155784
853.567718	2533.424304
853.881555	2532.393388
854.195350	2533.905734
854.509103	2533.817514
854.822812	2531.329704
855.136479	2532.837009
855.450103	2532.148892
855.763685	2531.806093
856.077224	2531.823737
856.390720	2531.838861
856.704173	2532.501772
857.017584	2532.494211
857.330953	2531.433048
857.644278	2531.370033
857.957561	2533.585621
858.270802	2533.845240
858.584000	2533.084026
858.897155	2533.900693
859.210268	2530.054292
859.523339	2532.184180
859.836367	2530.838192
860.149352	2532.131248
860.462295	2531.977493
860.775195	2528.874662
861.088054	2528.867101
861.400869	2530.054292
861.713642	2530.326515
862.026373	2528.889786
862.339062	2531.687626
862.651708	2531.286854
862.964312	2533.820034
863.276873	2531.458254
863.589392	2532.181659
863.901869	2529.010773
864.214303	2532.506814
864.526696	2532.083357
864.839045	2533.298275
865.151353	2533.046217
865.463619	2536.179294
865.775842	2532.577390
866.088023	2534.641742
866.400162	2533.726773
866.712258	2531.443130
867.024313	2534.127545
867.336325	2533.300795
867.648296	2534.891279
867.960224	2531.972451
868.272110	2534.997144
868.583954	2532.015301
868.895755	2532.239633
869.207515	2531.682585
869.519233	2530.535722
869.830909	2533.320960
870.142542	2534.699716
870.454134	2529.376257
870.765684	2535.105528
871.077191	2531.879190
871.388657	2533.953625
871.700081	2532.804242
872.011463	2531.874149
872.322803	2534.780374
872.634101	2534.409849
872.945357	2534.180477
873.256571	2535.037473
873.567744	2535.115611
873.878874	2534.344314
874.189963	2532.335414
874.501010	2537.868081
874.812015	2530.384488
875.122979	2533.953625
875.433900	2537.104346
875.744780	2533.003367
876.055618	2533.701567
876.366415	2533.242822
876.677169	2533.827596
876.987882	2529.895496
877.298554	2528.209230
877.609183	2531.899355
877.919771	2530.838192
878.230317	2531.677544
878.540822	2536.383461
878.851285	2533.235260
879.161707	2537.167360
879.472087	2538.334387
879.782425	2538.571322
880.092722	2543.680531
880.402977	2546.145655
880.713191	2557.087480
881.023363	2566.234653
881.333494	2572.001733
881.643583	2574.701271
881.953631	2576.377455
882.263637	2573.662794
882.573602	2569.791188
882.883526	2564.470250
883.193408	2558.683005
883.503248	2555.444064
883.813048	2549.629093
884.122806	2549.334185
884.432522	2546.390151
884.742197	2542.127856
885.051831	2540.549975
885.361424	2538.949408
885.670975	2540.955787
885.980485	2540.161806
886.289954	2538.276414
886.599382	2535.380271
886.908768	2535.055117
887.218113	2534.195600
887.527417	2538.720036
887.836680	2536.123842
888.145901	2533.467153
888.455082	2533.260466
888.764221	2534.006557
889.073319	2533.278110
889.382376	2534.339273
889.691392	2532.146371
890.000366	2533.333563
890.309300	2533.729293
890.618193	2532.383305
890.927044	2534.593851
891.235855	2533.401618
891.544625	2533.482277
891.853353	2536.217103
892.162041	2536.038142
892.470687	2534.477905
892.779293	2536.088553
893.087858	2534.916485
893.396381	2533.109232
893.704864	2535.942360
894.013306	2537.023687
894.321707	2542.997455
894.630068	2546.064997
894.938387	2547.831921
895.246665	2546.947199
895.554903	2545.046684
895.863100	2545.023999
896.171256	2540.746580
896.479371	2539.521579
896.787446	2541.316230
897.095480	2538.306661
897.403473	2537.989068
897.711425	2532.705939
898.019336	2536.451517
898.327207	2535.125693
898.635038	2532.842050
898.942827	2533.845240
899.250576	2536.585107
899.558284	2536.035621
899.865952	2533.656197
900.173579	2534.493028
900.481165	2532.005219
900.788711	2534.031763
901.096216	2531.548994
901.403681	2530.770136
901.711105	2531.143182
902.018489	2532.703419
902.325832	2533.774664
902.633135	2532.892462
902.940397	2535.745755
903.247619	2535.367668
903.554800	2535.869263
903.861941	2544.764379
904.169041	2549.881150
904.476101	2555.547407
904.783121	2553.046995
905.090100	2549.790410
905.397039	2545.913762
905.703938	2543.252033
906.010796	2540.184491
906.317614	2536.988399
906.624391	2536.459078
906.931129	2535.292051
907.237826	2533.802390
907.544483	2534.240971
907.851099	2533.210055
908.157675	2533.320960
908.464211	2531.944725
908.770707	2526.369209
909.077163	2531.203675
909.383578	2526.666637
909.689954	2530.747451
909.996289	2526.495238
910.302584	2530.616381
910.608839	2530.170239
910.915054	2529.938346
911.221229	2530.097142
911.527363	2533.134437
911.833458	2530.845753
912.139513	2531.612009
912.445527	2532.600075
912.751502	2533.101670
913.057436	2531.735517
913.363331	2529.441792
913.669186	2532.078316
913.975000	2534.727442
914.280775	2536.789274
914.586510	2535.932278
914.892205	2537.734490
915.197859	2540.008051
915.503475	2541.830428
915.809050	2545.938968
916.114585	2548.146993
916.420081	2547.610111
916.725536	2549.336706
917.030952	2549.465255
917.336328	2543.073072
917.641665	2541.154913
917.946961	2539.158616
918.252218	2539.385468
918.557435	2539.032587
918.862612	2537.210210
919.167750	2538.397402
919.472848	2536.625436
919.777906	2535.909593
920.082925	2534.004036
920.387904	2531.985054
920.692843	2532.809283
920.997743	2532.128727
921.302603	2531.876669
921.607423	2532.532019
921.912204	2534.064530
922.216946	2531.727955
922.521647	2531.942204
922.826310	2531.720394
923.130932	2530.182842
923.435516	2530.543284
923.740059	2529.658562
924.044564	2528.355423
924.349028	2532.448840
924.653454	2527.052285
924.957840	2526.724610
925.262186	2527.024559
925.566493	2528.776360
925.870761	2524.957686
926.174989	2531.720394
926.479178	2528.552028
926.783328	2530.818027
927.087438	2529.033459
927.391509	2531.223840
927.695541	2532.806762
927.999533	2530.061854
928.303486	2530.074457
928.607400	2531.496062
928.911275	2530.888603
929.215110	2528.284847
929.518906	2525.804600
929.822663	2530.858356
930.126381	2527.087573
930.430060	2526.555732
930.733699	2527.758047
931.037299	2528.385670
931.340861	2529.978675
931.644383	2532.945394
931.947866	2529.323325
932.251309	2528.562111
932.554714	2528.035310
932.858080	2530.772657
933.161407	2529.013294
933.464694	2531.145702
933.767943	2529.202337
934.071153	2529.898017
934.374323	2529.371216
934.677455	2528.683098
934.980548	2530.145033
935.283602	2528.042872
935.586617	2526.525485
935.889593	2531.828778
936.192530	2527.947090
936.495428	2527.488345
936.798287	2525.590351
937.101108	2528.345341
937.403890	2529.676206
937.706632	2530.913809
938.009336	2529.131761
938.312002	2529.393901
938.614628	2531.269210
938.917216	2529.711494
939.219765	2531.138140
939.522275	2530.666793
939.824747	2531.357431
940.127179	2528.567152
940.429573	2528.171421
940.731929	2527.899199
941.034246	2527.483304
941.336524	2529.303160
941.638763	2530.145033
941.940964	2529.900537
942.243126	2529.293078
942.545250	2529.393901
942.847335	2528.940197
943.149381	2530.588655
943.451389	2531.564118
943.753359	2531.077647
944.055290	2530.961700
944.357182	2531.249046
944.659036	2529.625794
944.960851	2531.052441
945.262628	2527.873993
945.564367	2529.575383
945.866067	2530.734848
946.167729	2530.777698
946.469352	2529.532533
946.770937	2530.109745
947.072484	2528.385670
947.373992	2532.499252
947.675462	2529.812317
947.976893	2529.174611
948.278286	2527.062368
948.579641	2527.873993
948.880958	2528.284847
949.182236	2529.716535
949.483476	2528.115969
949.784678	2528.315094
950.085841	2529.451874
950.386967	2527.039682
950.688054	2529.343490
950.989103	2528.045393
951.290114	2528.471370
951.591087	2530.437420
951.892021	2527.697553
952.192917	2530.805424
952.493776	2530.316432
952.794596	2530.603778
953.095378	2528.307533
953.396122	2530.795342
953.696828	2526.306194
953.997496	2530.898686
954.298126	2530.669313
954.598718	2530.258459
954.899272	2530.565969
955.199788	2527.490866
955.500266	2528.942718
955.800706	2525.368540
956.101108	2526.051616
956.401472	2524.967768
956.701798	2526.890968
957.002087	2528.509179
957.302337	2527.780732
957.602550	2527.321987
957.902724	2525.512213
958.202861	2528.426000
958.502960	2526.782583
958.803022	2527.347193
959.103045	2526.686802
959.403031	2525.923067
959.702979	2527.430372
960.002889	2530.311391
960.302762	2527.334590
960.602596	2527.937008
960.902393	2531.501103
961.202153	2528.814168
961.501875	2527.967255
961.801559	2526.497758
962.101205	2528.007584
962.400814	2526.696884
962.700385	2526.341482
962.999918	2528.599919
963.299414	2524.720752
963.598873	2527.894158
963.898293	2529.943387
964.197677	2526.598581
964.497022	2525.625639
964.796331	2526.530526
965.095601	2527.301822
965.394835	2528.864580
965.694030	2525.048427
965.993189	2525.655886
966.292309	2525.655886
966.591393	2528.536905
966.890439	2525.461801
967.189447	2528.756195
967.488419	2526.369209
967.787353	2525.489527
968.086249	2527.866432
968.385108	2529.880373
968.683930	2528.491535
968.982714	2524.992974
969.281462	2526.293592
969.580172	2528.277286
969.878844	2525.078673
970.177480	2530.785260
970.476078	2525.242511
970.774639	2527.500948
971.073162	2526.767460
971.371649	2525.255114
971.670098	2522.611029
971.968510	2524.163704
972.266885	2520.768487
972.565223	2526.709487
972.863524	2524.435926
973.161788	2527.291740
973.460014	2525.156811
973.758204	2528.254600
974.056356	2527.684950
974.354471	2526.124713
974.652550	2529.048582
974.950591	2528.620084
975.248595	2526.669158
975.546563	2525.441637
975.844493	2526.704446
976.142386	2526.240659
976.440243	2527.281658
976.738062	2525.083715
977.035845	2526.500279
977.333590	2527.450536
977.631299	2525.466842
977.928971	2524.193951
978.226606	2528.698222
978.524204	2529.033459
978.821765	2527.180835
979.119290	2528.158818
979.416777	2527.669827
979.714228	2526.681760
980.011642	2529.131761
980.309020	2528.559590
980.606360	2527.755526
980.903664	2526.379291
981.200931	2525.333252
981.498162	2524.698066
981.795356	2526.021369
982.092513	2528.307532
982.389633	2526.802748
982.686717	2527.750485
982.983764	2527.180835
983.280775	2527.233767
983.577749	2529.088911
983.874686	2527.717718
984.171587	2526.676719
984.468451	2527.808458
984.765279	2526.129754
985.062070	2529.023376
985.358824	2525.817202
985.655543	2526.384332
985.952224	2528.131092
986.248869	2526.621267
986.545478	2522.048940
986.842050	2525.126564
987.138586	2523.263858
987.435086	2525.209743
987.731549	2522.769825
988.027975	2525.061029
988.324366	2526.066740
988.620719	2522.573220
988.917037	2527.173273
989.213318	2527.236287
989.509563	2525.000536
989.805772	2527.364837
990.101944	2528.146216
990.398080	2527.183355
990.694180	2525.570186
990.990244	2527.896678
991.286271	2525.134126
991.582262	2524.435926
991.878217	2527.392563
992.174136	2528.983047
992.470019	2525.300484
992.765865	2526.124713
993.061676	2524.700587
993.357450	2526.238139
993.653188	2526.969106
993.948890	2527.004394
994.244556	2527.032121
994.540186	2525.726462
994.835780	2527.130423
995.131337	2525.799558
995.426859	2525.567665
995.722345	2525.547501
996.017795	2527.773170
996.313208	2526.691843
996.608586	2524.652696
996.903928	2524.468694
997.199234	2525.774353
997.494504	2525.308046
997.789738	2530.076978
998.084936	2525.381143
998.380099	2526.636390
998.675225	2529.104035
998.970316	2525.973478
999.265371	2527.954652
999.560390	2525.686133
999.855373	2528.153777
1000.150320	2524.516585
1000.445232	2527.513551
1000.740108	2524.808972
1001.034948	2524.879548
1001.329752	2526.021369
1001.624521	2529.824920
1001.919254	2520.902078
1002.213951	2523.994825
1002.508613	2519.183044
1002.803239	2523.435257
1003.097829	2519.908970
1003.392384	2525.197141
1003.686903	2526.691843
1003.981386	2524.609846
1004.275834	2525.166894
1004.570246	2525.749147
1004.864623	2523.175638
1005.158964	2526.631349
1005.453270	2525.867614
1005.747540	2526.230577
1006.041775	2523.097500
1006.335974	2527.979858
1006.630138	2525.376102
1006.924266	2527.687471
1007.218359	2528.115969
1007.512416	2526.666637
1007.806438	2529.247708
1008.100425	2527.200999
1008.394376	2527.594209
1008.688292	2524.922398
1008.982172	2525.865093
1009.276017	2526.185207
1009.569827	2522.863086
1009.863602	2527.901720
1010.157341	2526.394415
1010.451045	2526.674199
1010.744714	2524.125895
1011.038347	2524.216636
1011.331945	2523.221008
1011.625508	2527.637059
1011.919036	2521.320493
1012.212528	2525.366019
1012.505986	2524.090607
1012.799408	2522.709331
1013.092795	2525.852491
1013.386147	2524.032634
1013.679464	2527.942049
1013.972745	2525.315608
1014.265992	2525.585309
1014.559204	2527.642100
1014.852380	2523.808303
1015.145521	2525.628159
1015.438628	2525.073632
1015.731699	2524.224198
1016.024736	2524.975330
1016.317737	2527.931967
1016.610703	2525.963396
1016.903635	2523.173117
1017.196531	2524.312418
1017.489393	2523.460463
1017.782219	2522.764784
1018.075011	2526.356606
1018.367768	2524.672861
1018.660490	2527.213602
1018.953177	2527.213602
1019.245829	2527.213602
