Dividing Wavelength (nm)	Counts (n)	Blue Motor Position (mm): 0.000000	Red Motor Position (mm): 47.300000	
326.493990	2129.726183
326.888308	2129.726183
327.282561	2129.726183
327.676750	2096.772160
328.070874	2093.785277
328.464933	2098.778540
328.858929	2102.564446
329.252859	2113.854110
329.646726	2126.401542
330.040528	2138.676752
330.434265	2156.071253
330.827938	2172.064314
331.221547	2190.131809
331.615091	2210.235931
332.008571	2230.377861
332.401986	2249.607342
332.795338	2266.830444
333.188625	2289.117385
333.581847	2305.324695
333.975006	2324.770946
334.368100	2343.518997
334.761129	2362.025073
335.154095	2376.558719
335.546996	2397.560166
335.939833	2424.260638
336.332606	2440.195725
336.725315	2453.766511
337.117960	2459.377315
337.510540	2468.632874
337.903056	2482.501088
338.295508	2489.465442
338.687896	2496.059271
339.080220	2506.499501
339.472480	2512.773217
339.864676	2514.855213
340.256807	2520.135822
340.648875	2525.655886
341.040879	2526.812830
341.432818	2527.556401
341.824694	2528.552028
342.216506	2530.480270
342.608253	2530.550846
342.999937	2530.419776
343.391557	2528.660413
343.783113	2527.503468
344.174605	2527.563962
344.566033	2524.284692
344.957397	2522.202695
345.348697	2521.643127
345.739934	2519.210770
346.131106	2518.177334
346.522215	2517.592560
346.913260	2516.763290
347.304241	2513.844462
347.695159	2513.879750
348.086012	2510.471930
348.476802	2507.311127
348.867528	2506.708709
349.258191	2504.740138
349.648789	2507.137207
350.039324	2501.092863
350.429796	2504.483039
350.820203	2502.002792
351.210548	2497.322080
351.600828	2497.924498
351.991045	2501.213851
352.381198	2503.202586
352.771288	2497.586741
353.161314	2499.777122
353.551276	2496.568428
353.941175	2495.661020
354.331010	2499.114211
354.720782	2496.351658
355.110490	2498.136227
355.500135	2497.405259
355.889717	2499.557832
356.279235	2495.696308
356.668689	2502.075888
357.058080	2499.162102
357.447408	2497.238901
357.836672	2496.197903
358.225873	2497.420383
358.615010	2494.418376
359.004084	2500.583707
359.393095	2502.123779
359.782043	2501.672596
360.170927	2500.402225
360.559748	2503.747031
360.948505	2504.946826
361.337199	2506.391116
361.725830	2505.760972
362.114398	2508.720129
362.502903	2506.562515
362.891344	2508.490757
363.279722	2507.096878
363.668037	2510.166940
364.056289	2504.722494
364.444478	2510.096364
364.832603	2512.874040
365.220665	2512.362363
365.608665	2511.747342
365.996601	2513.307579
366.384474	2513.973012
366.772284	2513.950326
367.160031	2515.518125
367.547715	2516.821263
367.935336	2520.919722
368.322893	2525.784435
368.710388	2528.713345
369.097820	2536.411187
369.485189	2534.518234
369.872495	2543.609955
370.259738	2549.122457
370.646918	2556.270813
371.034035	2564.117369
371.421090	2575.109605
371.808081	2584.947417
372.195010	2593.098962
372.581875	2605.719491
372.968678	2620.694238
373.355418	2631.094139
373.742096	2647.939154
374.128710	2664.045641
374.515262	2676.041067
374.901751	2692.124868
375.288177	2707.346632
375.674540	2727.483521
376.060841	2742.856520
376.447079	2764.636825
376.833254	2784.095679
377.219367	2794.871145
377.605417	2837.478977
377.991404	2846.555575
378.377329	2866.480735
378.763191	2883.245093
379.148991	2921.051226
379.534727	2947.577777
379.920402	2975.183136
380.306013	2985.711586
380.691563	3034.169677
381.077049	3057.540466
381.462474	3076.036460
381.847835	3116.279991
382.233134	3136.278248
382.618371	3137.697333
383.003545	3208.457489
383.388657	3213.312120
383.773706	3244.615165
384.158693	3261.392125
384.543618	3290.414048
384.928480	3323.201712
385.313280	3369.925647
385.698017	3368.867004
386.082692	3423.389604
386.467305	3427.959410
386.851856	3458.937300
387.236344	3481.735918
387.620770	3512.300434
388.005133	3539.434445
388.389435	3565.272879
388.773674	3577.779981
389.157851	3620.914614
389.541965	3635.967500
389.926018	3599.416614
390.310008	3674.486956
390.693936	3690.175027
391.077802	3731.388980
391.461606	3717.724933
391.845348	3781.682052
392.229027	3781.147689
392.612645	3793.622024
392.996200	3874.840054
393.379694	3910.201228
393.763125	3977.684634
394.146494	3942.048717
394.529801	4007.918954
394.913047	4056.697158
395.296230	4020.854555
395.679351	4074.568049
396.062410	4099.786421
396.445408	4081.025767
396.828343	4115.189667
397.211217	4134.729179
397.594028	4056.243455
397.976778	4123.822642
398.359466	4150.039163
398.742092	4179.696271
399.124656	4099.310032
399.507158	4178.844316
399.889598	4207.190724
400.271977	4268.844036
400.654294	4236.598295
401.036549	4245.793360
401.418742	4221.227817
401.800874	4319.623578
402.182944	4342.056713
402.564952	4405.308070
402.946898	4390.295514
403.328783	4389.214187
403.710606	4302.939880
404.092367	4493.860979
404.474067	4457.627686
404.855705	4467.899037
405.237282	4395.775248
405.618797	4506.854553
406.000250	4531.775497
406.381642	4619.443683
406.762972	4581.158640
407.144240	4590.686421
407.525447	4591.828242
407.906593	4648.891583
408.287677	4696.364129
408.668700	4620.388899
409.049661	4675.506355
409.430560	4714.857602
409.811399	4640.808093
410.192176	4806.263803
410.572891	4741.863063
410.953545	4842.605481
411.334138	4726.898398
411.714669	4789.204539
412.095139	4689.445145
412.475547	4829.798430
412.855894	4808.681037
413.236180	4819.224610
413.616405	4771.094193
413.996568	4861.663563
414.376670	4802.934121
414.756711	4756.991566
415.136691	4789.713695
415.516609	4868.096076
415.896466	4904.730141
416.276262	4940.129123
416.655997	4919.707409
417.035670	5099.800109
417.415283	5192.612793
417.794834	5131.594667
418.174324	5089.334674
418.553753	4994.371938
418.933121	5181.988561
419.312428	5245.980968
419.691674	5187.148182
420.070859	5312.559487
420.449983	5224.268718
420.829045	5339.635524
421.208047	5245.590279
421.586988	5317.852698
421.965867	5327.209080
422.344686	5462.876612
422.723444	5316.277338
423.102141	5135.133557
423.480777	5437.754022
423.859352	5202.243917
424.237866	5461.724709
424.616319	5452.363286
424.994712	5561.506787
425.373044	5440.269558
425.751314	5583.191311
426.129524	5387.095467
426.507673	5580.350620
426.885762	5665.669629
427.263789	5593.732363
427.641756	5481.728007
428.019662	5599.464155
428.397508	5605.632007
428.775292	5552.367175
429.153016	5654.831148
429.530679	5577.691412
429.908282	5657.762579
430.285824	5532.711717
430.663305	5810.048275
431.040726	5540.165062
431.418086	5541.420310
431.795385	5649.674047
432.172624	5662.589484
432.549802	5654.037166
432.926920	5665.304145
433.303977	5675.532646
433.680974	5713.558070
434.057910	5733.490792
434.434786	5743.535291
434.811601	5705.504826
435.188355	5941.277071
435.565050	5813.176311
435.941683	5794.521521
436.318257	6012.306929
436.694770	5995.114074
437.071222	6029.041039
437.447614	5961.093847
437.823946	5872.266196
438.200218	6030.424836
438.576429	5892.335029
438.952580	5990.972766
439.328670	6034.500609
439.704700	5943.921156
440.080670	5929.450524
440.456580	6199.056473
440.832429	6081.569862
441.208218	5930.582263
441.583947	6085.733855
441.959616	6087.566315
442.335224	6019.601478
442.710773	6151.142826
443.086261	6175.910015
443.461689	5976.015662
443.837057	6120.270800
444.212365	6274.033554
444.587612	6170.276526
444.962800	6326.721174
445.337927	6307.441281
445.712995	5918.904430
446.088002	6490.682182
446.462949	6317.984854
446.837837	6253.513537
447.212664	6426.551143
447.587431	6571.081024
447.962139	7111.863241
448.336786	8034.485136
448.711374	7779.974922
449.085901	6851.835485
449.460369	6769.112671
449.834776	6707.887857
450.209124	7099.111642
450.583412	7248.521360
450.957640	7393.784729
451.331808	7161.082547
451.705917	6713.743157
452.079965	6635.101157
452.453954	6847.588313
452.827883	6725.418470
453.201752	6819.562018
453.575562	6619.256811
453.949311	6824.351114
454.323001	6711.194854
454.696632	6784.210926
455.070202	6917.307470
455.443713	7081.301246
455.817164	7179.243303
456.190556	7257.439161
456.563888	7336.378589
456.937160	7381.615383
457.310373	7035.399020
457.683526	7059.659573
458.056619	6950.163190
458.429653	6935.420336
458.802628	6870.618824
459.175542	6982.383725
459.548398	7331.879360
459.921194	7497.408167
460.293930	7499.210379
460.666607	8029.489352
461.039224	8343.724636
461.411782	8463.033624
461.784280	8481.557344
462.156719	8376.547589
462.529099	8253.949248
462.901419	7842.122267
463.273680	7729.129844
463.645882	7749.120540
464.018024	7611.383614
464.390106	7779.730426
464.762130	8164.325094
465.134094	8634.105180
465.505999	9656.181478
465.877845	10879.858560
466.249631	11528.206397
466.621358	11146.628860
466.993026	10515.788950
467.364634	10255.620041
467.736184	9893.065297
468.107674	9561.422909
468.479105	9596.388352
468.850477	9357.677115
469.221790	9128.831416
469.593043	8802.646077
469.964238	8664.727669
470.335373	8673.577415
470.706449	8731.104542
471.077467	8716.422181
471.448425	10024.594043
471.819324	11105.387180
472.190164	11125.166147
472.560945	9879.842351
472.931667	9089.155014
473.302330	8946.049259
473.672934	8600.654604
474.043479	8955.241803
474.413965	8893.255776
474.784393	8780.278477
475.154761	8930.124254
475.525070	9020.023151
475.895321	8849.357408
476.265513	9021.729582
476.635645	9187.654119
477.005719	9194.401704
477.375734	9307.386564
477.745691	9546.007061
478.115588	9673.306278
478.485427	9919.067569
478.855207	10455.416091
479.224928	11272.561924
479.594591	11899.444528
479.964194	11714.214892
480.333739	11652.097794
480.703226	11566.166286
481.072653	11654.540233
481.442022	11896.676935
481.811333	12084.780029
482.180584	11895.555278
482.549777	11602.465114
482.918912	11424.966087
483.287988	11439.424116
483.657005	11457.910028
484.025964	11134.532611
484.394864	11270.918508
484.763706	11244.528068
485.132489	10998.484472
485.501213	10959.619696
485.869879	11036.887982
486.238487	10876.707839
486.607036	10991.346198
486.975527	10770.888978
487.343959	10959.191198
487.712333	11006.552838
488.080648	10936.594226
488.448905	10980.467388
488.817104	10918.022615
489.185244	11183.832575
489.553326	11336.927376
489.921350	11877.195396
490.289315	12936.198146
490.657222	13275.893777
491.025070	13195.157178
491.392861	13066.325450
491.760593	12688.004498
492.128267	12330.629540
492.495883	12011.184224
492.863440	11667.624548
493.230939	11338.485093
493.598380	11269.370874
493.965763	11140.924794
494.333088	11037.921418
494.700354	10961.280756
495.067563	11017.696309
495.434713	10854.617503
495.801805	10981.883952
496.168839	10903.025183
496.535815	10836.003042
496.902733	10834.732671
497.269593	10768.721282
497.636395	10868.531087
498.003139	10857.866526
498.369825	10723.708820
498.736453	10882.648839
499.103023	10805.383074
499.469535	10839.710811
499.835989	10823.755559
500.202385	10790.085692
500.568723	10638.888886
500.935003	10861.604542
501.301226	10658.698100
501.667390	10929.360170
502.033497	11024.781651
502.399546	10881.471729
502.765537	10792.056783
503.131470	10861.622186
503.497345	11036.121726
503.863163	10652.885649
504.228923	10963.203957
504.594625	11029.921107
504.960269	10778.848960
505.325856	10994.728812
505.691385	10784.679055
506.056856	10943.911461
506.422270	10964.277722
506.787625	10855.729077
507.152924	10968.784514
507.518164	10952.793974
507.883347	10876.629701
508.248472	10788.848089
508.613540	11025.046311
508.978550	10907.877293
509.343503	10882.157326
509.708398	11000.821047
510.073236	11116.011412
510.438016	11119.575508
510.802738	11073.214536
511.167403	11117.511155
511.532010	11015.553819
511.896561	11247.605692
512.261053	11322.948257
512.625488	11189.178719
512.989866	11172.013590
513.354186	11159.877012
513.718449	11060.674666
514.082655	11259.875860
514.446803	11151.034828
514.810894	11276.244487
515.174927	11142.114507
515.538904	11167.496716
515.902822	11319.855509
516.266684	11197.352950
516.630488	11142.888324
516.994235	11202.308404
517.357925	11261.189081
517.721558	11352.227278
518.085133	11374.879703
518.448651	11374.436082
518.812112	11264.561613
519.175516	11277.134251
519.538863	11402.109496
519.902152	11317.433234
520.265385	11472.637758
520.628560	11386.224820
520.991678	11365.190605
521.354739	11429.384658
521.717743	11358.576612
522.080690	11329.196767
522.443580	11476.559776
522.806413	11428.683938
523.169189	11453.446086
523.531908	11518.459326
523.894569	11330.472179
524.257174	11339.573982
524.619722	11454.698812
524.982213	11406.379353
525.344647	11461.683331
525.707025	11406.891030
526.069345	11499.751604
526.431608	11417.495097
526.793815	11533.771831
527.155964	11315.144551
527.518057	11371.953313
527.880093	11319.613533
528.242072	11387.681713
528.603995	11291.120932
528.965860	11214.417256
529.327669	11265.940368
529.689421	11221.898328
530.051117	11188.109994
530.412755	11297.210646
530.774337	11177.145485
531.135862	11158.992290
531.497331	11191.001096
531.858743	11036.441840
532.220098	11209.855011
532.581396	11078.999260
532.942638	11063.318751
533.303824	11028.454131
533.664953	11031.151149
534.026025	10948.503952
534.387040	11045.578931
534.747999	11051.771988
535.108902	11110.692995
535.469748	10875.084587
535.830537	10967.882147
536.191270	10949.028232
536.551947	10979.403704
536.912567	10970.339710
537.273131	10892.539582
537.633638	10873.085770
537.994089	10863.225273
538.354483	10814.983951
538.714821	10963.125819
539.075103	10965.341406
539.435328	10932.783114
539.795497	10759.717782
540.155609	10919.192163
540.515665	11005.859680
540.875665	10740.523588
541.235609	10812.488580
541.595496	10803.669081
541.955328	10963.372835
542.315102	10843.854639
542.674821	10797.176075
543.034483	10792.631475
543.394090	10801.486262
543.753640	10728.628986
544.113134	10953.015785
544.472571	10803.759822
544.831953	10949.383633
545.191278	10753.756617
545.550548	10781.747624
545.909761	10917.299210
546.268918	10894.873637
546.628019	10975.262397
546.987064	10845.026707
547.346053	10767.166086
547.704986	10861.647392
548.063863	10847.557367
548.422684	10837.865748
548.781449	10757.240054
549.140158	10855.865188
549.498811	10726.012627
549.857408	10589.659498
550.215949	10811.923971
550.574434	10674.033290
550.932864	10770.241190
551.291237	10831.249234
551.649555	10772.892837
552.007817	10787.131576
552.366022	10753.522203
552.724173	10743.195400
553.082267	10734.353216
553.440305	10868.775583
553.798288	10667.270582
554.156215	10825.898049
554.514086	10801.629935
554.871902	10641.686726
555.229661	10677.143682
555.587365	10655.151648
555.945014	10557.920393
556.302606	10683.482932
556.660143	10578.977293
557.017625	10732.419933
557.375050	10626.757349
557.732421	10764.897567
558.089735	10681.274907
558.446994	10675.989257
558.804197	10713.533251
559.161345	10713.583662
559.518437	10557.685979
559.875474	10652.111832
560.232455	10682.484784
560.589381	10626.913625
560.946251	10631.538883
561.303065	10728.646630
561.659825	10666.516929
562.016528	10600.182906
562.373177	10480.510955
562.729770	10593.878943
563.086307	10509.888279
563.442789	10606.670871
563.799216	10480.510955
564.155587	10529.082472
564.511904	10488.087809
564.868164	10471.706580
565.224370	10486.459517
565.580520	10407.600747
565.936615	10414.239947
566.292654	10284.936871
566.648638	10413.970245
567.004567	10373.630932
567.360441	10360.506288
567.716260	10262.327296
568.072023	10357.484116
568.427732	10312.796808
568.783385	10222.270288
569.138982	10292.110433
569.494525	10315.294700
569.850013	10191.655360
570.205445	10265.654458
570.560823	10170.018728
570.916145	10078.408360
571.271412	10151.532817
571.626625	10103.946845
571.981782	10077.314429
572.336884	10052.796778
572.691931	10051.765862
573.046923	9997.439867
573.401860	9956.873702
573.756743	9891.971367
574.111570	9941.001629
574.466342	9919.672508
574.821059	9952.833218
575.175722	9838.656124
575.530330	9849.663483
575.884882	9843.911527
576.239380	9767.084342
576.593823	9747.454089
576.948211	9759.855328
577.302544	9640.402667
577.656823	9657.529987
578.011047	9666.054578
578.365216	9627.247776
578.719330	9552.207680
579.073389	9567.928518
579.427394	9515.603862
579.781344	9492.951437
580.135239	9443.351525
580.489080	9447.898645
580.842866	9350.843831
581.196597	9353.064459
581.550273	9398.016428
581.903895	9366.809165
582.257463	9426.980378
582.610975	9313.642636
582.964434	9337.099125
583.317837	9256.085262
583.671186	9237.639680
584.024481	9233.188341
584.377721	9153.843100
584.730906	9128.022310
585.084037	9160.323504
585.437113	9094.196168
585.790135	9116.931772
586.143103	9019.040126
586.496016	8989.050302
586.848874	9052.238645
587.201679	9037.006798
587.554428	8926.408924
587.907124	8969.402405
588.259765	8939.228578
588.612352	8937.247405
588.964884	8818.964292
589.317362	8836.744441
589.669786	8833.684461
590.022155	8883.438129
590.374470	8902.309688
590.726731	8836.111776
591.078937	8687.193571
591.431090	8799.714646
591.783188	8669.723453
592.135232	8668.871498
592.487222	8664.001743
592.839157	8717.253972
593.191038	8649.697469
593.542866	8594.320394
593.894639	8497.086618
594.246358	8546.421871
594.598022	8563.226557
594.949633	8462.655538
595.301190	8435.236702
595.652692	8462.776525
596.004141	8573.223165
596.355535	8347.883588
596.706876	8329.080084
597.058162	8263.023325
597.409395	8339.043925
597.760573	8402.965756
598.111698	8311.471334
598.462768	8301.315929
598.813785	8268.286289
599.164748	8234.016526
599.515657	8224.355154
599.866511	8132.114642
600.217312	8262.360413
600.568060	8116.729040
600.918753	8213.549441
601.269392	8190.491203
601.619978	8100.867050
601.970510	8163.959611
602.320988	8164.486411
602.671412	8221.965647
603.021783	8152.062488
603.372100	8127.010473
603.722363	8132.399467
604.072572	8109.532793
604.422728	8118.183413
604.772830	8045.926034
605.122878	8056.754433
605.472872	8049.429636
605.822813	8081.380469
606.172701	8030.427007
606.522534	8095.830937
606.872314	8091.432530
607.222041	8065.369765
607.571714	8127.438972
607.921333	8088.614525
608.270899	8088.130574
608.620411	8178.399996
608.969870	8088.599402
609.319276	8075.825118
609.668627	8094.943694
610.017926	8127.678426
610.367171	8173.983945
610.716362	8154.948548
611.065500	8144.704923
611.414585	8163.921802
611.763616	8157.441399
612.112594	8139.386506
612.461518	8156.740678
612.810389	8216.553969
613.159207	8153.574834
613.507971	8103.185980
613.856682	8218.288126
614.205340	8172.781630
614.553945	8254.526460
614.902496	8152.344792
615.250994	8207.159778
615.599439	8189.339300
615.947830	8201.740538
616.296169	8171.362545
616.644454	8192.933642
616.992686	8184.414092
617.340864	8242.871312
617.688990	8150.280440
618.037063	8238.856033
618.385082	8186.480965
618.733048	8271.900797
619.080961	8211.505253
619.428821	8230.487718
619.776628	8236.867298
620.124382	8188.404166
620.472083	8164.985485
620.819731	8197.271555
621.167326	8091.614012
621.514868	8099.788243
621.862357	7986.110223
622.209793	8005.493460
622.557176	7942.221938
622.904506	7906.149962
623.251783	7843.793409
623.599007	7797.477808
623.946179	7801.609034
624.293297	7752.926611
624.640363	7670.755803
624.987376	7660.769278
625.334336	7606.481092
625.681243	7554.842033
626.028097	7541.228397
626.374899	7522.346755
626.721647	7513.721341
627.068343	7439.818025
627.414987	7413.714931
627.761577	7369.146089
628.108115	7410.070176
628.454600	7299.492467
628.801032	7346.191195
629.147412	7306.487068
629.493739	7305.713251
629.840014	7234.799339
630.186236	7289.800848
630.532405	7175.091913
630.878521	7223.560087
631.224585	7180.985022
631.570597	7112.581606
631.916556	7141.318703
632.262462	7143.478838
632.608316	7097.440500
632.954117	7073.212715
633.299866	7059.498256
633.645562	7052.513737
633.991206	6971.494833
634.336797	6918.771925
634.682336	6874.936572
635.027823	6843.699062
635.373257	6834.488874
635.718639	6766.962618
636.063968	6776.621469
636.409245	6675.296798
636.754470	6667.568709
637.099642	6627.216793
637.444762	6574.509009
637.789829	6581.024700
638.134845	6524.387337
638.479808	6510.839236
638.824719	6513.788311
639.169577	6445.568896
639.514383	6466.449355
639.859137	6392.500670
640.203839	6396.243726
640.548489	6382.090687
640.893086	6366.634509
641.237632	6333.312482
641.582125	6353.968610
641.926566	6326.257387
642.270955	6335.936403
642.615292	6334.993707
642.959576	6348.960224
643.303809	6335.109654
643.647990	6346.399318
643.992118	6336.964798
644.336195	6281.139061
644.680219	6311.156611
645.024192	6303.907432
645.368112	6388.223251
645.711981	6412.261993
646.055797	6488.156564
646.399562	6448.636438
646.743274	6574.314924
647.086935	6627.945239
647.430544	6625.994313
647.774101	6647.928373
648.117606	6653.889538
648.461059	6641.029554
648.804460	6601.922803
649.147810	6511.887796
649.491108	6483.238918
649.834354	6461.188911
650.177548	6373.913935
650.520690	6290.984434
650.863781	6265.786227
651.206820	6290.394619
651.549807	6205.315066
651.892742	6146.809955
652.235626	6152.803887
652.578458	6137.138501
652.921238	6047.227002
653.263967	6090.066727
653.606644	6023.478126
653.949269	6027.495925
654.291843	5968.650537
654.634365	6022.769844
654.976836	5973.298480
655.319255	5976.915508
655.661622	5947.364264
656.003938	5943.517864
656.346203	5903.831380
656.688416	5939.686587
657.030577	5894.729577
657.372687	5863.209763
657.714746	5847.468760
658.056753	5890.452158
658.398708	5830.162479
658.740612	5824.027394
659.082465	5872.848449
659.424266	5863.779413
659.766016	5860.792529
660.107715	5840.635476
660.449362	5853.818093
660.790958	5852.139389
661.132503	5832.758673
661.473996	5872.298963
661.815438	5859.348239
662.156829	5853.684503
662.498168	5849.462536
662.839456	5825.489329
663.180693	5857.281366
663.521879	5862.098188
663.863013	5846.233677
664.204097	5867.247727
664.545129	5911.559469
664.886110	5908.141567
665.227040	5942.512154
665.567918	5904.252317
665.908746	5934.433705
666.249522	5935.757008
666.590248	5923.915337
666.930922	5951.422393
667.271545	5960.398168
667.612118	5963.044773
667.952639	5937.511329
668.293109	5958.832889
668.633528	5918.342342
668.973896	5923.940543
669.314213	5912.003091
669.654480	5893.396192
669.994695	5888.355038
670.334859	5876.833481
670.674973	5870.451380
671.015035	5871.898191
671.355047	5871.860383
671.695008	5860.054000
672.034918	5832.088199
672.374777	5838.399724
672.714585	5825.643084
673.054342	5829.219783
673.394049	5824.571839
673.733705	5856.177353
674.073310	5841.439540
674.412864	5802.201719
674.752368	5790.360048
675.091820	5802.257172
675.431223	5732.878292
675.770574	5732.908539
676.109875	5688.556467
676.449125	5689.789029
676.788324	5658.435573
677.127473	5599.539772
677.466571	5590.448052
677.805619	5579.239046
678.144616	5565.980811
678.483562	5546.738727
678.822458	5517.636146
679.161303	5509.524929
679.500098	5502.363970
679.838842	5481.153316
680.177535	5489.660263
680.516179	5504.012428
680.854771	5514.966855
681.193314	5595.872333
681.531805	5702.407037
681.870247	5854.929668
682.208638	5955.800635
682.546978	5972.136494
682.885268	5947.500376
683.223508	5864.548189
683.561697	5807.260517
683.899836	5780.118944
684.237925	5735.270319
684.575963	5698.293456
684.913951	5662.602087
685.251889	5723.342949
685.589776	5686.542526
685.927614	5659.095964
686.265401	5729.029371
686.603137	5713.507658
686.940824	5792.308454
687.278460	5815.696888
687.616046	5828.075441
687.953582	5887.523248
688.291068	5870.839549
688.628504	5938.690959
688.965889	5902.923973
689.303224	5842.770404
689.640510	5794.755935
689.977745	5720.739193
690.314930	5620.397547
690.652065	5560.576694
690.989150	5471.406245
691.326185	5399.100975
691.663170	5343.217264
692.000105	5263.365387
692.336990	5187.531310
692.673825	5160.462834
693.010610	5096.414975
693.347345	5024.228172
693.684030	5009.107231
694.020665	4968.838494
694.357251	4879.544536
694.693786	4889.475609
695.030272	4853.877501
695.366707	4817.203107
695.703093	4786.290752
696.039429	4808.592816
696.375716	4792.141011
696.711952	4765.584212
697.048139	4748.827417
697.384276	4728.554417
697.720363	4745.119648
698.056400	4752.051235
698.392388	4707.336200
698.728326	4685.555895
699.064214	4665.643337
699.400053	4653.350484
699.735842	4621.107264
700.071581	4597.252524
700.407270	4570.186569
700.742910	4553.276018
701.078501	4497.334334
701.414042	4498.574458
701.749533	4467.916681
702.084974	4400.781114
702.420366	4458.575423
702.755709	4400.309766
703.091002	4347.972507
703.426246	4394.116709
703.761440	4350.442673
704.096584	4315.386489
704.431679	4334.275692
704.766725	4318.759021
705.101721	4306.458605
705.436668	4336.962627
705.771565	4286.815749
706.106413	4309.952125
706.441212	4345.729194
706.775961	4350.404864
707.110661	4332.803675
707.445311	4363.983212
707.779913	4381.584400
708.114465	4395.137543
708.448967	4417.923558
708.783421	4483.851768
709.117825	4521.015154
709.452180	4522.071276
709.786485	4569.243873
710.120742	4656.297038
710.454949	4642.486797
710.789107	4706.448957
711.123216	4780.027118
711.457275	4771.265593
711.791286	4844.848795
712.125247	4860.095765
712.459159	4761.959623
712.793023	4838.065922
713.126837	4803.108041
713.460602	4795.135456
713.794318	4713.509093
714.127985	4717.829362
714.461602	4632.981702
714.795171	4604.962968
715.128691	4540.360582
715.462162	4482.478053
715.795584	4434.173717
716.128957	4414.994647
716.462281	4363.209395
716.795556	4333.514478
717.128782	4297.145073
717.461960	4230.730392
717.795088	4240.424531
718.128167	4198.681257
718.461198	4141.711177
718.794180	4133.511740
719.127113	4115.537506
719.459997	4093.845421
719.792833	4049.478226
720.125619	4042.418090
720.458357	4006.146988
720.791046	4008.407946
721.123686	3986.468844
721.456278	3942.179787
721.788821	3961.414310
722.121315	3933.914815
722.453761	3905.765012
722.786158	3917.732712
723.118506	3939.999488
723.450805	3892.201788
723.783056	3916.749687
724.115259	3931.880710
724.447412	3937.980506
724.779518	3930.227211
725.111574	3935.754837
725.443582	3968.134168
725.775542	3951.717650
726.107453	3999.843025
726.439315	3999.253210
726.771129	4011.881301
727.102895	4050.231879
727.434612	4100.633335
727.766281	4112.026343
728.097901	4109.518368
728.429473	4116.346611
728.760996	4122.106130
729.092471	4118.642857
729.423897	4100.363633
729.755276	4106.102987
730.086606	4107.703553
730.417887	4147.674862
730.749120	4209.764233
731.080305	4272.483749
731.411442	4294.596770
731.742530	4270.905868
732.073570	4275.450468
732.404562	4326.345957
732.735506	4317.806243
733.066401	4285.414308
733.397249	4218.639185
733.728048	4140.163543
734.058798	4059.663877
734.389501	3986.289883
734.720156	3927.973816
735.050762	3878.641084
735.381320	3871.129765
735.711831	3825.116633
736.042293	3793.213691
736.372707	3815.679593
736.703073	3788.187661
737.033391	3781.931589
737.363661	3797.052530
737.693883	3819.531035
738.024056	3831.004701
738.354182	3826.502950
738.684260	3886.868247
739.014290	3908.187287
739.344272	3903.584713
739.674207	3948.266980
740.004093	3946.978966
740.333931	3948.254377
740.663722	3948.249336
740.993464	3942.124334
741.323159	3919.464348
741.652806	3888.748597
741.982405	3865.488714
742.311956	3830.157787
742.641460	3820.635047
742.970915	3802.015546
743.300323	3757.257661
743.629683	3723.489492
743.958996	3715.564798
744.288260	3684.332330
744.617477	3653.571209
744.946647	3641.525372
745.275768	3617.060652
745.604842	3617.784058
745.933869	3566.734813
746.262847	3552.952299
746.591778	3591.955706
746.920662	3565.862694
747.249498	3534.473949
747.578286	3579.753593
747.907027	3598.015173
748.235720	3598.380657
748.564365	3618.893112
748.892963	3621.575005
749.221514	3603.835185
749.550017	3579.372986
749.878473	3578.727718
750.206881	3548.810991
750.535242	3544.389899
750.863555	3547.875857
751.191821	3540.871173
751.520039	3525.188144
751.848210	3497.973475
752.176334	3533.748023
752.504411	3539.689023
752.832440	3498.802745
753.160421	3484.380003
753.488356	3491.331755
753.816243	3505.096625
754.144082	3464.563228
754.471875	3448.061011
754.799620	3467.338383
755.127318	3454.480920
755.454969	3459.829584
755.782572	3464.805203
756.110129	3441.855350
756.437638	3429.693567
756.765100	3440.867284
757.092515	3450.319448
757.419882	3459.869913
757.747203	3433.512241
758.074477	3434.361675
758.401703	3450.926907
758.728882	3470.224443
759.056014	3479.414467
759.383099	3480.851196
759.710138	3477.748366
760.037129	3494.439626
760.364073	3527.507075
760.690970	3514.079961
761.017820	3485.960405
761.344623	3504.463960
761.671379	3550.663615
761.998088	3599.923250
762.324751	3725.558886
762.651366	3970.717759
762.977935	4440.150005
763.304456	4882.637284
763.630931	4980.957428
763.957359	4620.482161
764.283740	4279.107825
764.610074	4084.796550
764.936362	3892.743712
765.262602	3735.477356
765.588796	3623.036940
765.914943	3537.279351
766.241044	3446.586473
766.567097	3418.890374
766.893104	3370.134854
767.219064	3342.499249
767.544978	3313.520176
767.870845	3260.467073
768.196665	3242.112232
768.522438	3249.250506
768.848165	3243.402767
769.173846	3207.663507
769.499479	3191.766228
769.825066	3173.970955
770.150607	3156.954541
770.476101	3171.861232
770.801548	3169.018022
771.126949	3124.396248
771.452303	3105.943105
771.777611	3113.840072
772.102872	3121.459776
772.428087	3094.787031
772.753256	3083.951071
773.078378	3075.055955
773.403453	3042.122097
773.728482	3032.455685
774.053465	3052.726164
774.378401	3039.520862
774.703291	3005.833351
775.028135	3008.437107
775.352932	3006.929802
775.677683	2992.867503
776.002388	2990.730054
776.327046	2991.035044
776.651658	2980.904845
776.976224	2969.431179
777.300743	2969.153916
777.625216	2958.388532
777.949643	2954.668160
778.274024	2959.845425
778.598359	2946.398147
778.922647	2949.485854
779.246889	2945.342026
779.571086	2934.369954
779.895236	2931.062957
780.219339	2941.901438
780.543397	2952.175310
780.867409	2957.765949
781.191374	2948.593570
781.515294	2944.114505
781.839167	2947.083744
782.162995	2942.725667
782.486776	2947.169444
782.810511	2942.128290
783.134201	2932.900458
783.457844	2935.710901
783.781441	2927.987853
784.104993	2909.910276
784.428498	2906.797363
784.751958	2921.734302
785.075372	2916.249527
785.398739	2900.521127
785.722061	2917.378745
786.045337	2928.764191
786.368568	2916.196595
786.691752	2904.279307
787.014891	2954.935341
787.337983	2981.174547
787.661030	3007.159175
787.984031	3075.239957
788.306987	3123.143522
788.629897	3116.698407
788.952760	3098.489759
789.275579	3083.109198
789.598351	3023.179962
789.921078	2978.409474
790.243759	2972.370172
790.566395	2951.847635
790.888984	2932.030859
791.211529	2915.392531
791.534027	2901.685633
791.856480	2897.365364
792.178888	2881.979763
792.501249	2872.489791
792.823566	2865.129706
793.145836	2866.604244
793.468062	2863.640045
793.790241	2863.569469
794.112375	2867.672968
794.434464	2878.425749
794.756507	2882.042777
795.078505	2886.910011
795.400457	2902.151940
795.722364	2935.821807
796.044226	2961.440950
796.366042	2965.904892
796.687812	2954.292594
797.009538	2974.472333
797.331218	2962.106383
797.652852	2946.055349
797.974442	2929.812751
798.295986	2924.552307
798.617484	2922.334199
798.938938	2906.414236
799.260346	2890.345558
799.581709	2883.436656
799.903026	2879.040770
800.224299	2873.382075
800.545526	2862.525950
800.866708	2848.814012
801.187845	2838.154492
801.508936	2838.688854
801.829983	2848.894670
802.150984	2833.269614
802.471940	2818.395689
802.792851	2818.967860
803.113717	2820.734785
803.434538	2826.406083
803.755314	2818.982984
804.076045	2813.664567
804.396731	2811.106181
804.717372	2815.333188
805.037967	2806.531334
805.358518	2810.753300
805.679024	2826.375836
805.999485	2823.840136
806.319901	2827.147132
806.640272	2819.068683
806.960598	2820.268478
807.280879	2831.268276
807.601115	2838.068792
807.921306	2827.285764
808.241453	2821.483396
808.561554	2829.047647
808.881611	2830.164263
809.201623	2823.706545
809.521590	2824.384580
809.841513	2820.034064
810.161390	2822.242090
810.481223	2817.838642
810.801011	2810.433187
811.120755	2803.277269
811.440453	2807.509318
811.760107	2807.348001
812.079716	2806.354893
812.399281	2795.218985
812.718801	2788.476441
813.038276	2782.195164
813.357707	2790.318983
813.677093	2799.748461
813.996434	2793.315949
814.315731	2787.402676
814.634983	2780.786161
814.954191	2784.773714
815.273354	2798.505817
815.592473	2803.700726
815.911547	2805.618885
816.230577	2812.368990
816.549562	2823.454487
816.868502	2819.807212
817.187399	2832.132834
817.506250	2852.050432
817.825058	2841.882425
818.143821	2854.805423
818.462539	2869.213041
818.781213	2896.959552
819.099843	2932.290478
819.418429	2990.306597
819.736970	3050.697100
820.055466	3121.611011
820.373919	3221.826629
820.692327	3360.826364
821.010691	3530.985471
821.329011	3963.408086
821.647286	4852.203838
821.965517	6228.060752
822.283704	6982.076215
822.601847	6960.318595
822.919945	6318.153733
823.237999	5806.940403
823.556010	5237.151387
823.873976	4682.195966
824.191897	4275.873925
824.509775	3983.098833
824.827609	3722.327506
825.145398	3598.100872
825.463144	3584.686362
825.780845	3677.241947
826.098502	3780.283131
826.416116	4056.792940
826.733685	4374.801528
827.051210	4436.694294
827.368692	4320.662056
827.686129	4055.943506
828.003522	3737.196389
828.320872	3483.419664
828.638177	3289.688121
828.955439	3153.103099
829.272656	3075.507138
829.589830	3007.411232
829.906960	2958.660754
830.224046	2915.987387
830.541088	2882.461193
830.858086	2867.128524
831.175041	2849.015658
831.491952	2849.814681
831.808819	2860.595188
832.125642	2883.429095
832.442421	2929.963986
832.759157	3010.075482
833.075849	3184.138963
833.392497	3462.110706
833.709101	3662.060512
834.025662	3609.882049
834.342179	3457.631641
834.658653	3283.429529
834.975083	3136.855460
835.291469	3041.068496
835.607811	2955.925928
835.924110	2900.715211
836.240366	2851.359794
836.556578	2803.640232
836.872746	2783.291615
837.188871	2761.728079
837.504952	2745.835842
837.820990	2741.303844
838.136984	2725.600650
838.452935	2718.134701
838.768842	2716.546738
839.084706	2734.213461
839.400526	2811.703558
839.716303	2942.476130
840.032037	3024.500744
840.347727	3008.467354
840.663373	2944.197684
840.978977	2872.356200
841.294537	2800.686116
841.610054	2752.838004
841.925527	2731.004767
842.240957	2713.574977
842.556344	2688.870803
842.871687	2672.086281
843.186987	2663.297030
843.502244	2661.358706
843.817458	2656.869558
844.132629	2645.370687
844.447756	2638.214769
844.762840	2630.504324
845.077881	2632.009108
845.392879	2628.376957
845.707833	2628.099693
846.022745	2617.798096
846.337613	2622.962758
846.652438	2619.857407
846.967221	2621.100051
847.281960	2621.140381
847.596656	2620.676594
847.911309	2617.092334
848.225919	2615.869854
848.540485	2610.599328
848.855009	2609.565891
849.169490	2612.819956
849.483928	2609.437342
849.798323	2610.054883
850.112675	2609.792743
850.426984	2610.584204
850.741251	2608.577825
851.055474	2607.158740
851.369654	2610.178392
851.683792	2613.737446
851.997887	2608.920624
852.311938	2606.959615
852.625947	2609.664194
852.939914	2613.051849
853.253837	2613.641664
853.567718	2609.659153
853.881555	2607.173864
854.195350	2612.479678
854.509103	2608.935747
854.822812	2606.286621
855.136479	2607.609924
855.450103	2610.359873
855.763685	2610.062445
856.077224	2609.921293
856.390720	2606.994903
856.704173	2608.035901
857.017584	2614.460852
857.330953	2614.622169
857.644278	2617.074690
857.957561	2616.028651
858.270802	2609.868361
858.584000	2613.513115
858.897155	2616.164762
859.210268	2616.870523
859.523339	2612.164606
859.836367	2605.593462
860.149352	2607.181426
860.462295	2608.086313
860.775195	2604.970880
861.088054	2602.906527
861.400869	2606.883997
861.713642	2600.832092
862.026373	2603.468616
862.339062	2604.983482
862.651708	2609.891046
862.964312	2614.354987
863.276873	2610.493464
863.589392	2613.999586
863.901869	2616.063939
864.214303	2623.597943
864.526696	2623.905453
864.839045	2622.342696
865.151353	2629.642287
865.463619	2629.054992
865.775842	2632.082205
866.088023	2624.722120
866.400162	2629.402832
866.712258	2627.409055
867.024313	2627.076339
867.336325	2620.043930
867.648296	2624.089456
867.960224	2629.546505
868.272110	2629.901906
868.583954	2622.811523
868.895755	2623.373612
869.207515	2628.744961
869.519233	2634.844757
869.830909	2631.021042
870.142542	2628.109776
870.454134	2628.397122
870.765684	2632.278810
871.077191	2638.945736
871.388657	2641.791467
871.700081	2637.388019
872.011463	2637.254429
872.322803	2637.942546
872.634101	2645.113588
872.945357	2651.117602
873.256571	2653.164310
873.567744	2654.843015
873.878874	2653.002993
874.189963	2653.227325
874.501010	2657.663540
874.812015	2659.929539
875.122979	2660.471463
875.433900	2651.311686
875.744780	2650.928559
876.055618	2656.967861
876.366415	2661.613284
876.677169	2662.182935
876.987882	2656.713283
877.298554	2654.389311
877.609183	2664.625374
877.919771	2672.671055
878.230317	2677.321520
878.540822	2688.202850
878.851285	2698.169211
879.161707	2722.371791
879.472087	2760.215733
879.782425	2809.314051
880.092722	2917.983684
880.402977	3105.249946
880.713191	3366.845502
881.023363	3657.021879
881.333494	3851.212166
881.643583	4021.303217
881.953631	4021.958567
882.263637	3843.214375
882.573602	3620.407978
882.883526	3489.864779
883.193408	3375.312119
883.503248	3269.770522
883.813048	3158.260199
884.122806	3048.037891
884.432522	2963.883389
884.742197	2900.516086
885.051831	2864.469315
885.361424	2827.356340
885.670975	2792.153963
885.980485	2765.387957
886.289954	2744.227713
886.599382	2734.939387
886.908768	2721.159393
887.218113	2702.444110
887.527417	2688.220494
887.836680	2681.087262
888.145901	2675.231961
888.455082	2667.990344
888.764221	2661.570434
889.073319	2650.832777
889.382376	2652.773621
889.691392	2651.309166
890.000366	2653.943169
890.309300	2651.924187
890.618193	2650.994094
890.927044	2657.542553
891.235855	2658.437357
891.544625	2655.614311
891.853353	2654.318735
892.162041	2662.014056
892.470687	2680.928465
892.779293	2691.983716
893.087858	2703.989223
893.396381	2724.534446
893.704864	2763.910899
894.013306	2836.201045
894.321707	2929.406938
894.630068	2978.177581
894.938387	2996.668533
895.246665	2991.123264
895.554903	2947.812191
895.863100	2902.565315
896.171256	2845.512056
896.479371	2788.552059
896.787446	2748.139649
897.095480	2728.713562
897.403473	2722.119733
897.711425	2707.023998
898.019336	2687.978519
898.327207	2678.347394
898.635038	2675.831859
898.942827	2675.715912
899.250576	2665.452123
899.558284	2653.519712
899.865952	2647.737508
900.173579	2644.856489
900.481165	2642.517393
900.788711	2637.075468
901.096216	2631.290744
901.403681	2628.384519
901.711105	2627.749333
902.018489	2626.625156
902.325832	2628.465177
902.633135	2631.729324
902.940397	2644.692651
903.247619	2679.721109
903.554800	2750.337592
903.861941	2876.179915
904.169041	3001.906292
904.476101	3064.698905
904.783121	3058.515929
905.090100	3000.746827
905.397039	2923.670105
905.703938	2849.887777
906.010796	2788.620114
906.317614	2737.860736
906.624391	2703.878318
906.931129	2678.302024
907.237826	2654.164979
907.544483	2634.955663
907.851099	2622.529218
908.157675	2613.256016
908.464211	2604.728904
908.770707	2596.403439
909.077163	2593.356061
909.383578	2587.233580
909.689954	2587.019331
909.996289	2586.709300
910.302584	2585.491861
910.608839	2582.237796
910.915054	2582.588157
911.221229	2584.508836
911.527363	2585.776686
911.833458	2586.454722
912.139513	2587.470514
912.445527	2588.481265
912.751502	2594.248345
913.057436	2600.506938
913.363331	2605.890890
913.669186	2614.591922
913.975000	2629.680095
914.280775	2646.439411
914.586510	2665.825168
914.892205	2699.205168
915.197859	2765.093049
915.503475	2848.632530
915.809050	2913.970925
916.114585	2930.929367
916.420081	2944.974021
916.725536	2953.463324
917.030952	2925.318563
917.336328	2881.183261
917.641665	2831.144767
917.946961	2784.819084
918.252218	2748.784917
918.557435	2723.846328
918.862612	2698.557380
919.167750	2681.074659
919.472848	2666.130158
919.777906	2651.268837
920.082925	2640.816004
920.387904	2628.379477
920.692843	2625.437964
920.997743	2618.866820
921.302603	2614.987652
921.607423	2608.441714
921.912204	2600.998450
922.216946	2597.973758
922.521647	2596.882348
922.826310	2594.301277
923.130932	2587.669640
923.435516	2582.477251
923.740059	2581.433732
924.044564	2578.615727
924.349028	2576.916858
924.653454	2569.191290
924.957840	2566.932853
925.262186	2566.201886
925.566493	2567.280693
925.870761	2562.466391
926.174989	2565.438151
926.479178	2562.244580
926.783328	2561.621998
927.087438	2558.982954
927.391509	2560.371792
927.695541	2557.175700
927.999533	2558.433468
928.303486	2554.193857
928.607400	2554.098076
928.911275	2553.611604
929.215110	2555.628066
929.518906	2551.562375
929.822663	2553.258723
930.126381	2553.573796
930.430060	2554.037582
930.733699	2554.519012
931.037299	2554.599670
931.340861	2555.756615
931.644383	2557.032027
931.947866	2555.479352
932.251309	2554.539177
932.554714	2555.996070
932.858080	2555.050854
933.161407	2555.204609
933.464694	2552.454659
933.767943	2550.891902
934.071153	2553.654454
934.374323	2549.629093
934.677455	2550.990204
934.980548	2550.085317
935.283602	2553.437684
935.586617	2550.060111
935.889593	2551.234700
936.192530	2551.953065
936.495428	2551.131357
936.798287	2549.974412
937.101108	2553.208312
937.403890	2557.745350
937.706632	2560.293654
938.009336	2562.529405
938.312002	2563.605692
938.614628	2568.162895
938.917216	2571.621126
939.219765	2570.869994
939.522275	2571.916034
939.824747	2575.500294
940.127179	2569.357648
940.429573	2563.794735
940.731929	2570.053327
941.034246	2561.049827
941.336524	2565.289437
941.638763	2564.419838
941.940964	2564.477811
942.243126	2563.298181
942.545250	2563.139385
942.847335	2561.100238
943.149381	2559.703839
943.451389	2559.403890
943.753359	2553.793086
944.055290	2556.555638
944.357182	2556.142263
944.659036	2552.734443
944.960851	2555.161759
945.262628	2552.825184
945.564367	2552.399207
945.866067	2556.585885
946.167729	2553.538508
946.469352	2555.509599
946.770937	2554.493806
947.072484	2553.183106
947.373992	2553.725030
947.675462	2552.910884
947.976893	2553.588919
948.278286	2553.004145
948.579641	2550.269319
948.880958	2548.893084
949.182236	2551.877447
949.483476	2552.799978
949.784678	2550.541542
950.085841	2550.138249
950.386967	2550.629762
950.688054	2548.451983
950.989103	2553.687222
951.290114	2552.442057
951.591087	2553.840977
951.892021	2554.080432
952.192917	2558.272151
952.493776	2558.141081
952.794596	2559.734086
953.095378	2562.055537
953.396122	2559.272820
953.696828	2559.300546
953.997496	2556.913560
954.298126	2555.653272
954.598718	2553.795606
954.899272	2553.041954
955.199788	2552.245452
955.500266	2550.533980
955.800706	2545.689431
956.101108	2542.606765
956.401472	2542.964687
956.701798	2540.444110
957.002087	2542.871426
957.302337	2541.449821
957.602550	2545.742363
957.902724	2542.205994
958.202861	2542.117773
958.502960	2540.313040
958.803022	2540.633154
959.103045	2540.998637
959.403031	2538.374717
959.702979	2541.752290
960.002889	2539.352701
960.302762	2540.756662
960.602596	2537.847916
960.902393	2538.926723
961.202153	2538.972093
961.501875	2535.453368
961.801559	2537.873122
962.101205	2538.825900
962.400814	2536.343132
962.700385	2540.050900
962.999918	2536.877494
963.299414	2535.042514
963.598873	2535.541588
963.898293	2536.882535
964.197677	2535.438245
964.497022	2537.953780
964.796331	2534.578728
965.095601	2534.404808
965.394835	2538.815818
965.694030	2534.172915
965.993189	2539.161137
966.292309	2532.963038
966.591393	2536.539737
966.890439	2535.702905
967.189447	2534.457740
967.488419	2535.823893
967.787353	2538.377237
968.086249	2534.540919
968.385108	2537.318595
968.683930	2534.838347
968.982714	2534.825744
969.281462	2535.281969
969.580172	2538.042001
969.878844	2535.725590
970.177480	2535.607123
970.476078	2534.576207
970.774639	2539.766075
971.073162	2534.790456
971.371649	2534.520755
971.670098	2533.351207
971.968510	2533.492359
972.266885	2530.016484
972.565223	2538.510828
972.863524	2536.587628
973.161788	2535.138296
973.460014	2538.488143
973.758204	2537.744573
974.056356	2538.770447
974.354471	2536.776671
974.652550	2534.956814
974.950591	2535.299613
975.248595	2532.121165
975.546563	2536.428831
975.844493	2537.288348
976.142386	2535.355066
976.440243	2534.240971
976.738062	2536.877494
977.035845	2535.904551
977.333590	2537.003523
977.631299	2535.917154
977.928971	2534.959335
978.226606	2535.813811
978.524204	2534.246012
978.821765	2532.678213
979.119290	2537.074099
979.416777	2533.482277
979.714228	2532.675692
980.011642	2534.503111
980.309020	2536.433873
980.606360	2534.019160
980.903664	2537.013605
981.200931	2536.128883
981.498162	2535.511341
981.795356	2536.156609
982.092513	2541.533000
982.389633	2544.323278
982.686717	2543.925027
982.983764	2548.908208
983.280775	2550.690256
983.577749	2550.249155
983.874686	2549.417364
984.171587	2547.942827
984.468451	2542.866385
984.765279	2543.710778
985.062070	2539.826569
985.358824	2537.507638
985.655543	2538.357073
985.952224	2537.210210
986.248869	2535.319777
986.545478	2532.322812
986.842050	2533.736855
987.138586	2529.618232
987.435086	2533.053779
987.731549	2529.925743
988.027975	2532.433717
988.324366	2533.764582
988.620719	2534.561084
988.917037	2531.576721
989.213318	2531.798532
989.509563	2531.889272
989.805772	2531.380116
990.101944	2529.325846
990.398080	2535.029911
990.694180	2532.121165
990.990244	2531.796011
991.286271	2532.090918
991.582262	2532.544622
991.878217	2534.087215
992.174136	2534.077133
992.470019	2531.193593
992.765865	2533.492359
993.061676	2532.640404
993.357450	2530.608819
993.653188	2531.198634
993.948890	2532.892462
994.244556	2531.929602
994.540186	2535.193749
994.835780	2532.544622
995.131337	2532.748789
995.426859	2534.742565
995.722345	2532.766433
996.017795	2534.767771
996.313208	2536.214582
996.608586	2538.162988
996.903928	2536.940508
997.199234	2537.041332
997.494504	2534.808100
997.789738	2538.583925
998.084936	2535.922195
998.380099	2532.577390
998.675225	2533.925898
998.970316	2533.643594
999.265371	2535.498738
999.560390	2532.837009
999.855373	2535.523944
1000.150320	2533.386495
1000.445232	2532.786598
1000.740108	2531.349869
1001.034948	2530.399611
1001.329752	2532.620240
1001.624521	2533.141999
1001.919254	2525.570186
1002.213951	2527.231246
1002.508613	2526.311236
1002.803239	2530.840712
1003.097829	2527.319466
1003.392384	2530.341638
1003.686903	2532.025383
1003.981386	2530.802904
1004.275834	2531.002029
1004.570246	2531.082688
1004.864623	2532.779036
1005.158964	2529.030938
1005.453270	2528.400794
1005.747540	2530.888603
1006.041775	2529.474560
1006.335974	2530.442461
1006.630138	2530.205527
1006.924266	2527.316946
1007.218359	2529.066226
1007.512416	2530.102183
1007.806438	2533.416742
1008.100425	2528.640249
1008.394376	2526.938859
1008.688292	2530.976823
1008.982172	2527.795855
1009.276017	2528.025228
1009.569827	2527.016997
1009.863602	2532.980682
1010.157341	2527.594209
1010.451045	2530.790301
1010.744714	2528.113448
1011.038347	2531.934643
1011.331945	2527.856349
1011.625508	2528.380629
1011.919036	2531.773326
1012.212528	2531.480939
1012.505986	2530.931453
1012.799408	2528.143695
1013.092795	2532.748789
1013.386147	2530.205527
1013.679464	2530.744930
1013.972745	2528.156298
1014.265992	2526.606143
1014.559204	2531.831299
1014.852380	2530.888603
1015.145521	2530.134951
1015.438628	2528.579755
1015.731699	2534.140147
1016.024736	2530.838192
1016.317737	2530.308871
1016.610703	2530.076977
1016.903635	2526.578417
1017.196531	2525.297964
1017.489393	2528.395753
1017.782219	2524.065402
1018.075011	2529.530012
1018.367768	2529.903058
1018.660490	2530.165198
1018.953177	2530.165198
1019.245829	2530.165198
