Dividing Wavelength (nm)	Counts (n)	Blue Motor Position (mm): 0.000000	Red Motor Position (mm): 0.500000	
326.493990	2107.202308
326.888308	2107.202308
327.282561	2107.202308
327.676750	2155.093269
328.070874	2097.120000
328.464933	2076.955385
328.858929	2139.969808
329.252859	2104.681731
329.646726	2069.393654
330.040528	2087.037692
330.434265	2041.667308
330.827938	2132.408077
331.221547	2145.010962
331.615091	2288.683846
332.008571	2208.025385
332.401986	2160.134423
332.795338	2245.834038
333.188625	2240.792885
333.581847	2233.231154
333.975006	2233.231154
334.368100	2288.683846
334.761129	2306.327885
335.154095	2364.301154
335.546996	2276.080962
335.939833	2381.945192
336.332606	2439.918462
336.725315	2321.451346
337.117960	2402.109808
337.510540	2432.356731
337.903056	2419.753846
338.295508	2475.206538
338.687896	2364.301154
339.080220	2555.865000
339.472480	2540.741538
339.864676	2429.836154
340.256807	2583.591346
340.648875	2412.192115
341.040879	2432.356731
341.432818	2470.165385
341.824694	2555.865000
342.216506	2520.576923
342.608253	2495.371154
342.999937	2444.959615
343.391557	2495.371154
343.783113	2487.809423
344.174605	2450.000769
344.566033	2533.179808
344.957397	2452.521346
345.348697	2442.439038
345.739934	2467.644808
346.131106	2424.795000
346.522215	2485.288846
346.913260	2409.671538
347.304241	2450.000769
347.695159	2462.603654
348.086012	2462.603654
348.476802	2543.262115
348.867528	2379.424615
349.258191	2444.959615
349.648789	2505.453462
350.039324	2404.630385
350.429796	2560.906154
350.820203	2394.548077
351.210548	2502.932885
351.600828	2437.397885
351.991045	2523.097500
352.381198	2515.535769
352.771288	2412.192115
353.161314	2399.589231
353.551276	2492.850577
353.941175	2455.041923
354.331010	2513.015192
354.720782	2409.671538
355.110490	2520.576923
355.500135	2429.836154
355.889717	2452.521346
356.279235	2500.412308
356.668689	2384.465769
357.058080	2444.959615
357.447408	2465.124231
357.836672	2490.330000
358.225873	2460.083077
358.615010	2341.615962
359.004084	2432.356731
359.393095	2437.397885
359.782043	2439.918462
360.170927	2359.260000
360.559748	2490.330000
360.948505	2470.165385
361.337199	2472.685962
361.725830	2434.877308
362.114398	2450.000769
362.502903	2460.083077
362.891344	2424.795000
363.279722	2384.465769
363.668037	2492.850577
364.056289	2424.795000
364.444478	2485.288846
364.832603	2417.233269
365.220665	2543.262115
365.608665	2429.836154
365.996601	2402.109808
366.384474	2543.262115
366.772284	2472.685962
367.160031	2560.906154
367.547715	2515.535769
367.935336	2409.671538
368.322893	2424.795000
368.710388	2485.288846
369.097820	2520.576923
369.485189	2437.397885
369.872495	2485.288846
370.259738	2361.780577
370.646918	2528.138654
371.034035	2455.041923
371.421090	2518.056346
371.808081	2402.109808
372.195010	2465.124231
372.581875	2497.891731
372.968678	2467.644808
373.355418	2412.192115
373.742096	2419.753846
374.128710	2412.192115
374.515262	2432.356731
374.901751	2417.233269
375.288177	2465.124231
375.674540	2323.971923
376.060841	2480.247692
376.447079	2455.041923
376.833254	2462.603654
377.219367	2427.315577
377.605417	2467.644808
377.991404	2485.288846
378.377329	2437.397885
378.763191	2434.877308
379.148991	2487.809423
379.534727	2447.480192
379.920402	2523.097500
380.306013	2492.850577
380.691563	2457.562500
381.077049	2437.397885
381.462474	2472.685962
381.847835	2510.494615
382.233134	2460.083077
382.618371	2492.850577
383.003545	2477.727115
383.388657	2510.494615
383.773706	2439.918462
384.158693	2399.589231
384.543618	2480.247692
384.928480	2578.550192
385.313280	2500.412308
385.698017	2480.247692
386.082692	2394.548077
386.467305	2460.083077
386.851856	2548.303269
387.236344	2475.206538
387.620770	2394.548077
388.005133	2497.891731
388.389435	2510.494615
388.773674	2422.274423
389.157851	2487.809423
389.541965	2402.109808
389.926018	2447.480192
390.310008	2500.412308
390.693936	2490.330000
391.077802	2427.315577
391.461606	2480.247692
391.845348	2467.644808
392.229027	2505.453462
392.612645	2419.753846
392.996200	2447.480192
393.379694	2460.083077
393.763125	2538.220962
394.146494	2487.809423
394.529801	2394.548077
394.913047	2507.974038
395.296230	2419.753846
395.679351	2437.397885
396.062410	2482.768269
396.445408	2407.150962
396.828343	2553.344423
397.211217	2540.741538
397.594028	2528.138654
397.976778	2455.041923
398.359466	2402.109808
398.742092	2510.494615
399.124656	2444.959615
399.507158	2407.150962
399.889598	2467.644808
400.271977	2480.247692
400.654294	2505.453462
401.036549	2518.056346
401.418742	2437.397885
401.800874	2472.685962
402.182944	2439.918462
402.564952	2467.644808
402.946898	2492.850577
403.328783	2417.233269
403.710606	2470.165385
404.092367	2414.712692
404.474067	2533.179808
404.855705	2490.330000
405.237282	2513.015192
405.618797	2525.618077
406.000250	2457.562500
406.381642	2500.412308
406.762972	2555.865000
407.144240	2500.412308
407.525447	2487.809423
407.906593	2513.015192
408.287677	2510.494615
408.668700	2402.109808
409.049661	2414.712692
409.430560	2497.891731
409.811399	2480.247692
410.192176	2520.576923
410.572891	2439.918462
410.953545	2447.480192
411.334138	2437.397885
411.714669	2460.083077
412.095139	2490.330000
412.475547	2409.671538
412.855894	2513.015192
413.236180	2487.809423
413.616405	2470.165385
413.996568	2480.247692
414.376670	2460.083077
414.756711	2465.124231
415.136691	2528.138654
415.516609	2450.000769
415.896466	2550.823846
416.276262	2470.165385
416.655997	2457.562500
417.035670	2502.932885
417.415283	2460.083077
417.794834	2470.165385
418.174324	2495.371154
418.553753	2452.521346
418.933121	2470.165385
419.312428	2490.330000
419.691674	2540.741538
420.070859	2447.480192
420.449983	2460.083077
420.829045	2480.247692
421.208047	2485.288846
421.586988	2460.083077
421.965867	2538.220962
422.344686	2495.371154
422.723444	2429.836154
423.102141	2412.192115
423.480777	2480.247692
423.859352	2538.220962
424.237866	2553.344423
424.616319	2550.823846
424.994712	2500.412308
425.373044	2495.371154
425.751314	2487.809423
426.129524	2550.823846
426.507673	2439.918462
426.885762	2424.795000
427.263789	2477.727115
427.641756	2573.509038
428.019662	2455.041923
428.397508	2460.083077
428.775292	2518.056346
429.153016	2518.056346
429.530679	2485.288846
429.908282	2568.467885
430.285824	2560.906154
430.663305	2518.056346
431.040726	2477.727115
431.418086	2513.015192
431.795385	2523.097500
432.172624	2439.918462
432.549802	2588.632500
432.926920	2487.809423
433.303977	2520.576923
433.680974	2470.165385
434.057910	2490.330000
434.434786	2497.891731
434.811601	2563.426731
435.188355	2455.041923
435.565050	2470.165385
435.941683	2444.959615
436.318257	2437.397885
436.694770	2470.165385
437.071222	2412.192115
437.447614	2505.453462
437.823946	2412.192115
438.200218	2568.467885
438.576429	2500.412308
438.952580	2525.618077
439.328670	2477.727115
439.704700	2555.865000
440.080670	2513.015192
440.456580	2399.589231
440.832429	2533.179808
441.208218	2543.262115
441.583947	2507.974038
441.959616	2540.741538
442.335224	2470.165385
442.710773	2500.412308
443.086261	2505.453462
443.461689	2603.755962
443.837057	2490.330000
444.212365	2560.906154
444.587612	2495.371154
444.962800	2497.891731
445.337927	2530.659231
445.712995	2475.206538
446.088002	2404.630385
446.462949	2523.097500
446.837837	2513.015192
447.212664	2470.165385
447.587431	2528.138654
447.962139	2482.768269
448.336786	2540.741538
448.711374	2500.412308
449.085901	2500.412308
449.460369	2477.727115
449.834776	2510.494615
450.209124	2465.124231
450.583412	2444.959615
450.957640	2389.506923
451.331808	2523.097500
451.705917	2475.206538
452.079965	2447.480192
452.453954	2442.439038
452.827883	2460.083077
453.201752	2460.083077
453.575562	2528.138654
453.949311	2518.056346
454.323001	2535.700385
454.696632	2414.712692
455.070202	2530.659231
455.443713	2452.521346
455.817164	2523.097500
456.190556	2507.974038
456.563888	2487.809423
456.937160	2460.083077
457.310373	2495.371154
457.683526	2470.165385
458.056619	2558.385577
458.429653	2432.356731
458.802628	2535.700385
459.175542	2507.974038
459.548398	2560.906154
459.921194	2548.303269
460.293930	2530.659231
460.666607	2528.138654
461.039224	2523.097500
461.411782	2641.564615
461.784280	2492.850577
462.156719	2510.494615
462.529099	2422.274423
462.901419	2495.371154
463.273680	2520.576923
463.645882	2530.659231
464.018024	2520.576923
464.390106	2510.494615
464.762130	2533.179808
465.134094	2525.618077
465.505999	2505.453462
465.877845	2540.741538
466.249631	2460.083077
466.621358	2450.000769
466.993026	2482.768269
467.364634	2427.315577
467.736184	2535.700385
468.107674	2525.618077
468.479105	2480.247692
468.850477	2510.494615
469.221790	2402.109808
469.593043	2497.891731
469.964238	2533.179808
470.335373	2525.618077
470.706449	2535.700385
471.077467	2409.671538
471.448425	2548.303269
471.819324	2505.453462
472.190164	2472.685962
472.560945	2518.056346
472.931667	2515.535769
473.302330	2593.673654
473.672934	2472.685962
474.043479	2495.371154
474.413965	2462.603654
474.784393	2502.932885
475.154761	2475.206538
475.525070	2490.330000
475.895321	2492.850577
476.265513	2500.412308
476.635645	2540.741538
477.005719	2563.426731
477.375734	2510.494615
477.745691	2540.741538
478.115588	2444.959615
478.485427	2500.412308
478.855207	2475.206538
479.224928	2344.136538
479.594591	2434.877308
479.964194	2518.056346
480.333739	2495.371154
480.703226	2467.644808
481.072653	2538.220962
481.442022	2528.138654
481.811333	2523.097500
482.180584	2467.644808
482.549777	2518.056346
482.918912	2427.315577
483.287988	2578.550192
483.657005	2394.548077
484.025964	2497.891731
484.394864	2492.850577
484.763706	2538.220962
485.132489	2437.397885
485.501213	2497.891731
485.869879	2497.891731
486.238487	2419.753846
486.607036	2528.138654
486.975527	2452.521346
487.343959	2467.644808
487.712333	2502.932885
488.080648	2515.535769
488.448905	2507.974038
488.817104	2485.288846
489.185244	2477.727115
489.553326	2535.700385
489.921350	2472.685962
490.289315	2407.150962
490.657222	2397.068654
491.025070	2462.603654
491.392861	2497.891731
491.760593	2535.700385
492.128267	2528.138654
492.495883	2553.344423
492.863440	2515.535769
493.230939	2507.974038
493.598380	2543.262115
493.965763	2467.644808
494.333088	2520.576923
494.700354	2487.809423
495.067563	2563.426731
495.434713	2520.576923
495.801805	2492.850577
496.168839	2520.576923
496.535815	2467.644808
496.902733	2470.165385
497.269593	2515.535769
497.636395	2475.206538
498.003139	2500.412308
498.369825	2467.644808
498.736453	2525.618077
499.103023	2407.150962
499.469535	2518.056346
499.835989	2535.700385
500.202385	2452.521346
500.568723	2513.015192
500.935003	2407.150962
501.301226	2518.056346
501.667390	2548.303269
502.033497	2565.947308
502.399546	2470.165385
502.765537	2543.262115
503.131470	2502.932885
503.497345	2608.797115
503.863163	2502.932885
504.228923	2495.371154
504.594625	2540.741538
504.960269	2485.288846
505.325856	2442.439038
505.691385	2545.782692
506.056856	2507.974038
506.422270	2565.947308
506.787625	2507.974038
507.152924	2490.330000
507.518164	2427.315577
507.883347	2518.056346
508.248472	2502.932885
508.613540	2543.262115
508.978550	2525.618077
509.343503	2513.015192
509.708398	2462.603654
510.073236	2535.700385
510.438016	2439.918462
510.802738	2472.685962
511.167403	2480.247692
511.532010	2530.659231
511.896561	2487.809423
512.261053	2520.576923
512.625488	2460.083077
512.989866	2540.741538
513.354186	2490.330000
513.718449	2563.426731
514.082655	2475.206538
514.446803	2480.247692
514.810894	2565.947308
515.174927	2550.823846
515.538904	2475.206538
515.902822	2497.891731
516.266684	2485.288846
516.630488	2533.179808
516.994235	2576.029615
517.357925	2558.385577
517.721558	2477.727115
518.085133	2477.727115
518.448651	2535.700385
518.812112	2477.727115
519.175516	2472.685962
519.538863	2598.714808
519.902152	2492.850577
520.265385	2588.632500
520.628560	2437.397885
520.991678	2490.330000
521.354739	2467.644808
521.717743	2455.041923
522.080690	2472.685962
522.443580	2548.303269
522.806413	2540.741538
523.169189	2432.356731
523.531908	2432.356731
523.894569	2465.124231
524.257174	2553.344423
524.619722	2399.589231
524.982213	2475.206538
525.344647	2455.041923
525.707025	2452.521346
526.069345	2535.700385
526.431608	2465.124231
526.793815	2457.562500
527.155964	2513.015192
527.518057	2485.288846
527.880093	2513.015192
528.242072	2563.426731
528.603995	2548.303269
528.965860	2515.535769
529.327669	2538.220962
529.689421	2455.041923
530.051117	2515.535769
530.412755	2447.480192
530.774337	2543.262115
531.135862	2518.056346
531.497331	2553.344423
531.858743	2502.932885
532.220098	2457.562500
532.581396	2515.535769
532.942638	2477.727115
533.303824	2450.000769
533.664953	2535.700385
534.026025	2507.974038
534.387040	2528.138654
534.747999	2452.521346
535.108902	2520.576923
535.469748	2588.632500
535.830537	2442.439038
536.191270	2507.974038
536.551947	2495.371154
536.912567	2439.918462
537.273131	2492.850577
537.633638	2525.618077
537.994089	2518.056346
538.354483	2518.056346
538.714821	2409.671538
539.075103	2525.618077
539.435328	2533.179808
539.795497	2568.467885
540.155609	2447.480192
540.515665	2460.083077
540.875665	2573.509038
541.235609	2480.247692
541.595496	2518.056346
541.955328	2497.891731
542.315102	2379.424615
542.674821	2439.918462
543.034483	2470.165385
543.394090	2518.056346
543.753640	2477.727115
544.113134	2510.494615
544.472571	2515.535769
544.831953	2525.618077
545.191278	2462.603654
545.550548	2477.727115
545.909761	2601.235385
546.268918	2513.015192
546.628019	2603.755962
546.987064	2485.288846
547.346053	2442.439038
547.704986	2490.330000
548.063863	2465.124231
548.422684	2455.041923
548.781449	2513.015192
549.140158	2460.083077
549.498811	2550.823846
549.857408	2523.097500
550.215949	2507.974038
550.574434	2510.494615
550.932864	2500.412308
551.291237	2480.247692
551.649555	2450.000769
552.007817	2477.727115
552.366022	2495.371154
552.724173	2596.194231
553.082267	2424.795000
553.440305	2505.453462
553.798288	2452.521346
554.156215	2568.467885
554.514086	2442.439038
554.871902	2482.768269
555.229661	2507.974038
555.587365	2475.206538
555.945014	2497.891731
556.302606	2510.494615
556.660143	2485.288846
557.017625	2462.603654
557.375050	2523.097500
557.732421	2447.480192
558.089735	2591.153077
558.446994	2558.385577
558.804197	2475.206538
559.161345	2450.000769
559.518437	2487.809423
559.875474	2480.247692
560.232455	2533.179808
560.589381	2623.920577
560.946251	2505.453462
561.303065	2518.056346
561.659825	2510.494615
562.016528	2596.194231
562.373177	2520.576923
562.729770	2518.056346
563.086307	2518.056346
563.442789	2480.247692
563.799216	2492.850577
564.155587	2550.823846
564.511904	2467.644808
564.868164	2492.850577
565.224370	2495.371154
565.580520	2485.288846
565.936615	2565.947308
566.292654	2462.603654
566.648638	2505.453462
567.004567	2528.138654
567.360441	2487.809423
567.716260	2492.850577
568.072023	2495.371154
568.427732	2462.603654
568.783385	2513.015192
569.138982	2502.932885
569.494525	2495.371154
569.850013	2538.220962
570.205445	2550.823846
570.560823	2550.823846
570.916145	2545.782692
571.271412	2548.303269
571.626625	2432.356731
571.981782	2520.576923
572.336884	2530.659231
572.691931	2528.138654
573.046923	2492.850577
573.401860	2515.535769
573.756743	2520.576923
574.111570	2470.165385
574.466342	2507.974038
574.821059	2465.124231
575.175722	2593.673654
575.530330	2500.412308
575.884882	2444.959615
576.239380	2553.344423
576.593823	2397.068654
576.948211	2480.247692
577.302544	2500.412308
577.656823	2482.768269
578.011047	2606.276538
578.365216	2502.932885
578.719330	2535.700385
579.073389	2460.083077
579.427394	2545.782692
579.781344	2523.097500
580.135239	2540.741538
580.489080	2482.768269
580.842866	2475.206538
581.196597	2482.768269
581.550273	2540.741538
581.903895	2455.041923
582.257463	2525.618077
582.610975	2472.685962
582.964434	2515.535769
583.317837	2470.165385
583.671186	2538.220962
584.024481	2477.727115
584.377721	2500.412308
584.730906	2502.932885
585.084037	2505.453462
585.437113	2523.097500
585.790135	2462.603654
586.143103	2505.453462
586.496016	2540.741538
586.848874	2543.262115
587.201679	2480.247692
587.554428	2510.494615
587.907124	2487.809423
588.259765	2581.070769
588.612352	2520.576923
588.964884	2475.206538
589.317362	2505.453462
589.669786	2487.809423
590.022155	2510.494615
590.374470	2475.206538
590.726731	2568.467885
591.078937	2533.179808
591.431090	2422.274423
591.783188	2455.041923
592.135232	2487.809423
592.487222	2513.015192
592.839157	2545.782692
593.191038	2565.947308
593.542866	2558.385577
593.894639	2497.891731
594.246358	2525.618077
594.598022	2507.974038
594.949633	2523.097500
595.301190	2538.220962
595.652692	2573.509038
596.004141	2497.891731
596.355535	2528.138654
596.706876	2535.700385
597.058162	2472.685962
597.409395	2520.576923
597.760573	2432.356731
598.111698	2497.891731
598.462768	2437.397885
598.813785	2525.618077
599.164748	2470.165385
599.515657	2444.959615
599.866511	2492.850577
600.217312	2507.974038
600.568060	2447.480192
600.918753	2565.947308
601.269392	2563.426731
601.619978	2455.041923
601.970510	2477.727115
602.320988	2507.974038
602.671412	2452.521346
603.021783	2444.959615
603.372100	2482.768269
603.722363	2472.685962
604.072572	2427.315577
604.422728	2470.165385
604.772830	2523.097500
605.122878	2490.330000
605.472872	2490.330000
605.822813	2482.768269
606.172701	2510.494615
606.522534	2500.412308
606.872314	2500.412308
607.222041	2455.041923
607.571714	2470.165385
607.921333	2560.906154
608.270899	2525.618077
608.620411	2490.330000
608.969870	2492.850577
609.319276	2515.535769
609.668627	2434.877308
610.017926	2533.179808
610.367171	2591.153077
610.716362	2434.877308
611.065500	2543.262115
611.414585	2548.303269
611.763616	2565.947308
612.112594	2545.782692
612.461518	2437.397885
612.810389	2470.165385
613.159207	2518.056346
613.507971	2507.974038
613.856682	2518.056346
614.205340	2447.480192
614.553945	2515.535769
614.902496	2563.426731
615.250994	2518.056346
615.599439	2497.891731
615.947830	2507.974038
616.296169	2447.480192
616.644454	2545.782692
616.992686	2447.480192
617.340864	2442.439038
617.688990	2447.480192
618.037063	2452.521346
618.385082	2568.467885
618.733048	2507.974038
619.080961	2510.494615
619.428821	2538.220962
619.776628	2510.494615
620.124382	2548.303269
620.472083	2492.850577
620.819731	2485.288846
621.167326	2518.056346
621.514868	2490.330000
621.862357	2487.809423
622.209793	2475.206538
622.557176	2472.685962
622.904506	2528.138654
623.251783	2465.124231
623.599007	2502.932885
623.946179	2477.727115
624.293297	2525.618077
624.640363	2598.714808
624.987376	2432.356731
625.334336	2505.453462
625.681243	2543.262115
626.028097	2442.439038
626.374899	2528.138654
626.721647	2465.124231
627.068343	2497.891731
627.414987	2450.000769
627.761577	2439.918462
628.108115	2462.603654
628.454600	2523.097500
628.801032	2487.809423
629.147412	2394.548077
629.493739	2505.453462
629.840014	2485.288846
630.186236	2444.959615
630.532405	2477.727115
630.878521	2528.138654
631.224585	2457.562500
631.570597	2528.138654
631.916556	2558.385577
632.262462	2553.344423
632.608316	2452.521346
632.954117	2518.056346
633.299866	2523.097500
633.645562	2538.220962
633.991206	2434.877308
634.336797	2480.247692
634.682336	2563.426731
635.027823	2520.576923
635.373257	2583.591346
635.718639	2502.932885
636.063968	2495.371154
636.409245	2510.494615
636.754470	2520.576923
637.099642	2470.165385
637.444762	2455.041923
637.789829	2588.632500
638.134845	2495.371154
638.479808	2545.782692
638.824719	2485.288846
639.169577	2528.138654
639.514383	2507.974038
639.859137	2533.179808
640.203839	2482.768269
640.548489	2487.809423
640.893086	2427.315577
641.237632	2452.521346
641.582125	2545.782692
641.926566	2525.618077
642.270955	2513.015192
642.615292	2482.768269
642.959576	2505.453462
643.303809	2507.974038
643.647990	2482.768269
643.992118	2465.124231
644.336195	2404.630385
644.680219	2513.015192
645.024192	2502.932885
645.368112	2510.494615
645.711981	2553.344423
646.055797	2487.809423
646.399562	2515.535769
646.743274	2495.371154
647.086935	2505.453462
647.430544	2520.576923
647.774101	2422.274423
648.117606	2538.220962
648.461059	2492.850577
648.804460	2518.056346
649.147810	2565.947308
649.491108	2414.712692
649.834354	2497.891731
650.177548	2601.235385
650.520690	2568.467885
650.863781	2593.673654
651.206820	2538.220962
651.549807	2608.797115
651.892742	2485.288846
652.235626	2467.644808
652.578458	2490.330000
652.921238	2553.344423
653.263967	2447.480192
653.606644	2502.932885
653.949269	2472.685962
654.291843	2429.836154
654.634365	2565.947308
654.976836	2492.850577
655.319255	2520.576923
655.661622	2525.618077
656.003938	2394.548077
656.346203	2502.932885
656.688416	2505.453462
657.030577	2510.494615
657.372687	2447.480192
657.714746	2502.932885
658.056753	2424.795000
658.398708	2462.603654
658.740612	2611.317692
659.082465	2477.727115
659.424266	2530.659231
659.766016	2497.891731
660.107715	2591.153077
660.449362	2480.247692
660.790958	2598.714808
661.132503	2455.041923
661.473996	2528.138654
661.815438	2450.000769
662.156829	2520.576923
662.498168	2487.809423
662.839456	2447.480192
663.180693	2467.644808
663.521879	2500.412308
663.863013	2586.111923
664.204097	2427.315577
664.545129	2452.521346
664.886110	2482.768269
665.227040	2550.823846
665.567918	2553.344423
665.908746	2543.262115
666.249522	2364.301154
666.590248	2565.947308
666.930922	2414.712692
667.271545	2460.083077
667.612118	2540.741538
667.952639	2477.727115
668.293109	2528.138654
668.633528	2452.521346
668.973896	2530.659231
669.314213	2591.153077
669.654480	2502.932885
669.994695	2507.974038
670.334859	2560.906154
670.674973	2520.576923
671.015035	2500.412308
671.355047	2455.041923
671.695008	2538.220962
672.034918	2505.453462
672.374777	2470.165385
672.714585	2530.659231
673.054342	2518.056346
673.394049	2417.233269
673.733705	2482.768269
674.073310	2470.165385
674.412864	2560.906154
674.752368	2543.262115
675.091820	2392.027500
675.431223	2444.959615
675.770574	2490.330000
676.109875	2465.124231
676.449125	2530.659231
676.788324	2480.247692
677.127473	2568.467885
677.466571	2500.412308
677.805619	2518.056346
678.144616	2455.041923
678.483562	2550.823846
678.822458	2492.850577
679.161303	2510.494615
679.500098	2482.768269
679.838842	2482.768269
680.177535	2490.330000
680.516179	2505.453462
680.854771	2530.659231
681.193314	2485.288846
681.531805	2560.906154
681.870247	2450.000769
682.208638	2467.644808
682.546978	2495.371154
682.885268	2482.768269
683.223508	2404.630385
683.561697	2530.659231
683.899836	2472.685962
684.237925	2538.220962
684.575963	2475.206538
684.913951	2548.303269
685.251889	2550.823846
685.589776	2495.371154
685.927614	2507.974038
686.265401	2563.426731
686.603137	2462.603654
686.940824	2485.288846
687.278460	2507.974038
687.616046	2497.891731
687.953582	2540.741538
688.291068	2515.535769
688.628504	2472.685962
688.965889	2533.179808
689.303224	2507.974038
689.640510	2525.618077
689.977745	2492.850577
690.314930	2576.029615
690.652065	2485.288846
690.989150	2492.850577
691.326185	2467.644808
691.663170	2485.288846
692.000105	2502.932885
692.336990	2492.850577
692.673825	2480.247692
693.010610	2407.150962
693.347345	2487.809423
693.684030	2535.700385
694.020665	2470.165385
694.357251	2545.782692
694.693786	2432.356731
695.030272	2432.356731
695.366707	2472.685962
695.703093	2505.453462
696.039429	2472.685962
696.375716	2465.124231
696.711952	2586.111923
697.048139	2550.823846
697.384276	2477.727115
697.720363	2505.453462
698.056400	2487.809423
698.392388	2548.303269
698.728326	2505.453462
699.064214	2497.891731
699.400053	2457.562500
699.735842	2563.426731
700.071581	2523.097500
700.407270	2502.932885
700.742910	2452.521346
701.078501	2513.015192
701.414042	2470.165385
701.749533	2495.371154
702.084974	2500.412308
702.420366	2515.535769
702.755709	2621.400000
703.091002	2570.988462
703.426246	2467.644808
703.761440	2550.823846
704.096584	2518.056346
704.431679	2535.700385
704.766725	2434.877308
705.101721	2507.974038
705.436668	2581.070769
705.771565	2518.056346
706.106413	2497.891731
706.441212	2487.809423
706.775961	2528.138654
707.110661	2591.153077
707.445311	2462.603654
707.779913	2543.262115
708.114465	2487.809423
708.448967	2528.138654
708.783421	2394.548077
709.117825	2450.000769
709.452180	2475.206538
709.786485	2472.685962
710.120742	2502.932885
710.454949	2548.303269
710.789107	2475.206538
711.123216	2467.644808
711.457275	2520.576923
711.791286	2505.453462
712.125247	2573.509038
712.459159	2447.480192
712.793023	2553.344423
713.126837	2485.288846
713.460602	2507.974038
713.794318	2540.741538
714.127985	2457.562500
714.461602	2500.412308
714.795171	2502.932885
715.128691	2513.015192
715.462162	2581.070769
715.795584	2452.521346
716.128957	2490.330000
716.462281	2409.671538
716.795556	2465.124231
717.128782	2490.330000
717.461960	2515.535769
717.795088	2545.782692
718.128167	2500.412308
718.461198	2462.603654
718.794180	2470.165385
719.127113	2518.056346
719.459997	2452.521346
719.792833	2550.823846
720.125619	2439.918462
720.458357	2480.247692
720.791046	2447.480192
721.123686	2485.288846
721.456278	2525.618077
721.788821	2470.165385
722.121315	2515.535769
722.453761	2523.097500
722.786158	2548.303269
723.118506	2467.644808
723.450805	2525.618077
723.783056	2598.714808
724.115259	2621.400000
724.447412	2578.550192
724.779518	2502.932885
725.111574	2477.727115
725.443582	2477.727115
725.775542	2439.918462
726.107453	2502.932885
726.439315	2500.412308
726.771129	2528.138654
727.102895	2467.644808
727.434612	2439.918462
727.766281	2525.618077
728.097901	2490.330000
728.429473	2502.932885
728.760996	2472.685962
729.092471	2450.000769
729.423897	2548.303269
729.755276	2490.330000
730.086606	2570.988462
730.417887	2455.041923
730.749120	2510.494615
731.080305	2487.809423
731.411442	2500.412308
731.742530	2434.877308
732.073570	2492.850577
732.404562	2460.083077
732.735506	2518.056346
733.066401	2475.206538
733.397249	2482.768269
733.728048	2450.000769
734.058798	2510.494615
734.389501	2492.850577
734.720156	2528.138654
735.050762	2485.288846
735.381320	2560.906154
735.711831	2455.041923
736.042293	2500.412308
736.372707	2437.397885
736.703073	2543.262115
737.033391	2455.041923
737.363661	2477.727115
737.693883	2545.782692
738.024056	2507.974038
738.354182	2581.070769
738.684260	2422.274423
739.014290	2543.262115
739.344272	2573.509038
739.674207	2457.562500
740.004093	2535.700385
740.333931	2510.494615
740.663722	2495.371154
740.993464	2439.918462
741.323159	2563.426731
741.652806	2528.138654
741.982405	2460.083077
742.311956	2502.932885
742.641460	2465.124231
742.970915	2475.206538
743.300323	2502.932885
743.629683	2570.988462
743.958996	2550.823846
744.288260	2502.932885
744.617477	2477.727115
744.946647	2460.083077
745.275768	2565.947308
745.604842	2611.317692
745.933869	2530.659231
746.262847	2432.356731
746.591778	2525.618077
746.920662	2543.262115
747.249498	2530.659231
747.578286	2565.947308
747.907027	2455.041923
748.235720	2533.179808
748.564365	2424.795000
748.892963	2424.795000
749.221514	2507.974038
749.550017	2447.480192
749.878473	2535.700385
750.206881	2603.755962
750.535242	2578.550192
750.863555	2553.344423
751.191821	2543.262115
751.520039	2538.220962
751.848210	2480.247692
752.176334	2538.220962
752.504411	2510.494615
752.832440	2510.494615
753.160421	2477.727115
753.488356	2480.247692
753.816243	2583.591346
754.144082	2455.041923
754.471875	2495.371154
754.799620	2457.562500
755.127318	2520.576923
755.454969	2535.700385
755.782572	2528.138654
756.110129	2497.891731
756.437638	2462.603654
756.765100	2424.795000
757.092515	2467.644808
757.419882	2442.439038
757.747203	2497.891731
758.074477	2550.823846
758.401703	2467.644808
758.728882	2457.562500
759.056014	2475.206538
759.383099	2603.755962
759.710138	2510.494615
760.037129	2457.562500
760.364073	2558.385577
760.690970	2538.220962
761.017820	2434.877308
761.344623	2465.124231
761.671379	2502.932885
761.998088	2492.850577
762.324751	2442.439038
762.651366	2528.138654
762.977935	2538.220962
763.304456	2490.330000
763.630931	2601.235385
763.957359	2444.959615
764.283740	2497.891731
764.610074	2497.891731
764.936362	2525.618077
765.262602	2611.317692
765.588796	2452.521346
765.914943	2538.220962
766.241044	2553.344423
766.567097	2513.015192
766.893104	2490.330000
767.219064	2475.206538
767.544978	2442.439038
767.870845	2520.576923
768.196665	2475.206538
768.522438	2475.206538
768.848165	2482.768269
769.173846	2460.083077
769.499479	2480.247692
769.825066	2442.439038
770.150607	2533.179808
770.476101	2485.288846
770.801548	2581.070769
771.126949	2535.700385
771.452303	2530.659231
771.777611	2510.494615
772.102872	2538.220962
772.428087	2500.412308
772.753256	2452.521346
773.078378	2444.959615
773.403453	2525.618077
773.728482	2467.644808
774.053465	2560.906154
774.378401	2490.330000
774.703291	2528.138654
775.028135	2528.138654
775.352932	2518.056346
775.677683	2490.330000
776.002388	2535.700385
776.327046	2492.850577
776.651658	2502.932885
776.976224	2548.303269
777.300743	2394.548077
777.625216	2543.262115
777.949643	2495.371154
778.274024	2450.000769
778.598359	2482.768269
778.922647	2467.644808
779.246889	2485.288846
779.571086	2528.138654
779.895236	2495.371154
780.219339	2525.618077
780.543397	2573.509038
780.867409	2543.262115
781.191374	2502.932885
781.515294	2492.850577
781.839167	2618.879423
782.162995	2490.330000
782.486776	2460.083077
782.810511	2480.247692
783.134201	2465.124231
783.457844	2513.015192
783.781441	2475.206538
784.104993	2545.782692
784.428498	2490.330000
784.751958	2518.056346
785.075372	2434.877308
785.398739	2543.262115
785.722061	2477.727115
786.045337	2475.206538
786.368568	2452.521346
786.691752	2563.426731
787.014891	2495.371154
787.337983	2548.303269
787.661030	2553.344423
787.984031	2611.317692
788.306987	2550.823846
788.629897	2457.562500
788.952760	2492.850577
789.275579	2535.700385
789.598351	2475.206538
789.921078	2510.494615
790.243759	2472.685962
790.566395	2555.865000
790.888984	2452.521346
791.211529	2518.056346
791.534027	2495.371154
791.856480	2576.029615
792.178888	2497.891731
792.501249	2434.877308
792.823566	2528.138654
793.145836	2528.138654
793.468062	2497.891731
793.790241	2533.179808
794.112375	2437.397885
794.434464	2533.179808
794.756507	2447.480192
795.078505	2462.603654
795.400457	2530.659231
795.722364	2543.262115
796.044226	2525.618077
796.366042	2502.932885
796.687812	2434.877308
797.009538	2535.700385
797.331218	2500.412308
797.652852	2467.644808
797.974442	2586.111923
798.295986	2502.932885
798.617484	2528.138654
798.938938	2560.906154
799.260346	2477.727115
799.581709	2558.385577
799.903026	2424.795000
800.224299	2467.644808
800.545526	2586.111923
800.866708	2482.768269
801.187845	2507.974038
801.508936	2482.768269
801.829983	2573.509038
802.150984	2553.344423
802.471940	2414.712692
802.792851	2573.509038
803.113717	2591.153077
803.434538	2545.782692
803.755314	2439.918462
804.076045	2528.138654
804.396731	2475.206538
804.717372	2424.795000
805.037967	2518.056346
805.358518	2525.618077
805.679024	2437.397885
805.999485	2533.179808
806.319901	2553.344423
806.640272	2548.303269
806.960598	2442.439038
807.280879	2477.727115
807.601115	2515.535769
807.921306	2460.083077
808.241453	2487.809423
808.561554	2480.247692
808.881611	2497.891731
809.201623	2442.439038
809.521590	2560.906154
809.841513	2376.904038
810.161390	2545.782692
810.481223	2447.480192
810.801011	2545.782692
811.120755	2460.083077
811.440453	2497.891731
811.760107	2412.192115
812.079716	2487.809423
812.399281	2528.138654
812.718801	2515.535769
813.038276	2502.932885
813.357707	2460.083077
813.677093	2497.891731
813.996434	2487.809423
814.315731	2523.097500
814.634983	2485.288846
814.954191	2555.865000
815.273354	2497.891731
815.592473	2472.685962
815.911547	2470.165385
816.230577	2553.344423
816.549562	2477.727115
816.868502	2507.974038
817.187399	2490.330000
817.506250	2550.823846
817.825058	2465.124231
818.143821	2553.344423
818.462539	2427.315577
818.781213	2540.741538
819.099843	2439.918462
819.418429	2518.056346
819.736970	2520.576923
820.055466	2412.192115
820.373919	2520.576923
820.692327	2576.029615
821.010691	2553.344423
821.329011	2535.700385
821.647286	2434.877308
821.965517	2535.700385
822.283704	2392.027500
822.601847	2460.083077
822.919945	2402.109808
823.237999	2482.768269
823.556010	2492.850577
823.873976	2490.330000
824.191897	2505.453462
824.509775	2490.330000
824.827609	2495.371154
825.145398	2495.371154
825.463144	2560.906154
825.780845	2492.850577
826.098502	2475.206538
826.416116	2457.562500
826.733685	2528.138654
827.051210	2475.206538
827.368692	2500.412308
827.686129	2492.850577
828.003522	2497.891731
828.320872	2482.768269
828.638177	2568.467885
828.955439	2450.000769
829.272656	2450.000769
829.589830	2513.015192
829.906960	2540.741538
830.224046	2528.138654
830.541088	2465.124231
830.858086	2545.782692
831.175041	2570.988462
831.491952	2475.206538
831.808819	2462.603654
832.125642	2548.303269
832.442421	2528.138654
832.759157	2530.659231
833.075849	2457.562500
833.392497	2560.906154
833.709101	2533.179808
834.025662	2397.068654
834.342179	2560.906154
834.658653	2432.356731
834.975083	2475.206538
835.291469	2424.795000
835.607811	2502.932885
835.924110	2530.659231
836.240366	2485.288846
836.556578	2563.426731
836.872746	2518.056346
837.188871	2500.412308
837.504952	2470.165385
837.820990	2442.439038
838.136984	2611.317692
838.452935	2467.644808
838.768842	2480.247692
839.084706	2409.671538
839.400526	2505.453462
839.716303	2475.206538
840.032037	2548.303269
840.347727	2429.836154
840.663373	2586.111923
840.978977	2457.562500
841.294537	2457.562500
841.610054	2467.644808
841.925527	2505.453462
842.240957	2452.521346
842.556344	2497.891731
842.871687	2533.179808
843.186987	2497.891731
843.502244	2507.974038
843.817458	2550.823846
844.132629	2502.932885
844.447756	2505.453462
844.762840	2523.097500
845.077881	2528.138654
845.392879	2480.247692
845.707833	2465.124231
846.022745	2447.480192
846.337613	2515.535769
846.652438	2513.015192
846.967221	2530.659231
847.281960	2553.344423
847.596656	2487.809423
847.911309	2538.220962
848.225919	2480.247692
848.540485	2465.124231
848.855009	2586.111923
849.169490	2502.932885
849.483928	2558.385577
849.798323	2439.918462
850.112675	2492.850577
850.426984	2528.138654
850.741251	2535.700385
851.055474	2472.685962
851.369654	2525.618077
851.683792	2424.795000
851.997887	2492.850577
852.311938	2492.850577
852.625947	2500.412308
852.939914	2538.220962
853.253837	2492.850577
853.567718	2530.659231
853.881555	2470.165385
854.195350	2470.165385
854.509103	2472.685962
854.822812	2480.247692
855.136479	2475.206538
855.450103	2555.865000
855.763685	2475.206538
856.077224	2535.700385
856.390720	2535.700385
856.704173	2482.768269
857.017584	2477.727115
857.330953	2477.727115
857.644278	2543.262115
857.957561	2487.809423
858.270802	2515.535769
858.584000	2538.220962
858.897155	2447.480192
859.210268	2439.918462
859.523339	2422.274423
859.836367	2573.509038
860.149352	2457.562500
860.462295	2588.632500
860.775195	2490.330000
861.088054	2455.041923
861.400869	2455.041923
861.713642	2457.562500
862.026373	2452.521346
862.339062	2480.247692
862.651708	2543.262115
862.964312	2457.562500
863.276873	2558.385577
863.589392	2480.247692
863.901869	2475.206538
864.214303	2475.206538
864.526696	2528.138654
864.839045	2477.727115
865.151353	2555.865000
865.463619	2482.768269
865.775842	2548.303269
866.088023	2472.685962
866.400162	2553.344423
866.712258	2573.509038
867.024313	2530.659231
867.336325	2502.932885
867.648296	2495.371154
867.960224	2545.782692
868.272110	2545.782692
868.583954	2470.165385
868.895755	2450.000769
869.207515	2543.262115
869.519233	2432.356731
869.830909	2492.850577
870.142542	2450.000769
870.454134	2404.630385
870.765684	2525.618077
871.077191	2404.630385
871.388657	2510.494615
871.700081	2434.877308
872.011463	2497.891731
872.322803	2502.932885
872.634101	2538.220962
872.945357	2510.494615
873.256571	2568.467885
873.567744	2452.521346
873.878874	2455.041923
874.189963	2437.397885
874.501010	2409.671538
874.812015	2472.685962
875.122979	2560.906154
875.433900	2553.344423
875.744780	2462.603654
876.055618	2530.659231
876.366415	2364.301154
876.677169	2485.288846
876.987882	2596.194231
877.298554	2500.412308
877.609183	2490.330000
877.919771	2442.439038
878.230317	2422.274423
878.540822	2528.138654
878.851285	2535.700385
879.161707	2515.535769
879.472087	2475.206538
879.782425	2601.235385
880.092722	2563.426731
880.402977	2432.356731
880.713191	2513.015192
881.023363	2477.727115
881.333494	2565.947308
881.643583	2530.659231
881.953631	2550.823846
882.263637	2505.453462
882.573602	2538.220962
882.883526	2528.138654
883.193408	2490.330000
883.503248	2560.906154
883.813048	2533.179808
884.122806	2432.356731
884.432522	2472.685962
884.742197	2500.412308
885.051831	2424.795000
885.361424	2530.659231
885.670975	2470.165385
885.980485	2439.918462
886.289954	2444.959615
886.599382	2472.685962
886.908768	2510.494615
887.218113	2601.235385
887.527417	2535.700385
887.836680	2502.932885
888.145901	2460.083077
888.455082	2485.288846
888.764221	2470.165385
889.073319	2538.220962
889.382376	2510.494615
889.691392	2460.083077
890.000366	2482.768269
890.309300	2490.330000
890.618193	2502.932885
890.927044	2505.453462
891.235855	2495.371154
891.544625	2535.700385
891.853353	2480.247692
892.162041	2545.782692
892.470687	2578.550192
892.779293	2402.109808
893.087858	2422.274423
893.396381	2515.535769
893.704864	2437.397885
894.013306	2513.015192
894.321707	2480.247692
894.630068	2424.795000
894.938387	2507.974038
895.246665	2538.220962
895.554903	2485.288846
895.863100	2550.823846
896.171256	2472.685962
896.479371	2507.974038
896.787446	2492.850577
897.095480	2477.727115
897.403473	2455.041923
897.711425	2439.918462
898.019336	2543.262115
898.327207	2429.836154
898.635038	2482.768269
898.942827	2447.480192
899.250576	2515.535769
899.558284	2535.700385
899.865952	2480.247692
900.173579	2515.535769
900.481165	2482.768269
900.788711	2487.809423
901.096216	2502.932885
901.403681	2455.041923
901.711105	2492.850577
902.018489	2591.153077
902.325832	2477.727115
902.633135	2520.576923
902.940397	2502.932885
903.247619	2475.206538
903.554800	2475.206538
903.861941	2482.768269
904.169041	2485.288846
904.476101	2485.288846
904.783121	2523.097500
905.090100	2442.439038
905.397039	2505.453462
905.703938	2523.097500
906.010796	2462.603654
906.317614	2520.576923
906.624391	2490.330000
906.931129	2487.809423
907.237826	2520.576923
907.544483	2510.494615
907.851099	2581.070769
908.157675	2399.589231
908.464211	2523.097500
908.770707	2455.041923
909.077163	2515.535769
909.383578	2586.111923
909.689954	2495.371154
909.996289	2525.618077
910.302584	2543.262115
910.608839	2487.809423
910.915054	2538.220962
911.221229	2447.480192
911.527363	2528.138654
911.833458	2429.836154
912.139513	2487.809423
912.445527	2548.303269
912.751502	2558.385577
913.057436	2422.274423
913.363331	2525.618077
913.669186	2442.439038
913.975000	2477.727115
914.280775	2487.809423
914.586510	2470.165385
914.892205	2497.891731
915.197859	2515.535769
915.503475	2502.932885
915.809050	2533.179808
916.114585	2490.330000
916.420081	2558.385577
916.725536	2568.467885
917.030952	2500.412308
917.336328	2465.124231
917.641665	2505.453462
917.946961	2513.015192
918.252218	2507.974038
918.557435	2460.083077
918.862612	2507.974038
919.167750	2487.809423
919.472848	2470.165385
919.777906	2472.685962
920.082925	2505.453462
920.387904	2533.179808
920.692843	2492.850577
920.997743	2505.453462
921.302603	2525.618077
921.607423	2407.150962
921.912204	2495.371154
922.216946	2444.959615
922.521647	2553.344423
922.826310	2492.850577
923.130932	2502.932885
923.435516	2442.439038
923.740059	2457.562500
924.044564	2495.371154
924.349028	2535.700385
924.653454	2525.618077
924.957840	2525.618077
925.262186	2583.591346
925.566493	2462.603654
925.870761	2578.550192
926.174989	2507.974038
926.479178	2563.426731
926.783328	2495.371154
927.087438	2495.371154
927.391509	2467.644808
927.695541	2467.644808
927.999533	2450.000769
928.303486	2583.591346
928.607400	2477.727115
928.911275	2548.303269
929.215110	2482.768269
929.518906	2540.741538
929.822663	2470.165385
930.126381	2538.220962
930.430060	2502.932885
930.733699	2460.083077
931.037299	2530.659231
931.340861	2475.206538
931.644383	2548.303269
931.947866	2470.165385
932.251309	2470.165385
932.554714	2394.548077
932.858080	2462.603654
933.161407	2467.644808
933.464694	2455.041923
933.767943	2495.371154
934.071153	2492.850577
934.374323	2495.371154
934.677455	2492.850577
934.980548	2513.015192
935.283602	2477.727115
935.586617	2530.659231
935.889593	2427.315577
936.192530	2460.083077
936.495428	2480.247692
936.798287	2482.768269
937.101108	2465.124231
937.403890	2497.891731
937.706632	2450.000769
938.009336	2530.659231
938.312002	2490.330000
938.614628	2538.220962
938.917216	2502.932885
939.219765	2606.276538
939.522275	2475.206538
939.824747	2470.165385
940.127179	2528.138654
940.429573	2480.247692
940.731929	2502.932885
941.034246	2477.727115
941.336524	2450.000769
941.638763	2507.974038
941.940964	2495.371154
942.243126	2545.782692
942.545250	2482.768269
942.847335	2490.330000
943.149381	2497.891731
943.451389	2553.344423
943.753359	2472.685962
944.055290	2409.671538
944.357182	2485.288846
944.659036	2452.521346
944.960851	2490.330000
945.262628	2450.000769
945.564367	2505.453462
945.866067	2412.192115
946.167729	2495.371154
946.469352	2535.700385
946.770937	2444.959615
947.072484	2492.850577
947.373992	2505.453462
947.675462	2487.809423
947.976893	2477.727115
948.278286	2452.521346
948.579641	2505.453462
948.880958	2381.945192
949.182236	2492.850577
949.483476	2412.192115
949.784678	2465.124231
950.085841	2467.644808
950.386967	2525.618077
950.688054	2389.506923
950.989103	2581.070769
951.290114	2538.220962
951.591087	2507.974038
951.892021	2502.932885
952.192917	2540.741538
952.493776	2434.877308
952.794596	2412.192115
953.095378	2467.644808
953.396122	2490.330000
953.696828	2439.918462
953.997496	2507.974038
954.298126	2414.712692
954.598718	2502.932885
954.899272	2540.741538
955.199788	2394.548077
955.500266	2492.850577
955.800706	2477.727115
956.101108	2429.836154
956.401472	2520.576923
956.701798	2472.685962
957.002087	2520.576923
957.302337	2472.685962
957.602550	2550.823846
957.902724	2475.206538
958.202861	2460.083077
958.502960	2525.618077
958.803022	2480.247692
959.103045	2475.206538
959.403031	2538.220962
959.702979	2530.659231
960.002889	2452.521346
960.302762	2475.206538
960.602596	2487.809423
960.902393	2492.850577
961.202153	2414.712692
961.501875	2510.494615
961.801559	2397.068654
962.101205	2568.467885
962.400814	2480.247692
962.700385	2472.685962
962.999918	2485.288846
963.299414	2482.768269
963.598873	2487.809423
963.898293	2555.865000
964.197677	2414.712692
964.497022	2472.685962
964.796331	2495.371154
965.095601	2523.097500
965.394835	2462.603654
965.694030	2492.850577
965.993189	2374.383462
966.292309	2497.891731
966.591393	2460.083077
966.890439	2404.630385
967.189447	2500.412308
967.488419	2477.727115
967.787353	2487.809423
968.086249	2480.247692
968.385108	2452.521346
968.683930	2505.453462
968.982714	2467.644808
969.281462	2523.097500
969.580172	2465.124231
969.878844	2434.877308
970.177480	2492.850577
970.476078	2487.809423
970.774639	2530.659231
971.073162	2523.097500
971.371649	2467.644808
971.670098	2429.836154
971.968510	2457.562500
972.266885	2560.906154
972.565223	2560.906154
972.863524	2462.603654
973.161788	2545.782692
973.460014	2497.891731
973.758204	2500.412308
974.056356	2560.906154
974.354471	2444.959615
974.652550	2558.385577
974.950591	2513.015192
975.248595	2434.877308
975.546563	2520.576923
975.844493	2427.315577
976.142386	2507.974038
976.440243	2515.535769
976.738062	2518.056346
977.035845	2465.124231
977.333590	2533.179808
977.631299	2578.550192
977.928971	2568.467885
978.226606	2477.727115
978.524204	2533.179808
978.821765	2490.330000
979.119290	2538.220962
979.416777	2462.603654
979.714228	2502.932885
980.011642	2419.753846
980.309020	2545.782692
980.606360	2523.097500
980.903664	2475.206538
981.200931	2460.083077
981.498162	2565.947308
981.795356	2487.809423
982.092513	2530.659231
982.389633	2502.932885
982.686717	2495.371154
982.983764	2553.344423
983.280775	2507.974038
983.577749	2535.700385
983.874686	2460.083077
984.171587	2467.644808
984.468451	2455.041923
984.765279	2502.932885
985.062070	2513.015192
985.358824	2460.083077
985.655543	2477.727115
985.952224	2417.233269
986.248869	2465.124231
986.545478	2490.330000
986.842050	2591.153077
987.138586	2397.068654
987.435086	2482.768269
987.731549	2492.850577
988.027975	2500.412308
988.324366	2465.124231
988.620719	2427.315577
988.917037	2490.330000
989.213318	2465.124231
989.509563	2485.288846
989.805772	2513.015192
990.101944	2477.727115
990.398080	2505.453462
990.694180	2447.480192
990.990244	2467.644808
991.286271	2485.288846
991.582262	2392.027500
991.878217	2563.426731
992.174136	2452.521346
992.470019	2432.356731
992.765865	2513.015192
993.061676	2500.412308
993.357450	2429.836154
993.653188	2515.535769
993.948890	2505.453462
994.244556	2565.947308
994.540186	2520.576923
994.835780	2540.741538
995.131337	2472.685962
995.426859	2528.138654
995.722345	2467.644808
996.017795	2455.041923
996.313208	2485.288846
996.608586	2515.535769
996.903928	2548.303269
997.199234	2492.850577
997.494504	2467.644808
997.789738	2467.644808
998.084936	2513.015192
998.380099	2472.685962
998.675225	2520.576923
998.970316	2578.550192
999.265371	2447.480192
999.560390	2545.782692
999.855373	2525.618077
1000.150320	2419.753846
1000.445232	2533.179808
1000.740108	2482.768269
1001.034948	2402.109808
1001.329752	2533.179808
1001.624521	2439.918462
1001.919254	2510.494615
1002.213951	2540.741538
1002.508613	2439.918462
1002.803239	2505.453462
1003.097829	2475.206538
1003.392384	2465.124231
1003.686903	2500.412308
1003.981386	2444.959615
1004.275834	2507.974038
1004.570246	2397.068654
1004.864623	2472.685962
1005.158964	2540.741538
1005.453270	2452.521346
1005.747540	2543.262115
1006.041775	2523.097500
1006.335974	2535.700385
1006.630138	2460.083077
1006.924266	2480.247692
1007.218359	2500.412308
1007.512416	2414.712692
1007.806438	2477.727115
1008.100425	2444.959615
1008.394376	2384.465769
1008.688292	2495.371154
1008.982172	2417.233269
1009.276017	2422.274423
1009.569827	2402.109808
1009.863602	2452.521346
1010.157341	2402.109808
1010.451045	2477.727115
1010.744714	2475.206538
1011.038347	2510.494615
1011.331945	2470.165385
1011.625508	2530.659231
1011.919036	2513.015192
1012.212528	2568.467885
1012.505986	2505.453462
1012.799408	2439.918462
1013.092795	2434.877308
1013.386147	2505.453462
1013.679464	2462.603654
1013.972745	2462.603654
1014.265992	2500.412308
1014.559204	2452.521346
1014.852380	2568.467885
1015.145521	2555.865000
1015.438628	2455.041923
1015.731699	2439.918462
1016.024736	2470.165385
1016.317737	2482.768269
1016.610703	2467.644808
1016.903635	2492.850577
1017.196531	2439.918462
1017.489393	2455.041923
1017.782219	2490.330000
1018.075011	2513.015192
1018.367768	2465.124231
1018.660490	2520.576923
1018.953177	2520.576923
1019.245829	2520.576923
