Dividing Wavelength (nm)	Counts (n)	Blue Motor Position (mm): 0.000000	Red Motor Position (mm): 7.000000	
326.493990	2126.257869
326.888308	2126.257869
327.282561	2126.257869
327.676750	2096.991451
328.070874	2094.181007
328.464933	2097.114959
328.858929	2102.561926
329.252859	2110.950406
329.646726	2124.914402
330.040528	2138.638943
330.434265	2153.036478
330.827938	2170.952739
331.221547	2188.269103
331.615091	2210.324151
332.008571	2229.979610
332.401986	2247.666498
332.795338	2266.238109
333.188625	2284.862652
333.581847	2303.706485
333.975006	2322.454536
334.368100	2341.358863
334.761129	2359.275123
335.154095	2374.292721
335.546996	2394.711914
335.939833	2407.997875
336.332606	2421.394742
336.725315	2436.344283
337.117960	2443.699327
337.510540	2453.736264
337.903056	2465.575414
338.295508	2472.335601
338.687896	2478.279122
339.080220	2489.672129
339.472480	2495.126658
339.864676	2498.809221
340.256807	2502.706033
340.648875	2504.485560
341.040879	2510.603000
341.432818	2513.002589
341.824694	2513.448732
342.216506	2511.490243
342.608253	2509.791374
342.999937	2512.788340
343.391557	2512.904287
343.783113	2512.032167
344.174605	2508.349604
344.566033	2507.459841
344.957397	2507.371621
345.348697	2503.162257
345.739934	2502.721156
346.131106	2502.169150
346.522215	2500.389622
346.913260	2499.532626
347.304241	2495.565238
347.695159	2495.981133
348.086012	2491.857470
348.476802	2488.915956
348.867528	2490.297232
349.258191	2489.641882
349.648789	2486.440750
350.039324	2485.271202
350.429796	2486.518888
350.820203	2484.184833
351.210548	2482.415388
351.600828	2482.067549
351.991045	2480.144349
352.381198	2476.615541
352.771288	2478.828607
353.161314	2479.481437
353.551276	2478.193422
353.941175	2478.130408
354.331010	2478.422795
354.720782	2479.148721
355.110490	2478.730305
355.500135	2477.432208
355.889717	2478.140490
356.279235	2478.097640
356.668689	2478.939513
357.058080	2480.328351
357.447408	2478.374904
357.836672	2477.149903
358.225873	2475.962712
358.615010	2476.038329
359.004084	2481.964205
359.393095	2482.206181
359.782043	2482.891778
360.170927	2483.307673
360.559748	2485.593836
360.948505	2483.693321
361.337199	2487.297746
361.725830	2485.467807
362.114398	2485.848414
362.502903	2486.370174
362.891344	2485.823208
363.279722	2487.307828
363.668037	2490.183807
364.056289	2487.232211
364.444478	2489.483086
364.832603	2490.720689
365.220665	2490.294712
365.608665	2490.274547
365.996601	2492.351503
366.384474	2490.461070
366.772284	2495.345948
367.160031	2491.970896
367.547715	2496.792759
367.935336	2498.307626
368.322893	2500.858450
368.710388	2508.152999
369.097820	2512.737929
369.485189	2515.687004
369.872495	2518.346213
370.259738	2526.495238
370.646918	2531.428007
371.034035	2538.382278
371.421090	2546.919473
371.808081	2555.988508
372.195010	2566.731207
372.581875	2579.818042
372.968678	2589.693663
373.355418	2596.776484
373.742096	2613.069493
374.128710	2622.645165
374.515262	2632.271248
374.901751	2643.858340
375.288177	2650.512663
375.674540	2665.830209
376.060841	2673.948988
376.447079	2685.747808
376.833254	2694.138809
377.219367	2698.930426
377.605417	2717.895246
377.991404	2716.337530
378.377329	2722.273488
378.763191	2724.567213
379.148991	2743.630337
379.534727	2747.713671
379.920402	2754.574682
380.306013	2752.263313
380.691563	2766.043307
381.077049	2762.491814
381.462474	2762.794283
381.847835	2767.492638
382.233134	2764.110024
382.618371	2750.319948
383.003545	2766.912906
383.388657	2755.265320
383.773706	2750.846748
384.158693	2744.736870
384.543618	2733.227916
384.928480	2731.350086
385.313280	2730.392267
385.698017	2714.789896
386.082692	2714.197560
386.467305	2696.949252
386.851856	2687.970957
387.236344	2677.782785
387.620770	2670.707526
388.005133	2664.368275
388.389435	2650.731954
388.773674	2640.342136
389.157851	2632.319139
389.541965	2621.906636
389.926018	2608.509770
390.310008	2604.539861
390.693936	2592.952769
391.077802	2585.665781
391.461606	2576.518607
391.845348	2572.473081
392.229027	2562.143757
392.612645	2560.260886
392.996200	2550.382745
393.379694	2551.194371
393.763125	2542.831097
394.146494	2538.959491
394.529801	2536.842206
394.913047	2530.709642
395.296230	2529.252749
395.679351	2525.766791
396.062410	2525.217305
396.445408	2520.980215
396.828343	2520.249248
397.211217	2517.166582
397.594028	2515.109792
397.976778	2510.156858
398.359466	2514.983763
398.742092	2507.618637
399.124656	2515.326561
399.507158	2513.970491
399.889598	2514.116684
400.271977	2513.113495
400.654294	2516.866634
401.036549	2512.027126
401.418742	2512.546365
401.800874	2514.668691
402.182944	2514.333454
402.564952	2512.390089
402.946898	2513.272291
403.328783	2515.598784
403.710606	2511.233144
404.092367	2512.833711
404.474067	2514.378824
404.855705	2514.023423
405.237282	2513.773886
405.618797	2516.851510
406.000250	2514.015861
406.381642	2514.038547
406.762972	2513.499143
407.144240	2515.888650
407.525447	2513.526869
407.906593	2516.105420
408.287677	2512.571571
408.668700	2515.707168
409.049661	2514.797240
409.430560	2515.835718
409.811399	2514.822446
410.192176	2514.900584
410.572891	2515.704648
410.953545	2517.148938
411.334138	2516.826305
411.714669	2517.032992
412.095139	2514.802281
412.475547	2516.997704
412.855894	2516.155831
413.236180	2516.803619
413.616405	2518.497447
413.996568	2516.864113
414.376670	2518.678929
414.756711	2519.041892
415.136691	2517.451408
415.516609	2516.062570
415.896466	2518.759587
416.276262	2519.235976
416.655997	2514.577950
417.035670	2517.247241
417.415283	2514.898063
417.794834	2515.351767
418.174324	2516.118022
418.553753	2516.995183
418.933121	2518.293280
419.312428	2520.241686
419.691674	2516.014679
420.070859	2519.258661
420.449983	2521.491893
420.829045	2521.262520
421.208047	2516.806140
421.586988	2518.600791
421.965867	2521.360822
422.344686	2520.498785
422.723444	2518.686490
423.102141	2521.464166
423.480777	2520.871831
423.859352	2517.567354
424.237866	2519.674557
424.616319	2520.718075
424.994712	2520.765966
425.373044	2521.539783
425.751314	2524.632531
426.129524	2521.401152
426.507673	2523.848632
426.885762	2522.285874
427.263789	2522.439629
427.641756	2523.536080
428.019662	2520.796213
428.397508	2524.395597
428.775292	2523.223529
429.153016	2523.536080
429.530679	2523.039527
429.908282	2522.142201
430.285824	2522.469876
430.663305	2522.258148
431.040726	2522.784948
431.418086	2523.871317
431.795385	2524.372912
432.172624	2522.653878
432.549802	2522.205216
432.926920	2524.531708
433.303977	2523.684794
433.680974	2523.677233
434.057910	2524.899712
434.434786	2521.867458
434.811601	2525.723941
435.188355	2523.624301
435.565050	2522.341327
435.941683	2525.416431
436.318257	2523.205885
436.694770	2520.682787
437.071222	2520.758405
437.447614	2520.690349
437.823946	2520.405524
438.200218	2523.846111
438.576429	2527.929446
438.952580	2523.304187
439.328670	2526.850639
439.704700	2526.243180
440.080670	2524.037675
440.456580	2525.355937
440.832429	2526.502799
441.208218	2524.395597
441.583947	2524.924918
441.959616	2525.426513
442.335224	2526.399456
442.710773	2525.373581
443.086261	2526.364168
443.461689	2524.398118
443.837057	2524.413241
444.212365	2525.809641
444.587612	2526.495238
444.962800	2528.622605
445.337927	2526.001205
445.712995	2525.245032
446.088002	2526.424662
446.462949	2525.943231
446.837837	2527.377440
447.212664	2528.436082
447.587431	2529.918181
447.962139	2528.221833
448.336786	2528.594878
448.711374	2530.555887
449.085901	2527.536236
449.460369	2527.725279
449.834776	2526.270906
450.209124	2525.837367
450.583412	2526.396935
450.957640	2526.717048
451.331808	2529.227543
451.705917	2526.535567
452.079965	2530.838192
452.453954	2528.799045
452.827883	2525.920546
453.201752	2529.555218
453.575562	2528.007584
453.949311	2530.608819
454.323001	2530.659231
454.696632	2526.154960
455.070202	2526.409538
455.443713	2529.424148
455.817164	2527.037162
456.190556	2525.116482
456.563888	2528.035310
456.937160	2522.046419
457.310373	2531.576721
457.683526	2530.863398
458.056619	2529.197296
458.429653	2529.671165
458.802628	2529.598068
459.175542	2528.791483
459.548398	2528.388191
459.921194	2528.216792
460.293930	2530.818027
460.666607	2529.797193
461.039224	2531.793490
461.411782	2530.510517
461.784280	2532.070754
462.156719	2530.472708
462.529099	2532.206865
462.901419	2531.503624
463.273680	2531.990095
463.645882	2531.793490
464.018024	2531.803573
464.390106	2533.252904
464.762130	2534.538399
465.134094	2529.187214
465.505999	2533.636032
465.877845	2534.409849
466.249631	2535.733152
466.621358	2531.259128
466.993026	2538.049562
467.364634	2539.201466
467.736184	2533.167205
468.107674	2530.860877
468.479105	2532.302647
468.850477	2531.362472
469.221790	2533.021011
469.593043	2532.302647
469.964238	2531.531350
470.335373	2532.312729
470.706449	2533.288193
471.077467	2533.575538
471.448425	2533.930940
471.819324	2535.528985
472.190164	2533.862884
472.560945	2531.992616
472.931667	2533.157123
473.302330	2532.277441
473.672934	2531.390198
474.043479	2533.071423
474.413965	2536.338091
474.784393	2529.693850
475.154761	2529.403983
475.525070	2531.677544
475.895321	2532.058151
476.265513	2528.007584
476.635645	2531.523789
477.005719	2532.857174
477.375734	2535.304654
477.745691	2534.208203
478.115588	2533.389016
478.485427	2534.961856
478.855207	2535.516383
479.224928	2533.983872
479.594591	2537.147196
479.964194	2536.186856
480.333739	2537.731970
480.703226	2534.931609
481.072653	2535.975127
481.442022	2535.949922
481.811333	2534.659386
482.180584	2535.997813
482.549777	2534.452699
482.918912	2534.150230
483.287988	2537.396733
483.657005	2533.726773
484.025964	2537.041332
484.394864	2535.574356
484.763706	2535.647452
485.132489	2535.571835
485.501213	2536.998482
485.869879	2536.796836
486.238487	2537.089223
486.607036	2536.784233
486.975527	2534.845909
487.343959	2532.917668
487.712333	2533.716691
488.080648	2535.100487
488.448905	2534.180477
488.817104	2536.544778
489.185244	2536.113759
489.553326	2538.309182
489.921350	2537.026208
490.289315	2537.124511
490.657222	2536.708615
491.025070	2536.809438
491.392861	2539.488812
491.760593	2539.299768
492.128267	2539.937474
492.495883	2537.734490
492.863440	2535.513862
493.230939	2537.361445
493.598380	2535.350024
493.965763	2531.692667
494.333088	2534.661907
494.700354	2531.831299
495.067563	2535.196269
495.434713	2530.016484
495.801805	2535.571835
496.168839	2538.268853
496.535815	2536.751465
496.902733	2536.254912
497.269593	2536.154088
497.636395	2538.745242
498.003139	2535.370189
498.369825	2535.229037
498.736453	2534.205683
499.103023	2538.014274
499.469535	2534.137627
499.835989	2536.814480
500.202385	2538.702392
500.568723	2535.191228
500.935003	2535.559232
501.301226	2534.858512
501.667390	2536.476722
502.033497	2536.688451
502.399546	2537.547968
502.765537	2537.701723
503.131470	2536.053265
503.497345	2536.030580
503.863163	2537.742052
504.228923	2537.064017
504.594625	2537.918492
504.960269	2536.872453
505.325856	2535.823893
505.691385	2539.186342
506.056856	2535.763399
506.422270	2534.961856
506.787625	2538.697351
507.152924	2537.810108
507.518164	2535.314736
507.883347	2534.447658
508.248472	2537.900848
508.613540	2539.319933
508.978550	2537.837834
509.343503	2537.709284
509.708398	2539.955118
510.073236	2537.227854
510.438016	2538.803215
510.802738	2537.711805
511.167403	2536.577545
511.532010	2537.086702
511.896561	2537.762217
512.261053	2539.882022
512.625488	2531.342307
512.989866	2534.225847
513.354186	2535.357586
513.718449	2533.449509
514.082655	2538.004192
514.446803	2539.692978
514.810894	2539.642567
515.174927	2537.202648
515.538904	2537.716846
515.902822	2537.545447
516.266684	2535.120652
516.630488	2537.810107
516.994235	2540.038298
517.357925	2536.053265
517.721558	2538.452855
518.085133	2537.752134
518.448651	2540.141641
518.812112	2539.350180
519.175516	2538.861188
519.538863	2536.514531
519.902152	2538.518390
520.265385	2540.270191
520.628560	2541.999306
520.991678	2541.238092
521.354739	2538.939326
521.717743	2540.343287
522.080690	2538.036959
522.443580	2539.556867
522.806413	2539.030067
523.169189	2539.682896
523.531908	2538.528472
523.894569	2542.173226
524.257174	2538.825900
524.619722	2541.187681
524.982213	2538.334388
525.344647	2536.199459
525.707025	2537.885725
526.069345	2537.815149
526.431608	2539.375386
526.793815	2539.536703
527.155964	2538.634336
527.518057	2538.510828
527.880093	2541.094419
528.242072	2541.026364
528.603995	2540.010571
528.965860	2539.609799
529.327669	2536.088553
529.689421	2537.179963
530.051117	2539.390509
530.412755	2536.978317
530.774337	2540.986034
531.135862	2539.680376
531.497331	2535.826413
531.858743	2535.198790
532.220098	2538.180632
532.581396	2535.748276
532.942638	2540.134079
533.303824	2541.245654
533.664953	2542.440407
534.026025	2539.153575
534.387040	2541.759852
534.747999	2540.633154
535.108902	2539.372865
535.469748	2540.184491
535.830537	2539.496373
536.191270	2540.718853
536.551947	2537.931095
536.912567	2542.367311
537.273131	2540.144162
537.633638	2541.031405
537.994089	2540.512166
538.354483	2538.828421
538.714821	2540.227341
539.075103	2538.672145
539.435328	2539.403112
539.795497	2536.955632
540.155609	2540.436549
540.515665	2540.668442
540.875665	2542.052238
541.235609	2540.615510
541.595496	2541.303627
541.955328	2539.614841
542.315102	2540.827238
542.674821	2542.054759
543.034483	2543.027702
543.394090	2540.335726
543.753640	2542.594162
544.113134	2541.981662
544.472571	2538.553678
544.831953	2544.686241
545.191278	2539.214069
545.550548	2541.376724
545.909761	2540.020653
546.268918	2542.364790
546.628019	2541.061652
546.987064	2539.088040
547.346053	2538.599048
547.704986	2540.166847
548.063863	2539.965201
548.422684	2538.029398
548.781449	2538.664583
549.140158	2540.149203
549.498811	2540.403781
549.857408	2539.035108
550.215949	2538.412525
550.574434	2535.458409
550.932864	2537.731970
551.291237	2536.070909
551.649555	2542.541230
552.007817	2540.401261
552.366022	2543.274718
552.724173	2537.248019
553.082267	2541.321271
553.440305	2540.292876
553.798288	2539.861857
554.156215	2540.882691
554.514086	2539.256919
554.871902	2541.432177
555.229661	2542.626930
555.587365	2542.921838
555.945014	2543.630120
556.302606	2539.904707
556.660143	2543.645243
557.017625	2540.996117
557.375050	2543.725902
557.732421	2537.099305
558.089735	2539.579553
558.446994	2540.277752
558.804197	2545.210521
559.161345	2541.762372
559.518437	2541.704399
559.875474	2542.205994
560.232455	2541.840510
560.589381	2541.023843
560.946251	2544.277908
561.303065	2542.810932
561.659825	2542.785726
562.016528	2541.800181
562.373177	2540.557536
562.729770	2542.286652
563.086307	2541.865716
563.442789	2540.696168
563.799216	2543.055428
564.155587	2541.008720
564.511904	2540.466796
564.868164	2541.757331
565.224370	2540.454193
565.580520	2542.765562
565.936615	2543.156251
566.292654	2543.494008
566.648638	2541.447300
567.004567	2541.003678
567.360441	2540.676003
567.716260	2540.923020
568.072023	2540.733977
568.427732	2536.905220
568.783385	2539.874460
569.138982	2535.486136
569.494525	2540.340767
569.850013	2534.971938
570.205445	2542.117773
570.560823	2542.974770
570.916145	2539.395550
571.271412	2540.860006
571.626625	2544.640871
571.981782	2542.077444
572.336884	2543.718340
572.691931	2541.999306
573.046923	2540.025695
573.401860	2542.274049
573.756743	2540.749100
574.111570	2543.317568
574.466342	2540.708771
574.821059	2541.719522
575.175722	2543.105840
575.530330	2540.403781
575.884882	2541.953936
576.239380	2542.959646
576.593823	2543.186498
576.948211	2538.972093
577.302544	2540.960829
577.656823	2540.703730
578.011047	2542.725232
578.365216	2544.892929
578.719330	2542.543751
579.073389	2542.321940
579.427394	2538.329346
579.781344	2540.756662
580.135239	2543.156251
580.489080	2542.536189
580.842866	2540.771785
581.196597	2543.153731
581.550273	2541.432177
581.903895	2541.568288
582.257463	2540.517207
582.610975	2540.441590
582.964434	2541.028884
583.317837	2541.848072
583.671186	2540.214738
584.024481	2542.324461
584.377721	2542.853782
584.730906	2540.239944
585.084037	2538.525951
585.437113	2540.295396
585.790135	2542.725233
586.143103	2540.847403
586.496016	2543.332692
586.848874	2538.629295
587.201679	2541.139790
587.554428	2538.208359
587.907124	2537.346321
588.259765	2538.258770
588.612352	2541.709440
588.964884	2541.364121
589.317362	2542.410160
589.669786	2538.483102
590.022155	2543.882177
590.374470	2541.394368
590.726731	2539.899666
591.078937	2541.144831
591.431090	2540.575180
591.783188	2540.862526
592.135232	2537.784902
592.487222	2543.115922
592.839157	2541.389327
593.191038	2538.480581
593.542866	2543.317568
593.894639	2543.612476
594.246358	2540.144162
594.598022	2539.065355
594.949633	2539.501415
595.301190	2542.891591
595.652692	2539.408153
596.004141	2542.735315
596.355535	2543.451159
596.706876	2538.956970
597.058162	2537.895807
597.409395	2541.608617
597.760573	2541.041487
598.111698	2541.076775
598.462768	2540.882691
598.813785	2543.917465
599.164748	2542.372352
599.515657	2540.363452
599.866511	2540.381096
600.217312	2538.251208
600.568060	2537.784902
600.918753	2541.699358
601.269392	2540.857485
601.619978	2541.250695
601.970510	2539.491332
602.320988	2538.551157
602.671412	2540.411343
603.021783	2541.613658
603.372100	2540.015612
603.722363	2539.050231
604.072572	2540.721374
604.422728	2538.626774
604.772830	2534.843388
605.122878	2534.775333
605.472872	2539.100643
605.822813	2534.787936
606.172701	2538.457896
606.522534	2538.233564
606.872314	2543.685572
607.222041	2538.457896
607.571714	2538.793132
607.921333	2541.354039
608.270899	2538.888914
608.620411	2541.984183
608.969870	2543.494008
609.319276	2543.168854
609.668627	2545.455017
610.017926	2547.171530
610.367171	2549.308979
610.716362	2543.998124
611.065500	2547.025337
611.414585	2547.199257
611.763616	2544.557692
612.112594	2537.981507
612.461518	2543.083154
612.810389	2539.186343
613.159207	2541.099460
613.507971	2540.146682
613.856682	2543.224307
614.205340	2540.817156
614.553945	2543.010058
614.902496	2538.780530
615.250994	2540.958308
615.599439	2540.991076
615.947830	2539.236754
616.296169	2540.192053
616.644454	2539.453524
616.992686	2538.639377
617.340864	2541.364121
617.688990	2538.248688
618.037063	2540.277752
618.385082	2539.335057
618.733048	2542.430325
619.080961	2540.547454
619.428821	2539.950077
619.776628	2540.681045
620.124382	2543.219266
620.472083	2540.935623
620.819731	2538.727598
621.167326	2539.100643
621.514868	2540.000489
621.862357	2540.751621
622.209793	2540.701209
622.557176	2539.715664
622.904506	2539.390509
623.251783	2535.425642
623.599007	2537.875642
623.946179	2536.753986
624.293297	2539.007382
624.640363	2539.952598
624.987376	2539.206507
625.334336	2540.388658
625.681243	2541.013761
626.028097	2538.591486
626.374899	2540.653318
626.721647	2537.774819
627.068343	2539.889583
627.414987	2541.159954
627.761577	2539.768596
628.108115	2539.912269
628.454600	2540.663401
628.801032	2541.825387
629.147412	2540.512166
629.493739	2538.687268
629.840014	2541.510314
630.186236	2540.754141
630.532405	2539.698020
630.878521	2539.750952
631.224585	2541.356559
631.570597	2539.637526
631.916556	2539.761034
632.262462	2540.454193
632.608316	2537.774819
632.954117	2537.696682
633.299866	2540.522248
633.645562	2539.103163
633.991206	2543.214224
634.336797	2539.282124
634.682336	2539.478729
635.027823	2539.534182
635.373257	2539.377906
635.718639	2537.558050
636.063968	2539.519059
636.409245	2540.887732
636.754470	2537.731970
637.099642	2539.929913
637.444762	2539.791281
637.789829	2538.568801
638.134845	2537.779861
638.479808	2539.602238
638.824719	2538.767927
639.169577	2539.183822
639.514383	2538.110056
639.859137	2539.647608
640.203839	2536.559901
640.548489	2539.816487
640.893086	2535.687782
641.237632	2532.516896
641.582125	2537.583256
641.926566	2534.803059
642.270955	2540.431507
642.615292	2538.296579
642.959576	2539.330015
643.303809	2536.562422
643.647990	2541.190201
643.992118	2538.692309
644.336195	2537.986548
644.680219	2537.376568
645.024192	2538.026877
645.368112	2535.982689
645.711981	2538.717515
646.055797	2537.119469
646.399562	2541.293545
646.743274	2536.126362
647.086935	2539.834131
647.430544	2540.154244
647.774101	2536.559901
648.117606	2539.413194
648.461059	2538.561239
648.804460	2542.087527
649.147810	2537.605941
649.491108	2539.241795
649.834354	2538.074768
650.177548	2538.939326
650.520690	2539.667773
650.863781	2537.411856
651.206820	2539.763555
651.549807	2537.583256
651.892742	2539.458565
652.235626	2537.008564
652.578458	2536.345652
652.921238	2536.494366
653.263967	2538.473019
653.606644	2539.546785
653.949269	2538.455375
654.291843	2540.277752
654.634365	2535.551671
654.976836	2539.183822
655.319255	2538.019315
655.661622	2536.237268
656.003938	2538.523431
656.346203	2537.457227
656.688416	2536.040662
657.030577	2535.660055
657.372687	2537.187525
657.714746	2537.754655
658.056753	2537.275745
658.398708	2533.625950
658.740612	2533.948584
659.082465	2535.163502
659.424266	2534.515713
659.766016	2535.213913
660.107715	2536.781712
660.449362	2535.186187
660.790958	2536.610313
661.132503	2537.323636
661.473996	2537.817669
661.815438	2535.307175
662.156829	2536.504449
662.498168	2538.122659
662.839456	2537.560570
663.180693	2538.110056
663.521879	2536.365817
663.863013	2537.910931
664.204097	2536.582587
664.545129	2537.600900
664.886110	2538.596527
665.227040	2538.110056
665.567918	2538.198276
665.908746	2537.865560
666.249522	2538.236085
666.590248	2537.842875
666.930922	2539.851775
667.271545	2536.864891
667.612118	2541.134748
667.952639	2536.033101
668.293109	2540.998637
668.633528	2535.672658
668.973896	2538.286497
669.314213	2538.596527
669.654480	2538.228523
669.994695	2536.403626
670.334859	2537.237937
670.674973	2535.430683
671.015035	2537.921013
671.355047	2536.191897
671.695008	2537.570653
672.034918	2536.864891
672.374777	2536.184335
672.714585	2539.456044
673.054342	2538.450334
673.394049	2536.133924
673.733705	2538.004192
674.073310	2537.603420
674.412864	2537.984027
674.752368	2535.327339
675.091820	2536.310364
675.431223	2536.272556
675.770574	2536.668286
676.109875	2532.446320
676.449125	2534.329191
676.788324	2534.785415
677.127473	2536.023018
677.466571	2532.310209
677.805619	2536.696012
678.144616	2538.906558
678.483562	2537.333718
678.822458	2537.028729
679.161303	2537.941177
679.500098	2539.282124
679.838842	2536.660724
680.177535	2535.781043
680.516179	2539.166178
680.854771	2537.121990
681.193314	2537.106867
681.531805	2535.811290
681.870247	2536.012936
682.208638	2537.409336
682.546978	2537.769778
682.885268	2538.011754
683.223508	2538.886394
683.561697	2536.665766
683.899836	2536.509490
684.237925	2536.232226
684.575963	2538.132741
684.913951	2536.635519
685.251889	2536.552340
685.589776	2537.283307
685.927614	2539.272042
686.265401	2539.662732
686.603137	2536.428831
686.940824	2535.677699
687.278460	2536.310364
687.616046	2536.317926
687.953582	2538.352032
688.291068	2536.559901
688.628504	2535.135775
688.965889	2536.867412
689.303224	2535.478574
689.640510	2538.654501
689.977745	2538.263811
690.314930	2539.534182
690.652065	2537.469830
690.989150	2535.982689
691.326185	2537.439583
691.663170	2536.680889
692.000105	2532.741227
692.336990	2536.703574
692.673825	2537.154758
693.010610	2538.828421
693.347345	2534.737524
693.684030	2534.908923
694.020665	2532.713501
694.357251	2531.541433
694.693786	2534.954294
695.030272	2537.575694
695.366707	2535.385312
695.703093	2535.239119
696.039429	2536.968235
696.375716	2536.091074
696.711952	2536.091074
697.048139	2537.560570
697.384276	2537.157278
697.720363	2539.040149
698.056400	2535.211393
698.392388	2536.106197
698.728326	2536.701054
699.064214	2536.585107
699.400053	2537.147196
699.735842	2536.350693
700.071581	2535.322298
700.407270	2534.346835
700.742910	2536.174253
701.078501	2537.366486
701.414042	2536.738862
701.749533	2537.943698
702.084974	2533.557894
702.420366	2537.255581
702.755709	2539.251877
703.091002	2537.663914
703.426246	2535.486136
703.761440	2536.920344
704.096584	2535.997813
704.431679	2535.818852
704.766725	2536.438914
705.101721	2536.138965
705.436668	2535.050076
705.771565	2539.882022
706.106413	2536.683410
706.441212	2535.813811
706.775961	2536.277597
707.110661	2537.926054
707.445311	2533.625950
707.779913	2538.793132
708.114465	2538.397402
708.448967	2537.391692
708.783421	2536.423790
709.117825	2536.063348
709.452180	2536.585107
709.786485	2535.400436
710.120742	2537.215251
710.454949	2536.383461
710.789107	2533.497400
711.123216	2533.424304
711.457275	2534.724921
711.791286	2532.433717
712.125247	2532.789118
712.459159	2535.528985
712.793023	2536.832124
713.126837	2536.527134
713.460602	2537.358924
713.794318	2533.696526
714.127985	2534.626619
714.461602	2537.245498
714.795171	2536.995961
715.128691	2535.665097
715.462162	2536.610313
715.795584	2534.440096
716.128957	2535.660055
716.462281	2536.315405
716.795556	2537.948739
717.128782	2537.777340
717.461960	2536.267514
717.795088	2536.597710
718.128167	2534.896321
718.461198	2535.292051
718.794180	2537.585776
719.127113	2533.860363
719.459997	2537.308513
719.792833	2536.317926
720.125619	2536.756506
720.458357	2534.316588
720.791046	2536.058307
721.123686	2534.798018
721.456278	2537.742052
721.788821	2536.373379
722.121315	2535.576876
722.453761	2535.977648
722.786158	2534.389685
723.118506	2534.445137
723.450805	2534.243491
723.783056	2534.417411
724.115259	2536.305323
724.447412	2532.947915
724.779518	2534.896321
725.111574	2535.377751
725.443582	2536.307844
725.775542	2535.299613
726.107453	2535.725590
726.439315	2534.094777
726.771129	2540.096271
727.102895	2535.244160
727.434612	2536.595189
727.766281	2535.097967
728.097901	2531.796011
728.429473	2530.707122
728.760996	2533.162164
729.092471	2530.051772
729.423897	2536.897659
729.755276	2537.202648
730.086606	2537.926054
730.417887	2534.316588
730.749120	2534.969417
731.080305	2534.976979
731.411442	2537.908410
731.742530	2533.890610
732.073570	2534.777853
732.404562	2534.939170
732.735506	2537.210210
733.066401	2533.300795
733.397249	2532.327853
733.728048	2534.430014
734.058798	2536.731301
734.389501	2532.763913
734.720156	2537.021167
735.050762	2534.306506
735.381320	2535.957483
735.711831	2535.493697
736.042293	2534.117462
736.372707	2534.954294
736.703073	2534.581248
737.033391	2538.198276
737.363661	2532.821886
737.693883	2535.130734
738.024056	2537.036290
738.354182	2534.051927
738.684260	2534.740045
739.014290	2534.208203
739.344272	2534.608975
739.674207	2534.959335
740.004093	2536.610313
740.333931	2533.638553
740.663722	2536.012936
740.993464	2536.111239
741.323159	2534.987061
741.652806	2533.625950
741.982405	2534.248532
742.311956	2533.608306
742.641460	2535.939839
742.970915	2536.083512
743.300323	2534.866074
743.629683	2535.297092
743.958996	2536.854809
744.288260	2535.183666
744.617477	2536.733821
744.946647	2532.085877
745.275768	2533.157123
745.604842	2529.459436
745.933869	2529.703932
746.262847	2529.761905
746.591778	2534.074613
746.920662	2532.305167
747.249498	2536.005374
747.578286	2534.125024
747.907027	2538.251208
748.235720	2534.097298
748.564365	2537.432021
748.892963	2535.415559
749.221514	2532.794159
749.550017	2534.608975
749.878473	2533.789787
750.206881	2533.300795
750.535242	2536.181815
750.863555	2534.422452
751.191821	2533.613347
751.520039	2534.218285
751.848210	2536.471681
752.176334	2535.866743
752.504411	2535.841537
752.832440	2533.189890
753.160421	2534.427493
753.488356	2534.664427
753.816243	2536.126362
754.144082	2534.102339
754.471875	2537.326157
754.799620	2536.411187
755.127318	2534.866074
755.454969	2534.729962
755.782572	2534.430014
756.110129	2533.373892
756.437638	2531.735517
756.765100	2532.559746
757.092515	2535.047555
757.419882	2535.970086
757.747203	2533.981351
758.074477	2535.914634
758.401703	2532.539581
758.728882	2536.156609
759.056014	2533.424304
759.383099	2534.747607
759.710138	2535.211393
760.037129	2533.154602
760.364073	2536.590148
760.690970	2536.403626
761.017820	2535.365148
761.344623	2533.031094
761.671379	2534.883718
761.998088	2527.747964
762.324751	2532.390867
762.651366	2531.894313
762.977935	2533.245343
763.304456	2530.195445
763.630931	2536.451517
763.957359	2533.144520
764.283740	2534.132586
764.610074	2532.272400
764.936362	2535.816331
765.262602	2535.105528
765.588796	2536.771630
765.914943	2533.676361
766.241044	2533.865405
766.567097	2531.289375
766.893104	2533.363810
767.219064	2530.712163
767.544978	2534.306506
767.870845	2532.350538
768.196665	2534.684592
768.522438	2536.144006
768.848165	2535.047555
769.173846	2532.907585
769.499479	2533.043697
769.825066	2533.194931
770.150607	2534.498069
770.476101	2532.970600
770.801548	2534.152750
771.126949	2532.514375
771.452303	2535.544109
771.777611	2529.056144
772.102872	2533.643594
772.428087	2529.177132
772.753256	2535.607123
773.078378	2532.325332
773.403453	2533.734335
773.728482	2533.434386
774.053465	2534.389685
774.378401	2533.434386
774.703291	2533.444468
775.028135	2531.128058
775.352932	2532.509334
775.677683	2535.012267
776.002388	2534.530837
776.327046	2532.310209
776.651658	2533.845240
776.976224	2533.328522
777.300743	2532.814324
777.625216	2533.217616
777.949643	2533.860363
778.274024	2533.474715
778.598359	2527.606812
778.922647	2527.589168
779.246889	2531.405322
779.571086	2529.363654
779.895236	2531.180990
780.219339	2532.219468
780.543397	2534.157792
780.867409	2532.756351
781.191374	2533.867925
781.515294	2534.830786
781.839167	2533.366330
782.162995	2533.038655
782.486776	2533.469674
782.810511	2530.326515
783.134201	2533.875487
783.457844	2532.930271
783.781441	2533.182328
784.104993	2531.145702
784.428498	2532.761392
784.751958	2531.175949
785.075372	2533.152081
785.398739	2532.746268
785.722061	2531.864067
786.045337	2533.144520
786.368568	2533.000847
786.691752	2533.595703
787.014891	2529.900537
787.337983	2531.468336
787.661030	2532.791639
787.984031	2531.433048
788.306987	2534.475384
788.629897	2535.249201
788.952760	2534.147709
789.275579	2533.394057
789.598351	2533.396577
789.921078	2530.492873
790.243759	2533.578059
790.566395	2531.581762
790.888984	2531.473377
791.211529	2531.790970
791.534027	2530.465146
791.856480	2531.254087
792.178888	2533.421783
792.501249	2535.927237
792.823566	2531.624612
793.145836	2532.290044
793.468062	2532.950435
793.790241	2528.594878
794.112375	2533.585621
794.434464	2531.662420
794.756507	2532.426155
795.078505	2529.030938
795.400457	2529.436751
795.722364	2530.727286
796.044226	2529.361134
796.366042	2530.480270
796.687812	2530.697039
797.009538	2533.078985
797.331218	2532.537061
797.652852	2532.156453
797.974442	2531.891793
798.295986	2529.517409
798.617484	2532.073274
798.938938	2533.469674
799.260346	2532.269879
799.581709	2529.179652
799.903026	2533.409180
800.224299	2534.684592
800.545526	2533.172246
800.866708	2530.301309
801.187845	2532.796680
801.508936	2531.997657
801.829983	2531.516227
802.150984	2533.378933
802.471940	2533.938501
802.792851	2534.268697
803.113717	2533.061341
803.434538	2534.646783
803.755314	2530.538243
804.076045	2531.785929
804.396731	2532.902544
804.717372	2528.862059
805.037967	2533.812473
805.358518	2531.425486
805.679024	2530.535722
805.999485	2531.077647
806.319901	2531.289375
806.640272	2530.497914
806.960598	2533.421783
807.280879	2529.288037
807.601115	2530.785260
807.921306	2533.293234
808.241453	2532.632843
808.561554	2529.676206
808.881611	2532.821886
809.201623	2530.520599
809.521590	2532.665610
809.841513	2534.490508
810.161390	2534.616537
810.481223	2532.340456
810.801011	2532.670651
811.120755	2533.386495
811.440453	2535.206352
811.760107	2532.915147
812.079716	2527.004394
812.399281	2528.335259
812.718801	2528.557070
813.038276	2527.435413
813.357707	2528.582275
813.677093	2531.644776
813.996434	2533.199972
814.315731	2533.139478
814.634983	2532.469005
814.954191	2534.346835
815.273354	2531.634694
815.592473	2531.480939
815.911547	2531.866587
816.230577	2529.388860
816.549562	2534.470343
816.868502	2530.845753
817.187399	2529.280475
817.506250	2531.821217
817.825058	2532.448840
818.143821	2532.932791
818.462539	2534.487987
818.781213	2532.032945
819.099843	2531.864067
819.418429	2532.418593
819.736970	2531.473377
820.055466	2532.920188
820.373919	2530.926412
820.692327	2532.143851
821.010691	2535.581918
821.329011	2533.028573
821.647286	2536.761547
821.965517	2540.955787
822.283704	2538.702392
822.601847	2538.896476
822.919945	2540.509645
823.237999	2538.954449
823.556010	2539.410674
823.873976	2535.813811
824.191897	2533.767102
824.509775	2533.948584
824.827609	2532.655528
825.145398	2533.202493
825.463144	2533.663758
825.780845	2532.768954
826.098502	2534.883718
826.416116	2534.467822
826.733685	2534.203162
827.051210	2534.039324
827.368692	2537.379089
827.686129	2532.322812
828.003522	2532.095960
828.320872	2526.379291
828.638177	2531.173428
828.955439	2527.705115
829.272656	2526.971627
829.589830	2528.766278
829.906960	2533.091588
830.224046	2530.956659
830.541088	2528.602440
830.858086	2533.731814
831.175041	2534.046886
831.491952	2531.851464
831.808819	2531.866587
832.125642	2530.780218
832.442421	2532.355579
832.759157	2532.471526
833.075849	2533.091587
833.392497	2532.320291
833.709101	2532.673172
834.025662	2533.021011
834.342179	2532.748789
834.658653	2531.843902
834.975083	2533.202493
835.291469	2536.300282
835.607811	2531.738038
835.924110	2531.480939
836.240366	2531.675023
836.556578	2529.875331
836.872746	2531.251566
837.188871	2530.959179
837.504952	2531.186031
837.820990	2531.561597
838.136984	2530.543284
838.452935	2532.375744
838.768842	2531.329704
839.084706	2530.422297
839.400526	2533.033614
839.716303	2531.284334
840.032037	2529.013294
840.347727	2531.617050
840.663373	2533.351207
840.978977	2532.080836
841.294537	2531.002029
841.610054	2531.417924
841.925527	2531.168387
842.240957	2532.612678
842.556344	2533.744417
842.871687	2531.296937
843.186987	2531.801052
843.502244	2531.296937
843.817458	2531.992616
844.132629	2527.886596
844.447756	2530.860877
844.762840	2525.434075
845.077881	2527.672347
845.392879	2528.476411
845.707833	2526.802748
846.022745	2527.422810
846.337613	2531.675023
846.652438	2530.104704
846.967221	2529.260311
847.281960	2532.106042
847.596656	2531.279293
847.911309	2529.814838
848.225919	2530.185362
848.540485	2529.507327
848.855009	2533.915816
849.169490	2528.075639
849.483928	2529.824920
849.798323	2529.739220
850.112675	2529.630835
850.426984	2531.523789
850.741251	2533.915816
851.055474	2530.026566
851.369654	2530.767616
851.683792	2530.376926
851.997887	2531.796011
852.311938	2530.785260
852.625947	2531.271731
852.939914	2531.065044
853.253837	2530.752492
853.567718	2530.548325
853.881555	2532.804242
854.195350	2533.026052
854.509103	2531.556556
854.822812	2530.749972
855.136479	2532.428676
855.450103	2530.959179
855.763685	2530.162677
856.077224	2528.211751
856.390720	2531.329704
856.704173	2529.950949
857.017584	2529.648479
857.330953	2533.114273
857.644278	2531.271731
857.957561	2534.745086
858.270802	2531.722914
858.584000	2528.012625
858.897155	2533.139478
859.210268	2526.422141
859.523339	2531.584282
859.836367	2528.541946
860.149352	2531.483459
860.462295	2530.979344
860.775195	2526.404497
861.088054	2525.895340
861.400869	2527.639580
861.713642	2525.429034
862.026373	2527.873993
862.339062	2531.044879
862.651708	2532.400949
862.964312	2528.599919
863.276873	2530.500434
863.589392	2529.948428
863.901869	2527.982378
864.214303	2529.519930
864.526696	2529.167049
864.839045	2532.605116
865.151353	2532.075795
865.463619	2532.214427
865.775842	2530.681916
866.088023	2530.757533
866.400162	2529.814838
866.712258	2531.364992
867.024313	2533.396577
867.336325	2529.519930
867.648296	2532.121165
867.960224	2529.043541
868.272110	2530.878521
868.583954	2530.394570
868.895755	2529.925743
869.207515	2531.644776
869.519233	2531.919519
869.830909	2529.151926
870.142542	2529.847605
870.454134	2528.725948
870.765684	2531.881711
871.077191	2529.209899
871.388657	2533.895652
871.700081	2528.698222
872.011463	2529.998840
872.322803	2528.660413
872.634101	2531.054961
872.945357	2530.016484
873.256571	2529.978675
873.567744	2526.502799
873.878874	2530.051772
874.189963	2530.162677
874.501010	2528.264683
874.812015	2529.512368
875.122979	2531.180990
875.433900	2528.867101
875.744780	2531.687626
876.055618	2532.095960
876.366415	2527.949611
876.677169	2529.507327
876.987882	2528.776360
877.298554	2525.711338
877.609183	2526.543129
877.919771	2526.437264
878.230317	2531.070085
878.540822	2536.494366
878.851285	2531.226361
879.161707	2529.920702
879.472087	2526.911133
879.782425	2530.787780
880.092722	2531.629653
880.402977	2531.838861
880.713191	2532.242153
881.023363	2528.282327
881.333494	2532.663089
881.643583	2532.106042
881.953631	2532.111083
882.263637	2534.553522
882.573602	2534.432534
882.883526	2532.436238
883.193408	2532.393388
883.503248	2530.485311
883.813048	2532.315250
884.122806	2530.800383
884.432522	2530.976823
884.742197	2532.781557
885.051831	2530.165198
885.361424	2530.628984
885.670975	2530.644107
885.980485	2531.460774
886.289954	2530.613860
886.599382	2532.116124
886.908768	2531.395239
887.218113	2528.015146
887.527417	2529.814838
887.836680	2527.826102
888.145901	2528.902389
888.455082	2528.103366
888.764221	2530.394570
889.073319	2530.528161
889.382376	2526.795186
889.691392	2527.581606
890.000366	2529.063706
890.309300	2530.739889
890.618193	2528.420958
890.927044	2528.022707
891.235855	2530.092101
891.544625	2530.747451
891.853353	2530.749972
892.162041	2530.699560
892.470687	2529.202337
892.779293	2530.351720
893.087858	2525.149250
893.396381	2529.877852
893.704864	2526.843077
894.013306	2525.887779
894.321707	2529.769467
894.630068	2529.182173
894.938387	2530.407173
895.246665	2530.515558
895.554903	2531.826258
895.863100	2531.785929
896.171256	2526.739734
896.479371	2531.606968
896.787446	2528.710825
897.095480	2531.664941
897.403473	2528.751154
897.711425	2530.097142
898.019336	2530.243336
898.327207	2530.666792
898.635038	2529.368695
898.942827	2528.660413
899.250576	2533.262987
899.558284	2528.254600
899.865952	2529.651000
900.173579	2527.866432
900.481165	2529.449354
900.788711	2530.036648
901.096216	2529.497245
901.403681	2531.304498
901.711105	2530.323994
902.018489	2528.647810
902.325832	2530.147554
902.633135	2528.615043
902.940397	2528.214271
903.247619	2528.877183
903.554800	2529.388860
903.861941	2530.376926
904.169041	2531.548994
904.476101	2527.866432
904.783121	2530.074457
905.090100	2529.651000
905.397039	2531.261649
905.703938	2529.837523
906.010796	2531.450692
906.317614	2530.850795
906.624391	2531.705270
906.931129	2530.046731
907.237826	2529.076308
907.544483	2529.109076
907.851099	2529.411545
908.157675	2527.498427
908.464211	2527.569003
908.770707	2525.797038
909.077163	2530.384488
909.383578	2522.805113
909.689954	2525.179497
909.996289	2521.035668
910.302584	2528.494055
910.608839	2527.780732
910.915054	2530.190403
911.221229	2528.098325
911.527363	2530.175280
911.833458	2529.104035
912.139513	2531.649818
912.445527	2528.340300
912.751502	2527.448016
913.057436	2526.028931
913.363331	2529.875331
913.669186	2530.404652
913.975000	2529.056144
914.280775	2527.367357
914.586510	2524.907274
914.892205	2527.387522
915.197859	2532.653007
915.503475	2528.027748
915.809050	2530.565969
916.114585	2528.567152
916.420081	2529.678726
916.725536	2530.576052
917.030952	2533.041176
917.336328	2528.874662
917.641665	2530.865918
917.946961	2530.374406
918.252218	2531.612009
918.557435	2527.747964
918.862612	2530.157636
919.167750	2528.178983
919.472848	2527.349713
919.777906	2528.476411
920.082925	2525.802079
920.387904	2527.324508
920.692843	2528.559590
920.997743	2527.500948
921.302603	2528.922553
921.607423	2531.617050
921.912204	2529.174611
922.216946	2528.526823
922.521647	2528.978006
922.826310	2528.327697
923.130932	2529.835002
923.435516	2526.107069
923.740059	2527.445495
924.044564	2524.471214
924.349028	2528.574714
924.653454	2522.729496
924.957840	2526.379291
925.262186	2522.515247
925.566493	2525.260155
925.870761	2523.394928
926.174989	2528.214271
926.479178	2529.744261
926.783328	2528.257121
927.087438	2527.810979
927.391509	2530.576052
927.695541	2528.370547
927.999533	2529.494724
928.303486	2527.606812
928.607400	2525.255114
928.911275	2525.706297
929.215110	2527.400125
929.518906	2529.640918
929.822663	2529.245187
930.126381	2525.671009
930.430060	2527.851308
930.733699	2527.886596
931.037299	2526.321318
931.340861	2528.292409
931.644383	2527.989940
931.947866	2529.035979
932.251309	2529.918181
932.554714	2526.832995
932.858080	2530.162677
933.161407	2526.744775
933.464694	2526.684281
933.767943	2526.102028
934.071153	2526.318797
934.374323	2527.067409
934.677455	2528.904909
934.980548	2528.441123
935.283602	2527.437933
935.586617	2527.813499
935.889593	2527.977337
936.192530	2528.420958
936.495428	2526.001205
936.798287	2528.279806
937.101108	2530.734848
937.403890	2525.509692
937.706632	2528.990609
938.009336	2527.793335
938.312002	2527.778211
938.614628	2527.722759
938.917216	2525.686132
939.219765	2527.783253
939.522275	2528.368026
939.824747	2528.791483
940.127179	2523.780576
940.429573	2523.523477
940.731929	2525.615556
941.034246	2522.669002
941.336524	2524.730834
941.638763	2527.372398
941.940964	2527.954652
942.243126	2526.492717
942.545250	2527.231246
942.847335	2528.294930
943.149381	2525.348375
943.451389	2523.778056
943.753359	2528.158818
944.055290	2527.334590
944.357182	2529.635877
944.659036	2528.746113
944.960851	2529.580424
945.262628	2528.791483
945.564367	2528.254600
945.866067	2525.865093
946.167729	2524.796369
946.469352	2527.306863
946.770937	2527.095135
947.072484	2528.834333
947.373992	2528.456247
947.675462	2526.139836
947.976893	2528.589837
948.278286	2528.171421
948.579641	2526.023890
948.880958	2528.060516
949.182236	2526.999353
949.483476	2528.100845
949.784678	2528.708304
950.085841	2526.096987
950.386967	2528.143695
950.688054	2527.730320
950.989103	2528.431041
951.290114	2528.327697
951.591087	2526.850639
951.892021	2526.674199
952.192917	2529.391381
952.493776	2529.247708
952.794596	2529.124199
953.095378	2529.474560
953.396122	2528.320135
953.696828	2526.364168
953.997496	2527.931967
954.298126	2527.566483
954.598718	2528.831812
954.899272	2528.171421
955.199788	2529.197296
955.500266	2530.402132
955.800706	2525.192099
956.101108	2525.532377
956.401472	2523.674712
956.701798	2526.268386
957.002087	2522.268230
957.302337	2526.344003
957.602550	2526.177645
957.902724	2529.305681
958.202861	2528.645290
958.502960	2526.780063
958.803022	2529.661082
959.103045	2526.956503
959.403031	2527.200999
959.702979	2527.505989
960.002889	2527.574045
960.302762	2527.032121
960.602596	2528.642769
960.902393	2525.953314
961.202153	2527.324507
961.501875	2526.371729
961.801559	2528.544467
962.101205	2524.667819
962.400814	2529.696370
962.700385	2525.406348
962.999918	2530.359282
963.299414	2527.949611
963.598873	2525.429034
963.898293	2525.978519
964.197677	2526.061698
964.497022	2526.964065
964.796331	2527.011956
965.095601	2528.947759
965.394835	2528.342821
965.694030	2526.540608
965.993189	2526.996832
966.292309	2530.026566
966.591393	2529.280475
966.890439	2525.923067
967.189447	2527.475742
967.488419	2525.262676
967.787353	2528.859539
968.086249	2526.381812
968.385108	2526.283509
968.683930	2527.211082
968.982714	2528.645290
969.281462	2525.499610
969.580172	2526.162522
969.878844	2524.481297
970.177480	2526.361647
970.476078	2526.384332
970.774639	2527.440454
971.073162	2525.383663
971.371649	2523.541122
971.670098	2523.412572
971.968510	2524.148581
972.266885	2524.143539
972.565223	2526.006246
972.863524	2527.231246
973.161788	2526.316277
973.460014	2526.848118
973.758204	2527.851308
974.056356	2526.585978
974.354471	2524.536749
974.652550	2528.375588
974.950591	2527.309384
975.248595	2526.419620
975.546563	2526.545649
975.844493	2526.452388
976.142386	2527.185876
976.440243	2526.701925
976.738062	2526.530526
977.035845	2526.989271
977.333590	2524.483817
977.631299	2525.920546
977.928971	2525.764270
978.226606	2527.281658
978.524204	2528.027748
978.821765	2524.793848
979.119290	2524.566996
979.416777	2525.933149
979.714228	2526.626308
980.011642	2527.195958
980.309020	2528.063037
980.606360	2528.403314
980.903664	2525.267717
981.200931	2527.291740
981.498162	2526.013808
981.795356	2525.918026
982.092513	2526.449867
982.389633	2524.841739
982.686717	2525.991122
982.983764	2525.315608
983.280775	2526.215454
983.577749	2524.826616
983.874686	2526.399456
984.171587	2524.927439
984.468451	2525.885258
984.765279	2527.074970
985.062070	2525.345855
985.358824	2523.881399
985.655543	2526.114631
985.952224	2526.109589
986.248869	2525.182017
986.545478	2523.100021
986.842050	2525.287881
987.138586	2522.923580
987.435086	2524.748478
987.731549	2520.375277
988.027975	2525.759229
988.324366	2526.651513
988.620719	2526.706966
988.917037	2525.403828
989.213318	2527.127903
989.509563	2524.418282
989.805772	2523.195803
990.101944	2525.965917
990.398080	2528.239477
990.694180	2528.201668
990.990244	2526.454908
991.286271	2526.626308
991.582262	2526.878365
991.878217	2525.237470
992.174136	2524.133457
992.470019	2527.848788
992.765865	2524.463653
993.061676	2526.389373
993.357450	2527.145547
993.653188	2527.558921
993.948890	2525.391225
994.244556	2528.236956
994.540186	2528.201668
994.835780	2527.440454
995.131337	2524.645134
995.426859	2525.822244
995.722345	2527.904240
996.017795	2529.373737
996.313208	2527.851308
996.608586	2525.539939
996.903928	2526.223015
997.199234	2525.718900
997.494504	2524.831657
997.789738	2524.514064
998.084936	2527.803417
998.380099	2523.094979
998.675225	2526.427182
998.970316	2524.425844
999.265371	2527.697553
999.560390	2523.629342
999.855373	2526.946421
1000.150320	2525.436595
1000.445232	2523.309228
1000.740108	2525.857532
1001.034948	2526.654034
1001.329752	2524.440967
1001.624521	2526.437264
1001.919254	2520.637417
1002.213951	2521.817047
1002.508613	2522.275792
1002.803239	2523.145391
1003.097829	2520.254289
1003.392384	2528.274765
1003.686903	2526.505320
1003.981386	2525.303005
1004.275834	2525.875176
1004.570246	2529.900537
1004.864623	2528.322656
1005.158964	2523.589012
1005.453270	2525.285361
1005.747540	2525.013138
1006.041775	2526.167563
1006.335974	2527.720238
1006.630138	2527.732841
1006.924266	2524.556914
1007.218359	2523.919208
1007.512416	2525.464322
1007.806438	2527.899199
1008.100425	2524.110772
1008.394376	2527.687471
1008.688292	2521.355781
1008.982172	2526.613705
1009.276017	2522.580782
1009.569827	2526.303674
1009.863602	2527.059847
1010.157341	2524.632531
1010.451045	2524.587161
1010.744714	2526.263345
1011.038347	2526.805269
1011.331945	2526.964065
1011.625508	2526.906092
1011.919036	2525.686133
1012.212528	2525.842408
1012.505986	2520.841584
1012.799408	2526.490197
1013.092795	2524.708149
1013.386147	2523.357119
1013.679464	2523.586492
1013.972745	2525.124044
1014.265992	2525.975999
1014.559204	2525.522295
1014.852380	2523.899043
1015.145521	2524.443488
1015.438628	2524.803931
1015.731699	2528.027748
1016.024736	2526.275948
1016.317737	2528.801566
1016.610703	2526.822913
1016.903635	2521.441481
1017.196531	2521.363343
1017.489393	2521.932993
1017.782219	2521.628004
1018.075011	2521.512057
1018.367768	2522.991636
1018.660490	2526.472553
1018.953177	2526.472553
1019.245829	2526.472553
