Dividing Wavelength (nm)	Counts (n)	Blue Motor Position (mm): 0.000000	Red Motor Position (mm): 42.000000	
326.493990	2139.158182
326.888308	2139.158182
327.282561	2139.158182
327.676750	2113.440736
328.070874	2112.666918
328.464933	2117.927363
328.858929	2127.805503
329.252859	2141.633388
329.646726	2154.357261
330.040528	2167.164312
330.434265	2186.955882
330.827938	2205.809798
331.221547	2227.940463
331.615091	2247.013668
332.008571	2267.145516
332.401986	2288.235183
332.795338	2308.931641
333.188625	2324.879331
333.581847	2344.489419
333.975006	2363.860053
334.368100	2381.176416
334.761129	2400.728532
335.154095	2416.086407
335.546996	2439.469799
335.939833	2459.952007
336.332606	2476.565129
336.725315	2486.181130
337.117960	2492.890906
337.510540	2505.022443
337.903056	2511.457476
338.295508	2516.465862
338.687896	2522.474918
339.080220	2533.550332
339.472480	2536.176774
339.864676	2543.231868
340.256807	2542.755479
340.648875	2551.600184
341.040879	2548.628424
341.432818	2549.550955
341.824694	2552.767211
342.216506	2552.099258
342.608253	2554.019938
342.999937	2551.436346
343.391557	2548.877961
343.783113	2548.414175
344.174605	2546.415357
344.566033	2544.139276
344.957397	2543.831766
345.348697	2544.023330
345.739934	2540.348328
346.131106	2540.197094
346.522215	2536.552340
346.913260	2533.817514
347.304241	2534.233409
347.695159	2532.330373
348.086012	2531.717873
348.476802	2529.295599
348.867528	2527.029600
349.258191	2525.308046
349.648789	2526.134795
350.039324	2524.534229
350.429796	2524.088087
350.820203	2522.051461
351.210548	2521.970802
351.600828	2519.059536
351.991045	2520.486182
352.381198	2519.301511
352.771288	2518.580626
353.161314	2520.057684
353.551276	2519.810668
353.941175	2521.002901
354.331010	2521.509537
354.720782	2517.864782
355.110490	2518.560462
355.500135	2519.656913
355.889717	2519.886285
356.279235	2522.646317
356.668689	2520.206398
357.058080	2521.517098
357.447408	2519.359484
357.836672	2518.124402
358.225873	2520.430730
358.615010	2518.812519
359.004084	2523.621780
359.393095	2523.833508
359.782043	2526.528005
360.170927	2525.050947
360.559748	2526.200330
360.948505	2528.352903
361.337199	2527.463139
361.725830	2525.774353
362.114398	2528.093283
362.502903	2530.762574
362.891344	2531.506145
363.279722	2528.279806
363.668037	2529.824920
364.056289	2528.337779
364.444478	2530.563449
364.832603	2530.495393
365.220665	2531.722914
365.608665	2528.922553
365.996601	2534.142668
366.384474	2532.655528
366.772284	2533.479756
367.160031	2532.239632
367.547715	2533.893131
367.935336	2534.137627
368.322893	2533.903213
368.710388	2534.185518
369.097820	2541.303627
369.485189	2534.046886
369.872495	2536.136444
370.259738	2534.951773
370.646918	2535.531506
371.034035	2538.636857
371.421090	2538.987217
371.808081	2536.360776
372.195010	2539.234233
372.581875	2539.559388
372.968678	2541.054090
373.355418	2542.793288
373.742096	2541.656508
374.128710	2542.619368
374.515262	2543.814122
374.901751	2544.834955
375.288177	2547.239586
375.674540	2548.295708
376.060841	2550.901984
376.447079	2548.865358
376.833254	2551.479196
377.219367	2551.791748
377.605417	2554.098076
377.991404	2555.872562
378.377329	2557.352140
378.763191	2559.776935
379.148991	2566.700960
379.534727	2572.107598
379.920402	2571.797567
380.306013	2579.334092
380.691563	2584.032447
381.077049	2586.784917
381.462474	2590.850608
381.847835	2597.187338
382.233134	2601.825200
382.618371	2606.142948
383.003545	2614.571757
383.388657	2619.365894
383.773706	2622.345216
384.158693	2631.048768
384.543618	2639.343987
384.928480	2644.964874
385.313280	2652.965185
385.698017	2659.856442
386.082692	2670.757937
386.467305	2672.398833
386.851856	2683.446522
387.236344	2694.746268
387.620770	2700.359593
388.005133	2708.843855
388.389435	2721.973540
388.773674	2728.625342
389.157851	2737.898545
389.541965	2744.414236
389.926018	2747.693507
390.310008	2762.171701
390.693936	2772.334667
391.077802	2780.350101
391.461606	2788.995680
391.845348	2799.778708
392.229027	2808.724236
392.612645	2824.923984
392.996200	2829.231650
393.379694	2842.197497
393.763125	2861.361444
394.146494	2868.860160
394.529801	2877.619165
394.913047	2894.751526
395.296230	2901.408370
395.679351	2903.903741
396.062410	2921.099117
396.445408	2920.784045
396.828343	2932.030859
397.211217	2937.833227
397.594028	2933.011363
397.976778	2948.180195
398.359466	2961.624953
398.742092	2955.754529
399.124656	2970.477219
399.507158	2988.658140
399.889598	2989.590753
400.271977	3006.735718
400.654294	3012.354084
401.036549	3026.118954
401.418742	3030.456867
401.800874	3051.375135
402.182944	3062.798390
402.564952	3086.804364
402.946898	3079.890422
403.328783	3086.529621
403.710606	3104.133331
404.092367	3124.325672
404.474067	3154.711227
404.855705	3144.276039
405.237282	3145.773261
405.618797	3177.714012
406.000250	3196.779656
406.381642	3230.288206
406.762972	3232.445819
407.144240	3221.567009
407.525447	3246.119949
407.906593	3245.396544
408.287677	3267.408742
408.668700	3286.108902
409.049661	3281.687810
409.430560	3299.803197
409.811399	3304.191521
410.192176	3324.764470
410.572891	3333.528516
410.953545	3367.820965
411.334138	3340.069413
411.714669	3390.707803
412.095139	3335.466839
412.475547	3388.086403
412.855894	3376.141389
413.236180	3405.843868
413.616405	3388.716548
413.996568	3414.534817
414.376670	3413.970208
414.756711	3409.347470
415.136691	3437.905606
415.516609	3461.946869
415.896466	3465.130357
416.276262	3490.842763
416.655997	3524.449615
417.035670	3529.934390
417.415283	3597.246397
417.794834	3619.074593
418.174324	3600.029114
418.553753	3599.706480
418.933121	3645.701968
419.312428	3634.586223
419.691674	3630.417189
420.070859	3667.567972
420.449983	3649.210611
420.829045	3698.568548
421.208047	3681.592462
421.586988	3727.633321
421.965867	3756.304883
422.344686	3766.104886
422.723444	3805.304898
423.102141	3709.883418
423.480777	3815.956857
423.859352	3782.085344
424.237866	3878.207545
424.616319	3863.590719
424.994712	3922.635234
425.373044	3911.854726
425.751314	3976.789829
426.129524	3911.519489
426.507673	4010.709232
426.885762	3987.966067
427.263789	4007.193028
427.641756	4016.569574
428.019662	4044.159809
428.397508	4047.237433
428.775292	4085.507353
429.153016	4090.321655
429.530679	4102.269189
429.908282	4110.710601
430.285824	4087.473403
430.663305	4159.952592
431.040726	4118.408443
431.418086	4110.655149
431.795385	4184.071993
432.172624	4221.159762
432.549802	4191.185061
432.926920	4205.925395
433.303977	4197.085731
433.680974	4239.254983
434.057910	4262.703910
434.434786	4264.927059
434.811601	4262.035958
435.188355	4370.549315
435.565050	4341.217361
435.941683	4335.954396
436.318257	4425.442439
436.694770	4429.240948
437.071222	4486.032067
437.447614	4423.809105
437.823946	4424.280453
438.200218	4444.308957
438.576429	4423.531842
438.952580	4450.615441
439.328670	4453.350267
439.704700	4497.316690
440.080670	4463.440136
440.456580	4522.270401
440.832429	4555.930186
441.208218	4464.304694
441.583947	4510.958052
441.959616	4531.823388
442.335224	4552.393816
442.710773	4575.424328
443.086261	4628.984067
443.461689	4583.351542
443.837057	4591.677008
444.212365	4670.966796
444.587612	4674.087270
444.962800	4642.333042
445.337927	4683.073127
445.712995	4571.368719
446.088002	4760.275877
446.462949	4779.500317
446.837837	4800.413544
447.212664	4789.454076
447.587431	5010.904403
447.962139	5306.346265
448.336786	5646.228419
448.711374	5636.390607
449.085901	5284.102173
449.460369	5218.221854
449.834776	5154.342873
450.209124	5386.563625
450.583412	5394.563937
450.957640	5519.312330
451.331808	5381.686309
451.705917	5230.973453
452.079965	5225.649995
452.453954	5264.789513
452.827883	5227.863061
453.201752	5235.094596
453.575562	5266.465697
453.949311	5396.701386
454.323001	5404.711779
454.696632	5392.663422
455.070202	5548.666968
455.443713	5579.170990
455.817164	5670.919990
456.190556	5740.157718
456.563888	5714.924222
456.937160	5794.629906
457.310373	5640.131143
457.683526	5696.183733
458.056619	5685.884656
458.429653	5671.151883
458.802628	5714.054623
459.175542	5746.945632
459.548398	5881.814141
459.921194	6070.446556
460.293930	6131.041225
460.666607	6382.924998
461.039224	6588.914106
461.411782	6720.228602
461.784280	6638.864379
462.156719	6643.671119
462.529099	6608.733402
462.901419	6464.163192
463.273680	6335.646537
463.645882	6324.868550
464.018024	6321.395195
464.390106	6387.386419
464.762130	6646.539535
465.134094	7028.830396
465.505999	7658.783063
465.877845	8362.530661
466.249631	8721.082728
466.621358	8658.663161
466.993026	8457.503478
467.364634	8245.142352
467.736184	7964.264383
468.107674	7807.640774
468.479105	7724.489462
468.850477	7662.200965
469.221790	7480.820250
469.593043	7264.012826
469.964238	7163.035994
470.335373	7140.547407
470.706449	7287.749099
471.077467	7469.835576
471.448425	8128.840412
471.819324	8710.168630
472.190164	8752.549610
472.560945	8275.263246
472.931667	7808.495250
473.302330	7614.330168
473.672934	7490.910119
474.043479	7566.487098
474.413965	7470.276677
474.784393	7418.539315
475.154761	7573.685866
475.525070	7580.756084
475.895321	7531.786315
476.265513	7634.305741
476.635645	7801.193139
477.005719	7790.768033
477.375734	7873.871454
477.745691	7980.194429
478.115588	8188.804937
478.485427	8421.181965
478.855207	8892.043378
479.224928	9321.204367
479.594591	9707.548315
479.964194	9720.678001
480.333739	9804.456936
480.703226	9805.460126
481.072653	9905.022914
481.442022	10016.220686
481.811333	10174.545684
482.180584	10009.364717
482.549777	9955.409247
482.918912	9891.142097
483.287988	9875.464109
483.657005	9786.011354
484.025964	9701.047747
484.394864	9760.122509
484.763706	9718.606086
485.132489	9634.958221
485.501213	9625.584195
485.869879	9686.360346
486.238487	9620.464903
486.607036	9692.341675
486.975527	9645.461465
487.343959	9698.620432
487.712333	9744.958718
488.080648	9784.456158
488.448905	9886.587415
488.817104	9892.278878
489.185244	10054.152848
489.553326	10268.573286
489.921350	10730.103523
490.289315	11353.898421
490.657222	11645.690488
491.025070	11832.460197
491.392861	11748.996333
491.760593	11590.202507
492.128267	11347.665034
492.495883	11104.416758
492.863440	10870.290450
493.230939	10645.520523
493.598380	10463.111413
493.965763	10439.410428
494.333088	10302.424634
494.700354	10231.195651
495.067563	10205.155570
495.434713	10214.776612
495.801805	10266.584551
496.168839	10216.684689
496.535815	10189.480102
496.902733	10229.476617
497.269593	10188.716368
497.636395	10199.688439
498.003139	10312.174225
498.369825	10224.069980
498.736453	10323.184105
499.103023	10265.611608
499.469535	10276.253484
499.835989	10323.128653
500.202385	10296.786103
500.568723	10316.345780
500.935003	10377.668896
501.301226	10342.711015
501.667390	10517.722232
502.033497	10622.414395
502.399546	10543.094360
502.765537	10444.582652
503.131470	10546.464371
503.497345	10641.096911
503.863163	10420.165823
504.228923	10547.404546
504.594625	10667.696559
504.960269	10575.866901
505.325856	10725.992462
505.691385	10601.818761
506.056856	10665.284367
506.422270	10770.808320
506.787625	10698.732423
507.152924	10757.199725
507.518164	10817.053345
507.883347	10689.217245
508.248472	10759.203584
508.613540	10874.903106
508.978550	10943.830802
509.343503	10927.562999
509.708398	10983.673562
510.073236	11102.740574
510.438016	11118.640374
510.802738	11034.120388
511.167403	11159.355253
511.532010	11215.707791
511.896561	11310.461319
512.261053	11517.415808
512.625488	11430.818867
512.989866	11419.892166
513.354186	11395.195553
513.718449	11399.374670
514.082655	11544.002853
514.446803	11493.377065
514.810894	11610.389808
515.174927	11607.473500
515.538904	11585.799059
515.902822	11752.847774
516.266684	11618.768206
516.630488	11722.121942
516.994235	11708.145343
517.357925	11822.589617
517.721558	11883.035572
518.085133	11944.996394
518.448651	11977.758853
518.812112	11939.554469
519.175516	11942.173348
519.538863	12036.914273
519.902152	12045.070860
520.265385	12146.839153
520.628560	12161.511432
520.991678	12115.226077
521.354739	12174.333606
521.717743	12245.131571
522.080690	12214.360368
522.443580	12348.739885
522.806413	12349.574196
523.169189	12352.195596
523.531908	12410.436047
523.894569	12381.094011
524.257174	12387.967624
524.619722	12488.969662
524.982213	12472.563227
525.344647	12455.705608
525.707025	12465.069552
526.069345	12571.611818
526.431608	12548.992160
526.793815	12632.544244
527.155964	12527.161443
527.518057	12558.424159
527.880093	12512.279957
528.242072	12624.395219
528.603995	12556.027090
528.965860	12562.784757
529.327669	12599.285232
529.689421	12548.997201
530.051117	12559.933985
530.412755	12595.532093
530.774337	12605.692538
531.135862	12574.618866
531.497331	12618.413890
531.858743	12582.167994
532.220098	12666.226713
532.581396	12586.493304
532.942638	12511.022189
533.303824	12578.339237
533.664953	12562.177298
534.026025	12517.028724
534.387040	12622.514868
534.747999	12594.614602
535.108902	12633.915438
535.469748	12517.794980
535.830537	12546.945452
536.191270	12578.067015
536.551947	12506.369204
536.912567	12573.855131
537.273131	12607.613218
537.633638	12486.945639
537.994089	12540.538145
538.354483	12450.609002
538.714821	12574.812950
539.075103	12657.545847
539.435328	12604.911159
539.795497	12582.031883
540.155609	12580.638003
540.515665	12671.968588
540.875665	12535.630582
541.235609	12635.263947
541.595496	12596.610899
541.955328	12765.297989
542.315102	12616.203344
542.674821	12546.869834
543.034483	12568.224162
543.394090	12567.757855
543.753640	12534.813915
544.113134	12780.154270
544.472571	12552.657079
544.831953	12826.585817
545.191278	12636.877116
545.550548	12579.256727
545.909761	12687.364272
546.268918	12729.772978
546.628019	12800.397023
546.987064	12691.561032
547.346053	12532.719316
547.704986	12740.382087
548.063863	12621.652831
548.422684	12670.451200
548.781449	12627.906383
549.140158	12730.239285
549.498811	12673.448166
549.857408	12547.494937
550.215949	12744.142787
550.574434	12709.520143
550.932864	12649.943787
551.291237	12848.025845
551.649555	12739.643558
552.007817	12805.458342
552.366022	12718.334600
552.724173	12766.843103
553.082267	12852.232687
553.440305	12934.514401
553.798288	12764.841765
554.156215	12835.213752
554.514086	12887.256104
554.871902	12825.050786
555.229661	12849.023993
555.587365	12786.629632
555.945014	12811.989156
556.302606	12802.295017
556.660143	12865.576622
557.017625	12891.969583
557.375050	12850.891741
557.732421	12951.031741
558.089735	12949.474025
558.446994	12911.330134
558.804197	13033.502498
559.161345	13028.559646
559.518437	12839.317251
559.875474	12936.931634
560.232455	12972.998569
560.589381	13025.235005
560.946251	12950.449488
561.303065	13126.141261
561.659825	13086.618615
562.016528	12992.071775
562.373177	12940.331892
562.729770	13052.860528
563.086307	12936.919031
563.442789	13044.943396
563.799216	13087.072319
564.155587	13026.858257
564.511904	13059.015777
564.868164	13063.583063
565.224370	13122.798976
565.580520	13075.243251
565.936615	13130.794246
566.292654	13069.135893
566.648638	13144.085248
567.004567	13153.444150
567.360441	13142.716575
567.716260	13110.899332
568.072023	13191.598123
568.427732	13175.428622
568.783385	13072.692427
569.138982	13186.909850
569.494525	13185.236187
569.850013	13139.134835
570.205445	13130.297693
570.560823	13140.017037
570.916145	13094.006426
571.271412	13105.631327
571.626625	13066.365779
571.981782	13059.885376
572.336884	12998.985717
572.691931	13088.899737
573.046923	12986.161022
573.401860	12954.641207
573.756743	12951.765229
574.111570	12981.182882
574.466342	12958.129686
574.821059	13014.318387
575.175722	12883.939025
575.530330	12914.911874
575.884882	12843.037623
576.239380	12831.899193
576.593823	12817.536946
576.948211	12816.125423
577.302544	12688.017101
577.656823	12706.772714
578.011047	12764.171292
578.365216	12709.822612
578.719330	12642.079587
579.073389	12615.326183
579.427394	12627.661887
579.781344	12612.223353
580.135239	12545.919577
580.489080	12565.302813
580.842866	12437.325561
581.196597	12538.693083
581.550273	12530.574305
581.903895	12495.071979
582.257463	12598.826487
582.610975	12451.455916
582.964434	12516.000329
583.317837	12440.720778
583.671186	12401.614027
584.024481	12443.861417
584.377721	12334.009634
584.730906	12402.415571
585.084037	12416.157756
585.437113	12334.145745
585.790135	12358.343283
586.143103	12276.900923
586.496016	12293.226699
586.848874	12300.349850
587.201679	12296.679890
587.554428	12168.475786
587.907124	12217.569062
588.259765	12152.013898
588.612352	12222.201883
588.964884	12090.610123
589.317362	12137.505457
589.669786	12128.123870
590.022155	12081.677199
590.374470	12182.137313
590.726731	12060.605176
591.078937	11947.504368
591.431090	11983.735141
591.783188	11909.993143
592.135232	11829.400216
592.487222	11891.376162
592.839157	11899.711709
593.191038	11834.869868
593.542866	11783.059409
593.894639	11634.892336
594.246358	11707.237935
594.598022	11706.643079
594.949633	11613.817793
595.301190	11598.820360
595.652692	11558.493650
596.004141	11640.654375
596.355535	11425.031622
596.706876	11405.749209
597.058162	11378.766433
597.409395	11463.336830
597.760573	11493.583753
598.111698	11388.442927
598.462768	11382.615354
598.813785	11394.083979
599.164748	11264.455749
599.515657	11333.302787
599.866511	11205.809485
600.217312	11333.799340
600.568060	11097.401992
600.918753	11267.044381
601.269392	11266.749474
601.619978	11168.300780
601.970510	11204.569362
602.320988	11248.198027
602.671412	11314.902575
603.021783	11238.115720
603.372100	11162.667291
603.722363	11178.937615
604.072572	11185.917092
604.422728	11195.124760
604.772830	11132.743002
605.122878	11139.929166
605.472872	11108.512696
605.822813	11161.727116
606.172701	11122.557350
606.522534	11162.160655
606.872314	11210.381812
607.222041	11142.991667
607.571714	11216.942874
607.921333	11080.781308
608.270899	11131.175203
608.620411	11188.185612
608.969870	11135.654268
609.319276	11109.629311
609.668627	11125.745880
610.017926	11209.136647
610.367171	11236.348795
610.716362	11227.156251
611.065500	11195.376818
611.414585	11206.490041
611.763616	11271.407500
612.112594	11227.952754
612.461518	11244.144940
612.810389	11293.321396
613.159207	11236.096738
613.507971	11229.263454
613.856682	11325.925058
614.205340	11275.276585
614.553945	11415.181208
614.902496	11282.422421
615.250994	11345.373830
615.599439	11326.446817
615.947830	11359.514266
616.296169	11317.569346
616.644454	11336.652633
616.992686	11340.665392
617.340864	11424.938361
617.688990	11316.293934
618.037063	11439.567789
618.385082	11401.862479
618.733048	11432.825246
619.080961	11410.293809
619.428821	11396.884340
619.776628	11408.710887
620.124382	11342.815444
620.472083	11367.444001
620.819731	11378.622760
621.167326	11301.530915
621.514868	11272.440936
621.862357	11169.568630
622.209793	11163.362970
622.557176	11080.872049
622.904506	11024.932885
623.251783	10942.741913
623.599007	10876.009639
623.946179	10823.591721
624.293297	10797.952413
624.640363	10665.654892
624.987376	10645.840637
625.334336	10573.343803
625.681243	10494.790023
626.028097	10458.990269
626.374899	10417.912427
626.721647	10387.766327
627.068343	10340.855870
627.414987	10270.587227
627.761577	10195.539569
628.108115	10243.024718
628.454600	10115.274318
628.801032	10131.794179
629.147412	10105.580179
629.493739	10074.758564
629.840014	9986.142642
630.186236	10029.516729
630.532405	9919.705275
630.878521	9950.410943
631.224585	9896.188292
631.570597	9808.792329
631.916556	9811.665786
632.262462	9793.583168
632.608316	9762.814485
632.954117	9725.943486
633.299866	9707.296258
633.645562	9680.845323
633.991206	9579.455117
634.336797	9481.371907
634.682336	9469.540319
635.027823	9402.228312
635.373257	9370.211944
635.718639	9292.910891
636.063968	9260.085418
636.409245	9146.241040
636.754470	9133.842322
637.099642	9072.831758
637.444762	8974.032704
637.789829	8971.335687
638.134845	8896.156960
638.479808	8867.717290
638.824719	8842.572015
639.169577	8745.169361
639.514383	8744.201459
639.859137	8659.782297
640.203839	8688.249693
640.548489	8613.237324
640.893086	8614.643806
641.237632	8542.502373
641.582125	8536.798308
641.926566	8511.998352
642.270955	8490.603695
642.615292	8474.910583
642.959576	8448.588198
643.303809	8430.757637
643.647990	8439.372969
643.992118	8413.814319
644.336195	8382.380204
644.680219	8374.889049
645.024192	8393.957214
645.368112	8441.744832
645.711981	8412.518742
646.055797	8529.665075
646.399562	8479.692117
646.743274	8607.543340
647.086935	8653.445567
647.430544	8621.706462
647.774101	8635.551991
648.117606	8645.120101
648.461059	8691.327317
648.804460	8614.043908
649.147810	8499.748348
649.491108	8464.735014
649.834354	8396.374447
650.177548	8263.971062
650.520690	8177.958895
650.863781	8164.206627
651.206820	8129.795711
651.549807	8045.323617
651.892742	7951.933721
652.235626	7911.382679
652.578458	7864.835185
652.921238	7758.522292
653.263967	7782.540869
653.606644	7715.364974
653.949269	7680.507916
654.291843	7611.756659
654.634365	7660.572673
654.976836	7578.986639
655.319255	7558.892600
655.661622	7540.731843
656.003938	7492.679564
656.346203	7456.736138
656.688416	7468.615617
657.030577	7426.700943
657.372687	7378.341154
657.714746	7402.442911
658.056753	7403.700678
658.398708	7305.314999
658.740612	7294.237064
659.082465	7318.361506
659.424266	7271.506501
659.766016	7268.668332
660.107715	7239.974084
660.449362	7240.571461
660.790958	7226.080664
661.132503	7206.551234
661.473996	7187.977102
661.815438	7192.597320
662.156829	7211.662964
662.498168	7152.074005
662.839456	7142.460524
663.180693	7141.588405
663.521879	7148.283057
663.863013	7119.356916
664.204097	7109.526666
664.545129	7159.981055
664.886110	7131.952239
665.227040	7125.063502
665.567918	7122.507637
665.908746	7114.837522
666.249522	7114.845084
666.590248	7102.806808
666.930922	7099.681293
667.271545	7079.015083
667.612118	7075.871923
667.952639	7036.853393
668.293109	7029.374841
668.633528	6999.506004
668.973896	6979.820298
669.314213	6967.353525
669.654480	6923.324087
669.994695	6907.414206
670.334859	6878.687191
670.674973	6852.115269
671.015035	6858.822524
671.355047	6835.124060
671.695008	6809.499875
672.034918	6780.233456
672.374777	6772.273474
672.714585	6737.522280
673.054342	6749.910916
673.394049	6707.613114
673.733705	6721.708180
674.073310	6677.809813
674.412864	6672.816550
674.752368	6614.661799
675.091820	6639.633155
675.431223	6576.558238
675.770574	6524.578900
676.109875	6501.361866
676.449125	6452.659279
676.788324	6437.195540
677.127473	6360.156627
677.466571	6338.020920
677.805619	6288.499145
678.144616	6276.344923
678.483562	6246.282002
678.822458	6198.887594
679.161303	6177.457649
679.500098	6147.029245
679.838842	6121.596624
680.177535	6120.263238
680.516179	6139.974150
680.854771	6131.946112
681.193314	6188.923754
681.531805	6279.067146
681.870247	6347.495769
682.208638	6432.459376
682.546978	6471.571168
682.885268	6480.511654
683.223508	6423.854126
683.561697	6375.212032
683.899836	6341.522001
684.237925	6264.026864
684.575963	6232.461679
684.913951	6167.521535
685.251889	6167.501371
685.589776	6148.637373
685.927614	6120.454802
686.265401	6115.917764
686.603137	6105.603563
686.940824	6136.084900
687.278460	6156.463764
687.616046	6148.304657
687.953582	6202.028233
688.291068	6174.576630
688.628504	6196.475402
688.965889	6188.901069
689.303224	6147.984543
689.640510	6113.823164
689.977745	6034.838366
690.314930	5944.367298
690.652065	5887.654318
690.989150	5810.441485
691.326185	5708.234611
691.663170	5629.186798
692.000105	5547.477256
692.336990	5462.306962
692.673825	5411.403911
693.010610	5342.992933
693.347345	5271.164052
693.684030	5191.090364
694.020665	5156.744983
694.357251	5082.100618
694.693786	5064.297783
695.030272	5026.012741
695.366707	4963.338595
695.703093	4917.232202
696.039429	4907.989247
696.375716	4870.460377
696.711952	4854.031257
697.048139	4826.987987
697.384276	4805.973937
697.720363	4804.743895
698.056400	4778.280358
698.392388	4752.552830
698.728326	4738.619080
699.064214	4714.444227
699.400053	4707.598340
699.735842	4666.157535
700.071581	4630.375425
700.407270	4594.951237
700.742910	4568.795210
701.078501	4537.507289
701.414042	4506.113503
701.749533	4463.755208
702.084974	4425.475206
702.420366	4434.703038
702.755709	4391.003796
703.091002	4357.180175
703.426246	4349.487374
703.761440	4331.692101
704.096584	4303.658244
704.431679	4292.184578
704.766725	4272.428296
705.101721	4256.735184
705.436668	4258.706275
705.771565	4220.524576
706.106413	4244.384357
706.441212	4232.830033
706.775961	4234.743151
707.110661	4228.716451
707.445311	4252.856016
707.779913	4226.737798
708.114465	4244.341508
708.448967	4253.856685
708.783421	4300.505003
709.117825	4319.081654
709.452180	4324.415195
709.786485	4352.852344
710.120742	4412.131272
710.454949	4408.375612
710.789107	4433.956948
711.123216	4485.994258
711.457275	4494.198736
711.791286	4538.828071
712.125247	4545.966345
712.459159	4525.317779
712.793023	4580.977158
713.126837	4491.194208
713.460602	4510.194317
713.794318	4475.879183
714.127985	4441.531281
714.461602	4365.976988
714.795171	4355.413250
715.128691	4263.903705
715.462162	4215.178433
715.795584	4172.157226
716.128957	4143.808297
716.462281	4104.502420
716.795556	4073.804314
717.128782	4031.778735
717.461960	3979.970797
717.795088	3966.778097
718.128167	3927.842746
718.461198	3885.726426
718.794180	3869.163715
719.127113	3838.954600
719.459997	3815.167916
719.792833	3778.425466
720.125619	3772.996143
720.458357	3741.529261
720.791046	3721.430181
721.123686	3702.067109
721.456278	3680.256557
721.788821	3673.216585
722.121315	3651.607679
722.453761	3645.618789
722.786158	3633.520019
723.118506	3628.738485
723.450805	3615.954119
723.783056	3620.115591
724.115259	3606.804425
724.447412	3597.211109
724.779518	3611.447327
725.111574	3606.383488
725.443582	3617.907566
725.775542	3609.143520
726.107453	3638.964466
726.439315	3624.027527
726.771129	3651.320334
727.102895	3671.207686
727.434612	3684.745704
727.766281	3693.605532
728.097901	3707.103222
728.429473	3709.734704
728.760996	3705.301009
729.092471	3706.624312
729.423897	3698.868497
729.755276	3680.375024
730.086606	3681.022812
730.417887	3708.396277
730.749120	3734.811924
731.080305	3740.248808
731.411442	3760.771345
731.742530	3761.134308
732.073570	3766.082201
732.404562	3778.856485
732.735506	3773.502779
733.066401	3760.262189
733.397249	3728.059298
733.728048	3680.415353
734.058798	3622.590798
734.389501	3572.766554
734.720156	3533.508568
735.050762	3491.150273
735.381320	3460.250521
735.711831	3437.290585
736.042293	3403.822365
736.372707	3398.897158
736.703073	3380.827142
737.033391	3386.921897
737.363661	3379.037532
737.693883	3379.438304
738.024056	3387.526835
738.354182	3393.298956
738.684260	3407.469640
739.014290	3421.927669
739.344272	3432.781273
739.674207	3447.395578
740.004093	3456.540231
740.333931	3457.518215
740.663722	3460.129533
740.993464	3457.044347
741.323159	3447.753500
741.652806	3426.381528
741.982405	3409.687748
742.311956	3384.829818
742.641460	3375.483519
742.970915	3351.225486
743.300323	3329.157835
743.629683	3309.792243
743.958996	3286.981022
744.288260	3268.001078
744.617477	3247.004672
744.946647	3233.499421
745.275768	3213.176009
745.604842	3197.694625
745.933869	3186.944365
746.262847	3178.124866
746.591778	3174.107067
746.920662	3161.841939
747.249498	3157.955210
747.578286	3164.145747
747.907027	3162.391425
748.235720	3176.204187
748.564365	3178.412212
748.892963	3171.029442
749.221514	3172.650173
749.550017	3165.532064
749.878473	3156.440343
750.206881	3145.901811
750.535242	3138.135913
750.863555	3129.276085
751.191821	3122.601598
751.520039	3117.951133
751.848210	3113.154475
752.176334	3110.472582
752.504411	3103.840944
752.832440	3093.224274
753.160421	3091.114551
753.488356	3087.510126
753.816243	3084.495516
754.144082	3071.456571
754.471875	3070.929771
754.799620	3065.162691
755.127318	3054.999725
755.454969	3051.455793
755.782572	3052.217008
756.110129	3050.102244
756.437638	3044.892211
756.765100	3041.680996
757.092515	3040.193856
757.419882	3039.195707
757.747203	3036.707898
758.074477	3036.395346
758.401703	3034.008360
758.728882	3038.595810
759.056014	3042.548075
759.383099	3047.760628
759.710138	3053.189950
760.037129	3054.170455
760.364073	3059.501475
760.690970	3052.007800
761.017820	3049.961091
761.344623	3052.879919
761.671379	3063.872155
761.998088	3075.688620
762.324751	3123.708131
762.651366	3232.690315
762.977935	3401.241294
763.304456	3531.673588
763.630931	3593.783124
763.957359	3561.529822
764.283740	3481.398161
764.610074	3399.365985
764.936362	3305.038435
765.262602	3229.753843
765.588796	3151.043788
765.914943	3093.259562
766.241044	3043.941954
766.567097	3004.280676
766.893104	2972.833958
767.219064	2953.428036
767.544978	2931.829213
767.870845	2909.751479
768.196665	2899.656569
768.522438	2889.662481
768.848165	2880.094371
769.173846	2868.882845
769.499479	2859.050075
769.825066	2852.305011
770.150607	2841.602641
770.476101	2836.228771
770.801548	2831.918585
771.126949	2823.217553
771.452303	2818.725885
771.777611	2809.969401
772.102872	2805.676858
772.428087	2799.085550
772.753256	2790.586164
773.078378	2790.273613
773.403453	2781.446552
773.728482	2776.450769
774.053465	2770.484563
774.378401	2766.156733
774.703291	2760.571134
775.028135	2754.080649
775.352932	2750.244331
775.677683	2748.676532
776.002388	2745.130080
776.327046	2741.961715
776.651658	2741.795357
776.976224	2736.411404
777.300743	2736.497104
777.625216	2729.714232
777.949643	2731.075343
778.274024	2729.013511
778.598359	2721.013200
778.922647	2718.956409
779.246889	2722.422202
779.571086	2720.372973
779.895236	2720.882130
780.219339	2721.106461
780.543397	2722.676781
780.867409	2722.802810
781.191374	2723.400186
781.515294	2721.572768
781.839167	2720.372973
782.162995	2719.757953
782.486776	2718.066646
782.810511	2715.823332
783.134201	2714.684031
783.457844	2712.060111
783.781441	2709.892415
784.104993	2705.110880
784.428498	2705.844368
784.751958	2701.430838
785.075372	2703.225489
785.398739	2697.554191
785.722061	2697.823892
786.045337	2699.517720
786.368568	2702.282793
786.691752	2699.497555
787.014891	2707.981817
787.337983	2714.994062
787.661030	2731.055178
787.984031	2748.502612
788.306987	2760.843357
788.629897	2764.276382
788.952760	2762.204468
789.275579	2753.601739
789.598351	2743.479102
789.921078	2729.918398
790.243759	2720.824157
790.566395	2713.706047
790.888984	2703.124666
791.211529	2697.566793
791.534027	2692.379446
791.856480	2685.273940
792.178888	2686.627490
792.501249	2679.058197
792.823566	2678.412929
793.145836	2674.334636
793.468062	2671.700633
793.790241	2673.535613
794.112375	2671.136024
794.434464	2673.472599
794.756507	2673.505366
795.078505	2675.945285
795.400457	2683.239834
795.722364	2689.687470
796.044226	2697.818851
796.366042	2705.882177
796.687812	2701.471167
797.009538	2706.955942
797.331218	2703.162474
797.652852	2700.359593
797.974442	2698.443954
798.295986	2691.479600
798.617484	2689.221163
798.938938	2685.765452
799.260346	2682.962571
799.581709	2677.641633
799.903026	2674.730367
800.224299	2672.565191
800.545526	2666.072185
800.866708	2670.089984
801.187845	2662.704694
801.508936	2659.886689
801.829983	2658.296205
802.150984	2653.184475
802.471940	2654.664054
802.792851	2656.093221
803.113717	2654.268323
803.434538	2654.411996
803.755314	2654.124650
804.076045	2652.531646
804.396731	2650.928559
804.717372	2650.666419
805.037967	2649.748929
805.358518	2652.173724
805.679024	2653.292860
805.999485	2654.379228
806.319901	2655.626914
806.640272	2655.997439
806.960598	2651.979639
807.280879	2654.588436
807.601115	2656.970382
807.921306	2655.057264
808.241453	2654.374187
808.561554	2653.653302
808.881611	2655.107675
809.201623	2653.247489
809.521590	2653.431492
809.841513	2654.253200
810.161390	2650.628610
810.481223	2649.610297
810.801011	2647.591315
811.120755	2647.702220
811.440453	2644.680048
811.760107	2643.263484
812.079716	2637.738380
812.399281	2635.847947
812.718801	2636.634367
813.038276	2634.524644
813.357707	2635.777371
813.677093	2634.635549
813.996434	2635.474902
814.315731	2632.344345
814.634983	2635.232926
814.954191	2632.956845
815.273354	2633.471043
815.592473	2635.248050
815.911547	2638.207207
816.230577	2638.673514
816.549562	2640.314409
816.868502	2641.400778
817.187399	2640.896662
817.506250	2644.372538
817.825058	2645.695841
818.143821	2646.835142
818.462539	2650.421923
818.781213	2654.971564
819.099843	2662.014056
819.418429	2673.394461
819.736970	2687.781914
820.055466	2702.791949
820.373919	2720.937583
820.692327	2744.008423
821.010691	2788.698252
821.329011	2917.295566
821.647286	3182.160310
821.965517	3535.575441
822.283704	3791.565234
822.601847	3895.440729
822.919945	3769.691667
823.237999	3614.083851
823.556010	3465.112713
823.873976	3333.107579
824.191897	3216.472923
824.509775	3125.959006
824.827609	3028.629449
825.145398	2960.417596
825.463144	2916.378076
825.780845	2896.596588
826.098502	2904.788463
826.416116	2947.693724
826.733685	3001.228257
827.051210	3025.806403
827.368692	3010.209073
827.686129	2959.386680
828.003522	2902.615726
828.320872	2847.883919
828.638177	2807.776499
828.955439	2774.459513
829.272656	2745.198136
829.589830	2721.166955
829.906960	2703.107022
830.224046	2684.527849
830.541088	2670.778102
830.858086	2660.403407
831.175041	2651.878816
831.491952	2644.241468
831.808819	2643.860861
832.125642	2643.555871
832.442421	2649.413692
832.759157	2668.645694
833.075849	2702.668441
833.392497	2744.348701
833.709101	2778.222734
834.025662	2785.978550
834.342179	2770.028339
834.658653	2744.041191
834.975083	2720.917418
835.291469	2704.538709
835.607811	2687.386183
835.924110	2673.066786
836.240366	2665.169818
836.556578	2648.665081
836.872746	2639.396919
837.188871	2629.722945
837.504952	2627.648510
837.820990	2619.958230
838.136984	2611.642847
838.452935	2611.080758
838.768842	2614.415481
839.084706	2611.841972
839.400526	2628.644138
839.716303	2647.001500
840.032037	2659.657317
840.347727	2665.807524
840.663373	2656.660351
840.978977	2643.187867
841.294537	2636.210910
841.610054	2626.715897
841.925527	2620.875720
842.240957	2618.203908
842.556344	2613.871037
842.871687	2606.321909
843.186987	2601.182452
843.502244	2597.489807
843.817458	2594.545773
844.132629	2592.788931
844.447756	2589.670978
844.762840	2589.000504
845.077881	2589.295412
845.392879	2586.986563
845.707833	2584.168558
846.022745	2583.830801
846.337613	2585.784248
846.652438	2586.142170
846.967221	2583.056984
847.281960	2582.991449
847.596656	2587.241142
847.911309	2583.505647
848.225919	2584.423137
848.540485	2581.151428
848.855009	2583.304000
849.169490	2580.571695
849.483928	2583.530852
849.798323	2580.637230
850.112675	2585.176789
850.426984	2583.684608
850.741251	2581.650502
851.055474	2582.497416
851.369654	2581.811819
851.683792	2581.176633
851.997887	2581.206880
852.311938	2581.859710
852.625947	2584.949937
852.939914	2579.714699
853.253837	2581.209401
853.567718	2582.999011
853.881555	2581.431212
854.195350	2580.541448
854.509103	2581.055646
854.822812	2579.855851
855.136479	2582.441963
855.450103	2583.722416
855.763685	2582.240317
856.077224	2581.010275
856.390720	2582.194947
856.704173	2581.322827
857.017584	2581.244689
857.330953	2583.573702
857.644278	2584.095462
857.957561	2585.595205
858.270802	2583.916501
858.584000	2581.252251
858.897155	2582.578074
859.210268	2583.392221
859.523339	2581.642940
859.836367	2581.403485
860.149352	2582.129412
860.462295	2583.888774
860.775195	2578.824935
861.088054	2577.176478
861.400869	2578.139338
861.713642	2575.785119
862.026373	2578.333423
862.339062	2579.810481
862.651708	2582.149576
862.964312	2580.818712
863.276873	2581.907601
863.589392	2582.935996
863.901869	2580.957343
864.214303	2586.532859
864.526696	2583.939186
864.839045	2583.223342
865.151353	2586.253075
865.463619	2582.431881
865.775842	2582.837694
866.088023	2584.166038
866.400162	2584.667633
866.712258	2586.394228
867.024313	2584.576892
867.336325	2582.313414
867.648296	2586.855493
867.960224	2585.398600
868.272110	2583.624114
868.583954	2585.360791
868.895755	2584.692838
869.207515	2584.007241
869.519233	2586.174937
869.830909	2585.194433
870.142542	2586.162335
870.454134	2585.133939
870.765684	2586.966399
871.077191	2585.580081
871.388657	2587.553693
871.700081	2587.006728
872.011463	2586.885740
872.322803	2587.851121
872.634101	2587.697366
872.945357	2587.422623
873.256571	2589.401276
873.567744	2588.418251
873.878874	2588.377922
874.189963	2590.124682
874.501010	2590.888416
874.812015	2590.981678
875.122979	2590.533015
875.433900	2589.799527
875.744780	2591.737851
876.055618	2590.643920
876.366415	2590.439754
876.677169	2592.032758
876.987882	2587.919177
877.298554	2589.991091
877.609183	2588.322469
877.919771	2591.170721
878.230317	2589.459249
878.540822	2597.716659
878.851285	2599.975096
879.161707	2602.399891
879.472087	2607.234358
879.782425	2618.690380
880.092722	2635.527834
880.402977	2667.224088
880.713191	2723.576627
881.023363	2792.534570
881.333494	2846.114474
881.643583	2870.420397
881.953631	2865.406970
882.263637	2844.718074
882.573602	2824.820640
882.883526	2802.604275
883.193408	2782.560647
883.503248	2766.880138
883.813048	2748.822725
884.122806	2731.024932
884.432522	2714.681511
884.742197	2696.024200
885.051831	2677.485357
885.361424	2662.866011
885.670975	2648.281953
885.980485	2637.526651
886.289954	2630.378295
886.599382	2622.612397
886.908768	2617.465379
887.218113	2613.535800
887.527417	2607.289810
887.836680	2603.715632
888.145901	2596.668099
888.455082	2600.937957
888.764221	2595.934611
889.073319	2592.589806
889.382376	2592.012594
889.691392	2593.124168
890.000366	2592.559559
890.309300	2591.478231
890.618193	2591.478231
890.927044	2590.104517
891.235855	2593.650969
891.544625	2590.858169
891.853353	2591.271544
892.162041	2591.931935
892.470687	2595.667430
892.779293	2595.450661
893.087858	2596.660537
893.396381	2601.164808
893.704864	2606.485746
894.013306	2618.657612
894.321707	2633.662607
894.630068	2641.607465
894.938387	2646.807415
895.246665	2643.192908
895.554903	2639.999337
895.863100	2635.006074
896.171256	2630.799231
896.479371	2628.087091
896.787446	2620.648868
897.095480	2615.819443
897.403473	2615.675770
897.711425	2611.111005
898.019336	2609.618823
898.327207	2602.646908
898.635038	2600.995930
898.942827	2598.104828
899.250576	2597.550301
899.558284	2594.601226
899.865952	2591.561410
900.173579	2590.646441
900.481165	2591.803386
900.788711	2589.023189
901.096216	2586.769794
901.403681	2586.006059
901.711105	2586.641244
902.018489	2586.805082
902.325832	2588.340113
902.633135	2584.367684
902.940397	2588.080494
903.247619	2597.928388
903.554800	2604.169336
903.861941	2626.670526
904.169041	2643.550830
904.476101	2653.965854
904.783121	2656.743530
905.090100	2650.999135
905.397039	2642.852630
905.703938	2636.851137
906.010796	2628.896196
906.317614	2624.003756
906.624391	2619.953189
906.931129	2616.225256
907.237826	2611.075717
907.544483	2605.699326
907.851099	2600.433841
908.157675	2598.145157
908.464211	2591.165680
908.770707	2582.739391
909.077163	2579.860892
909.383578	2581.040522
909.689954	2579.351736
909.996289	2576.241344
910.302584	2581.433732
910.608839	2580.838876
910.915054	2577.229410
911.221229	2578.958526
911.527363	2579.586149
911.833458	2576.319482
912.139513	2576.334605
912.445527	2579.911304
912.751502	2580.740574
913.057436	2581.695872
913.363331	2580.415419
913.669186	2581.849627
913.975000	2585.282653
914.280775	2589.683581
914.586510	2593.338417
914.892205	2601.734459
915.197859	2611.473968
915.503475	2621.374794
915.809050	2633.055148
916.114585	2642.298103
916.420081	2647.956798
916.725536	2646.762045
917.030952	2645.632827
917.336328	2639.371713
917.641665	2637.239305
917.946961	2636.604120
918.252218	2630.073305
918.557435	2625.138016
918.862612	2622.879579
919.167750	2620.485031
919.472848	2613.792899
919.777906	2609.923813
920.082925	2605.510283
920.387904	2601.623553
920.692843	2599.251691
920.997743	2596.095928
921.302603	2591.657192
921.607423	2589.396235
921.912204	2589.769280
922.216946	2587.445308
922.521647	2585.592684
922.826310	2586.210226
923.130932	2583.440112
923.435516	2579.024061
923.740059	2579.979359
924.044564	2580.062538
924.349028	2581.070769
924.653454	2574.981055
924.957840	2574.297979
925.262186	2570.144068
925.566493	2571.726991
925.870761	2571.457289
926.174989	2575.497774
926.479178	2572.556260
926.783328	2572.130283
927.087438	2575.303689
927.391509	2574.068607
927.695541	2571.822772
927.999533	2571.285890
928.303486	2569.657597
928.607400	2572.284038
928.911275	2570.910324
929.215110	2571.177505
929.518906	2568.518296
929.822663	2573.491394
930.126381	2569.879408
930.430060	2571.815211
930.733699	2570.751527
931.037299	2569.360169
931.340861	2569.670200
931.644383	2569.932340
931.947866	2571.510221
932.251309	2570.602813
932.554714	2569.796229
932.858080	2570.262535
933.161407	2569.957546
933.464694	2569.670200
933.767943	2572.543657
934.071153	2570.847309
934.374323	2570.600293
934.677455	2568.755230
934.980548	2569.834037
935.283602	2568.228430
935.586617	2568.919068
935.889593	2569.287072
936.192530	2568.165415
936.495428	2570.675910
936.798287	2568.858574
937.101108	2568.165415
937.403890	2567.704150
937.706632	2573.236816
938.009336	2572.972156
938.312002	2573.819069
938.614628	2574.413926
938.917216	2572.767989
939.219765	2572.102557
939.522275	2573.057855
939.824747	2574.849985
940.127179	2570.565005
940.429573	2571.938719
940.731929	2571.001064
941.034246	2569.518965
941.336524	2571.409398
941.638763	2573.488874
941.940964	2576.223700
942.243126	2572.034501
942.545250	2570.476784
942.847335	2571.268246
943.149381	2574.812177
943.451389	2572.732701
943.753359	2574.587845
944.055290	2570.577607
944.357182	2571.167422
944.659036	2573.148596
944.960851	2570.943091
945.262628	2570.260015
945.564367	2572.992320
945.866067	2569.680282
946.167729	2571.321178
946.469352	2571.623647
946.770937	2569.864284
947.072484	2571.729511
947.373992	2570.461661
947.675462	2569.070303
947.976893	2571.744635
948.278286	2570.658266
948.579641	2568.906465
948.880958	2569.249263
949.182236	2569.997875
949.483476	2569.788667
949.784678	2568.321691
950.085841	2570.133986
950.386967	2570.002916
950.688054	2573.050293
950.989103	2570.794377
951.290114	2569.413101
951.591087	2568.223389
951.892021	2571.059038
952.192917	2571.663976
952.493776	2570.602813
952.794596	2572.145406
953.095378	2572.362176
953.396122	2571.590879
953.696828	2566.955538
953.997496	2570.975859
954.298126	2570.592731
954.598718	2570.212124
954.899272	2569.476115
955.199788	2569.947463
955.500266	2569.450910
955.800706	2568.609037
956.101108	2566.103583
956.401472	2564.606361
956.701798	2563.169632
957.002087	2562.753737
957.302337	2566.466547
957.602550	2568.165415
957.902724	2567.454613
958.202861	2567.683985
958.502960	2567.956207
958.803022	2566.746331
959.103045	2566.012843
959.403031	2564.961762
959.702979	2564.341700
960.002889	2565.312122
960.302762	2565.667524
960.602596	2565.302040
960.902393	2561.884138
961.202153	2564.122410
961.501875	2564.306412
961.801559	2562.544529
962.101205	2561.748027
962.400814	2566.108625
962.700385	2563.036041
962.999918	2563.915723
963.299414	2565.362534
963.598873	2563.091494
963.898293	2561.052347
964.197677	2567.878070
964.497022	2563.514951
964.796331	2565.259190
965.095601	2564.175342
965.394835	2565.037379
965.694030	2565.445713
965.993189	2563.194838
966.292309	2565.150805
966.591393	2563.784653
966.890439	2563.119220
967.189447	2563.706515
967.488419	2564.077040
967.787353	2562.355486
968.086249	2564.457647
968.385108	2564.550908
968.683930	2562.141237
968.982714	2563.525033
969.281462	2563.303223
969.580172	2563.230126
969.878844	2564.848336
970.177480	2562.292471
970.476078	2565.710373
970.774639	2563.078891
971.073162	2564.671896
971.371649	2559.426575
971.670098	2559.718962
971.968510	2559.958417
972.266885	2562.050496
972.565223	2564.230795
972.863524	2564.079560
973.161788	2562.415979
973.460014	2566.012843
973.758204	2563.646021
974.056356	2563.366237
974.354471	2565.123079
974.652550	2565.886814
974.950591	2561.299364
975.248595	2563.116700
975.546563	2560.770043
975.844493	2562.849519
976.142386	2562.559652
976.440243	2561.463201
976.738062	2565.622153
977.035845	2565.362534
977.333590	2562.655434
977.631299	2562.599982
977.928971	2561.241391
978.226606	2561.619477
978.524204	2563.169632
978.821765	2562.400856
979.119290	2562.050496
979.416777	2563.262893
979.714228	2563.313305
980.011642	2561.715259
980.309020	2567.837740
980.606360	2559.678633
980.903664	2564.281206
981.200931	2563.424210
981.498162	2564.041752
981.795356	2562.090825
982.092513	2564.404715
982.389633	2565.778429
982.686717	2569.186249
982.983764	2569.090467
983.280775	2570.358317
983.577749	2571.704305
983.874686	2569.771023
984.171587	2573.284707
984.468451	2570.713719
984.765279	2568.893862
985.062070	2570.867474
985.358824	2568.664490
985.655543	2566.433779
985.952224	2566.126269
986.248869	2567.510065
986.545478	2560.117213
986.842050	2563.237687
987.138586	2558.481359
987.435086	2560.391956
987.731549	2557.218550
988.027975	2561.231308
988.324366	2559.482028
988.620719	2562.410938
988.917037	2561.806000
989.213318	2561.957234
989.509563	2561.412790
989.805772	2562.804148
990.101944	2561.322049
990.398080	2559.827347
990.694180	2563.600651
990.990244	2560.021431
991.286271	2559.746688
991.582262	2560.883469
991.878217	2560.727193
992.174136	2559.353478
992.470019	2561.417831
992.765865	2560.331462
993.061676	2558.269630
993.357450	2561.193500
993.653188	2560.558314
993.948890	2561.311967
994.244556	2561.647203
994.540186	2563.802297
994.835780	2562.300033
995.131337	2561.964796
995.426859	2564.540826
995.722345	2561.445557
996.017795	2562.610064
996.313208	2564.838254
996.608586	2564.717266
996.903928	2565.178532
997.199234	2564.777760
997.494504	2564.903789
997.789738	2564.772719
998.084936	2563.567883
998.380099	2563.991340
998.675225	2562.705846
998.970316	2563.830023
999.265371	2562.174004
999.560390	2567.227761
999.855373	2561.564024
1000.150320	2561.853891
1000.445232	2560.540670
1000.740108	2560.270968
1001.034948	2559.169476
1001.329752	2558.672923
1001.624521	2559.681153
1001.919254	2557.248797
1002.213951	2557.107644
1002.508613	2556.560679
1002.803239	2555.738971
1003.097829	2553.561193
1003.392384	2559.320711
1003.686903	2556.621173
1003.981386	2562.363047
1004.275834	2558.625032
1004.570246	2558.693087
1004.864623	2560.885989
1005.158964	2561.934549
1005.453270	2558.930022
1005.747540	2556.890875
1006.041775	2555.975905
1006.335974	2558.367933
1006.630138	2557.521019
1006.924266	2555.368446
1007.218359	2556.744681
1007.512416	2557.016904
1007.806438	2556.195196
1008.100425	2558.461194
1008.394376	2558.854404
1008.688292	2558.519167
1008.982172	2556.117058
1009.276017	2558.020093
1009.569827	2555.827191
1009.863602	2558.947666
1010.157341	2558.234342
1010.451045	2558.118396
1010.744714	2558.955227
1011.038347	2557.276523
1011.331945	2559.197203
1011.625508	2555.696121
1011.919036	2556.812737
1012.212528	2557.289126
1012.505986	2557.216029
1012.799408	2557.480690
1013.092795	2558.945145
1013.386147	2557.939435
1013.679464	2557.750392
1013.972745	2557.775597
1014.265992	2556.560679
1014.559204	2557.551266
1014.852380	2558.937583
1015.145521	2557.337017
1015.438628	2559.086297
1015.731699	2553.755277
1016.024736	2558.108313
1016.317737	2557.132850
1016.610703	2556.880792
1016.903635	2554.466080
1017.196531	2551.985832
1017.489393	2554.513971
1017.782219	2555.214691
1018.075011	2553.694783
1018.367768	2555.592778
1018.660490	2560.404559
1018.953177	2560.404559
1019.245829	2560.404559
