Dividing Wavelength (nm)	Counts (n)	Blue Motor Position (mm): 0.000000	Red Motor Position (mm): 48.400000	
326.493990	2127.298868
326.888308	2127.298868
327.282561	2127.298868
327.676750	2095.272417
328.070874	2095.751327
328.464933	2096.414238
328.858929	2103.565115
329.252859	2112.550972
329.646726	2123.850718
330.040528	2137.154323
330.434265	2152.633186
330.827938	2173.160765
331.221547	2190.663651
331.615091	2207.496063
332.008571	2229.236039
332.401986	2249.612383
332.795338	2268.418408
333.188625	2287.552107
333.581847	2304.293779
333.975006	2323.384629
334.368100	2341.394151
334.761129	2359.501975
335.154095	2375.563092
335.546996	2402.069478
335.939833	2424.099321
336.332606	2437.796136
336.725315	2453.000256
337.117960	2462.341514
337.510540	2469.595734
337.903056	2479.126036
338.295508	2488.502582
338.687896	2496.817965
339.080220	2507.817763
339.472480	2512.095182
339.864676	2516.763290
340.256807	2519.160359
340.648875	2521.895185
341.040879	2525.398787
341.432818	2526.298633
341.824694	2528.899868
342.216506	2526.424662
342.608253	2527.647141
342.999937	2527.500948
343.391557	2529.290558
343.783113	2527.838705
344.174605	2525.144208
344.566033	2522.311080
344.957397	2524.216636
345.348697	2523.389887
345.739934	2519.241017
346.131106	2519.074659
346.522215	2516.838908
346.913260	2512.997548
347.304241	2512.571571
347.695159	2510.950840
348.086012	2509.657784
348.476802	2509.176354
348.867528	2505.186280
349.258191	2505.927330
349.648789	2505.453462
350.039324	2501.954901
350.429796	2502.471619
350.820203	2501.498676
351.210548	2500.082112
351.600828	2500.576145
351.991045	2498.952894
352.381198	2493.611791
352.771288	2497.490959
353.161314	2494.183962
353.551276	2499.467091
353.941175	2499.393995
354.331010	2498.330311
354.720782	2497.266628
355.110490	2497.969869
355.500135	2495.459374
355.889717	2497.276710
356.279235	2494.620022
356.668689	2499.467091
357.058080	2501.982627
357.447408	2499.336021
357.836672	2496.092039
358.225873	2497.561535
358.615010	2496.056751
359.004084	2499.013387
359.393095	2500.031701
359.782043	2500.903820
360.170927	2501.188645
360.559748	2503.910868
360.948505	2502.436331
361.337199	2503.467247
361.725830	2505.760972
362.114398	2508.863802
362.502903	2504.684686
362.891344	2507.104439
363.279722	2507.724501
363.668037	2509.236847
364.056289	2510.643329
364.444478	2508.432783
364.832603	2511.117198
365.220665	2511.815398
365.608665	2510.527383
365.996601	2512.569050
366.384474	2513.904956
366.772284	2514.991325
367.160031	2513.904956
367.547715	2516.546521
367.935336	2520.203878
368.322893	2522.742099
368.710388	2526.230577
369.097820	2533.731814
369.485189	2535.796167
369.872495	2543.499050
370.259738	2547.214380
370.646918	2555.744012
371.034035	2562.652914
371.421090	2573.163719
371.808081	2584.765935
372.195010	2593.098962
372.581875	2607.446086
372.968678	2617.641820
373.355418	2628.109776
373.742096	2649.602735
374.128710	2660.844508
374.515262	2677.170285
374.901751	2695.724252
375.288177	2705.952753
375.674540	2725.585527
376.060841	2743.506828
376.447079	2763.268152
376.833254	2787.022068
377.219367	2795.723100
377.605417	2839.119873
377.991404	2847.226048
378.377329	2868.938298
378.763191	2885.755587
379.148991	2924.645568
379.534727	2948.578446
379.920402	2975.538537
380.306013	2989.368943
380.691563	3035.286292
381.077049	3059.287226
381.462474	3076.810277
381.847835	3117.565485
382.233134	3138.085502
382.618371	3139.005512
383.003545	3207.247612
383.388657	3210.599979
383.773706	3246.210690
384.158693	3264.741972
384.543618	3287.328861
384.928480	3322.299346
385.313280	3368.806510
385.698017	3367.289123
386.082692	3420.163265
386.467305	3425.350612
386.851856	3460.311014
387.236344	3481.370435
387.620770	3512.169364
388.005133	3538.249773
388.389435	3566.248342
388.773674	3576.481884
389.157851	3617.466465
389.541965	3634.475318
389.926018	3598.983074
390.310008	3669.251718
390.693936	3689.686035
391.077802	3730.698342
391.461606	3718.949933
391.845348	3780.232720
392.229027	3784.928555
392.612645	3795.968682
392.996200	3876.488511
393.379694	3910.370106
393.763125	3976.164726
394.146494	3946.263122
394.529801	4002.857635
394.913047	4051.038463
395.296230	4021.961088
395.679351	4073.537133
396.062410	4098.231225
396.445408	4079.163061
396.828343	4112.008698
397.211217	4136.717914
397.594028	4056.182961
397.976778	4126.547386
398.359466	4152.118639
398.742092	4179.406405
399.124656	4101.286164
399.507158	4180.538144
399.889598	4207.581414
400.271977	4269.501906
400.654294	4239.935539
401.036549	4249.657404
401.418742	4217.404102
401.800874	4320.619206
402.182944	4340.413297
402.564952	4405.958379
402.946898	4394.860279
403.328783	4385.927354
403.710606	4300.189930
404.092367	4493.908870
404.474067	4451.553095
404.855705	4466.553048
405.237282	4394.008324
405.618797	4501.838605
406.000250	4538.044172
406.381642	4619.173981
406.762972	4581.657714
407.144240	4590.935958
407.525447	4592.002162
407.906593	4652.977438
408.287677	4692.114436
408.668700	4624.086586
409.049661	4676.625491
409.430560	4714.509762
409.811399	4641.498731
410.192176	4801.557886
410.572891	4742.047065
410.953545	4845.385678
411.334138	4727.553748
411.714669	4791.911638
412.095139	4689.573695
412.475547	4827.902956
412.855894	4810.309329
413.236180	4822.483716
413.616405	4774.401190
413.996568	4861.245148
414.376670	4799.599398
414.756711	4758.508953
415.136691	4787.732522
415.516609	4862.439901
415.896466	4900.787958
416.276262	4939.748516
416.655997	4918.827728
417.035670	5097.249286
417.415283	5190.896280
417.794834	5138.405266
418.174324	5088.132359
418.553753	4997.515098
418.933121	5184.582235
419.312428	5247.863839
419.691674	5186.525600
420.070859	5314.709539
420.449983	5226.486826
420.829045	5341.621739
421.208047	5249.693778
421.586988	5319.475950
421.965867	5329.724616
422.344686	5466.642354
422.723444	5319.170960
423.102141	5133.837980
423.480777	5435.102375
423.859352	5207.428744
424.237866	5463.186643
424.616319	5453.132062
424.994712	5565.113733
425.373044	5439.518426
425.751314	5583.397998
426.129524	5387.062700
426.507673	5581.124437
426.885762	5663.179299
427.263789	5593.150110
427.641756	5477.059899
428.019662	5598.682776
428.397508	5608.192913
428.775292	5558.187187
429.153016	5649.928626
429.530679	5577.643521
429.908282	5663.953116
430.285824	5535.534763
430.663305	5805.738088
431.040726	5541.001894
431.418086	5540.880906
431.795385	5649.593389
432.172624	5660.383979
432.549802	5658.075130
432.926920	5665.765411
433.303977	5672.049209
433.680974	5713.497576
434.057910	5730.750925
434.434786	5739.028499
434.811601	5708.673192
435.188355	5941.352688
435.565050	5815.273431
435.941683	5798.748528
436.318257	6011.253328
436.694770	5999.699003
437.071222	6026.749835
437.447614	5964.292459
437.823946	5872.445157
438.200218	6027.886615
438.576429	5888.879318
438.952580	5988.777343
439.328670	6036.829622
439.704700	5946.401404
440.080670	5932.137459
440.456580	6196.709816
440.832429	6081.590027
441.208218	5930.710813
441.583947	6086.905923
441.959616	6087.011788
442.335224	6014.146950
442.710773	6156.657849
443.086261	6181.684657
443.461689	5977.651517
443.837057	6120.603516
444.212365	6276.796107
444.587612	6167.750908
444.962800	6325.004661
445.337927	6308.056302
445.712995	5914.485859
446.088002	6491.776112
446.462949	6324.492984
446.837837	6253.553867
447.212664	6428.169354
447.587431	6567.489202
447.962139	7107.984073
448.336786	8037.593007
448.711374	7777.250178
449.085901	6850.726431
449.460369	6776.379494
449.834776	6705.397527
450.209124	7097.347239
450.583412	7249.648058
450.957640	7400.098774
451.331808	7162.234450
451.705917	6715.303394
452.079965	6638.019985
452.453954	6848.835998
452.827883	6727.049283
453.201752	6818.384908
453.575562	6613.731706
453.949311	6819.110834
454.323001	6709.720317
454.696632	6781.675226
455.070202	6925.481701
455.443713	7077.742191
455.817164	7175.273395
456.190556	7257.038390
456.563888	7337.041501
456.937160	7382.053964
457.310373	7036.303907
457.683526	7059.588996
458.056619	6948.234949
458.429653	6936.710871
458.802628	6873.804833
459.175542	6983.848180
459.548398	7334.578897
459.921194	7500.206007
460.293930	7502.640884
460.666607	8028.839043
461.039224	8342.514759
461.411782	8462.184190
461.784280	8479.543403
462.156719	8377.263433
462.529099	8252.426819
462.901419	7844.073193
463.273680	7732.956080
463.645882	7749.279336
464.018024	7609.410002
464.390106	7776.796475
464.762130	8163.934405
465.134094	8640.630954
465.505999	9661.192385
465.877845	10874.784639
466.249631	11524.624657
466.621358	11146.066771
466.993026	10518.455720
467.364634	10257.021482
467.736184	9896.969671
468.107674	9565.223939
468.479105	9597.457077
468.850477	9361.238690
469.221790	9131.367116
469.593043	8800.785891
469.964238	8662.597782
470.335373	8676.118156
470.706449	8736.606961
471.077467	8715.088796
471.448425	10033.053099
471.819324	11099.718403
472.190164	11126.756631
472.560945	9880.583401
472.931667	9088.514788
473.302330	8949.275598
473.672934	8593.697811
474.043479	8953.351371
474.413965	8900.651148
474.784393	8778.335112
475.154761	8934.114328
475.525070	9020.045836
475.895321	8848.812963
476.265513	9027.174028
476.635645	9192.816261
477.005719	9193.292650
477.375734	9309.211462
477.745691	9539.806442
478.115588	9676.502369
478.485427	9920.524463
478.855207	10459.229724
479.224928	11274.321287
479.594591	11896.460165
479.964194	11708.447812
480.333739	11650.822382
480.703226	11569.795917
481.072653	11659.417550
481.442022	11892.545709
481.811333	12090.567273
482.180584	11895.590566
482.549777	11600.060484
482.918912	11419.347721
483.287988	11454.852568
483.657005	11465.756583
484.025964	11145.509724
484.394864	11265.567323
484.763706	11241.702501
485.132489	10995.787454
485.501213	10965.744698
485.869879	11040.870493
486.238487	10884.713191
486.607036	10994.431384
486.975527	10771.108269
487.343959	10962.215890
487.712333	11003.588640
488.080648	10939.883579
488.448905	10974.039917
488.817104	10921.702658
489.185244	11188.024295
489.553326	11346.598830
489.921350	11876.635828
490.289315	12933.559102
490.657222	13287.329635
491.025070	13189.412783
491.392861	13062.622723
491.760593	12691.006505
492.128267	12335.494254
492.495883	12010.322187
492.863440	11675.876917
493.230939	11338.719507
493.598380	11266.136973
493.965763	11141.799434
494.333088	11034.427899
494.700354	10959.571805
495.067563	11022.331650
495.434713	10844.000833
495.801805	10979.559980
496.168839	10895.523946
496.535815	10842.359937
496.902733	10831.173617
497.269593	10778.082705
497.636395	10871.891016
498.003139	10858.859634
498.369825	10726.642771
498.736453	10877.602644
499.103023	10805.027672
499.469535	10836.635707
499.835989	10822.545682
500.202385	10792.739860
500.568723	10634.102310
500.935003	10861.445746
501.301226	10665.607001
501.667390	10922.587380
502.033497	11022.908862
502.399546	10887.594211
502.765537	10797.387804
503.131470	10861.672598
503.497345	11043.849815
503.863163	10642.334514
504.228923	10964.849893
504.594625	11032.108968
504.960269	10773.520461
505.325856	10998.746612
505.691385	10788.230548
506.056856	10940.054978
506.422270	10969.747374
506.787625	10859.956085
507.152924	10980.311112
507.518164	10953.247678
507.883347	10872.198527
508.248472	10797.745726
508.613540	11031.834225
508.978550	10916.661504
509.343503	10886.008768
509.708398	11004.934628
510.073236	11120.140117
510.438016	11114.272214
510.802738	11064.115254
511.167403	11121.904521
511.532010	11016.882163
511.896561	11250.950497
512.261053	11318.091105
512.625488	11196.690038
512.989866	11169.740030
513.354186	11158.856178
513.718449	11064.150542
514.082655	11256.558781
514.446803	11157.800057
514.810894	11278.533171
515.174927	11144.259517
515.538904	11172.164825
515.902822	11321.536734
516.266684	11208.471215
516.630488	11157.565643
516.994235	11209.182017
517.357925	11264.410378
517.721558	11353.268277
518.085133	11373.460618
518.448651	11379.951104
518.812112	11265.237127
519.175516	11275.311873
519.538863	11404.587223
519.902152	11313.700260
520.265385	11479.070271
520.628560	11390.290510
520.991678	11366.075328
521.354739	11428.169740
521.717743	11358.175840
522.080690	11340.252017
522.443580	11478.104890
522.806413	11428.741911
523.169189	11461.302724
523.531908	11517.441013
523.894569	11338.288488
524.257174	11344.020280
524.619722	11460.070162
524.982213	11409.726679
525.344647	11458.157044
525.707025	11410.011504
526.069345	11506.839467
526.431608	11423.741087
526.793815	11528.249247
527.155964	11324.984883
527.518057	11373.100176
527.880093	11324.006899
528.242072	11390.492157
528.603995	11299.156531
528.965860	11223.637526
529.327669	11268.728127
529.689421	11218.838347
530.051117	11194.913031
530.412755	11296.421705
530.774337	11189.849192
531.135862	11169.082159
531.497331	11192.354646
531.858743	11041.069619
532.220098	11215.533871
532.581396	11076.874414
532.942638	11069.053064
533.303824	11032.620645
533.664953	11038.750688
534.026025	10952.607451
534.387040	11052.825590
534.747999	11054.421115
535.108902	11117.735487
535.469748	10870.570234
535.830537	10975.403549
536.191270	10951.601741
536.551947	10978.004784
536.912567	10974.017232
537.273131	10900.784390
537.633638	10875.939063
537.994089	10862.446415
538.354483	10814.381533
538.714821	10957.363780
539.075103	10968.073711
539.435328	10934.476941
539.795497	10759.158213
540.155609	10917.725187
540.515665	11007.513178
540.875665	10744.438044
541.235609	10813.234671
541.595496	10801.975254
541.955328	10957.583070
542.315102	10850.665238
542.674821	10798.522063
543.034483	10804.987343
543.394090	10802.065994
543.753640	10728.162679
544.113134	10948.224168
544.472571	10804.868876
544.831953	10948.040166
545.191278	10759.654767
545.550548	10781.800556
545.909761	10923.585528
546.268918	10900.721375
546.628019	10981.916720
546.987064	10840.976140
547.346053	10762.248441
547.704986	10862.474141
548.063863	10851.071051
548.422684	10842.523775
548.781449	10759.143090
549.140158	10862.524552
549.498811	10736.513350
549.857408	10592.507750
550.215949	10819.863788
550.574434	10671.190079
550.932864	10777.266038
551.291237	10831.380304
551.649555	10782.125710
552.007817	10793.117946
552.366022	10752.604713
552.724173	10747.646739
553.082267	10733.438247
553.440305	10867.386745
553.798288	10668.609008
554.156215	10822.465023
554.514086	10803.321242
554.871902	10651.045628
555.229661	10690.142297
555.587365	10665.354943
555.945014	10553.032994
556.302606	10686.071565
556.660143	10576.444113
557.017625	10729.954809
557.375050	10630.039140
557.732421	10763.523853
558.089735	10677.998157
558.446994	10682.134424
558.804197	10713.036697
559.161345	10719.703623
559.518437	10560.582122
559.875474	10653.145269
560.232455	10681.975627
560.589381	10630.878492
560.946251	10629.436722
561.303065	10739.810265
561.659825	10672.846098
562.016528	10599.903122
562.373177	10479.215379
562.729770	10597.659809
563.086307	10512.986068
563.442789	10603.179872
563.799216	10480.243774
564.155587	10532.570951
564.511904	10486.598148
564.868164	10475.318567
565.224370	10485.912552
565.580520	10409.793649
565.936615	10415.732128
566.292654	10292.765783
566.648638	10421.592470
567.004567	10378.314164
567.360441	10364.849242
567.716260	10268.545559
568.072023	10365.912925
568.427732	10312.776643
568.783385	10222.880267
569.138982	10293.882399
569.494525	10311.181118
569.850013	10178.813021
570.205445	10270.420869
570.560823	10166.734416
570.916145	10087.870606
571.271412	10152.936778
571.626625	10099.515671
571.981782	10071.877545
572.336884	10046.409636
572.691931	10059.279702
573.046923	10006.773564
573.401860	9956.351943
573.756743	9890.390965
574.111570	9941.659500
574.466342	9921.164689
574.821059	9946.249471
575.175722	9844.808852
575.530330	9848.824131
575.884882	9840.952370
576.239380	9767.928736
576.593823	9743.983255
576.948211	9761.385318
577.302544	9646.084047
577.656823	9662.659361
578.011047	9653.678545
578.365216	9631.489907
578.719330	9553.465448
579.073389	9567.005987
579.427394	9513.060600
579.781344	9496.170214
580.135239	9443.701885
580.489080	9450.830076
580.842866	9354.090334
581.196597	9352.779634
581.550273	9397.850070
581.903895	9360.805151
582.257463	9428.822919
582.610975	9307.454620
582.964434	9338.324125
583.317837	9253.385724
583.671186	9236.974248
584.024481	9232.230522
584.377721	9157.749995
584.730906	9126.033575
585.084037	9157.266044
585.437113	9096.101724
585.790135	9115.679045
586.143103	9014.036781
586.496016	8985.244231
586.848874	9049.944920
587.201679	9033.760295
587.554428	8917.188654
587.907124	8970.720666
588.259765	8942.333929
588.612352	8943.032129
588.964884	8815.732912
589.317362	8833.571035
589.669786	8835.368206
590.022155	8881.063745
590.374470	8893.974140
590.726731	8832.124224
591.078937	8689.683901
591.431090	8803.003998
591.783188	8678.343826
592.135232	8667.422166
592.487222	8660.934201
592.839157	8721.057522
593.191038	8650.302407
593.542866	8595.681505
593.894639	8497.560487
594.246358	8546.215183
594.598022	8564.126403
594.949633	8455.978529
595.301190	8441.094523
595.652692	8460.097152
596.004141	8576.595697
596.355535	8349.045574
596.706876	8333.130651
597.058162	8272.301568
597.409395	8342.514759
597.760573	8404.694871
598.111698	8307.967732
598.462768	8295.412738
598.813785	8262.519209
599.164748	8238.825786
599.515657	8223.427582
599.866511	8135.116649
600.217312	8256.008559
600.568060	8115.284750
600.918753	8221.290133
601.269392	8188.991460
601.619978	8097.456709
601.970510	8164.050351
602.320988	8161.060947
602.671412	8221.060760
603.021783	8159.089856
603.372100	8128.548025
603.722363	8134.297461
604.072572	8110.432639
604.422728	8112.295345
604.772830	8046.714975
605.122878	8055.297539
605.472872	8047.062815
605.822813	8076.941733
606.172701	8024.692694
606.522534	8102.112215
606.872314	8096.398067
607.222041	8068.772544
607.571714	8122.733054
607.921333	8080.049605
608.270899	8085.693177
608.620411	8178.369749
608.969870	8081.428360
609.319276	8072.502998
609.668627	8088.967406
610.017926	8124.573076
610.367171	8166.709560
610.716362	8144.921693
611.065500	8139.550344
611.414585	8169.260384
611.763616	8159.183117
612.112594	8140.072103
612.461518	8155.797982
612.810389	8215.941468
613.159207	8150.703897
613.507971	8097.418900
613.856682	8221.421203
614.205340	8171.639808
614.553945	8249.266016
614.902496	8154.978795
615.250994	8206.678348
615.599439	8186.188578
615.947830	8202.267339
616.296169	8176.693565
616.644454	8188.358795
616.992686	8179.864451
617.340864	8245.863237
617.688990	8147.822877
618.037063	8239.108091
618.385082	8183.680604
618.733048	8272.392309
619.080961	8204.719860
619.428821	8226.064105
619.776628	8227.452943
620.124382	8183.736057
620.472083	8166.800301
620.819731	8194.204013
621.167326	8086.270389
621.514868	8098.795135
621.862357	7983.045202
622.209793	8005.198552
622.557176	7934.085516
622.904506	7903.210969
623.251783	7841.189653
623.599007	7795.264742
623.946179	7799.970659
624.293297	7753.040037
624.640363	7673.679673
624.987376	7653.419275
625.334336	7605.810618
625.681243	7549.531177
626.028097	7540.447018
626.374899	7516.887185
626.721647	7511.941813
627.068343	7446.553007
627.414987	7413.523367
627.761577	7371.807819
628.108115	7405.258395
628.454600	7297.334853
628.801032	7347.748912
629.147412	7309.189126
629.493739	7293.405273
629.840014	7236.369659
630.186236	7292.245808
630.532405	7171.366501
630.878521	7223.600416
631.224585	7183.414858
631.570597	7108.347036
631.916556	7140.078579
632.262462	7134.520707
632.608316	7090.302226
632.954117	7075.377890
633.299866	7060.569501
633.645562	7053.587503
633.991206	6973.057591
634.336797	6916.168169
634.682336	6869.784513
635.027823	6835.592887
635.373257	6830.672721
635.718639	6757.190342
636.063968	6775.764473
636.409245	6669.983421
636.754470	6667.369583
637.099642	6627.027749
637.444762	6569.581281
637.789829	6576.296098
638.134845	6519.419279
638.479808	6506.768504
638.824719	6512.921232
639.169577	6438.344923
639.514383	6458.857378
639.859137	6386.577314
640.203839	6395.946298
640.548489	6383.156891
640.893086	6353.898034
641.237632	6333.100754
641.582125	6356.728642
641.926566	6320.495349
642.270955	6340.357495
642.615292	6329.050187
642.959576	6346.951324
643.303809	6336.362380
643.647990	6342.583164
643.992118	6335.432287
644.336195	6275.341734
644.680219	6303.113450
645.024192	6294.508201
645.368112	6394.239868
645.711981	6411.702425
646.055797	6491.337532
646.399562	6446.236849
646.743274	6575.255099
647.086935	6624.207224
647.430544	6616.088446
647.774101	6646.295039
648.117606	6646.224463
648.461059	6638.768597
648.804460	6602.285766
649.147810	6511.333269
649.491108	6479.904195
649.834354	6457.665145
650.177548	6374.380242
650.520690	6285.880266
650.863781	6262.103664
651.206820	6284.607374
651.549807	6203.664088
651.892742	6147.800541
652.235626	6149.847250
652.578458	6138.905425
652.921238	6045.797834
653.263967	6087.886428
653.606644	6026.197828
653.949269	6027.105236
654.291843	5967.917049
654.634365	6018.794894
654.976836	5970.021730
655.319255	5970.616587
655.661622	5948.322084
656.003938	5943.389315
656.346203	5902.460187
656.688416	5937.889416
657.030577	5893.096243
657.372687	5863.734043
657.714746	5845.646383
658.056753	5889.262446
658.398708	5831.551317
658.740612	5819.598741
659.082465	5867.232603
659.424266	5861.213466
659.766016	5863.376121
660.107715	5836.330330
660.449362	5851.237022
660.790958	5846.115210
661.132503	5834.381924
661.473996	5867.363673
661.815438	5860.210276
662.156829	5857.344380
662.498168	5847.282237
662.839456	5819.878525
663.180693	5860.666501
663.521879	5857.553588
663.863013	5846.397515
664.204097	5867.759404
664.545129	5911.400673
664.886110	5905.479838
665.227040	5938.060815
665.567918	5905.260548
665.908746	5930.932623
666.249522	5934.053098
666.590248	5921.188073
666.930922	5948.218740
667.271545	5965.560309
667.612118	5963.805988
667.952639	5938.645589
668.293109	5963.105267
668.633528	5918.750675
668.973896	5915.718421
669.314213	5910.470580
669.654480	5890.003495
669.994695	5881.945211
670.334859	5873.597060
670.674973	5868.780238
671.015035	5872.987081
671.355047	5870.476586
671.695008	5856.787333
672.034918	5831.785730
672.374777	5841.668912
672.714585	5831.054763
673.054342	5828.607283
673.394049	5821.635367
673.733705	5852.688875
674.073310	5839.453325
674.412864	5804.011493
674.752368	5787.073216
675.091820	5796.086799
675.431223	5735.648406
675.770574	5734.559517
676.109875	5684.518503
676.449125	5691.689544
676.788324	5656.340973
677.127473	5604.202840
677.466571	5589.613741
677.805619	5581.260549
678.144616	5570.076749
678.483562	5550.940529
678.822458	5514.447616
679.161303	5511.387636
679.500098	5498.089072
679.838842	5483.109283
680.177535	5488.836034
680.516179	5503.641903
680.854771	5517.946177
681.193314	5596.973825
681.531805	5704.481472
681.870247	5854.785995
682.208638	5960.136028
682.546978	5972.126412
682.885268	5948.924502
683.223508	5861.011820
683.561697	5805.279343
683.899836	5777.747082
684.237925	5733.894084
684.575963	5700.451070
684.913951	5659.927754
685.251889	5720.169543
685.589776	5689.332805
685.927614	5659.716026
686.265401	5733.533642
686.603137	5712.675868
686.940824	5793.964473
687.278460	5818.346014
687.616046	5825.096119
687.953582	5893.812087
688.291068	5872.185537
688.628504	5941.055260
688.965889	5897.393827
689.303224	5847.410787
689.640510	5795.060924
689.977745	5719.854471
690.314930	5618.678513
690.652065	5564.808743
690.989150	5472.414475
691.326185	5395.405809
691.663170	5343.733982
692.000105	5265.507878
692.336990	5188.151372
692.673825	5163.726981
693.010610	5095.313483
693.347345	5024.291187
693.684030	5011.305174
694.020665	4967.157269
694.357251	4876.991192
694.693786	4886.733222
695.030272	4856.685424
695.366707	4818.685206
695.703093	4787.830824
696.039429	4813.034073
696.375716	4787.157830
696.711952	4766.489099
697.048139	4754.556688
697.384276	4730.321341
697.720363	4746.881532
698.056400	4757.515846
698.392388	4705.846539
698.728326	4684.351059
699.064214	4663.762987
699.400053	4659.808202
699.735842	4621.061893
700.071581	4599.077421
700.407270	4569.342175
700.742910	4554.553951
701.078501	4499.892719
701.414042	4498.236700
701.749533	4468.163697
702.084974	4405.277823
702.420366	4461.763952
702.755709	4403.145415
703.091002	4346.644163
703.426246	4395.346750
703.761440	4352.522148
704.096584	4315.704081
704.431679	4336.077905
704.766725	4322.796985
705.101721	4309.684944
705.436668	4334.505065
705.771565	4286.745173
706.106413	4313.811128
706.441212	4349.570553
706.775961	4358.407696
707.110661	4332.738140
707.445311	4361.916339
707.779913	4383.406778
708.114465	4398.089138
708.448967	4416.489350
708.783421	4483.632478
709.117825	4523.230741
709.452180	4530.159807
709.786485	4571.766970
710.120742	4658.759642
710.454949	4647.661542
710.789107	4709.602199
711.123216	4787.840907
711.457275	4782.146923
711.791286	4850.719218
712.125247	4864.831929
712.459159	4769.390283
712.793023	4842.119010
713.126837	4805.648782
713.460602	4798.041681
713.794318	4716.269125
714.127985	4722.499991
714.461602	4642.063340
714.795171	4610.896407
715.128691	4544.862332
715.462162	4485.666583
715.795584	4437.326959
716.128957	4419.037653
716.462281	4369.778018
716.795556	4342.951518
717.128782	4302.791166
717.461960	4234.859097
717.795088	4247.451899
718.128167	4206.071588
718.461198	4146.054131
718.794180	4139.656907
719.127113	4121.561685
719.459997	4097.427161
719.792833	4051.638361
720.125619	4046.196435
720.458357	4010.469778
720.791046	4017.156868
721.123686	3985.805932
721.456278	3951.397537
721.788821	3963.017397
722.121315	3938.393881
722.453761	3911.776588
722.786158	3923.494750
723.118506	3949.030715
723.450805	3899.587078
723.783056	3920.598607
724.115259	3936.107717
724.447412	3939.749951
724.779518	3937.441102
725.111574	3942.273048
725.443582	3971.572235
725.775542	3954.815439
726.107453	4005.589941
726.439315	4005.327801
726.771129	4019.548896
727.102895	4056.621541
727.434612	4103.393367
727.766281	4117.062455
728.097901	4117.619503
728.429473	4120.112353
728.760996	4135.011483
729.092471	4126.217191
729.423897	4107.975775
729.755276	4111.643215
730.086606	4115.109008
730.417887	4153.522600
730.749120	4216.698340
731.080305	4282.911376
731.411442	4305.198317
731.742530	4278.069347
732.073570	4282.540851
732.404562	4335.896423
732.735506	4333.338038
733.066401	4292.630720
733.397249	4227.753591
733.728048	4145.955828
734.058798	4065.458684
734.389501	3997.665247
734.720156	3934.353396
735.050762	3888.289852
735.381320	3878.457082
735.711831	3832.454033
736.042293	3802.983447
736.372707	3822.729647
736.703073	3794.176551
737.033391	3784.618524
737.363661	3804.531081
737.693883	3828.796675
738.024056	3834.904033
738.354182	3830.296419
738.684260	3896.199423
739.014290	3918.115839
739.344272	3915.340684
739.674207	3954.354174
740.004093	3962.122592
740.333931	3952.519194
740.663722	3956.473979
740.993464	3952.746046
741.323159	3931.663940
741.652806	3898.546080
741.982405	3874.227554
742.311956	3835.932429
742.641460	3831.206347
742.970915	3804.208448
743.300323	3764.678240
743.629683	3733.612129
743.958996	3720.734502
744.288260	3695.765667
744.617477	3662.897343
744.946647	3645.039056
745.275768	3625.224801
745.604842	3621.333030
745.933869	3575.103129
746.262847	3563.604257
746.591778	3602.922736
746.920662	3572.695978
747.249498	3545.415774
747.578286	3585.898760
747.907027	3607.865587
748.235720	3604.848457
748.564365	3628.229328
748.892963	3627.619349
749.221514	3609.382975
749.550017	3589.241045
749.878473	3590.405551
750.206881	3559.500758
750.535242	3553.436249
750.863555	3556.279460
751.191821	3550.199829
751.520039	3532.084442
751.848210	3507.556708
752.176334	3542.421328
752.504411	3548.327040
752.832440	3505.482273
753.160421	3489.622803
753.488356	3502.818024
753.816243	3515.806557
754.144082	3471.094043
754.471875	3457.349337
754.799620	3475.885659
755.127318	3467.368630
755.454969	3464.827888
755.782572	3475.447079
756.110129	3451.010086
756.437638	3437.187242
756.765100	3449.278449
757.092515	3461.548618
757.419882	3469.644711
757.747203	3440.524486
758.074477	3443.886935
758.401703	3458.478555
758.728882	3482.018223
759.056014	3486.819922
759.383099	3491.704800
759.710138	3488.291939
760.037129	3507.476050
760.364073	3535.852705
760.690970	3522.231507
761.017820	3499.982375
761.344623	3516.353522
761.671379	3563.599216
761.998088	3612.778192
762.324751	3742.038418
762.651366	3984.893484
762.977935	4460.221359
763.304456	4910.285492
763.630931	5009.535729
763.957359	4648.432838
764.283740	4304.270744
764.610074	4106.919654
764.936362	3908.530085
765.262602	3750.847834
765.588796	3636.975730
765.914943	3547.873336
766.241044	3459.055767
766.567097	3428.478648
766.893104	3382.878891
767.219064	3350.086186
767.544978	3323.025272
767.870845	3268.505193
768.196665	3247.619692
768.522438	3258.627052
768.848165	3251.332502
769.173846	3217.768500
769.499479	3199.648072
769.825066	3181.053777
770.150607	3167.669513
770.476101	3181.547810
770.801548	3175.773168
771.126949	3133.490490
771.452303	3114.371914
771.777611	3122.044550
772.102872	3126.783235
772.428087	3100.309615
772.753256	3092.251331
773.078378	3082.738674
773.403453	3052.388407
773.728482	3039.089843
774.053465	3057.593398
774.378401	3049.207439
774.703291	3016.477748
775.028135	3017.115453
775.352932	3010.869464
775.677683	2999.615088
776.002388	2996.514778
776.327046	2997.986795
776.651658	2989.104282
776.976224	2974.537868
777.300743	2972.052579
777.625216	2966.388843
777.949643	2959.311063
778.274024	2964.405149
778.598359	2953.286884
778.922647	2956.621607
779.246889	2956.724951
779.571086	2942.403033
779.895236	2934.707712
780.219339	2944.790019
780.543397	2957.307204
780.867409	2959.411886
781.191374	2955.714200
781.515294	2950.042902
781.839167	2952.455094
782.162995	2945.422684
782.486776	2952.755042
782.810511	2950.642799
783.134201	2934.937084
783.457844	2942.841613
783.781441	2934.511107
784.104993	2916.874630
784.428498	2915.034609
784.751958	2929.651434
785.075372	2921.240269
785.398739	2904.768299
785.722061	2922.099786
786.045337	2935.748710
786.368568	2920.000145
786.691752	2912.783733
787.014891	2959.389201
787.337983	2989.205105
787.661030	3016.119826
787.984031	3085.803695
788.306987	3133.616519
788.629897	3123.786269
788.952760	3103.596448
789.275579	3091.026331
789.598351	3033.700850
789.921078	2988.524549
790.243759	2981.938282
790.566395	2960.929273
790.888984	2938.896910
791.211529	2921.504930
791.534027	2910.137128
791.856480	2902.136817
792.178888	2887.683828
792.501249	2878.072869
792.823566	2877.283928
793.145836	2872.676313
793.468062	2867.118441
793.790241	2866.299254
794.112375	2870.289327
794.434464	2883.408930
794.756507	2889.284395
795.078505	2896.568862
795.400457	2909.731315
795.722364	2945.261367
796.044226	2972.196252
796.366042	2973.562405
796.687812	2962.308029
797.009538	2981.577839
797.331218	2969.055613
797.652852	2958.645631
797.974442	2935.123607
798.295986	2931.385591
798.617484	2929.679161
798.938938	2913.691141
799.260346	2896.077350
799.581709	2892.334293
799.903026	2886.201729
800.224299	2878.135883
800.545526	2870.695140
800.866708	2854.634024
801.187845	2843.021726
801.508936	2844.609689
801.829983	2855.443129
802.150984	2838.729183
802.471940	2824.505568
802.792851	2827.260558
803.113717	2825.269303
803.434538	2830.668378
803.755314	2823.119251
804.076045	2819.557675
804.396731	2818.090700
804.717372	2818.062973
805.037967	2814.662715
805.358518	2821.440546
805.679024	2833.067968
805.999485	2829.294664
806.319901	2834.030828
806.640272	2822.007676
806.960598	2827.799962
807.280879	2839.631550
807.601115	2849.091275
807.921306	2830.991012
808.241453	2829.788697
808.561554	2836.311950
808.881611	2835.192814
809.201623	2831.341372
809.521590	2832.079902
809.841513	2824.727379
810.161390	2831.227947
810.481223	2827.454643
810.801011	2813.682211
811.120755	2811.703558
811.440453	2812.994093
811.760107	2812.192550
812.079716	2812.847900
812.399281	2802.596713
812.718801	2797.454736
813.038276	2790.336627
813.357707	2795.150929
813.677093	2803.002526
813.996434	2797.207720
814.315731	2792.436268
814.634983	2789.842594
814.954191	2789.744292
815.273354	2802.763071
815.592473	2812.187508
815.911547	2811.469144
816.230577	2822.163952
816.549562	2833.181394
816.868502	2831.968996
817.187399	2842.265553
817.506250	2858.704756
817.825058	2852.471369
818.143821	2862.609129
818.462539	2878.924824
818.781213	2905.007754
819.099843	2941.236006
819.418429	2999.978051
819.736970	3063.869635
820.055466	3137.213382
820.373919	3245.096595
820.692327	3384.451731
821.010691	3555.263668
821.329011	4000.954600
821.647286	4904.687291
821.965517	6301.908614
822.283704	7062.517907
822.601847	7049.627676
822.919945	6406.477269
823.237999	5898.525566
823.556010	5306.638652
823.873976	4743.642590
824.191897	4326.265299
824.509775	4028.552397
824.827609	3758.507867
825.145398	3630.943990
825.463144	3617.965539
825.780845	3708.386195
826.098502	3813.053152
826.416116	4094.329372
826.733685	4422.725257
827.051210	4494.327286
827.368692	4377.478381
827.686129	4104.215075
828.003522	3771.602264
828.320872	3512.325640
828.638177	3314.966987
828.955439	3176.665452
829.272656	3092.773090
829.589830	3022.489323
829.906960	2973.333032
830.224046	2929.409459
830.541088	2892.372102
830.858086	2879.411295
831.175041	2856.595033
831.491952	2859.455887
831.808819	2871.877291
832.125642	2897.236815
832.442421	2943.590225
832.759157	3025.980323
833.075849	3204.472457
833.392497	3487.253461
833.709101	3693.247610
834.025662	3648.386382
834.342179	3485.037874
834.658653	3306.124803
834.975083	3155.928666
835.291469	3056.557441
835.607811	2970.106694
835.924110	2910.797519
836.240366	2859.586957
836.556578	2816.447283
836.872746	2794.515744
837.188871	2772.720315
837.504952	2752.772469
837.820990	2745.533372
838.136984	2733.147257
838.452935	2726.248438
838.768842	2721.227449
839.084706	2739.292424
839.400526	2819.126657
839.716303	2951.610700
840.032037	3038.003474
840.347727	3020.467821
840.663373	2962.242494
840.978977	2883.131667
841.294537	2810.763382
841.610054	2763.295878
841.925527	2740.640932
842.240957	2717.103785
842.556344	2696.634180
842.871687	2677.825635
843.186987	2669.767351
843.502244	2664.552277
843.817458	2661.540187
844.132629	2647.717344
844.447756	2639.931282
844.762840	2632.014149
845.077881	2637.425828
845.392879	2633.723101
845.707833	2630.128758
846.022745	2624.621297
846.337613	2626.118520
846.652438	2624.704476
846.967221	2624.084414
847.281960	2620.359002
847.596656	2621.112654
847.911309	2621.447891
848.225919	2620.212808
848.540485	2614.788527
848.855009	2616.023609
849.169490	2614.614607
849.483928	2613.412292
849.798323	2615.030502
850.112675	2613.303907
850.426984	2613.616458
850.741251	2609.318875
851.055474	2612.396499
851.369654	2616.681480
851.683792	2610.359873
851.997887	2612.479678
852.311938	2611.093361
852.625947	2612.068824
852.939914	2615.688373
853.253837	2616.497478
853.567718	2611.438680
853.881555	2608.330809
854.195350	2616.109309
854.509103	2614.007148
854.822812	2609.835593
855.136479	2607.940119
855.450103	2611.718464
855.763685	2614.765842
856.077224	2610.876591
856.390720	2607.884667
856.704173	2611.363063
857.017584	2614.256685
857.330953	2616.356326
857.644278	2618.133332
857.957561	2616.883126
858.270802	2615.269957
858.584000	2615.222066
858.897155	2620.434619
859.210268	2617.540997
859.523339	2612.638475
859.836367	2608.794595
860.149352	2612.295676
860.462295	2614.256685
860.775195	2612.434308
861.088054	2605.540530
861.400869	2605.684203
861.713642	2605.149841
862.026373	2606.430294
862.339062	2608.534975
862.651708	2614.297014
862.964312	2612.590584
863.276873	2612.938423
863.589392	2617.835904
863.901869	2620.530401
864.214303	2627.300671
864.526696	2629.092801
864.839045	2631.941053
865.151353	2632.624129
865.463619	2632.402318
865.775842	2631.389046
866.088023	2628.681947
866.400162	2629.039869
866.712258	2633.166053
867.024313	2631.333594
867.336325	2628.407204
867.648296	2628.134982
867.960224	2633.493728
868.272110	2631.636063
868.583954	2625.372429
868.895755	2628.923922
869.207515	2632.150261
869.519233	2640.513535
869.830909	2633.413070
870.142542	2632.311577
870.454134	2634.930457
870.765684	2639.679224
871.077191	2640.601755
871.388657	2645.395892
871.700081	2645.070738
872.011463	2640.979842
872.322803	2645.443783
872.634101	2647.243475
872.945357	2653.028199
873.256571	2661.598161
873.567744	2658.213026
873.878874	2659.611946
874.189963	2655.571461
874.501010	2662.167811
874.812015	2666.299037
875.122979	2667.226609
875.433900	2660.524395
875.744780	2658.318890
876.055618	2662.979437
876.366415	2668.784326
876.677169	2668.028152
876.987882	2662.193017
877.298554	2662.603871
877.609183	2670.510921
877.919771	2680.661284
878.230317	2688.175124
878.540822	2696.712318
878.851285	2712.665049
879.161707	2734.808317
879.472087	2774.625871
879.782425	2823.968685
880.092722	2938.481015
880.402977	3133.757671
880.713191	3396.719379
881.023363	3702.241029
881.333494	3895.901995
881.643583	4071.177873
881.953631	4070.071340
882.263637	3891.720358
882.573602	3670.575021
882.883526	3532.480173
883.193408	3415.021288
883.503248	3313.671411
883.813048	3193.339068
884.122806	3078.098292
884.432522	2989.890702
884.742197	2924.396031
885.051831	2883.114022
885.361424	2847.911645
885.670975	2809.064514
885.980485	2778.631068
886.289954	2759.101638
886.599382	2745.009092
886.908768	2731.624829
887.218113	2714.686552
887.527417	2699.729448
887.836680	2691.436750
888.145901	2688.192768
888.455082	2679.466531
888.764221	2668.128976
889.073319	2663.239056
889.382376	2659.448109
889.691392	2657.325783
890.000366	2657.416524
890.309300	2655.513488
890.618193	2660.814261
890.927044	2664.131341
891.235855	2663.037410
891.544625	2661.943480
891.853353	2660.300064
892.162041	2669.845488
892.470687	2688.054136
892.779293	2702.224820
893.087858	2712.816284
893.396381	2735.922412
893.704864	2777.643002
894.013306	2848.178826
894.321707	2944.502673
894.630068	3000.086436
894.938387	3019.694004
895.246665	3014.970443
895.554903	2966.434213
895.863100	2920.920156
896.171256	2861.560569
896.479371	2801.328863
896.787446	2760.429982
897.095480	2742.612024
897.403473	2733.187587
897.711425	2717.504557
898.019336	2701.052751
898.327207	2685.357119
898.635038	2682.876871
898.942827	2680.414267
899.250576	2669.953873
899.558284	2660.456339
899.865952	2655.589105
900.173579	2652.264464
900.481165	2651.110040
900.788711	2642.509832
901.096216	2636.667134
901.403681	2633.188738
901.711105	2633.266876
902.018489	2629.236474
902.325832	2635.356434
902.633135	2635.512710
902.940397	2653.071049
903.247619	2690.184024
903.554800	2761.896958
903.861941	2891.099210
904.169041	3023.820188
904.476101	3089.324941
904.783121	3082.675659
905.090100	3025.287164
905.397039	2945.253805
905.703938	2868.290510
906.010796	2805.671817
906.317614	2750.934969
906.624391	2711.175388
906.931129	2686.345185
907.237826	2660.514313
907.544483	2642.968577
907.851099	2631.290744
908.157675	2616.096706
908.464211	2611.738629
908.770707	2598.976948
909.077163	2596.738675
909.383578	2594.961669
909.689954	2595.312029
909.996289	2589.035792
910.302584	2587.848601
910.608839	2585.370873
910.915054	2585.978333
911.221229	2588.077973
911.527363	2586.623600
911.833458	2588.405648
912.139513	2592.983016
912.445527	2590.265834
912.751502	2597.840167
913.057436	2605.427104
913.363331	2610.548916
913.669186	2620.464866
913.975000	2635.043883
914.280775	2653.280257
914.586510	2671.534275
914.892205	2709.277394
915.197859	2777.393465
915.503475	2866.964686
915.809050	2936.860284
916.114585	2955.699076
916.420081	2966.104018
916.725536	2977.224803
917.030952	2951.867799
917.336328	2901.541960
917.641665	2849.630679
917.946961	2799.582103
918.252218	2763.089191
918.557435	2736.537433
918.862612	2710.769575
919.167750	2695.361289
919.472848	2676.139369
919.777906	2656.831750
920.082925	2648.654998
920.387904	2633.831485
920.692843	2633.176135
920.997743	2626.211781
921.302603	2618.730709
921.607423	2611.864657
921.912204	2603.917278
922.216946	2603.508945
922.521647	2600.166660
922.826310	2596.138778
923.130932	2590.285998
923.435516	2586.253075
923.740059	2582.961202
924.044564	2585.401120
924.349028	2583.145204
924.653454	2572.856209
924.957840	2571.716908
925.262186	2568.704819
925.566493	2567.996537
925.870761	2565.150805
926.174989	2565.997719
926.479178	2564.649211
926.783328	2563.633418
927.087438	2563.091494
927.391509	2559.971020
927.695541	2560.891030
927.999533	2555.660833
928.303486	2557.430278
928.607400	2553.266285
928.911275	2555.207129
929.215110	2557.697459
929.518906	2552.648744
929.822663	2553.888868
930.126381	2553.339382
930.430060	2553.465411
930.733699	2553.818292
931.037299	2556.482541
931.340861	2555.111347
931.644383	2555.554969
931.947866	2555.272664
932.251309	2553.414999
932.554714	2553.583878
932.858080	2556.162428
933.161407	2554.932387
933.464694	2556.938766
933.767943	2552.308466
934.071153	2555.295350
934.374323	2550.929710
934.677455	2554.917263
934.980548	2548.474668
935.283602	2551.577499
935.586617	2549.961809
935.889593	2550.617159
936.192530	2552.494989
936.495428	2553.341902
936.798287	2555.917932
937.101108	2553.218394
937.403890	2554.846687
937.706632	2561.382543
938.009336	2563.666186
938.312002	2566.363203
938.614628	2571.109449
938.917216	2574.776889
939.219765	2575.747311
939.522275	2578.199832
939.824747	2573.135993
940.127179	2573.456106
940.429573	2566.529561
940.731929	2568.911506
941.034246	2565.302040
941.336524	2566.070816
941.638763	2566.879921
941.940964	2564.427400
942.243126	2564.066957
942.545250	2562.433623
942.847335	2562.105948
943.149381	2559.774415
943.451389	2557.324414
943.753359	2556.553117
944.055290	2558.257028
944.357182	2554.176213
944.659036	2555.449105
944.960851	2554.244269
945.262628	2556.875751
945.564367	2557.044630
945.866067	2553.856100
946.167729	2559.492110
946.469352	2556.164949
946.770937	2556.835422
947.072484	2555.824671
947.373992	2552.729402
947.675462	2556.361554
947.976893	2554.221584
948.278286	2550.319731
948.579641	2552.132026
948.880958	2550.080276
949.182236	2550.687735
949.483476	2553.967006
949.784678	2551.340564
950.085841	2552.227808
950.386967	2554.360216
950.688054	2549.714792
950.989103	2553.987170
951.290114	2554.256872
951.591087	2553.389793
951.892021	2557.818447
952.192917	2555.867521
952.493776	2560.885989
952.794596	2561.702656
953.095378	2561.730382
953.396122	2559.933211
953.696828	2556.699311
953.997496	2557.470607
954.298126	2554.992880
954.598718	2554.942469
954.899272	2553.117571
955.199788	2554.493806
955.500266	2551.990873
955.800706	2544.305634
956.101108	2543.060469
956.401472	2543.947712
956.701798	2542.871426
957.002087	2541.154913
957.302337	2544.000644
957.602550	2541.129707
957.902724	2543.183978
958.202861	2543.378062
958.502960	2540.907897
958.803022	2541.263298
959.103045	2539.400592
959.403031	2541.031405
959.702979	2536.310364
960.002889	2539.824048
960.302762	2537.956301
960.602596	2538.397402
960.902393	2538.135262
961.202153	2535.496218
961.501875	2538.147865
961.801559	2538.215920
962.101205	2536.489325
962.400814	2539.133410
962.700385	2536.512010
962.999918	2540.713812
963.299414	2534.336753
963.598873	2536.602751
963.898293	2532.960517
964.197677	2536.721218
964.497022	2536.539737
964.796331	2537.104346
965.095601	2535.660055
965.394835	2537.500077
965.694030	2536.769109
965.993189	2539.246836
966.292309	2535.294572
966.591393	2537.686599
966.890439	2533.381454
967.189447	2534.868594
967.488419	2535.196269
967.787353	2533.981351
968.086249	2535.052596
968.385108	2537.268183
968.683930	2535.024870
968.982714	2536.635519
969.281462	2534.606454
969.580172	2535.307175
969.878844	2535.818852
970.177480	2534.082174
970.476078	2537.459747
970.774639	2536.925385
971.073162	2536.418749
971.371649	2532.090918
971.670098	2533.343645
971.968510	2532.032945
972.266885	2533.202493
972.565223	2537.941178
972.863524	2535.788605
973.161788	2538.357073
973.460014	2536.181815
973.758204	2538.964532
974.056356	2537.379089
974.354471	2537.001002
974.652550	2536.746424
974.950591	2534.808100
975.248595	2536.713657
975.546563	2534.813142
975.844493	2537.071578
976.142386	2536.779192
976.440243	2537.363965
976.738062	2534.450178
977.035845	2533.673841
977.333590	2534.498069
977.631299	2534.820703
977.928971	2536.370858
978.226606	2534.175436
978.524204	2536.063348
978.821765	2535.410518
979.119290	2535.448327
979.416777	2536.315405
979.714228	2533.585621
980.011642	2532.786598
980.309020	2535.115611
980.606360	2535.776002
980.903664	2535.677699
981.200931	2536.199459
981.498162	2535.201310
981.795356	2538.372196
982.092513	2542.090047
982.389633	2542.924358
982.686717	2546.327137
982.983764	2550.198743
983.280775	2552.905843
983.577749	2549.629093
983.874686	2549.152704
984.171587	2546.707744
984.468451	2545.419729
984.765279	2542.873947
985.062070	2541.303627
985.358824	2537.603420
985.655543	2536.993441
985.952224	2536.476722
986.248869	2534.193080
986.545478	2532.136289
986.842050	2532.655528
987.138586	2527.848788
987.435086	2529.708973
987.731549	2527.533715
988.027975	2536.300282
988.324366	2534.916485
988.620719	2532.799201
988.917037	2534.576207
989.213318	2533.603265
989.509563	2531.448171
989.805772	2533.744417
990.101944	2531.969931
990.398080	2533.278110
990.694180	2532.088398
990.990244	2531.738038
991.286271	2531.720394
991.582262	2533.900693
991.878217	2529.991278
992.174136	2532.279962
992.470019	2531.488501
992.765865	2531.246525
993.061676	2532.194262
993.357450	2530.669313
993.653188	2531.433048
993.948890	2532.915147
994.244556	2534.782895
994.540186	2532.587472
994.835780	2531.546474
995.131337	2536.091074
995.426859	2536.038142
995.722345	2535.370189
996.017795	2534.898841
996.313208	2536.002854
996.608586	2535.594520
996.903928	2538.730118
997.199234	2535.244160
997.494504	2534.556043
997.789738	2533.215096
998.084936	2536.680889
998.380099	2532.411032
998.675225	2533.225178
998.970316	2531.246525
999.265371	2533.527647
999.560390	2531.954807
999.855373	2535.813811
1000.150320	2532.534540
1000.445232	2530.820548
1000.740108	2530.190403
1001.034948	2532.816845
1001.329752	2530.868439
1001.624521	2529.351051
1001.919254	2524.204033
1002.213951	2527.581606
1002.508613	2525.706297
1002.803239	2528.788963
1003.097829	2526.195289
1003.392384	2531.511186
1003.686903	2530.873480
1003.981386	2533.588141
1004.275834	2527.442975
1004.570246	2530.785260
1004.864623	2532.148892
1005.158964	2529.051103
1005.453270	2532.161495
1005.747540	2532.738707
1006.041775	2529.172090
1006.335974	2533.618388
1006.630138	2528.158818
1006.924266	2530.049251
1007.218359	2528.247039
1007.512416	2530.089580
1007.806438	2530.197965
1008.100425	2528.650331
1008.394376	2529.618232
1008.688292	2531.107893
1008.982172	2529.903058
1009.276017	2530.742410
1009.569827	2529.630835
1009.863602	2530.848274
1010.157341	2530.923891
1010.451045	2529.245187
1010.744714	2531.596885
1011.038347	2529.159488
1011.331945	2528.826771
1011.625508	2528.481452
1011.919036	2532.297606
1012.212528	2530.109745
1012.505986	2528.557070
1012.799408	2531.183511
1013.092795	2528.030269
1013.386147	2528.249559
1013.679464	2529.129241
1013.972745	2530.387008
1014.265992	2528.443644
1014.559204	2531.990095
1014.852380	2528.000022
1015.145521	2530.510517
1015.438628	2524.758560
1015.731699	2530.770136
1016.024736	2528.809127
1016.317737	2528.957841
1016.610703	2529.620753
1016.903635	2524.924918
1017.196531	2523.402490
1017.489393	2526.928777
1017.782219	2523.354599
1018.075011	2526.464991
1018.367768	2527.112779
1018.660490	2527.672347
1018.953177	2527.672347
1019.245829	2527.672347
