Dividing Wavelength (nm)	Counts (n)	Blue Motor Position (mm): 0.000000	Red Motor Position (mm): 3.900000	
326.493990	2039.146731
326.888308	2039.146731
327.282561	2039.146731
327.676750	2109.722885
328.070874	2024.023269
328.464933	2076.955385
328.858929	2021.502692
329.252859	2079.475962
329.646726	2132.408077
330.040528	2170.216731
330.434265	2036.626154
330.827938	2119.805192
331.221547	2157.613846
331.615091	2195.422500
332.008571	2223.148846
332.401986	2122.325769
332.795338	2223.148846
333.188625	2167.696154
333.581847	2281.122115
333.975006	2265.998654
334.368100	2215.587115
334.761129	2271.039808
335.154095	2308.848462
335.546996	2329.013077
335.939833	2376.904038
336.332606	2356.739423
336.725315	2450.000769
337.117960	2389.506923
337.510540	2409.671538
337.903056	2371.862885
338.295508	2412.192115
338.687896	2439.918462
339.080220	2515.535769
339.472480	2409.671538
339.864676	2455.041923
340.256807	2429.836154
340.648875	2490.330000
341.040879	2482.768269
341.432818	2434.877308
341.824694	2472.685962
342.216506	2490.330000
342.608253	2444.959615
342.999937	2480.247692
343.391557	2528.138654
343.783113	2490.330000
344.174605	2500.412308
344.566033	2412.192115
344.957397	2439.918462
345.348697	2437.397885
345.739934	2409.671538
346.131106	2490.330000
346.522215	2475.206538
346.913260	2414.712692
347.304241	2558.385577
347.695159	2389.506923
348.086012	2515.535769
348.476802	2432.356731
348.867528	2523.097500
349.258191	2457.562500
349.648789	2409.671538
350.039324	2402.109808
350.429796	2455.041923
350.820203	2485.288846
351.210548	2447.480192
351.600828	2455.041923
351.991045	2419.753846
352.381198	2452.521346
352.771288	2427.315577
353.161314	2462.603654
353.551276	2467.644808
353.941175	2480.247692
354.331010	2495.371154
354.720782	2427.315577
355.110490	2424.795000
355.500135	2492.850577
355.889717	2530.659231
356.279235	2412.192115
356.668689	2397.068654
357.058080	2482.768269
357.447408	2313.889615
357.836672	2334.054231
358.225873	2515.535769
358.615010	2487.809423
359.004084	2414.712692
359.393095	2472.685962
359.782043	2513.015192
360.170927	2477.727115
360.559748	2472.685962
360.948505	2442.439038
361.337199	2465.124231
361.725830	2444.959615
362.114398	2452.521346
362.502903	2419.753846
362.891344	2439.918462
363.279722	2497.891731
363.668037	2452.521346
364.056289	2460.083077
364.444478	2439.918462
364.832603	2389.506923
365.220665	2472.685962
365.608665	2455.041923
365.996601	2429.836154
366.384474	2505.453462
366.772284	2439.918462
367.160031	2465.124231
367.547715	2467.644808
367.935336	2480.247692
368.322893	2402.109808
368.710388	2434.877308
369.097820	2467.644808
369.485189	2417.233269
369.872495	2414.712692
370.259738	2439.918462
370.646918	2427.315577
371.034035	2452.521346
371.421090	2412.192115
371.808081	2422.274423
372.195010	2475.206538
372.581875	2507.974038
372.968678	2510.494615
373.355418	2455.041923
373.742096	2465.124231
374.128710	2482.768269
374.515262	2477.727115
374.901751	2470.165385
375.288177	2482.768269
375.674540	2442.439038
376.060841	2485.288846
376.447079	2487.809423
376.833254	2510.494615
377.219367	2455.041923
377.605417	2480.247692
377.991404	2492.850577
378.377329	2507.974038
378.763191	2450.000769
379.148991	2528.138654
379.534727	2409.671538
379.920402	2475.206538
380.306013	2412.192115
380.691563	2480.247692
381.077049	2502.932885
381.462474	2535.700385
381.847835	2397.068654
382.233134	2485.288846
382.618371	2444.959615
383.003545	2525.618077
383.388657	2492.850577
383.773706	2507.974038
384.158693	2472.685962
384.543618	2533.179808
384.928480	2412.192115
385.313280	2515.535769
385.698017	2407.150962
386.082692	2450.000769
386.467305	2414.712692
386.851856	2424.795000
387.236344	2538.220962
387.620770	2472.685962
388.005133	2379.424615
388.389435	2412.192115
388.773674	2351.698269
389.157851	2417.233269
389.541965	2470.165385
389.926018	2389.506923
390.310008	2439.918462
390.693936	2399.589231
391.077802	2397.068654
391.461606	2525.618077
391.845348	2439.918462
392.229027	2444.959615
392.612645	2520.576923
392.996200	2507.974038
393.379694	2523.097500
393.763125	2550.823846
394.146494	2492.850577
394.529801	2485.288846
394.913047	2477.727115
395.296230	2444.959615
395.679351	2540.741538
396.062410	2429.836154
396.445408	2492.850577
396.828343	2371.862885
397.211217	2477.727115
397.594028	2460.083077
397.976778	2515.535769
398.359466	2515.535769
398.742092	2439.918462
399.124656	2417.233269
399.507158	2490.330000
399.889598	2513.015192
400.271977	2437.397885
400.654294	2525.618077
401.036549	2331.533654
401.418742	2450.000769
401.800874	2510.494615
402.182944	2528.138654
402.564952	2543.262115
402.946898	2560.906154
403.328783	2480.247692
403.710606	2470.165385
404.092367	2452.521346
404.474067	2460.083077
404.855705	2439.918462
405.237282	2465.124231
405.618797	2500.412308
406.000250	2434.877308
406.381642	2510.494615
406.762972	2505.453462
407.144240	2518.056346
407.525447	2535.700385
407.906593	2381.945192
408.287677	2485.288846
408.668700	2477.727115
409.049661	2543.262115
409.430560	2497.891731
409.811399	2510.494615
410.192176	2523.097500
410.572891	2381.945192
410.953545	2434.877308
411.334138	2477.727115
411.714669	2480.247692
412.095139	2465.124231
412.475547	2495.371154
412.855894	2366.821731
413.236180	2457.562500
413.616405	2510.494615
413.996568	2447.480192
414.376670	2432.356731
414.756711	2452.521346
415.136691	2432.356731
415.516609	2444.959615
415.896466	2442.439038
416.276262	2530.659231
416.655997	2414.712692
417.035670	2434.877308
417.415283	2518.056346
417.794834	2565.947308
418.174324	2490.330000
418.553753	2417.233269
418.933121	2492.850577
419.312428	2502.932885
419.691674	2402.109808
420.070859	2495.371154
420.449983	2477.727115
420.829045	2525.618077
421.208047	2460.083077
421.586988	2505.453462
421.965867	2452.521346
422.344686	2376.904038
422.723444	2452.521346
423.102141	2505.453462
423.480777	2513.015192
423.859352	2460.083077
424.237866	2548.303269
424.616319	2505.453462
424.994712	2497.891731
425.373044	2460.083077
425.751314	2450.000769
426.129524	2437.397885
426.507673	2492.850577
426.885762	2397.068654
427.263789	2520.576923
427.641756	2465.124231
428.019662	2432.356731
428.397508	2570.988462
428.775292	2432.356731
429.153016	2480.247692
429.530679	2533.179808
429.908282	2455.041923
430.285824	2339.095385
430.663305	2450.000769
431.040726	2560.906154
431.418086	2470.165385
431.795385	2472.685962
432.172624	2455.041923
432.549802	2485.288846
432.926920	2480.247692
433.303977	2439.918462
433.680974	2500.412308
434.057910	2432.356731
434.434786	2538.220962
434.811601	2586.111923
435.188355	2480.247692
435.565050	2540.741538
435.941683	2470.165385
436.318257	2462.603654
436.694770	2467.644808
437.071222	2450.000769
437.447614	2465.124231
437.823946	2535.700385
438.200218	2460.083077
438.576429	2518.056346
438.952580	2465.124231
439.328670	2543.262115
439.704700	2447.480192
440.080670	2444.959615
440.456580	2482.768269
440.832429	2482.768269
441.208218	2394.548077
441.583947	2462.603654
441.959616	2462.603654
442.335224	2525.618077
442.710773	2429.836154
443.086261	2543.262115
443.461689	2505.453462
443.837057	2439.918462
444.212365	2412.192115
444.587612	2455.041923
444.962800	2460.083077
445.337927	2487.809423
445.712995	2581.070769
446.088002	2455.041923
446.462949	2538.220962
446.837837	2545.782692
447.212664	2457.562500
447.587431	2515.535769
447.962139	2487.809423
448.336786	2437.397885
448.711374	2437.397885
449.085901	2442.439038
449.460369	2467.644808
449.834776	2507.974038
450.209124	2518.056346
450.583412	2507.974038
450.957640	2576.029615
451.331808	2457.562500
451.705917	2447.480192
452.079965	2467.644808
452.453954	2467.644808
452.827883	2437.397885
453.201752	2447.480192
453.575562	2523.097500
453.949311	2462.603654
454.323001	2462.603654
454.696632	2407.150962
455.070202	2502.932885
455.443713	2475.206538
455.817164	2515.535769
456.190556	2545.782692
456.563888	2548.303269
456.937160	2475.206538
457.310373	2533.179808
457.683526	2497.891731
458.056619	2477.727115
458.429653	2553.344423
458.802628	2487.809423
459.175542	2545.782692
459.548398	2457.562500
459.921194	2618.879423
460.293930	2444.959615
460.666607	2497.891731
461.039224	2528.138654
461.411782	2487.809423
461.784280	2472.685962
462.156719	2563.426731
462.529099	2583.591346
462.901419	2452.521346
463.273680	2507.974038
463.645882	2490.330000
464.018024	2505.453462
464.390106	2500.412308
464.762130	2505.453462
465.134094	2467.644808
465.505999	2470.165385
465.877845	2487.809423
466.249631	2505.453462
466.621358	2477.727115
466.993026	2518.056346
467.364634	2545.782692
467.736184	2523.097500
468.107674	2427.315577
468.479105	2507.974038
468.850477	2437.397885
469.221790	2417.233269
469.593043	2525.618077
469.964238	2563.426731
470.335373	2583.591346
470.706449	2462.603654
471.077467	2467.644808
471.448425	2492.850577
471.819324	2525.618077
472.190164	2480.247692
472.560945	2550.823846
472.931667	2553.344423
473.302330	2495.371154
473.672934	2467.644808
474.043479	2495.371154
474.413965	2465.124231
474.784393	2500.412308
475.154761	2507.974038
475.525070	2518.056346
475.895321	2563.426731
476.265513	2558.385577
476.635645	2545.782692
477.005719	2482.768269
477.375734	2507.974038
477.745691	2384.465769
478.115588	2472.685962
478.485427	2422.274423
478.855207	2560.906154
479.224928	2432.356731
479.594591	2548.303269
479.964194	2439.918462
480.333739	2450.000769
480.703226	2505.453462
481.072653	2450.000769
481.442022	2543.262115
481.811333	2480.247692
482.180584	2470.165385
482.549777	2507.974038
482.918912	2510.494615
483.287988	2414.712692
483.657005	2455.041923
484.025964	2545.782692
484.394864	2507.974038
484.763706	2444.959615
485.132489	2507.974038
485.501213	2457.562500
485.869879	2538.220962
486.238487	2427.315577
486.607036	2533.179808
486.975527	2553.344423
487.343959	2477.727115
487.712333	2583.591346
488.080648	2467.644808
488.448905	2576.029615
488.817104	2465.124231
489.185244	2507.974038
489.553326	2485.288846
489.921350	2553.344423
490.289315	2518.056346
490.657222	2482.768269
491.025070	2507.974038
491.392861	2492.850577
491.760593	2444.959615
492.128267	2543.262115
492.495883	2394.548077
492.863440	2518.056346
493.230939	2555.865000
493.598380	2447.480192
493.965763	2495.371154
494.333088	2548.303269
494.700354	2442.439038
495.067563	2442.439038
495.434713	2487.809423
495.801805	2558.385577
496.168839	2553.344423
496.535815	2616.358846
496.902733	2480.247692
497.269593	2507.974038
497.636395	2497.891731
498.003139	2450.000769
498.369825	2497.891731
498.736453	2450.000769
499.103023	2573.509038
499.469535	2533.179808
499.835989	2460.083077
500.202385	2452.521346
500.568723	2520.576923
500.935003	2586.111923
501.301226	2591.153077
501.667390	2414.712692
502.033497	2414.712692
502.399546	2485.288846
502.765537	2482.768269
503.131470	2429.836154
503.497345	2497.891731
503.863163	2533.179808
504.228923	2386.986346
504.594625	2505.453462
504.960269	2510.494615
505.325856	2573.509038
505.691385	2475.206538
506.056856	2457.562500
506.422270	2518.056346
506.787625	2530.659231
507.152924	2444.959615
507.518164	2553.344423
507.883347	2538.220962
508.248472	2518.056346
508.613540	2555.865000
508.978550	2442.439038
509.343503	2545.782692
509.708398	2502.932885
510.073236	2558.385577
510.438016	2462.603654
510.802738	2550.823846
511.167403	2502.932885
511.532010	2455.041923
511.896561	2487.809423
512.261053	2560.906154
512.625488	2535.700385
512.989866	2515.535769
513.354186	2583.591346
513.718449	2477.727115
514.082655	2500.412308
514.446803	2502.932885
514.810894	2563.426731
515.174927	2576.029615
515.538904	2563.426731
515.902822	2409.671538
516.266684	2485.288846
516.630488	2450.000769
516.994235	2482.768269
517.357925	2505.453462
517.721558	2480.247692
518.085133	2513.015192
518.448651	2419.753846
518.812112	2515.535769
519.175516	2553.344423
519.538863	2450.000769
519.902152	2520.576923
520.265385	2515.535769
520.628560	2477.727115
520.991678	2515.535769
521.354739	2505.453462
521.717743	2505.453462
522.080690	2452.521346
522.443580	2497.891731
522.806413	2472.685962
523.169189	2502.932885
523.531908	2457.562500
523.894569	2535.700385
524.257174	2477.727115
524.619722	2535.700385
524.982213	2505.453462
525.344647	2417.233269
525.707025	2558.385577
526.069345	2548.303269
526.431608	2563.426731
526.793815	2533.179808
527.155964	2507.974038
527.518057	2427.315577
527.880093	2472.685962
528.242072	2490.330000
528.603995	2520.576923
528.965860	2523.097500
529.327669	2568.467885
529.689421	2515.535769
530.051117	2470.165385
530.412755	2525.618077
530.774337	2510.494615
531.135862	2518.056346
531.497331	2497.891731
531.858743	2480.247692
532.220098	2482.768269
532.581396	2485.288846
532.942638	2497.891731
533.303824	2497.891731
533.664953	2475.206538
534.026025	2465.124231
534.387040	2533.179808
534.747999	2533.179808
535.108902	2548.303269
535.469748	2502.932885
535.830537	2578.550192
536.191270	2530.659231
536.551947	2439.918462
536.912567	2437.397885
537.273131	2581.070769
537.633638	2432.356731
537.994089	2545.782692
538.354483	2485.288846
538.714821	2492.850577
539.075103	2500.412308
539.435328	2576.029615
539.795497	2457.562500
540.155609	2502.932885
540.515665	2465.124231
540.875665	2530.659231
541.235609	2573.509038
541.595496	2437.397885
541.955328	2495.371154
542.315102	2502.932885
542.674821	2540.741538
543.034483	2545.782692
543.394090	2578.550192
543.753640	2452.521346
544.113134	2500.412308
544.472571	2525.618077
544.831953	2507.974038
545.191278	2588.632500
545.550548	2505.453462
545.909761	2515.535769
546.268918	2553.344423
546.628019	2477.727115
546.987064	2553.344423
547.346053	2457.562500
547.704986	2422.274423
548.063863	2485.288846
548.422684	2447.480192
548.781449	2540.741538
549.140158	2518.056346
549.498811	2475.206538
549.857408	2543.262115
550.215949	2538.220962
550.574434	2480.247692
550.932864	2548.303269
551.291237	2523.097500
551.649555	2555.865000
552.007817	2432.356731
552.366022	2505.453462
552.724173	2543.262115
553.082267	2591.153077
553.440305	2477.727115
553.798288	2576.029615
554.156215	2482.768269
554.514086	2485.288846
554.871902	2460.083077
555.229661	2432.356731
555.587365	2452.521346
555.945014	2500.412308
556.302606	2417.233269
556.660143	2485.288846
557.017625	2485.288846
557.375050	2505.453462
557.732421	2455.041923
558.089735	2447.480192
558.446994	2462.603654
558.804197	2452.521346
559.161345	2472.685962
559.518437	2432.356731
559.875474	2432.356731
560.232455	2540.741538
560.589381	2560.906154
560.946251	2555.865000
561.303065	2545.782692
561.659825	2480.247692
562.016528	2424.795000
562.373177	2465.124231
562.729770	2482.768269
563.086307	2467.644808
563.442789	2530.659231
563.799216	2487.809423
564.155587	2523.097500
564.511904	2581.070769
564.868164	2412.192115
565.224370	2455.041923
565.580520	2477.727115
565.936615	2434.877308
566.292654	2570.988462
566.648638	2429.836154
567.004567	2492.850577
567.360441	2447.480192
567.716260	2528.138654
568.072023	2495.371154
568.427732	2444.959615
568.783385	2530.659231
569.138982	2482.768269
569.494525	2518.056346
569.850013	2417.233269
570.205445	2538.220962
570.560823	2555.865000
570.916145	2465.124231
571.271412	2492.850577
571.626625	2502.932885
571.981782	2563.426731
572.336884	2477.727115
572.691931	2472.685962
573.046923	2540.741538
573.401860	2490.330000
573.756743	2520.576923
574.111570	2392.027500
574.466342	2520.576923
574.821059	2480.247692
575.175722	2510.494615
575.530330	2399.589231
575.884882	2490.330000
576.239380	2565.947308
576.593823	2560.906154
576.948211	2480.247692
577.302544	2525.618077
577.656823	2460.083077
578.011047	2523.097500
578.365216	2465.124231
578.719330	2515.535769
579.073389	2492.850577
579.427394	2429.836154
579.781344	2500.412308
580.135239	2533.179808
580.489080	2528.138654
580.842866	2535.700385
581.196597	2450.000769
581.550273	2535.700385
581.903895	2565.947308
582.257463	2467.644808
582.610975	2689.455577
582.964434	2434.877308
583.317837	2497.891731
583.671186	2538.220962
584.024481	2513.015192
584.377721	2497.891731
584.730906	2487.809423
585.084037	2497.891731
585.437113	2437.397885
585.790135	2444.959615
586.143103	2507.974038
586.496016	2381.945192
586.848874	2558.385577
587.201679	2573.509038
587.554428	2452.521346
587.907124	2497.891731
588.259765	2439.918462
588.612352	2543.262115
588.964884	2475.206538
589.317362	2505.453462
589.669786	2437.397885
590.022155	2490.330000
590.374470	2485.288846
590.726731	2558.385577
591.078937	2518.056346
591.431090	2507.974038
591.783188	2540.741538
592.135232	2487.809423
592.487222	2497.891731
592.839157	2513.015192
593.191038	2477.727115
593.542866	2505.453462
593.894639	2487.809423
594.246358	2392.027500
594.598022	2434.877308
594.949633	2381.945192
595.301190	2548.303269
595.652692	2558.385577
596.004141	2495.371154
596.355535	2578.550192
596.706876	2515.535769
597.058162	2442.439038
597.409395	2543.262115
597.760573	2502.932885
598.111698	2538.220962
598.462768	2477.727115
598.813785	2500.412308
599.164748	2455.041923
599.515657	2510.494615
599.866511	2487.809423
600.217312	2487.809423
600.568060	2465.124231
600.918753	2538.220962
601.269392	2495.371154
601.619978	2513.015192
601.970510	2563.426731
602.320988	2477.727115
602.671412	2563.426731
603.021783	2543.262115
603.372100	2465.124231
603.722363	2409.671538
604.072572	2497.891731
604.422728	2485.288846
604.772830	2560.906154
605.122878	2523.097500
605.472872	2560.906154
605.822813	2452.521346
606.172701	2502.932885
606.522534	2495.371154
606.872314	2535.700385
607.222041	2490.330000
607.571714	2439.918462
607.921333	2515.535769
608.270899	2603.755962
608.620411	2518.056346
608.969870	2565.947308
609.319276	2439.918462
609.668627	2553.344423
610.017926	2505.453462
610.367171	2538.220962
610.716362	2507.974038
611.065500	2535.700385
611.414585	2545.782692
611.763616	2513.015192
612.112594	2477.727115
612.461518	2538.220962
612.810389	2452.521346
613.159207	2513.015192
613.507971	2505.453462
613.856682	2467.644808
614.205340	2472.685962
614.553945	2611.317692
614.902496	2505.453462
615.250994	2543.262115
615.599439	2578.550192
615.947830	2545.782692
616.296169	2560.906154
616.644454	2588.632500
616.992686	2404.630385
617.340864	2482.768269
617.688990	2467.644808
618.037063	2450.000769
618.385082	2513.015192
618.733048	2507.974038
619.080961	2555.865000
619.428821	2452.521346
619.776628	2485.288846
620.124382	2444.959615
620.472083	2528.138654
620.819731	2523.097500
621.167326	2535.700385
621.514868	2492.850577
621.862357	2558.385577
622.209793	2502.932885
622.557176	2535.700385
622.904506	2487.809423
623.251783	2550.823846
623.599007	2497.891731
623.946179	2465.124231
624.293297	2457.562500
624.640363	2457.562500
624.987376	2535.700385
625.334336	2427.315577
625.681243	2482.768269
626.028097	2497.891731
626.374899	2528.138654
626.721647	2472.685962
627.068343	2578.550192
627.414987	2515.535769
627.761577	2558.385577
628.108115	2603.755962
628.454600	2470.165385
628.801032	2477.727115
629.147412	2513.015192
629.493739	2462.603654
629.840014	2480.247692
630.186236	2480.247692
630.532405	2518.056346
630.878521	2465.124231
631.224585	2475.206538
631.570597	2555.865000
631.916556	2550.823846
632.262462	2437.397885
632.608316	2568.467885
632.954117	2558.385577
633.299866	2563.426731
633.645562	2495.371154
633.991206	2507.974038
634.336797	2528.138654
634.682336	2558.385577
635.027823	2525.618077
635.373257	2472.685962
635.718639	2543.262115
636.063968	2452.521346
636.409245	2457.562500
636.754470	2518.056346
637.099642	2515.535769
637.444762	2560.906154
637.789829	2505.453462
638.134845	2482.768269
638.479808	2502.932885
638.824719	2422.274423
639.169577	2485.288846
639.514383	2502.932885
639.859137	2555.865000
640.203839	2576.029615
640.548489	2470.165385
640.893086	2533.179808
641.237632	2434.877308
641.582125	2477.727115
641.926566	2533.179808
642.270955	2465.124231
642.615292	2515.535769
642.959576	2553.344423
643.303809	2472.685962
643.647990	2470.165385
643.992118	2442.439038
644.336195	2533.179808
644.680219	2460.083077
645.024192	2450.000769
645.368112	2465.124231
645.711981	2490.330000
646.055797	2465.124231
646.399562	2530.659231
646.743274	2550.823846
647.086935	2467.644808
647.430544	2460.083077
647.774101	2568.467885
648.117606	2515.535769
648.461059	2550.823846
648.804460	2437.397885
649.147810	2570.988462
649.491108	2477.727115
649.834354	2507.974038
650.177548	2505.453462
650.520690	2528.138654
650.863781	2460.083077
651.206820	2563.426731
651.549807	2528.138654
651.892742	2548.303269
652.235626	2518.056346
652.578458	2475.206538
652.921238	2550.823846
653.263967	2437.397885
653.606644	2412.192115
653.949269	2543.262115
654.291843	2487.809423
654.634365	2505.453462
654.976836	2407.150962
655.319255	2540.741538
655.661622	2616.358846
656.003938	2457.562500
656.346203	2518.056346
656.688416	2492.850577
657.030577	2450.000769
657.372687	2497.891731
657.714746	2593.673654
658.056753	2447.480192
658.398708	2480.247692
658.740612	2480.247692
659.082465	2477.727115
659.424266	2429.836154
659.766016	2523.097500
660.107715	2465.124231
660.449362	2470.165385
660.790958	2467.644808
661.132503	2530.659231
661.473996	2485.288846
661.815438	2497.891731
662.156829	2450.000769
662.498168	2513.015192
662.839456	2480.247692
663.180693	2518.056346
663.521879	2538.220962
663.863013	2510.494615
664.204097	2470.165385
664.545129	2480.247692
664.886110	2457.562500
665.227040	2518.056346
665.567918	2480.247692
665.908746	2480.247692
666.249522	2586.111923
666.590248	2467.644808
666.930922	2528.138654
667.271545	2515.535769
667.612118	2485.288846
667.952639	2457.562500
668.293109	2482.768269
668.633528	2472.685962
668.973896	2482.768269
669.314213	2457.562500
669.654480	2558.385577
669.994695	2480.247692
670.334859	2490.330000
670.674973	2450.000769
671.015035	2492.850577
671.355047	2477.727115
671.695008	2480.247692
672.034918	2470.165385
672.374777	2540.741538
672.714585	2500.412308
673.054342	2518.056346
673.394049	2389.506923
673.733705	2576.029615
674.073310	2429.836154
674.412864	2500.412308
674.752368	2447.480192
675.091820	2465.124231
675.431223	2427.315577
675.770574	2510.494615
676.109875	2500.412308
676.449125	2563.426731
676.788324	2432.356731
677.127473	2452.521346
677.466571	2495.371154
677.805619	2560.906154
678.144616	2500.412308
678.483562	2586.111923
678.822458	2500.412308
679.161303	2497.891731
679.500098	2525.618077
679.838842	2540.741538
680.177535	2477.727115
680.516179	2419.753846
680.854771	2568.467885
681.193314	2402.109808
681.531805	2480.247692
681.870247	2477.727115
682.208638	2475.206538
682.546978	2482.768269
682.885268	2550.823846
683.223508	2601.235385
683.561697	2442.439038
683.899836	2392.027500
684.237925	2465.124231
684.575963	2535.700385
684.913951	2540.741538
685.251889	2555.865000
685.589776	2505.453462
685.927614	2447.480192
686.265401	2477.727115
686.603137	2500.412308
686.940824	2417.233269
687.278460	2497.891731
687.616046	2507.974038
687.953582	2513.015192
688.291068	2439.918462
688.628504	2543.262115
688.965889	2376.904038
689.303224	2437.397885
689.640510	2520.576923
689.977745	2525.618077
690.314930	2520.576923
690.652065	2472.685962
690.989150	2578.550192
691.326185	2535.700385
691.663170	2492.850577
692.000105	2490.330000
692.336990	2515.535769
692.673825	2477.727115
693.010610	2457.562500
693.347345	2550.823846
693.684030	2424.795000
694.020665	2543.262115
694.357251	2518.056346
694.693786	2467.644808
695.030272	2530.659231
695.366707	2533.179808
695.703093	2540.741538
696.039429	2533.179808
696.375716	2432.356731
696.711952	2480.247692
697.048139	2505.453462
697.384276	2455.041923
697.720363	2500.412308
698.056400	2485.288846
698.392388	2515.535769
698.728326	2513.015192
699.064214	2487.809423
699.400053	2601.235385
699.735842	2528.138654
700.071581	2472.685962
700.407270	2480.247692
700.742910	2533.179808
701.078501	2485.288846
701.414042	2502.932885
701.749533	2550.823846
702.084974	2495.371154
702.420366	2444.959615
702.755709	2523.097500
703.091002	2470.165385
703.426246	2465.124231
703.761440	2507.974038
704.096584	2538.220962
704.431679	2540.741538
704.766725	2470.165385
705.101721	2497.891731
705.436668	2437.397885
705.771565	2507.974038
706.106413	2495.371154
706.441212	2455.041923
706.775961	2472.685962
707.110661	2472.685962
707.445311	2482.768269
707.779913	2407.150962
708.114465	2462.603654
708.448967	2500.412308
708.783421	2545.782692
709.117825	2475.206538
709.452180	2497.891731
709.786485	2500.412308
710.120742	2495.371154
710.454949	2422.274423
710.789107	2548.303269
711.123216	2371.862885
711.457275	2550.823846
711.791286	2472.685962
712.125247	2510.494615
712.459159	2497.891731
712.793023	2480.247692
713.126837	2460.083077
713.460602	2485.288846
713.794318	2495.371154
714.127985	2613.838269
714.461602	2520.576923
714.795171	2641.564615
715.128691	2462.603654
715.462162	2538.220962
715.795584	2545.782692
716.128957	2535.700385
716.462281	2560.906154
716.795556	2450.000769
717.128782	2482.768269
717.461960	2548.303269
717.795088	2553.344423
718.128167	2419.753846
718.461198	2530.659231
718.794180	2525.618077
719.127113	2553.344423
719.459997	2505.453462
719.792833	2530.659231
720.125619	2485.288846
720.458357	2497.891731
720.791046	2495.371154
721.123686	2563.426731
721.456278	2515.535769
721.788821	2513.015192
722.121315	2442.439038
722.453761	2548.303269
722.786158	2480.247692
723.118506	2472.685962
723.450805	2510.494615
723.783056	2419.753846
724.115259	2422.274423
724.447412	2500.412308
724.779518	2540.741538
725.111574	2455.041923
725.443582	2475.206538
725.775542	2480.247692
726.107453	2470.165385
726.439315	2515.535769
726.771129	2472.685962
727.102895	2462.603654
727.434612	2490.330000
727.766281	2455.041923
728.097901	2563.426731
728.429473	2389.506923
728.760996	2596.194231
729.092471	2500.412308
729.423897	2447.480192
729.755276	2525.618077
730.086606	2465.124231
730.417887	2437.397885
730.749120	2450.000769
731.080305	2507.974038
731.411442	2639.044038
731.742530	2427.315577
732.073570	2588.632500
732.404562	2490.330000
732.735506	2492.850577
733.066401	2507.974038
733.397249	2482.768269
733.728048	2427.315577
734.058798	2545.782692
734.389501	2465.124231
734.720156	2513.015192
735.050762	2520.576923
735.381320	2437.397885
735.711831	2487.809423
736.042293	2507.974038
736.372707	2565.947308
736.703073	2500.412308
737.033391	2477.727115
737.363661	2472.685962
737.693883	2417.233269
738.024056	2502.932885
738.354182	2455.041923
738.684260	2497.891731
739.014290	2450.000769
739.344272	2487.809423
739.674207	2470.165385
740.004093	2593.673654
740.333931	2507.974038
740.663722	2455.041923
740.993464	2422.274423
741.323159	2465.124231
741.652806	2540.741538
741.982405	2502.932885
742.311956	2513.015192
742.641460	2515.535769
742.970915	2472.685962
743.300323	2460.083077
743.629683	2434.877308
743.958996	2490.330000
744.288260	2447.480192
744.617477	2550.823846
744.946647	2500.412308
745.275768	2442.439038
745.604842	2520.576923
745.933869	2477.727115
746.262847	2485.288846
746.591778	2444.959615
746.920662	2510.494615
747.249498	2475.206538
747.578286	2467.644808
747.907027	2533.179808
748.235720	2487.809423
748.564365	2555.865000
748.892963	2472.685962
749.221514	2487.809423
749.550017	2520.576923
749.878473	2452.521346
750.206881	2548.303269
750.535242	2434.877308
750.863555	2588.632500
751.191821	2475.206538
751.520039	2550.823846
751.848210	2533.179808
752.176334	2447.480192
752.504411	2502.932885
752.832440	2558.385577
753.160421	2439.918462
753.488356	2450.000769
753.816243	2472.685962
754.144082	2480.247692
754.471875	2386.986346
754.799620	2404.630385
755.127318	2485.288846
755.454969	2505.453462
755.782572	2475.206538
756.110129	2507.974038
756.437638	2518.056346
756.765100	2533.179808
757.092515	2507.974038
757.419882	2518.056346
757.747203	2583.591346
758.074477	2492.850577
758.401703	2475.206538
758.728882	2472.685962
759.056014	2452.521346
759.383099	2515.535769
759.710138	2565.947308
760.037129	2472.685962
760.364073	2480.247692
760.690970	2505.453462
761.017820	2442.439038
761.344623	2518.056346
761.671379	2540.741538
761.998088	2540.741538
762.324751	2492.850577
762.651366	2565.947308
762.977935	2538.220962
763.304456	2515.535769
763.630931	2555.865000
763.957359	2500.412308
764.283740	2497.891731
764.610074	2407.150962
764.936362	2427.315577
765.262602	2432.356731
765.588796	2495.371154
765.914943	2467.644808
766.241044	2507.974038
766.567097	2457.562500
766.893104	2520.576923
767.219064	2467.644808
767.544978	2452.521346
767.870845	2467.644808
768.196665	2467.644808
768.522438	2409.671538
768.848165	2492.850577
769.173846	2545.782692
769.499479	2543.262115
769.825066	2563.426731
770.150607	2530.659231
770.476101	2450.000769
770.801548	2457.562500
771.126949	2520.576923
771.452303	2455.041923
771.777611	2555.865000
772.102872	2470.165385
772.428087	2472.685962
772.753256	2475.206538
773.078378	2518.056346
773.403453	2523.097500
773.728482	2465.124231
774.053465	2530.659231
774.378401	2507.974038
774.703291	2573.509038
775.028135	2570.988462
775.352932	2518.056346
775.677683	2515.535769
776.002388	2432.356731
776.327046	2495.371154
776.651658	2465.124231
776.976224	2487.809423
777.300743	2432.356731
777.625216	2586.111923
777.949643	2492.850577
778.274024	2477.727115
778.598359	2492.850577
778.922647	2515.535769
779.246889	2487.809423
779.571086	2520.576923
779.895236	2487.809423
780.219339	2530.659231
780.543397	2477.727115
780.867409	2447.480192
781.191374	2520.576923
781.515294	2523.097500
781.839167	2520.576923
782.162995	2397.068654
782.486776	2518.056346
782.810511	2530.659231
783.134201	2434.877308
783.457844	2535.700385
783.781441	2538.220962
784.104993	2513.015192
784.428498	2500.412308
784.751958	2397.068654
785.075372	2492.850577
785.398739	2452.521346
785.722061	2540.741538
786.045337	2530.659231
786.368568	2487.809423
786.691752	2475.206538
787.014891	2414.712692
787.337983	2560.906154
787.661030	2439.918462
787.984031	2437.397885
788.306987	2487.809423
788.629897	2513.015192
788.952760	2591.153077
789.275579	2520.576923
789.598351	2563.426731
789.921078	2487.809423
790.243759	2495.371154
790.566395	2495.371154
790.888984	2460.083077
791.211529	2470.165385
791.534027	2543.262115
791.856480	2528.138654
792.178888	2528.138654
792.501249	2515.535769
792.823566	2510.494615
793.145836	2576.029615
793.468062	2553.344423
793.790241	2523.097500
794.112375	2583.591346
794.434464	2530.659231
794.756507	2502.932885
795.078505	2525.618077
795.400457	2500.412308
795.722364	2455.041923
796.044226	2480.247692
796.366042	2601.235385
796.687812	2437.397885
797.009538	2480.247692
797.331218	2523.097500
797.652852	2560.906154
797.974442	2550.823846
798.295986	2432.356731
798.617484	2480.247692
798.938938	2450.000769
799.260346	2500.412308
799.581709	2429.836154
799.903026	2490.330000
800.224299	2475.206538
800.545526	2480.247692
800.866708	2535.700385
801.187845	2540.741538
801.508936	2485.288846
801.829983	2507.974038
802.150984	2460.083077
802.471940	2528.138654
802.792851	2470.165385
803.113717	2533.179808
803.434538	2407.150962
803.755314	2485.288846
804.076045	2457.562500
804.396731	2576.029615
804.717372	2470.165385
805.037967	2467.644808
805.358518	2437.397885
805.679024	2477.727115
805.999485	2477.727115
806.319901	2495.371154
806.640272	2497.891731
806.960598	2598.714808
807.280879	2402.109808
807.601115	2497.891731
807.921306	2452.521346
808.241453	2513.015192
808.561554	2462.603654
808.881611	2495.371154
809.201623	2467.644808
809.521590	2475.206538
809.841513	2530.659231
810.161390	2455.041923
810.481223	2487.809423
810.801011	2452.521346
811.120755	2492.850577
811.440453	2444.959615
811.760107	2553.344423
812.079716	2447.480192
812.399281	2495.371154
812.718801	2460.083077
813.038276	2487.809423
813.357707	2535.700385
813.677093	2467.644808
813.996434	2518.056346
814.315731	2480.247692
814.634983	2467.644808
814.954191	2533.179808
815.273354	2588.632500
815.592473	2442.439038
815.911547	2470.165385
816.230577	2472.685962
816.549562	2450.000769
816.868502	2472.685962
817.187399	2515.535769
817.506250	2434.877308
817.825058	2475.206538
818.143821	2500.412308
818.462539	2475.206538
818.781213	2578.550192
819.099843	2462.603654
819.418429	2538.220962
819.736970	2535.700385
820.055466	2487.809423
820.373919	2578.550192
820.692327	2419.753846
821.010691	2558.385577
821.329011	2553.344423
821.647286	2477.727115
821.965517	2462.603654
822.283704	2490.330000
822.601847	2523.097500
822.919945	2525.618077
823.237999	2492.850577
823.556010	2444.959615
823.873976	2495.371154
824.191897	2510.494615
824.509775	2563.426731
824.827609	2550.823846
825.145398	2563.426731
825.463144	2618.879423
825.780845	2525.618077
826.098502	2535.700385
826.416116	2576.029615
826.733685	2535.700385
827.051210	2462.603654
827.368692	2548.303269
827.686129	2482.768269
828.003522	2518.056346
828.320872	2502.932885
828.638177	2581.070769
828.955439	2502.932885
829.272656	2465.124231
829.589830	2452.521346
829.906960	2429.836154
830.224046	2545.782692
830.541088	2550.823846
830.858086	2538.220962
831.175041	2475.206538
831.491952	2500.412308
831.808819	2513.015192
832.125642	2525.618077
832.442421	2513.015192
832.759157	2472.685962
833.075849	2439.918462
833.392497	2485.288846
833.709101	2507.974038
834.025662	2500.412308
834.342179	2545.782692
834.658653	2470.165385
834.975083	2563.426731
835.291469	2543.262115
835.607811	2465.124231
835.924110	2603.755962
836.240366	2480.247692
836.556578	2525.618077
836.872746	2424.795000
837.188871	2487.809423
837.504952	2515.535769
837.820990	2520.576923
838.136984	2457.562500
838.452935	2397.068654
838.768842	2523.097500
839.084706	2487.809423
839.400526	2394.548077
839.716303	2538.220962
840.032037	2371.862885
840.347727	2480.247692
840.663373	2513.015192
840.978977	2518.056346
841.294537	2417.233269
841.610054	2490.330000
841.925527	2525.618077
842.240957	2500.412308
842.556344	2492.850577
842.871687	2538.220962
843.186987	2455.041923
843.502244	2497.891731
843.817458	2500.412308
844.132629	2389.506923
844.447756	2447.480192
844.762840	2422.274423
845.077881	2407.150962
845.392879	2495.371154
845.707833	2515.535769
846.022745	2497.891731
846.337613	2444.959615
846.652438	2543.262115
846.967221	2482.768269
847.281960	2543.262115
847.596656	2492.850577
847.911309	2513.015192
848.225919	2490.330000
848.540485	2545.782692
848.855009	2515.535769
849.169490	2429.836154
849.483928	2475.206538
849.798323	2475.206538
850.112675	2573.509038
850.426984	2462.603654
850.741251	2520.576923
851.055474	2492.850577
851.369654	2507.974038
851.683792	2515.535769
851.997887	2520.576923
852.311938	2404.630385
852.625947	2419.753846
852.939914	2598.714808
853.253837	2467.644808
853.567718	2530.659231
853.881555	2462.603654
854.195350	2470.165385
854.509103	2487.809423
854.822812	2518.056346
855.136479	2495.371154
855.450103	2480.247692
855.763685	2500.412308
856.077224	2457.562500
856.390720	2518.056346
856.704173	2417.233269
857.017584	2444.959615
857.330953	2490.330000
857.644278	2492.850577
857.957561	2497.891731
858.270802	2482.768269
858.584000	2533.179808
858.897155	2505.453462
859.210268	2505.453462
859.523339	2553.344423
859.836367	2450.000769
860.149352	2535.700385
860.462295	2487.809423
860.775195	2523.097500
861.088054	2490.330000
861.400869	2530.659231
861.713642	2502.932885
862.026373	2442.439038
862.339062	2530.659231
862.651708	2490.330000
862.964312	2475.206538
863.276873	2530.659231
863.589392	2510.494615
863.901869	2495.371154
864.214303	2490.330000
864.526696	2462.603654
864.839045	2535.700385
865.151353	2424.795000
865.463619	2467.644808
865.775842	2495.371154
866.088023	2540.741538
866.400162	2558.385577
866.712258	2462.603654
867.024313	2578.550192
867.336325	2412.192115
867.648296	2545.782692
867.960224	2553.344423
868.272110	2530.659231
868.583954	2528.138654
868.895755	2495.371154
869.207515	2427.315577
869.519233	2485.288846
869.830909	2490.330000
870.142542	2558.385577
870.454134	2558.385577
870.765684	2518.056346
871.077191	2487.809423
871.388657	2414.712692
871.700081	2558.385577
872.011463	2482.768269
872.322803	2513.015192
872.634101	2457.562500
872.945357	2573.509038
873.256571	2437.397885
873.567744	2500.412308
873.878874	2470.165385
874.189963	2523.097500
874.501010	2460.083077
874.812015	2422.274423
875.122979	2515.535769
875.433900	2414.712692
875.744780	2530.659231
876.055618	2500.412308
876.366415	2545.782692
876.677169	2482.768269
876.987882	2507.974038
877.298554	2495.371154
877.609183	2490.330000
877.919771	2457.562500
878.230317	2485.288846
878.540822	2528.138654
878.851285	2492.850577
879.161707	2570.988462
879.472087	2407.150962
879.782425	2528.138654
880.092722	2462.603654
880.402977	2520.576923
880.713191	2475.206538
881.023363	2482.768269
881.333494	2427.315577
881.643583	2444.959615
881.953631	2490.330000
882.263637	2492.850577
882.573602	2505.453462
882.883526	2533.179808
883.193408	2477.727115
883.503248	2475.206538
883.813048	2490.330000
884.122806	2487.809423
884.432522	2495.371154
884.742197	2437.397885
885.051831	2507.974038
885.361424	2500.412308
885.670975	2553.344423
885.980485	2533.179808
886.289954	2447.480192
886.599382	2452.521346
886.908768	2576.029615
887.218113	2500.412308
887.527417	2555.865000
887.836680	2477.727115
888.145901	2379.424615
888.455082	2548.303269
888.764221	2465.124231
889.073319	2563.426731
889.382376	2518.056346
889.691392	2565.947308
890.000366	2412.192115
890.309300	2497.891731
890.618193	2505.453462
890.927044	2437.397885
891.235855	2507.974038
891.544625	2480.247692
891.853353	2598.714808
892.162041	2452.521346
892.470687	2492.850577
892.779293	2442.439038
893.087858	2591.153077
893.396381	2507.974038
893.704864	2601.235385
894.013306	2460.083077
894.321707	2530.659231
894.630068	2485.288846
894.938387	2467.644808
895.246665	2515.535769
895.554903	2565.947308
895.863100	2434.877308
896.171256	2497.891731
896.479371	2538.220962
896.787446	2548.303269
897.095480	2528.138654
897.403473	2518.056346
897.711425	2502.932885
898.019336	2518.056346
898.327207	2492.850577
898.635038	2528.138654
898.942827	2492.850577
899.250576	2555.865000
899.558284	2533.179808
899.865952	2495.371154
900.173579	2502.932885
900.481165	2465.124231
900.788711	2427.315577
901.096216	2450.000769
901.403681	2442.439038
901.711105	2379.424615
902.018489	2472.685962
902.325832	2427.315577
902.633135	2404.630385
902.940397	2414.712692
903.247619	2434.877308
903.554800	2606.276538
903.861941	2407.150962
904.169041	2518.056346
904.476101	2482.768269
904.783121	2477.727115
905.090100	2513.015192
905.397039	2412.192115
905.703938	2472.685962
906.010796	2450.000769
906.317614	2513.015192
906.624391	2490.330000
906.931129	2470.165385
907.237826	2520.576923
907.544483	2414.712692
907.851099	2555.865000
908.157675	2439.918462
908.464211	2500.412308
908.770707	2364.301154
909.077163	2513.015192
909.383578	2472.685962
909.689954	2460.083077
909.996289	2485.288846
910.302584	2477.727115
910.608839	2394.548077
910.915054	2555.865000
911.221229	2480.247692
911.527363	2447.480192
911.833458	2523.097500
912.139513	2507.974038
912.445527	2603.755962
912.751502	2515.535769
913.057436	2528.138654
913.363331	2465.124231
913.669186	2407.150962
913.975000	2555.865000
914.280775	2492.850577
914.586510	2502.932885
914.892205	2507.974038
915.197859	2523.097500
915.503475	2437.397885
915.809050	2475.206538
916.114585	2475.206538
916.420081	2462.603654
916.725536	2490.330000
917.030952	2462.603654
917.336328	2482.768269
917.641665	2528.138654
917.946961	2429.836154
918.252218	2455.041923
918.557435	2480.247692
918.862612	2601.235385
919.167750	2573.509038
919.472848	2429.836154
919.777906	2538.220962
920.082925	2570.988462
920.387904	2565.947308
920.692843	2485.288846
920.997743	2560.906154
921.302603	2634.002885
921.607423	2384.465769
921.912204	2558.385577
922.216946	2543.262115
922.521647	2505.453462
922.826310	2550.823846
923.130932	2533.179808
923.435516	2502.932885
923.740059	2450.000769
924.044564	2407.150962
924.349028	2470.165385
924.653454	2444.959615
924.957840	2460.083077
925.262186	2359.260000
925.566493	2477.727115
925.870761	2439.918462
926.174989	2497.891731
926.479178	2399.589231
926.783328	2576.029615
927.087438	2513.015192
927.391509	2515.535769
927.695541	2558.385577
927.999533	2460.083077
928.303486	2578.550192
928.607400	2450.000769
928.911275	2467.644808
929.215110	2447.480192
929.518906	2450.000769
929.822663	2538.220962
930.126381	2470.165385
930.430060	2538.220962
930.733699	2533.179808
931.037299	2535.700385
931.340861	2462.603654
931.644383	2530.659231
931.947866	2558.385577
932.251309	2465.124231
932.554714	2467.644808
932.858080	2490.330000
933.161407	2591.153077
933.464694	2462.603654
933.767943	2492.850577
934.071153	2502.932885
934.374323	2515.535769
934.677455	2434.877308
934.980548	2525.618077
935.283602	2530.659231
935.586617	2520.576923
935.889593	2528.138654
936.192530	2437.397885
936.495428	2528.138654
936.798287	2460.083077
937.101108	2550.823846
937.403890	2442.439038
937.706632	2462.603654
938.009336	2553.344423
938.312002	2535.700385
938.614628	2465.124231
938.917216	2530.659231
939.219765	2470.165385
939.522275	2480.247692
939.824747	2492.850577
940.127179	2482.768269
940.429573	2465.124231
940.731929	2545.782692
941.034246	2480.247692
941.336524	2540.741538
941.638763	2450.000769
941.940964	2543.262115
942.243126	2462.603654
942.545250	2535.700385
942.847335	2490.330000
943.149381	2439.918462
943.451389	2480.247692
943.753359	2560.906154
944.055290	2432.356731
944.357182	2455.041923
944.659036	2525.618077
944.960851	2490.330000
945.262628	2500.412308
945.564367	2495.371154
945.866067	2412.192115
946.167729	2543.262115
946.469352	2414.712692
946.770937	2505.453462
947.072484	2502.932885
947.373992	2560.906154
947.675462	2515.535769
947.976893	2412.192115
948.278286	2472.685962
948.579641	2505.453462
948.880958	2505.453462
949.182236	2422.274423
949.483476	2545.782692
949.784678	2485.288846
950.085841	2422.274423
950.386967	2568.467885
950.688054	2596.194231
950.989103	2593.673654
951.290114	2492.850577
951.591087	2555.865000
951.892021	2412.192115
952.192917	2548.303269
952.493776	2505.453462
952.794596	2495.371154
953.095378	2588.632500
953.396122	2500.412308
953.696828	2437.397885
953.997496	2472.685962
954.298126	2497.891731
954.598718	2477.727115
954.899272	2444.959615
955.199788	2437.397885
955.500266	2520.576923
955.800706	2548.303269
956.101108	2497.891731
956.401472	2467.644808
956.701798	2568.467885
957.002087	2444.959615
957.302337	2497.891731
957.602550	2477.727115
957.902724	2553.344423
958.202861	2618.879423
958.502960	2528.138654
958.803022	2472.685962
959.103045	2518.056346
959.403031	2450.000769
959.702979	2518.056346
960.002889	2462.603654
960.302762	2525.618077
960.602596	2543.262115
960.902393	2540.741538
961.202153	2558.385577
961.501875	2570.988462
961.801559	2467.644808
962.101205	2510.494615
962.400814	2384.465769
962.700385	2477.727115
962.999918	2540.741538
963.299414	2437.397885
963.598873	2525.618077
963.898293	2497.891731
964.197677	2507.974038
964.497022	2530.659231
964.796331	2528.138654
965.095601	2457.562500
965.394835	2447.480192
965.694030	2518.056346
965.993189	2419.753846
966.292309	2472.685962
966.591393	2482.768269
966.890439	2462.603654
967.189447	2513.015192
967.488419	2545.782692
967.787353	2515.535769
968.086249	2515.535769
968.385108	2470.165385
968.683930	2500.412308
968.982714	2442.439038
969.281462	2477.727115
969.580172	2558.385577
969.878844	2525.618077
970.177480	2525.618077
970.476078	2429.836154
970.774639	2497.891731
971.073162	2543.262115
971.371649	2356.739423
971.670098	2457.562500
971.968510	2460.083077
972.266885	2538.220962
972.565223	2480.247692
972.863524	2472.685962
973.161788	2523.097500
973.460014	2455.041923
973.758204	2588.632500
974.056356	2550.823846
974.354471	2450.000769
974.652550	2480.247692
974.950591	2422.274423
975.248595	2553.344423
975.546563	2500.412308
975.844493	2510.494615
976.142386	2500.412308
976.440243	2510.494615
976.738062	2525.618077
977.035845	2530.659231
977.333590	2555.865000
977.631299	2510.494615
977.928971	2540.741538
978.226606	2427.315577
978.524204	2535.700385
978.821765	2568.467885
979.119290	2460.083077
979.416777	2525.618077
979.714228	2462.603654
980.011642	2533.179808
980.309020	2452.521346
980.606360	2485.288846
980.903664	2482.768269
981.200931	2429.836154
981.498162	2495.371154
981.795356	2384.465769
982.092513	2467.644808
982.389633	2545.782692
982.686717	2505.453462
982.983764	2588.632500
983.280775	2502.932885
983.577749	2528.138654
983.874686	2613.838269
984.171587	2452.521346
984.468451	2497.891731
984.765279	2485.288846
985.062070	2432.356731
985.358824	2439.918462
985.655543	2450.000769
985.952224	2497.891731
986.248869	2432.356731
986.545478	2495.371154
986.842050	2490.330000
987.138586	2530.659231
987.435086	2608.797115
987.731549	2535.700385
988.027975	2447.480192
988.324366	2450.000769
988.620719	2470.165385
988.917037	2528.138654
989.213318	2568.467885
989.509563	2417.233269
989.805772	2480.247692
990.101944	2565.947308
990.398080	2533.179808
990.694180	2487.809423
990.990244	2548.303269
991.286271	2570.988462
991.582262	2538.220962
991.878217	2480.247692
992.174136	2513.015192
992.470019	2492.850577
992.765865	2535.700385
993.061676	2523.097500
993.357450	2490.330000
993.653188	2485.288846
993.948890	2525.618077
994.244556	2482.768269
994.540186	2450.000769
994.835780	2480.247692
995.131337	2502.932885
995.426859	2548.303269
995.722345	2439.918462
996.017795	2500.412308
996.313208	2450.000769
996.608586	2495.371154
996.903928	2452.521346
997.199234	2439.918462
997.494504	2485.288846
997.789738	2515.535769
998.084936	2538.220962
998.380099	2490.330000
998.675225	2434.877308
998.970316	2513.015192
999.265371	2492.850577
999.560390	2558.385577
999.855373	2555.865000
1000.150320	2548.303269
1000.445232	2480.247692
1000.740108	2485.288846
1001.034948	2452.521346
1001.329752	2502.932885
1001.624521	2518.056346
1001.919254	2510.494615
1002.213951	2518.056346
1002.508613	2475.206538
1002.803239	2520.576923
1003.097829	2502.932885
1003.392384	2485.288846
1003.686903	2487.809423
1003.981386	2507.974038
1004.275834	2500.412308
1004.570246	2540.741538
1004.864623	2492.850577
1005.158964	2507.974038
1005.453270	2472.685962
1005.747540	2475.206538
1006.041775	2545.782692
1006.335974	2490.330000
1006.630138	2472.685962
1006.924266	2601.235385
1007.218359	2578.550192
1007.512416	2513.015192
1007.806438	2475.206538
1008.100425	2596.194231
1008.394376	2455.041923
1008.688292	2523.097500
1008.982172	2626.441154
1009.276017	2558.385577
1009.569827	2371.862885
1009.863602	2487.809423
1010.157341	2540.741538
1010.451045	2593.673654
1010.744714	2442.439038
1011.038347	2419.753846
1011.331945	2563.426731
1011.625508	2480.247692
1011.919036	2525.618077
1012.212528	2460.083077
1012.505986	2555.865000
1012.799408	2525.618077
1013.092795	2540.741538
1013.386147	2442.439038
1013.679464	2540.741538
1013.972745	2487.809423
1014.265992	2442.439038
1014.559204	2515.535769
1014.852380	2409.671538
1015.145521	2510.494615
1015.438628	2507.974038
1015.731699	2555.865000
1016.024736	2497.891731
1016.317737	2505.453462
1016.610703	2480.247692
1016.903635	2487.809423
1017.196531	2472.685962
1017.489393	2497.891731
1017.782219	2487.809423
1018.075011	2515.535769
1018.367768	2502.932885
1018.660490	2465.124231
1018.953177	2465.124231
1019.245829	2465.124231
