Dividing Wavelength (nm)	Counts (n)	Blue Motor Position (mm): 0.000000	Red Motor Position (mm): 20.000000	
326.493990	2081.678946
326.888308	2081.678946
327.282561	2081.678946
327.676750	2058.915616
328.070874	2059.770091
328.464933	2067.427604
328.858929	2079.846486
329.252859	2090.788311
329.646726	2104.979159
330.040528	2120.079935
330.434265	2139.843779
330.827938	2158.768270
331.221547	2179.636127
331.615091	2198.880732
332.008571	2219.783876
332.401986	2237.929509
332.795338	2259.364495
333.188625	2279.413164
333.581847	2299.943263
333.975006	2314.837352
334.368100	2334.969200
334.761129	2353.598784
335.154095	2370.201824
335.546996	2387.525750
335.939833	2406.586352
336.332606	2418.974988
336.725315	2429.674837
337.117960	2440.566250
337.510540	2447.984308
337.903056	2453.761470
338.295508	2460.597275
338.687896	2468.486680
339.080220	2473.341312
339.472480	2479.920017
339.864676	2484.290698
340.256807	2487.391007
340.648875	2486.440750
341.040879	2492.706904
341.432818	2491.171873
341.824694	2492.827892
342.216506	2492.233036
342.608253	2491.363437
342.999937	2490.549290
343.391557	2489.107520
343.783113	2489.238590
344.174605	2485.578713
344.566033	2485.067035
344.957397	2482.697693
345.348697	2484.331027
345.739934	2479.877167
346.131106	2479.862044
346.522215	2475.514049
346.913260	2475.148565
347.304241	2476.028247
347.695159	2473.265694
348.086012	2473.845427
348.476802	2468.884932
348.867528	2469.484829
349.258191	2467.450723
349.648789	2465.766978
350.039324	2467.705302
350.429796	2467.135651
350.820203	2464.216823
351.210548	2463.818572
351.600828	2461.706328
351.991045	2464.272276
352.381198	2462.994343
352.771288	2465.260342
353.161314	2464.461319
353.551276	2462.646504
353.941175	2465.640949
354.331010	2467.017184
354.720782	2462.273458
355.110490	2465.174642
355.500135	2465.779581
355.889717	2466.331587
356.279235	2465.966103
356.668689	2465.958542
357.058080	2467.695219
357.447408	2463.687502
357.836672	2466.336628
358.225873	2464.173973
358.615010	2464.025259
359.004084	2471.650004
359.393095	2468.322843
359.782043	2472.670838
360.170927	2471.894500
360.559748	2472.171764
360.948505	2474.488174
361.337199	2475.685448
361.725830	2474.014306
362.114398	2474.067238
362.502903	2477.628813
362.891344	2478.372383
363.279722	2477.439770
363.668037	2479.685604
364.056289	2479.453711
364.444478	2480.650985
364.832603	2480.716520
365.220665	2479.841879
365.608665	2478.334574
365.996601	2481.760038
366.384474	2485.031747
366.772284	2485.694659
367.160031	2484.477220
367.547715	2484.860348
367.935336	2485.238435
368.322893	2489.281440
368.710388	2486.954948
369.097820	2490.892089
369.485189	2488.623569
369.872495	2491.524753
370.259738	2492.187665
370.646918	2490.594661
371.034035	2495.429127
371.421090	2498.579848
371.808081	2502.085971
372.195010	2502.821979
372.581875	2509.917403
372.968678	2517.380832
373.355418	2522.762263
373.742096	2528.214271
374.128710	2538.339429
374.515262	2550.254196
374.901751	2562.758778
375.288177	2578.615727
375.674540	2593.265320
376.060841	2612.547734
376.447079	2635.825262
376.833254	2660.579848
377.219367	2681.099864
377.605417	2709.950388
377.991404	2735.851836
378.377329	2771.759975
378.763191	2803.476395
379.148991	2847.420133
379.534727	2893.644993
379.920402	2935.418514
380.306013	2983.548931
380.691563	3041.864998
381.077049	3093.231835
381.462474	3149.314672
381.847835	3215.416802
382.233134	3284.611679
382.618371	3340.477746
383.003545	3420.269129
383.388657	3495.977178
383.773706	3585.593770
384.158693	3652.089110
384.543618	3739.520361
384.928480	3813.640446
385.313280	3916.482505
385.698017	4013.386085
386.082692	4128.145432
386.467305	4185.460831
386.851856	4306.723266
387.236344	4454.930668
387.620770	4516.780585
388.005133	4628.106906
388.389435	4769.062608
388.773674	4850.308364
389.157851	4976.440554
389.541965	5102.035861
389.926018	5126.699706
390.310008	5296.785717
390.693936	5416.515641
391.077802	5525.076889
391.461606	5657.490357
391.845348	5762.295945
392.229027	5879.654007
392.612645	6094.707109
392.996200	6211.704728
393.379694	6374.221446
393.763125	6588.984682
394.146494	6676.957858
394.529801	6810.389638
394.913047	7040.624176
395.296230	7034.065634
395.679351	7094.776250
396.062410	7338.947057
396.445408	7236.243630
396.828343	7391.947228
397.211217	7524.804317
397.594028	7410.385248
397.976778	7613.599201
398.359466	7774.638861
398.742092	7757.166222
399.124656	7897.580000
399.507158	8082.366015
399.889598	8106.845858
400.271977	8315.254720
400.654294	8344.599276
401.036549	8544.627220
401.418742	8573.565963
401.800874	8860.044654
402.182944	8946.351729
402.564952	9296.069174
402.946898	9141.409094
403.328783	9191.845839
403.710606	9386.076455
404.092367	9637.965269
404.474067	9983.846396
404.855705	9791.420512
405.237282	9749.697403
405.618797	10171.344552
406.000250	10408.248535
406.381642	10759.296845
406.762972	10713.626512
407.144240	10532.366784
407.525447	10777.767633
407.906593	10722.619930
408.287677	10984.795218
408.668700	11127.338885
409.049661	11112.923705
409.430560	11276.483942
409.811399	11244.417162
410.192176	11403.299208
410.572891	11483.148564
410.953545	11951.365892
411.334138	11443.144488
411.714669	12019.179494
412.095139	11377.140661
412.475547	11842.499654
412.855894	11711.084335
413.236180	12026.005216
413.616405	11722.346273
413.996568	11990.689413
414.376670	11973.665436
414.756711	11855.122704
415.136691	12131.824077
415.516609	12295.278449
415.896466	12374.459852
416.276262	12651.859425
416.655997	13104.539917
417.035670	13153.396259
417.415283	13764.368982
417.794834	13838.347915
418.174324	13581.778390
418.553753	13496.822345
418.933121	13960.923571
419.312428	13784.785655
419.691674	13682.150283
420.070859	14128.675527
420.449983	13780.868679
420.829045	14307.253360
421.208047	14054.711717
421.586988	14474.511283
421.965867	14689.768552
422.344686	14673.349514
422.723444	15203.976327
423.102141	13911.989090
423.480777	15026.966292
423.859352	14508.886911
424.237866	15530.975812
424.616319	15222.247989
424.994712	15789.871830
425.373044	15543.029211
425.751314	16131.326824
426.129524	15256.505150
426.507673	16198.714448
426.885762	15877.519851
427.263789	15969.478059
427.641756	16058.832511
428.019662	16025.848242
428.397508	15977.894266
428.775292	16134.041485
429.153016	16025.475196
429.530679	15974.569625
429.908282	15906.488842
430.285824	15559.690225
430.663305	16043.857764
431.040726	15604.488438
431.418086	15339.969014
431.795385	15729.105762
432.172624	15956.693693
432.549802	15461.712879
432.926920	15493.948537
433.303977	15244.729015
433.680974	15298.475277
434.057910	15379.247164
434.434786	15252.875519
434.811601	15027.309091
435.188355	15646.319933
435.565050	15234.203086
435.941683	15024.564182
436.318257	15474.025897
436.694770	15151.467669
437.071222	15383.574995
437.447614	14543.728846
437.823946	14365.345097
438.200218	14287.824753
438.576429	13942.992186
438.952580	13938.460189
439.328670	13721.062950
439.704700	13776.613945
440.080670	13320.288699
440.456580	13471.414929
440.832429	13357.908309
441.208218	12564.962536
441.583947	12604.601128
441.959616	12460.900517
442.335224	12375.034544
442.710773	12237.884912
443.086261	12302.726754
443.461689	11769.670105
443.837057	11629.064762
444.212365	11730.707027
444.587612	11516.427741
444.962800	11116.676844
445.337927	11088.355642
445.712995	10334.367905
446.088002	10912.414332
446.462949	10788.956474
446.837837	10636.181786
447.212664	10420.347305
447.587431	11294.438011
447.962139	12153.858960
448.336786	12766.878391
448.711374	11911.560942
449.085901	10400.033975
449.460369	10130.914498
449.834776	9889.415502
450.209124	10424.798643
450.583412	10068.265558
450.957640	9980.388164
451.331808	9375.807625
451.705917	8772.915872
452.079965	8565.979027
452.453954	8452.220349
452.827883	8226.502686
453.201752	7987.365471
453.575562	7828.617016
453.949311	7884.672126
454.323001	7706.633695
454.696632	7478.521484
455.070202	7606.783561
455.443713	7456.617670
455.817164	7373.766307
456.190556	7283.753984
456.563888	7007.975143
456.937160	6896.202680
457.310373	6460.578932
457.683526	6353.593044
458.056619	6194.713519
458.429653	6029.797212
458.802628	5962.613755
459.175542	5831.163148
459.548398	5852.025963
459.921194	5911.065436
460.293930	5870.516915
460.666607	5964.725998
461.039224	6011.870869
461.411782	5887.281272
461.784280	5606.955310
462.156719	5393.051590
462.529099	5190.487947
462.901419	4945.460143
463.273680	4744.981017
463.645882	4633.027072
464.018024	4527.692162
464.390106	4485.318744
464.762130	4583.906069
465.134094	4778.918064
465.505999	5026.297566
465.877845	5186.253377
466.249631	5093.952371
466.621358	4846.696378
466.993026	4599.929376
467.364634	4388.024474
467.736184	4205.617884
468.107674	4072.942277
468.479105	3966.740289
468.850477	3872.654714
469.221790	3753.353287
469.593043	3636.529588
469.964238	3559.180644
470.335373	3507.269363
470.706449	3510.447810
471.077467	3539.726832
471.448425	3618.736836
471.819324	3651.514418
472.190164	3568.358065
472.560945	3445.726956
472.931667	3341.639732
473.302330	3283.323665
473.672934	3241.550143
474.043479	3225.496589
474.413965	3189.505271
474.784393	3157.304901
475.154761	3160.851352
475.525070	3141.198414
475.895321	3119.279477
476.265513	3111.581635
476.635645	3118.780403
477.005719	3103.389760
477.375734	3103.621653
477.745691	3102.502517
478.115588	3112.801595
478.485427	3136.822693
478.855207	3174.260822
479.224928	3205.246274
479.594591	3220.387379
479.964194	3198.375181
480.333739	3196.956096
480.703226	3186.586443
481.072653	3192.895447
481.442022	3192.242617
481.811333	3189.018800
482.180584	3166.762105
482.549777	3153.990342
482.918912	3142.178919
483.287988	3135.842188
483.657005	3119.871813
484.025964	3108.183898
484.394864	3103.125100
484.763706	3095.187803
485.132489	3080.024012
485.501213	3077.271542
485.869879	3071.912796
486.238487	3062.793348
486.607036	3064.799728
486.975527	3055.098027
487.343959	3053.865465
487.712333	3051.105433
488.080648	3048.065618
488.448905	3052.431257
488.817104	3046.419681
489.185244	3056.431412
489.553326	3071.217117
489.921350	3100.977568
490.289315	3135.204482
490.657222	3140.492653
491.025070	3142.269659
491.392861	3127.448667
491.760593	3105.451592
492.128267	3079.441759
492.495883	3060.857545
492.863440	3039.041952
493.230939	3023.648789
493.598380	3006.526510
493.965763	2994.616784
494.333088	2983.274188
494.700354	2975.203300
495.067563	2969.620223
495.434713	2962.363482
495.801805	2963.016311
496.168839	2954.721092
496.535815	2949.637089
496.902733	2941.752724
497.269593	2934.059923
497.636395	2930.475663
498.003139	2935.184101
498.369825	2923.652461
498.736453	2922.976947
499.103023	2915.384969
499.469535	2912.967736
499.835989	2909.638053
500.202385	2902.429203
500.568723	2898.686147
500.935003	2896.659603
501.301226	2891.623490
501.667390	2897.662793
502.033497	2897.793863
502.399546	2886.110988
502.765537	2876.989021
503.131470	2881.616800
503.497345	2881.982283
503.863163	2867.985520
504.228923	2871.852085
504.594625	2872.013402
504.960269	2865.220447
505.325856	2868.832434
505.691385	2863.294726
506.056856	2857.880527
506.422270	2861.905888
506.787625	2858.422451
507.152924	2857.787266
507.518164	2859.400435
507.883347	2851.226204
508.248472	2853.282995
508.613540	2856.630321
508.978550	2852.383149
509.343503	2851.586646
509.708398	2855.536390
510.073236	2853.832480
510.438016	2857.540249
510.802738	2849.290401
511.167403	2852.582274
511.532010	2855.496061
511.896561	2859.029910
512.261053	2864.726414
512.625488	2854.555886
512.989866	2854.137470
513.354186	2850.429702
513.718449	2848.400637
514.082655	2856.403469
514.446803	2854.986905
514.810894	2858.427492
515.174927	2858.467821
515.538904	2852.925073
515.902822	2857.152080
516.266684	2852.690659
516.630488	2853.618231
516.994235	2853.199816
517.357925	2856.960516
517.721558	2859.302132
518.085133	2858.180476
518.448651	2859.655013
518.812112	2857.068901
519.175516	2858.188037
519.538863	2855.478417
519.902152	2856.963037
520.265385	2859.266844
520.628560	2858.503109
520.991678	2856.204343
521.354739	2855.974971
521.717743	2858.848428
522.080690	2859.617204
522.443580	2859.579396
522.806413	2857.613346
523.169189	2855.498582
523.531908	2854.387007
523.894569	2853.590505
524.257174	2853.645958
524.619722	2854.480269
524.982213	2856.831967
525.344647	2853.867768
525.707025	2854.853314
526.069345	2853.313242
526.431608	2848.022551
526.793815	2854.059332
527.155964	2848.647654
527.518057	2848.929958
527.880093	2846.255626
528.242072	2851.402644
528.603995	2844.592045
528.965860	2845.607838
529.327669	2843.971983
529.689421	2841.685820
530.051117	2839.041735
530.412755	2837.312619
530.774337	2839.787826
531.135862	2835.714573
531.497331	2833.168791
531.858743	2831.968996
532.220098	2833.473781
532.581396	2830.902792
532.942638	2828.067143
533.303824	2828.722493
533.664953	2827.230312
534.026025	2822.920125
534.387040	2828.351968
534.747999	2824.767708
535.108902	2826.350630
535.469748	2819.250165
535.830537	2822.905002
536.191270	2819.862665
536.551947	2818.390648
536.912567	2817.740339
537.273131	2815.156748
537.633638	2809.639205
537.994089	2816.061635
538.354483	2810.120635
538.714821	2811.428815
539.075103	2812.691624
539.435328	2812.444607
539.795497	2806.541416
540.155609	2805.394554
540.515665	2807.965542
540.875665	2803.935140
541.235609	2804.698874
541.595496	2803.136117
541.955328	2806.738021
542.315102	2801.180149
542.674821	2798.957000
543.034483	2798.997329
543.394090	2795.503810
543.753640	2795.236629
544.113134	2800.986065
544.472571	2794.006587
544.831953	2798.861218
545.191278	2798.372226
545.550548	2790.369395
545.909761	2794.130095
546.268918	2792.350568
546.628019	2795.052627
546.987064	2792.297636
547.346053	2783.483178
547.704986	2788.526853
548.063863	2785.930659
548.422684	2785.108951
548.781449	2783.160545
549.140158	2786.028961
549.498811	2783.503343
549.857408	2779.656943
550.215949	2780.458486
550.574434	2778.326078
550.932864	2779.397323
551.291237	2780.987807
551.649555	2780.312293
552.007817	2780.471089
552.366022	2778.724329
552.724173	2779.798095
553.082267	2780.874381
553.440305	2780.113167
553.798288	2777.426232
554.156215	2775.445059
554.514086	2778.537807
554.871902	2776.216355
555.229661	2773.925151
555.587365	2773.116046
555.945014	2772.236364
556.302606	2769.990530
556.660143	2770.988679
557.017625	2767.928698
557.375050	2768.105139
557.732421	2770.386261
558.089735	2767.553132
558.446994	2767.991713
558.804197	2768.573966
559.161345	2767.724532
559.518437	2764.422576
559.875474	2764.704880
560.232455	2764.956938
560.589381	2765.758482
560.946251	2763.626073
561.303065	2767.137237
561.659825	2763.926022
562.016528	2756.765063
562.373177	2759.671288
562.729770	2759.089035
563.086307	2757.342275
563.442789	2758.950403
563.799216	2756.192892
564.155587	2753.339599
564.511904	2755.182141
564.868164	2754.720875
565.224370	2758.705907
565.580520	2753.168200
565.936615	2755.371184
566.292654	2753.163159
566.648638	2752.255751
567.004567	2752.490165
567.360441	2751.305493
567.716260	2749.079824
568.072023	2751.618045
568.427732	2747.181830
568.783385	2744.686458
569.138982	2744.941037
569.494525	2742.354925
569.850013	2740.638412
570.205445	2743.814339
570.560823	2742.647312
570.916145	2741.714698
571.271412	2740.008268
571.626625	2739.133627
571.981782	2742.493557
572.336884	2737.641446
572.691931	2737.956518
573.046923	2737.021384
573.401860	2732.262535
573.756743	2730.611557
574.111570	2732.272617
574.466342	2733.500138
574.821059	2731.304716
575.175722	2728.048130
575.530330	2725.761967
575.884882	2726.634087
576.239380	2724.153839
576.593823	2725.164590
576.948211	2723.536297
577.302544	2721.484548
577.656823	2720.408262
578.011047	2722.139898
578.365216	2718.537993
578.719330	2715.651933
579.073389	2715.815770
579.427394	2713.990873
579.781344	2713.776624
580.135239	2714.285780
580.489080	2709.557178
580.842866	2712.607076
581.196597	2712.448280
581.550273	2711.500543
581.903895	2709.262270
582.257463	2711.387117
582.610975	2709.063145
582.964434	2712.206304
583.317837	2705.718339
583.671186	2706.764379
584.024481	2706.088864
584.377721	2702.620550
584.730906	2701.370344
585.084037	2702.126517
585.437113	2701.239274
585.790135	2700.178111
586.143103	2695.149560
586.496016	2698.224664
586.848874	2694.998326
587.201679	2695.585620
587.554428	2693.342307
587.907124	2691.948427
588.259765	2688.187727
588.612352	2692.843232
588.964884	2690.249559
589.317362	2693.581761
589.669786	2690.748633
590.022155	2690.431040
590.374470	2689.397604
590.726731	2689.566482
591.078937	2685.263857
591.431090	2686.546831
591.783188	2680.646161
592.135232	2682.309741
592.487222	2682.125739
592.839157	2682.544155
593.191038	2678.763290
593.542866	2677.611386
593.894639	2674.609379
594.246358	2675.794050
594.598022	2675.408402
594.949633	2676.376303
595.301190	2673.391940
595.652692	2673.530572
596.004141	2673.976714
596.355535	2672.169460
596.706876	2669.064110
597.058162	2670.042093
597.409395	2668.930519
597.760573	2670.974707
598.111698	2668.907834
598.462768	2667.312309
598.813785	2665.802483
599.164748	2662.689571
599.515657	2664.358193
599.866511	2663.977585
600.217312	2664.915240
600.568060	2662.397184
600.918753	2664.569921
601.269392	2661.872904
601.619978	2658.790238
601.970510	2664.895075
602.320988	2658.593633
602.671412	2663.516320
603.021783	2659.478356
603.372100	2660.259734
603.722363	2658.633962
604.072572	2658.535660
604.422728	2659.143119
604.772830	2654.991729
605.122878	2655.238745
605.472872	2653.567603
605.822813	2653.315545
606.172701	2654.137253
606.522534	2656.194044
606.872314	2658.510454
607.222041	2654.656492
607.571714	2655.669764
607.921333	2653.363436
608.270899	2653.476862
608.620411	2654.069197
608.969870	2655.631955
609.319276	2651.548621
609.668627	2653.791934
610.017926	2658.626401
610.367171	2656.035247
610.716362	2654.870741
611.065500	2653.000473
611.414585	2652.808909
611.763616	2655.120278
612.112594	2653.403765
612.461518	2652.077942
612.810389	2656.189003
613.159207	2653.628097
613.507971	2653.796975
613.856682	2652.874444
614.205340	2652.156080
614.553945	2655.586585
614.902496	2653.764208
615.250994	2654.086842
615.599439	2654.041471
615.947830	2653.688590
616.296169	2653.454177
616.644454	2653.396203
616.992686	2655.057264
617.340864	2654.787562
617.688990	2651.974598
618.037063	2654.394352
618.385082	2654.611122
618.733048	2656.269661
619.080961	2652.226656
619.428821	2656.730927
619.776628	2653.794455
620.124382	2652.256903
620.472083	2653.129022
620.819731	2653.721358
621.167326	2650.225318
621.514868	2650.651295
621.862357	2648.234062
622.209793	2647.921510
622.557176	2643.266005
622.904506	2642.235089
623.251783	2639.575880
623.599007	2641.005047
623.946179	2637.655201
624.293297	2639.648977
624.640363	2637.458596
624.987376	2638.043369
625.334336	2637.103194
625.681243	2637.846764
626.028097	2633.362658
626.374899	2634.043214
626.721647	2632.399798
627.068343	2632.966927
627.414987	2632.722432
627.761577	2633.135806
628.108115	2633.133286
628.454600	2630.239663
628.801032	2631.739407
629.147412	2629.513737
629.493739	2627.467029
629.840014	2625.543828
630.186236	2626.859570
630.532405	2627.046092
630.878521	2625.853859
631.224585	2624.744806
631.570597	2625.279168
631.916556	2625.238839
632.262462	2623.202212
632.608316	2625.846298
632.954117	2623.744137
633.299866	2623.245062
633.645562	2623.958386
633.991206	2620.437140
634.336797	2620.611059
634.682336	2622.405710
635.027823	2617.442694
635.373257	2617.735081
635.718639	2616.414299
636.063968	2615.237189
636.409245	2613.329113
636.754470	2617.583847
637.099642	2611.095882
637.444762	2610.808536
637.789829	2611.385748
638.134845	2608.663525
638.479808	2611.335336
638.824719	2608.774430
639.169577	2605.961466
639.514383	2607.425922
639.859137	2607.486415
640.203839	2605.290993
640.548489	2606.359717
640.893086	2604.721342
641.237632	2600.012905
641.582125	2603.251846
641.926566	2598.334201
642.270955	2606.659666
642.615292	2602.999788
642.959576	2604.565067
643.303809	2605.154882
643.647990	2604.554984
643.992118	2602.384768
644.336195	2603.398040
644.680219	2604.741507
645.024192	2603.176229
645.368112	2601.111876
645.711981	2603.491301
646.055797	2606.732763
646.399562	2607.204111
646.743274	2608.509770
647.086935	2607.176384
647.430544	2610.412805
647.774101	2610.082610
648.117606	2608.219903
648.461059	2610.649739
648.804460	2609.402054
649.147810	2604.262597
649.491108	2606.362238
649.834354	2604.045828
650.177548	2602.304109
650.520690	2603.065323
650.863781	2604.287803
651.206820	2602.664552
651.549807	2598.082143
651.892742	2598.636670
652.235626	2597.610795
652.578458	2597.923347
652.921238	2595.990064
653.263967	2596.743717
653.606644	2593.383787
653.949269	2592.859507
654.291843	2594.129878
654.634365	2595.654827
654.976836	2592.551997
655.319255	2595.473346
655.661622	2591.198447
656.003938	2594.182810
656.346203	2590.371698
656.688416	2589.746595
657.030577	2590.349013
657.372687	2588.665267
657.714746	2591.402614
658.056753	2590.099476
658.398708	2587.669640
658.740612	2586.613518
659.082465	2586.845411
659.424266	2584.806264
659.766016	2585.897674
660.107715	2591.750454
660.449362	2588.990422
660.790958	2589.156780
661.132503	2588.569486
661.473996	2590.533015
661.815438	2585.680904
662.156829	2587.888930
662.498168	2588.198961
662.839456	2590.510330
663.180693	2588.511512
663.521879	2590.147367
663.863013	2588.415730
664.204097	2590.880855
664.545129	2590.510330
664.886110	2589.456729
665.227040	2590.273396
665.567918	2589.819692
665.908746	2588.841708
666.249522	2589.192068
666.590248	2588.705597
666.930922	2589.681060
667.271545	2590.119640
667.612118	2592.332707
667.952639	2588.390525
668.293109	2588.740885
668.633528	2587.180648
668.973896	2587.800710
669.314213	2586.794999
669.654480	2588.889599
669.994695	2586.192582
670.334859	2590.008735
670.674973	2585.963209
671.015035	2587.601584
671.355047	2586.406831
671.695008	2586.142170
672.034918	2587.165524
672.374777	2586.401789
672.714585	2585.650657
673.054342	2589.106368
673.394049	2587.800710
673.733705	2587.480596
674.073310	2586.696697
674.412864	2584.385328
674.752368	2582.764597
675.091820	2584.642427
675.431223	2586.177458
675.770574	2583.669484
676.109875	2581.574885
676.449125	2580.309555
676.788324	2578.983732
677.127473	2581.469020
677.466571	2578.101530
677.805619	2579.182857
678.144616	2579.883577
678.483562	2580.821232
678.822458	2580.917014
679.161303	2578.966087
679.500098	2579.208063
679.838842	2579.523135
680.177535	2578.144379
680.516179	2580.264185
680.854771	2579.470203
681.193314	2581.418609
681.531805	2582.890626
681.870247	2585.322983
682.208638	2587.596543
682.546978	2587.964547
682.885268	2584.859196
683.223508	2584.652509
683.561697	2583.417426
683.899836	2587.866245
684.237925	2583.689649
684.575963	2585.224680
684.913951	2584.105544
685.251889	2584.471027
685.589776	2582.822570
685.927614	2583.790472
686.265401	2580.990111
686.603137	2584.977663
686.940824	2582.628486
687.278460	2586.270719
687.616046	2588.269537
687.953582	2587.087386
688.291068	2586.724423
688.628504	2586.265678
688.965889	2586.731985
689.303224	2585.295256
689.640510	2588.403128
689.977745	2581.879874
690.314930	2579.704617
690.652065	2580.662436
690.989150	2577.864595
691.326185	2575.996848
691.663170	2572.546178
692.000105	2574.923082
692.336990	2572.006775
692.673825	2573.130952
693.010610	2572.503328
693.347345	2564.916392
693.684030	2562.809189
694.020665	2561.589230
694.357251	2563.167111
694.693786	2564.447564
695.030272	2563.245249
695.366707	2564.281206
695.703093	2561.450598
696.039429	2563.061247
696.375716	2562.380691
696.711952	2560.485218
697.048139	2562.262224
697.384276	2561.513613
697.720363	2560.039075
698.056400	2563.862791
698.392388	2560.460012
698.728326	2561.412790
699.064214	2560.976730
699.400053	2561.115362
699.735842	2558.125957
700.071581	2559.731565
700.407270	2558.103272
700.742910	2556.180072
701.078501	2559.729044
701.414042	2555.391132
701.749533	2556.041440
702.084974	2555.870041
702.420366	2555.116389
702.755709	2555.708724
703.091002	2556.129661
703.426246	2556.835422
703.761440	2552.305945
704.096584	2551.794268
704.431679	2552.827705
704.766725	2553.984650
705.101721	2552.449618
705.436668	2551.194371
705.771565	2551.126315
706.106413	2553.472972
706.441212	2552.172355
706.775961	2553.959444
707.110661	2553.117571
707.445311	2555.239897
707.779913	2553.316697
708.114465	2557.760474
708.448967	2556.275854
708.783421	2559.066133
709.117825	2555.474311
709.452180	2559.396328
709.786485	2557.243756
710.120742	2561.400187
710.454949	2560.681822
710.789107	2560.185269
711.123216	2560.790207
711.457275	2559.913047
711.791286	2560.593602
712.125247	2562.438665
712.459159	2562.862122
712.793023	2565.695250
713.126837	2563.330949
713.460602	2566.148954
713.794318	2561.783315
714.127985	2562.720969
714.461602	2558.584703
714.795171	2562.673078
715.128691	2560.591082
715.462162	2556.081770
715.795584	2557.359702
716.128957	2555.065977
716.462281	2554.103117
716.795556	2557.069836
717.128782	2551.002807
717.461960	2551.537169
717.795088	2553.253682
718.128167	2550.337375
718.461198	2548.303269
718.794180	2548.729247
719.127113	2546.977446
719.459997	2549.528270
719.792833	2545.858310
720.125619	2548.212528
720.458357	2545.873433
720.791046	2542.359749
721.123686	2546.821170
721.456278	2546.191026
721.788821	2546.218752
722.121315	2545.477703
722.453761	2544.308155
722.786158	2545.936448
723.118506	2542.838658
723.450805	2544.335881
723.783056	2543.930068
724.115259	2545.376879
724.447412	2545.142466
724.779518	2543.867054
725.111574	2547.380738
725.443582	2546.987528
725.775542	2544.842517
726.107453	2546.853938
726.439315	2548.048691
726.771129	2551.146480
727.102895	2547.771428
727.434612	2551.075904
727.766281	2550.939793
728.097901	2551.146480
728.429473	2547.179092
728.760996	2550.002138
729.092471	2545.109698
729.423897	2550.947354
729.755276	2551.224618
730.086606	2549.472817
730.417887	2547.952909
730.749120	2551.990873
731.080305	2553.939279
731.411442	2556.190154
731.742530	2553.243600
732.073570	2554.536656
732.404562	2556.729558
732.735506	2554.841646
733.066401	2553.412479
733.397249	2555.791903
733.728048	2552.263096
734.058798	2549.550955
734.389501	2545.712116
734.720156	2546.133052
735.050762	2545.021478
735.381320	2543.950233
735.711831	2542.984852
736.042293	2544.784544
736.372707	2543.602393
736.703073	2542.735315
737.033391	2544.106509
737.363661	2543.178936
737.693883	2545.606252
738.024056	2545.959133
738.354182	2542.324461
738.684260	2547.552137
739.014290	2547.030378
739.344272	2544.484595
739.674207	2549.860986
740.004093	2549.926521
740.333931	2547.325285
740.663722	2547.446273
740.993464	2548.149514
741.323159	2547.098433
741.652806	2545.644061
741.982405	2546.770758
742.311956	2543.899821
742.641460	2544.333361
742.970915	2544.529966
743.300323	2545.298742
743.629683	2542.445448
743.958996	2543.279759
744.288260	2542.815973
744.617477	2542.359749
744.946647	2537.174922
745.275768	2537.346321
745.604842	2536.443955
745.933869	2536.698533
746.262847	2533.126876
746.591778	2536.837165
746.920662	2539.294727
747.249498	2536.151568
747.578286	2538.107536
747.907027	2540.655839
748.235720	2539.892104
748.564365	2540.549975
748.892963	2539.488812
749.221514	2540.965870
749.550017	2541.323792
749.878473	2542.536189
750.206881	2539.695499
750.535242	2540.809594
750.863555	2536.998482
751.191821	2538.362114
751.520039	2539.045190
751.848210	2535.125693
752.176334	2538.639377
752.504411	2539.531662
752.832440	2538.944367
753.160421	2539.962680
753.488356	2538.488143
753.816243	2537.318595
754.144082	2535.685261
754.471875	2537.474871
754.799620	2535.125693
755.127318	2535.836496
755.454969	2538.689789
755.782572	2537.784902
756.110129	2534.805580
756.437638	2536.416228
756.765100	2535.476053
757.092515	2534.855991
757.419882	2539.440921
757.747203	2534.969417
758.074477	2537.759696
758.401703	2537.311033
758.728882	2533.789787
759.056014	2537.850437
759.383099	2537.550488
759.710138	2539.387989
760.037129	2537.860519
760.364073	2537.653832
760.690970	2539.471168
761.017820	2540.265149
761.344623	2539.871939
761.671379	2540.912938
761.998088	2537.116949
762.324751	2547.204298
762.651366	2553.077242
762.977935	2567.321022
763.304456	2569.443348
763.630931	2576.553895
763.957359	2572.369738
764.283740	2565.972513
764.610074	2561.894220
764.936362	2555.731409
765.262602	2549.084648
765.588796	2547.539534
765.914943	2542.934440
766.241044	2542.279090
766.567097	2538.813297
766.893104	2536.257432
767.219064	2535.342463
767.544978	2534.982020
767.870845	2533.237781
768.196665	2530.432379
768.522438	2531.077647
768.848165	2530.114786
769.173846	2529.895496
769.499479	2529.315763
769.825066	2528.743592
770.150607	2531.180990
770.476101	2529.008253
770.801548	2530.271062
771.126949	2527.208561
771.452303	2527.052285
771.777611	2526.817872
772.102872	2526.931297
772.428087	2525.547501
772.753256	2525.600433
773.078378	2524.597243
773.403453	2527.069929
773.728482	2524.372912
774.053465	2524.854342
774.378401	2526.646472
774.703291	2523.354599
775.028135	2525.648324
775.352932	2522.371574
775.677683	2521.285205
776.002388	2527.939528
776.327046	2525.519774
776.651658	2524.864424
776.976224	2523.399969
777.300743	2524.922398
777.625216	2521.509537
777.949643	2523.238652
778.274024	2522.200175
778.598359	2518.499968
778.922647	2518.303363
779.246889	2520.677746
779.571086	2515.644154
779.895236	2521.769156
780.219339	2523.742768
780.543397	2522.951307
780.867409	2521.738909
781.191374	2522.951307
781.515294	2523.969620
781.839167	2522.855525
782.162995	2524.088087
782.486776	2522.245545
782.810511	2522.832839
783.134201	2522.258148
783.457844	2523.100021
783.781441	2521.524660
784.104993	2521.572551
784.428498	2521.002901
784.751958	2526.225536
785.075372	2519.956861
785.398739	2520.375277
785.722061	2522.331245
786.045337	2521.822088
786.368568	2521.106244
786.691752	2524.375433
787.014891	2523.271420
787.337983	2522.542973
787.661030	2527.107738
787.984031	2527.695032
788.306987	2529.071267
788.629897	2527.019518
788.952760	2528.368026
789.275579	2526.578417
789.598351	2528.733510
789.921078	2524.098169
790.243759	2527.523633
790.566395	2525.635721
790.888984	2524.713190
791.211529	2524.307377
791.534027	2523.752850
791.856480	2521.033147
792.178888	2521.224711
792.501249	2524.118334
792.823566	2522.449712
793.145836	2519.714886
793.468062	2518.938548
793.790241	2522.555576
794.112375	2522.137160
794.434464	2521.171779
794.756507	2521.716224
795.078505	2522.434588
795.400457	2522.497603
795.722364	2521.905267
796.044226	2524.814013
796.366042	2522.706811
796.687812	2524.297295
797.009538	2524.035155
797.331218	2526.432223
797.652852	2525.161852
797.974442	2523.364681
798.295986	2525.799558
798.617484	2522.948786
798.938938	2525.013138
799.260346	2525.832326
799.581709	2524.461132
799.903026	2524.256965
800.224299	2519.258661
800.545526	2523.866276
800.866708	2524.186389
801.187845	2519.672036
801.508936	2520.581964
801.829983	2521.471728
802.150984	2521.252438
802.471940	2521.575072
802.792851	2519.324196
803.113717	2518.464680
803.434538	2519.409896
803.755314	2519.646830
804.076045	2517.544669
804.396731	2517.229597
804.717372	2519.616583
805.037967	2520.617252
805.358518	2519.787983
805.679024	2520.143384
805.999485	2519.931655
806.319901	2524.420803
806.640272	2520.460977
806.960598	2520.455935
807.280879	2521.786800
807.601115	2524.035155
807.921306	2520.622293
808.241453	2521.685977
808.561554	2522.222860
808.881611	2523.115144
809.201623	2518.109278
809.521590	2520.662623
809.841513	2519.558610
810.161390	2521.151615
810.481223	2521.864938
810.801011	2520.763446
811.120755	2519.283867
811.440453	2519.883764
811.760107	2520.153466
812.079716	2519.626666
812.399281	2515.366891
812.718801	2520.166069
813.038276	2514.961078
813.357707	2519.553569
813.677093	2519.719927
813.996434	2518.021058
814.315731	2520.917201
814.634983	2519.296470
814.954191	2520.239166
815.273354	2521.101203
815.592473	2518.925945
815.911547	2520.705473
816.230577	2520.418127
816.549562	2522.933662
816.868502	2521.149094
817.187399	2522.651358
817.506250	2523.594054
817.825058	2521.882582
818.143821	2525.504651
818.462539	2527.473222
818.781213	2526.822913
819.099843	2527.569003
819.418429	2531.233922
819.736970	2533.630991
820.055466	2538.369676
820.373919	2546.410316
820.692327	2553.483055
821.010691	2568.977041
821.329011	2602.382247
821.647286	2651.162972
821.965517	2701.876980
822.283704	2730.669530
822.601847	2738.684965
822.919945	2714.225286
823.237999	2691.766946
823.556010	2666.911537
823.873976	2641.821714
824.191897	2622.025103
824.509775	2601.447113
824.827609	2591.261462
825.145398	2579.432394
825.463144	2577.211766
825.780845	2579.543300
826.098502	2584.062694
826.416116	2599.193717
826.733685	2609.187805
827.051210	2609.817949
827.368692	2606.430294
827.686129	2593.557707
828.003522	2578.411561
828.320872	2560.855742
828.638177	2554.829043
828.955439	2546.019627
829.272656	2542.430325
829.589830	2531.755682
829.906960	2534.084695
830.224046	2530.986906
830.541088	2530.253418
830.858086	2526.074301
831.175041	2524.340144
831.491952	2527.150588
831.808819	2525.781914
832.125642	2527.795855
832.442421	2533.837678
832.759157	2538.021836
833.075849	2548.270502
833.392497	2560.414641
833.709101	2566.902606
834.025662	2563.068809
834.342179	2559.532439
834.658653	2549.908877
834.975083	2543.630120
835.291469	2544.272867
835.607811	2534.714839
835.924110	2531.685106
836.240366	2528.713345
836.556578	2522.729496
836.872746	2523.392408
837.188871	2521.600277
837.504952	2517.774042
837.820990	2519.089783
838.136984	2517.070801
838.452935	2518.779752
838.768842	2516.997704
839.084706	2520.009793
839.400526	2526.573376
839.716303	2529.943387
840.032037	2531.473377
840.347727	2529.545136
840.663373	2529.726617
840.978977	2526.114631
841.294537	2522.069105
841.610054	2521.806965
841.925527	2520.188754
842.240957	2518.515091
842.556344	2514.703979
842.871687	2516.501150
843.186987	2515.255985
843.502244	2512.992507
843.817458	2514.093999
844.132629	2512.521159
844.447756	2514.245234
844.762840	2508.712568
845.077881	2509.226765
845.392879	2507.169974
845.707833	2508.316837
846.022745	2508.387413
846.337613	2511.306241
846.652438	2511.996879
846.967221	2512.415295
847.281960	2510.391272
847.596656	2511.512928
847.911309	2511.840603
848.225919	2511.739780
848.540485	2509.330109
848.855009	2509.907321
849.169490	2510.484533
849.483928	2508.654594
849.798323	2509.221724
850.112675	2509.090654
850.426984	2511.878412
850.741251	2508.848679
851.055474	2510.789523
851.369654	2507.553102
851.683792	2511.666684
851.997887	2508.324399
852.311938	2511.742301
852.625947	2511.636437
852.939914	2510.940758
853.253837	2510.003103
853.567718	2510.111488
853.881555	2512.122908
854.195350	2510.623165
854.509103	2511.240706
854.822812	2510.398833
855.136479	2510.487054
855.450103	2509.536796
855.763685	2512.266581
856.077224	2508.155520
856.390720	2510.968484
856.704173	2509.067969
857.017584	2513.783968
857.330953	2507.129645
857.644278	2510.434122
857.957561	2511.427229
858.270802	2510.706344
858.584000	2511.306241
858.897155	2509.466220
859.210268	2509.506549
859.523339	2510.756755
859.836367	2511.694410
860.149352	2511.613752
860.462295	2507.810201
860.775195	2506.156702
861.088054	2508.150479
861.400869	2509.481343
861.713642	2505.846672
862.026373	2514.038547
862.339062	2507.908503
862.651708	2513.058042
862.964312	2511.424708
863.276873	2507.192660
863.589392	2510.411436
863.901869	2510.603000
864.214303	2511.429749
864.526696	2511.356653
864.839045	2506.050838
865.151353	2510.189626
865.463619	2510.872702
865.775842	2511.951509
866.088023	2508.226096
866.400162	2512.657270
866.712258	2512.788340
867.024313	2508.296672
867.336325	2510.527383
867.648296	2515.558454
867.960224	2511.028978
868.272110	2512.916890
868.583954	2510.532424
868.895755	2510.736591
869.207515	2510.635768
869.519233	2510.749194
869.830909	2511.253309
870.142542	2511.225583
870.454134	2511.991838
870.765684	2514.204905
871.077191	2513.431087
871.388657	2514.267919
871.700081	2513.181550
872.011463	2513.690707
872.322803	2511.442352
872.634101	2513.073166
872.945357	2511.807836
873.256571	2512.511077
873.567744	2512.571571
873.878874	2512.874040
874.189963	2514.429236
874.501010	2516.536438
874.812015	2512.667353
875.122979	2514.048629
875.433900	2514.376304
875.744780	2518.106758
876.055618	2514.086438
876.366415	2512.107785
876.677169	2514.121726
876.987882	2513.534431
877.298554	2510.502177
877.609183	2512.463186
877.919771	2512.871519
878.230317	2516.279339
878.540822	2518.066428
878.851285	2521.128929
879.161707	2518.835204
879.472087	2524.924918
879.782425	2533.630991
880.092722	2543.735984
880.402977	2563.736762
880.713191	2584.753332
881.023363	2605.437186
881.333494	2619.108796
881.643583	2619.398662
881.953631	2616.366408
882.263637	2609.147476
882.573602	2605.192690
882.883526	2598.702205
883.193408	2587.347006
883.503248	2578.910635
883.813048	2569.377813
884.122806	2564.497976
884.432522	2557.337017
884.742197	2548.184802
885.051831	2545.742363
885.361424	2538.410005
885.670975	2533.885569
885.980485	2528.380629
886.289954	2529.537574
886.599382	2526.858201
886.908768	2524.657737
887.218113	2520.970133
887.527417	2521.428878
887.836680	2519.939217
888.145901	2514.734226
888.455082	2518.174813
888.764221	2515.208094
889.073319	2514.905625
889.382376	2517.043074
889.691392	2516.044926
890.000366	2514.877899
890.309300	2512.700120
890.618193	2516.261695
890.927044	2514.388907
891.235855	2515.014010
891.544625	2516.317148
891.853353	2513.521828
892.162041	2517.282529
892.470687	2517.842097
892.779293	2518.787313
893.087858	2518.560462
893.396381	2523.778056
893.704864	2526.321318
894.013306	2529.618233
894.321707	2540.832279
894.630068	2542.944523
894.938387	2545.354194
895.246665	2543.194060
895.554903	2542.609286
895.863100	2535.155940
896.171256	2534.326670
896.479371	2530.376926
896.787446	2531.024714
897.095480	2527.289219
897.403473	2523.546163
897.711425	2522.714372
898.019336	2523.878879
898.327207	2522.336286
898.635038	2520.733199
898.942827	2519.593898
899.250576	2516.496109
899.558284	2515.835718
899.865952	2513.839421
900.173579	2515.366891
900.481165	2515.124915
900.788711	2515.210615
901.096216	2514.179699
901.403681	2514.252796
901.711105	2510.628206
902.018489	2511.288597
902.325832	2516.778414
902.633135	2513.519308
902.940397	2514.073835
903.247619	2521.078518
903.554800	2529.950949
903.861941	2539.481250
904.169041	2549.377035
904.476101	2551.663198
904.783121	2548.976263
905.090100	2545.747404
905.397039	2539.395550
905.703938	2534.470343
906.010796	2533.751979
906.317614	2531.296937
906.624391	2524.935001
906.931129	2524.650175
907.237826	2521.091121
907.544483	2520.410565
907.851099	2519.999711
908.157675	2515.959226
908.464211	2514.230110
908.770707	2505.516476
909.077163	2511.129801
909.383578	2506.055879
909.689954	2510.895387
909.996289	2507.772392
910.302584	2509.791374
910.608839	2507.747187
910.915054	2511.147445
911.221229	2507.419512
911.527363	2510.855058
911.833458	2506.300375
912.139513	2511.026457
912.445527	2508.737773
912.751502	2511.233144
913.057436	2510.174502
913.363331	2511.913700
913.669186	2512.856396
913.975000	2515.548372
914.280775	2520.024917
914.586510	2521.527181
914.892205	2526.021369
915.197859	2531.662420
915.503475	2537.893287
915.809050	2545.409647
916.114585	2548.073897
916.420081	2550.586912
916.725536	2548.449463
917.030952	2548.061294
917.336328	2546.909390
917.641665	2545.260933
917.946961	2537.250539
918.252218	2535.546629
918.557435	2532.678213
918.862612	2529.527492
919.167750	2530.074457
919.472848	2526.255783
919.777906	2523.026924
920.082925	2523.667150
920.387904	2519.120030
920.692843	2518.686490
920.997743	2517.118692
921.302603	2514.053670
921.607423	2513.965450
921.912204	2512.337157
922.216946	2514.197343
922.521647	2512.163237
922.826310	2510.028309
923.130932	2511.583505
923.435516	2508.311796
923.740059	2510.643329
924.044564	2508.354646
924.349028	2508.682321
924.653454	2503.978924
924.957840	2504.667042
925.262186	2503.537823
925.566493	2506.028153
925.870761	2500.631598
926.174989	2507.449758
926.479178	2505.007319
926.783328	2507.676610
927.087438	2505.944974
927.391509	2507.182577
927.695541	2502.650580
927.999533	2506.320540
928.303486	2503.283245
928.607400	2505.133348
928.911275	2505.793739
929.215110	2505.450941
929.518906	2504.788029
929.822663	2504.407422
930.126381	2505.876918
930.430060	2504.293996
930.733699	2505.738287
931.037299	2504.271311
931.340861	2505.619820
931.644383	2505.889521
931.947866	2503.500014
932.251309	2505.168636
932.554714	2502.985817
932.858080	2507.792557
933.161407	2506.877588
933.464694	2505.425735
933.767943	2507.749707
934.071153	2505.390447
934.374323	2505.282062
934.677455	2505.108143
934.980548	2505.365241
935.283602	2506.393637
935.586617	2503.489932
935.889593	2503.563029
936.192530	2504.200735
936.495428	2506.451610
936.798287	2506.822135
937.101108	2505.619820
937.403890	2503.497494
937.706632	2507.361538
938.009336	2508.407578
938.312002	2506.794408
938.614628	2508.785664
938.917216	2507.255674
939.219765	2509.148627
939.522275	2510.532424
939.824747	2508.589059
940.127179	2503.734428
940.429573	2506.706188
940.731929	2507.822804
941.034246	2503.404233
941.336524	2506.260046
941.638763	2506.154182
941.940964	2506.217196
942.243126	2510.287928
942.545250	2508.435304
942.847335	2503.280724
943.149381	2507.205263
943.451389	2503.363903
943.753359	2505.012361
944.055290	2506.975890
944.357182	2507.172495
944.659036	2505.690396
944.960851	2508.130314
945.262628	2503.575632
945.564367	2506.917917
945.866067	2503.694099
946.167729	2506.469254
946.469352	2505.566888
946.770937	2504.788029
947.072484	2506.365910
947.373992	2505.423215
947.675462	2506.116373
947.976893	2506.580159
948.278286	2509.108298
948.579641	2503.477329
948.880958	2506.083606
949.182236	2505.914727
949.483476	2505.279542
949.784678	2507.280880
950.085841	2505.690396
950.386967	2506.615448
950.688054	2506.413801
950.989103	2506.549913
951.290114	2503.767196
951.591087	2506.134017
951.892021	2504.306599
952.192917	2506.292814
952.493776	2508.130314
952.794596	2505.317350
953.095378	2503.633605
953.396122	2506.315499
953.696828	2505.113184
953.997496	2507.537979
954.298126	2503.489932
954.598718	2507.331291
954.899272	2506.260046
955.199788	2505.355159
955.500266	2505.395488
955.800706	2506.615448
956.101108	2501.050014
956.401472	2501.705364
956.701798	2500.278717
957.002087	2502.080930
957.302337	2504.435148
957.602550	2508.384892
957.902724	2504.747700
958.202861	2502.738800
958.502960	2503.124448
958.803022	2503.482370
959.103045	2502.781650
959.403031	2500.787874
959.702979	2501.145796
960.002889	2503.174860
960.302762	2500.697133
960.602596	2502.849706
960.902393	2502.264932
961.202153	2502.942967
961.501875	2502.310302
961.801559	2500.044303
962.101205	2504.273832
962.400814	2505.360200
962.700385	2500.881135
962.999918	2500.936588
963.299414	2501.763337
963.598873	2501.498676
963.898293	2499.240239
964.197677	2503.981445
964.497022	2498.637822
964.796331	2500.697133
965.095601	2501.221413
965.394835	2502.504387
965.694030	2501.780981
965.993189	2500.147647
966.292309	2499.678820
966.591393	2502.176712
966.890439	2500.341732
967.189447	2503.497494
967.488419	2504.281393
967.787353	2502.214520
968.086249	2500.543378
968.385108	2501.735611
968.683930	2502.479181
968.982714	2502.771568
969.281462	2501.617143
969.580172	2501.909530
969.878844	2501.614623
970.177480	2501.866681
970.476078	2502.335508
970.774639	2505.493791
971.073162	2501.226454
971.371649	2500.750065
971.670098	2499.381392
971.968510	2498.864673
972.266885	2496.500372
972.565223	2500.845847
972.863524	2502.053203
973.161788	2502.325426
973.460014	2500.606392
973.758204	2504.886332
974.056356	2501.659993
974.354471	2503.711743
974.652550	2499.872904
974.950591	2502.862308
975.248595	2499.043634
975.546563	2503.815087
975.844493	2503.207627
976.142386	2500.785353
976.440243	2502.501866
976.738062	2500.676968
977.035845	2501.907010
977.333590	2502.385919
977.631299	2502.640498
977.928971	2499.507421
978.226606	2500.752586
978.524204	2506.444048
978.821765	2503.351300
979.119290	2503.822648
979.416777	2501.982627
979.714228	2499.915754
980.011642	2503.545385
980.309020	2505.110663
980.606360	2499.081443
980.903664	2501.980107
981.200931	2501.745693
981.498162	2502.814417
981.795356	2503.386588
982.092513	2502.801815
982.389633	2505.188801
982.686717	2504.972031
982.983764	2507.416991
983.280775	2502.665703
983.577749	2505.909686
983.874686	2507.127125
984.171587	2508.379851
984.468451	2506.048318
984.765279	2504.616630
985.062070	2502.174191
985.358824	2502.819459
985.655543	2503.890704
985.952224	2503.068996
986.248869	2501.912051
986.545478	2498.335352
986.842050	2499.572956
987.138586	2495.414004
987.435086	2498.206803
987.731549	2497.768223
988.027975	2501.599499
988.324366	2499.797287
988.620719	2497.616988
988.917037	2501.622185
989.213318	2500.465240
989.509563	2501.816269
989.805772	2498.640342
990.101944	2501.339880
990.398080	2501.786022
990.694180	2500.666886
990.990244	2498.816782
991.286271	2502.010353
991.582262	2501.077740
991.878217	2500.666886
992.174136	2501.309633
992.470019	2500.797956
992.765865	2501.183604
993.061676	2501.107987
993.357450	2500.273676
993.653188	2498.708398
993.948890	2501.337359
994.244556	2501.672596
994.540186	2502.907679
994.835780	2499.522544
995.131337	2501.909530
995.426859	2501.649911
995.722345	2502.053203
996.017795	2502.181753
996.313208	2504.014212
996.608586	2503.676455
996.903928	2502.423728
997.199234	2502.716115
997.494504	2503.419356
997.789738	2501.604541
998.084936	2504.140241
998.380099	2502.963132
998.675225	2505.423215
998.970316	2500.349293
999.265371	2501.014726
999.560390	2500.840806
999.855373	2502.756444
1000.150320	2501.909530
1000.445232	2498.352996
1000.740108	2501.901969
1001.034948	2500.598830
1001.329752	2502.993378
1001.624521	2500.634118
1001.919254	2496.381905
1002.213951	2496.681854
1002.508613	2496.223109
1002.803239	2499.540188
1003.097829	2495.477018
1003.392384	2501.022287
1003.686903	2498.675630
1003.981386	2500.331649
1004.275834	2496.583551
1004.570246	2500.994561
1004.864623	2500.722339
1005.158964	2498.045486
1005.453270	2502.111177
1005.747540	2502.930364
1006.041775	2498.733603
1006.335974	2497.168325
1006.630138	2499.502379
1006.924266	2499.764519
1007.218359	2497.037255
1007.512416	2499.283089
1007.806438	2499.083964
1008.100425	2500.515651
1008.394376	2496.699498
1008.688292	2499.898110
1008.982172	2498.400887
1009.276017	2500.641680
1009.569827	2498.899962
1009.863602	2499.767040
1010.157341	2498.952894
1010.451045	2500.447596
1010.744714	2499.658655
1011.038347	2500.114880
1011.331945	2499.683861
1011.625508	2500.845847
1011.919036	2497.954745
1012.212528	2497.932060
1012.505986	2497.798469
1012.799408	2500.424911
1013.092795	2499.610764
1013.386147	2500.016577
1013.679464	2496.097080
1013.972745	2498.494149
1014.265992	2496.273520
1014.559204	2501.995230
1014.852380	2500.031701
1015.145521	2501.412977
1015.438628	2499.633449
1015.731699	2501.097905
1016.024736	2497.206134
1016.317737	2500.805518
1016.610703	2498.385764
1016.903635	2499.530106
1017.196531	2494.657831
1017.489393	2498.337873
1017.782219	2495.701349
1018.075011	2497.586741
1018.367768	2499.784684
1018.660490	2498.282420
1018.953177	2498.282420
1019.245829	2498.282420
