Dividing Wavelength (nm)	Counts (n)	Blue Motor Position (mm): 24.300000	Red Motor Position (mm): 0.000000	
326.493990	2197.897707
326.888308	2197.897707
327.282561	2197.897707
327.676750	2155.930101
328.070874	2151.783752
328.464933	2152.479431
328.858929	2155.476397
329.252859	2160.938487
329.646726	2166.564415
330.040528	2183.117043
330.434265	2198.227902
330.827938	2214.397403
331.221547	2227.736296
331.615091	2249.481313
332.008571	2268.083171
332.401986	2285.777621
332.795338	2303.774540
333.188625	2322.207519
333.581847	2340.925323
333.975006	2361.190762
334.368100	2377.876981
334.761129	2396.080588
335.154095	2415.184040
335.546996	2441.662701
335.939833	2473.936168
336.332606	2484.194916
336.725315	2500.727380
337.117960	2516.319669
337.510540	2525.229908
337.903056	2538.659542
338.295508	2546.927034
338.687896	2554.624876
339.080220	2559.741647
339.472480	2570.517114
339.864676	2574.688668
340.256807	2579.225707
340.648875	2584.294587
341.040879	2585.882551
341.432818	2588.607294
341.824694	2591.558890
342.216506	2591.679878
342.608253	2590.727099
342.999937	2591.742892
343.391557	2594.843202
343.783113	2592.073087
344.174605	2595.095259
344.566033	2593.406473
344.957397	2589.577716
345.348697	2591.175762
345.739934	2590.480083
346.131106	2587.936821
346.522215	2582.641089
346.913260	2583.467838
347.304241	2579.971798
347.695159	2578.842579
348.086012	2578.285532
348.476802	2573.887125
348.867528	2567.762123
349.258191	2566.829510
349.648789	2570.587690
350.039324	2562.761298
350.429796	2568.341856
350.820203	2565.055023
351.210548	2566.947977
351.600828	2564.992009
351.991045	2562.421021
352.381198	2559.918088
352.771288	2561.435475
353.161314	2563.204920
353.551276	2560.618808
353.941175	2558.846842
354.331010	2558.993036
354.720782	2557.369784
355.110490	2560.835578
355.500135	2560.724672
355.889717	2559.908005
356.279235	2561.054868
356.668689	2559.716442
357.058080	2560.427244
357.447408	2559.605536
357.836672	2557.642007
358.225873	2559.255176
358.615010	2561.627039
359.004084	2561.017059
359.393095	2560.197872
359.782043	2561.276679
360.170927	2563.262893
360.559748	2559.280382
360.948505	2566.388409
361.337199	2564.513099
361.725830	2562.683161
362.114398	2563.023438
362.502903	2565.823799
362.891344	2566.131310
363.279722	2564.659293
363.668037	2564.891186
364.056289	2568.777916
364.444478	2568.369582
364.832603	2567.719273
365.220665	2569.269428
365.608665	2568.351938
365.996601	2571.157340
366.384474	2570.960735
366.772284	2571.268246
367.160031	2573.342680
367.547715	2573.188925
367.935336	2571.275807
368.322893	2571.283369
368.710388	2571.031311
369.097820	2569.652556
369.485189	2568.724983
369.872495	2570.943091
370.259738	2572.384861
370.646918	2574.418967
371.034035	2575.591035
371.421090	2574.174471
371.808081	2573.400654
372.195010	2576.231262
372.581875	2573.982907
372.968678	2574.144224
373.355418	2577.607497
373.742096	2575.104564
374.128710	2575.966601
374.515262	2576.609348
374.901751	2576.818556
375.288177	2578.582960
375.674540	2575.805284
376.060841	2580.501119
376.447079	2577.932651
376.833254	2578.754359
377.219367	2580.758218
377.605417	2576.100192
377.991404	2578.144379
378.377329	2577.867116
378.763191	2579.734863
379.148991	2579.535738
379.534727	2577.284863
379.920402	2579.573547
380.306013	2578.706468
380.691563	2578.772003
381.077049	2578.802250
381.462474	2582.373907
381.847835	2581.156469
382.233134	2580.745615
382.618371	2580.942220
383.003545	2582.769638
383.388657	2579.528176
383.773706	2582.683938
384.158693	2582.283167
384.543618	2582.666294
384.928480	2583.813157
385.313280	2584.160997
385.698017	2585.476738
386.082692	2584.087900
386.467305	2586.298446
386.851856	2586.452201
387.236344	2585.522108
387.620770	2581.907601
388.005133	2580.685121
388.389435	2584.458425
388.773674	2581.073290
389.157851	2588.042685
389.541965	2584.549165
389.926018	2585.499423
390.310008	2587.064701
390.693936	2587.354567
391.077802	2588.345154
391.461606	2589.595360
391.845348	2587.052098
392.229027	2587.525967
392.612645	2586.300966
392.996200	2588.473704
393.379694	2588.894640
393.763125	2589.098807
394.146494	2592.304981
394.529801	2590.767429
394.913047	2590.452357
395.296230	2592.360433
395.679351	2590.222984
396.062410	2592.201637
396.445408	2589.610484
396.828343	2592.504106
397.211217	2593.141812
397.594028	2591.750454
397.976778	2590.568303
398.359466	2592.665423
398.742092	2591.410176
399.124656	2591.528643
399.507158	2594.492841
399.889598	2592.705752
400.271977	2594.218098
400.654294	2596.600044
401.036549	2595.632142
401.418742	2593.381267
401.800874	2594.896134
402.182944	2592.100814
402.564952	2595.306988
402.946898	2597.376381
403.328783	2594.714652
403.710606	2597.262955
404.092367	2598.871083
404.474067	2598.029211
404.855705	2594.875969
405.237282	2596.589961
405.618797	2594.603747
406.000250	2599.503748
406.381642	2597.152050
406.762972	2595.037286
407.144240	2594.003849
407.525447	2596.317739
407.906593	2596.181628
408.287677	2599.909561
408.668700	2599.261773
409.049661	2598.492997
409.430560	2597.411669
409.811399	2600.398553
410.192176	2598.387133
410.572891	2599.508789
410.953545	2601.285796
411.334138	2601.341249
411.714669	2602.367124
412.095139	2601.739500
412.475547	2600.617843
412.855894	2601.898296
413.236180	2601.978955
413.616405	2601.459716
413.996568	2601.268152
414.376670	2603.241764
414.756711	2603.219079
415.136691	2605.616147
415.516609	2603.685385
415.896466	2601.943667
416.276262	2602.404932
416.655997	2604.176898
417.035670	2602.777978
417.415283	2607.418360
417.794834	2605.356528
418.174324	2603.042638
418.553753	2605.142279
418.933121	2607.309975
419.312428	2607.350304
419.691674	2606.266456
420.070859	2607.289810
420.449983	2606.130345
420.829045	2607.746035
421.208047	2609.034050
421.586988	2609.273504
421.965867	2607.940119
422.344686	2612.068824
422.723444	2610.927003
423.102141	2610.334667
423.480777	2607.312496
423.859352	2606.936930
424.237866	2611.055552
424.616319	2608.882815
424.994712	2611.410954
425.373044	2611.259719
425.751314	2608.300562
426.129524	2606.397526
426.507673	2607.458689
426.885762	2607.297372
427.263789	2611.975563
427.641756	2612.318361
428.019662	2612.996397
428.397508	2611.418515
428.775292	2610.400202
429.153016	2612.756942
429.530679	2613.465224
429.908282	2612.494802
430.285824	2612.711571
430.663305	2613.974380
431.040726	2616.641151
431.418086	2613.571088
431.795385	2614.223917
432.172624	2613.644185
432.549802	2614.644854
432.926920	2615.211984
433.303977	2616.240379
433.680974	2618.029989
434.057910	2618.962602
434.434786	2615.101078
434.811601	2617.483023
435.188355	2619.287757
435.565050	2618.241717
435.941683	2617.669546
436.318257	2620.263220
436.694770	2617.183075
437.071222	2620.333796
437.447614	2620.328755
437.823946	2620.422016
438.200218	2619.910339
438.576429	2620.815226
438.952580	2622.574589
439.328670	2622.748509
439.704700	2622.778756
440.080670	2623.247583
440.456580	2624.427213
440.832429	2624.122223
441.208218	2623.169445
441.583947	2623.789507
441.959616	2622.456122
442.335224	2628.397122
442.710773	2628.074488
443.086261	2629.871659
443.461689	2626.272275
443.837057	2630.176649
444.212365	2629.899385
444.587612	2628.581124
444.962800	2626.874693
445.337927	2629.816206
445.712995	2627.484673
446.088002	2631.903244
446.462949	2631.754530
446.837837	2635.497587
447.212664	2634.184366
447.587431	2637.299799
447.962139	2638.325674
448.336786	2645.025367
448.711374	2644.690131
449.085901	2642.822383
449.460369	2640.876498
449.834776	2640.442959
450.209124	2643.986890
450.583412	2650.860503
450.957640	2652.272026
451.331808	2653.285298
451.705917	2652.128353
452.079965	2652.902170
452.453954	2658.379384
452.827883	2658.865855
453.201752	2662.918943
453.575562	2663.944818
453.949311	2670.246260
454.323001	2678.261695
454.696632	2679.915193
455.070202	2691.288036
455.443713	2696.737524
455.817164	2705.380582
456.190556	2716.652602
456.563888	2729.822616
456.937160	2742.483474
457.310373	2744.439442
457.683526	2756.558376
458.056619	2763.774787
458.429653	2780.100564
458.802628	2789.525001
459.175542	2808.474699
459.548398	2845.517097
459.921194	2875.557333
460.293930	2905.242167
460.666607	2957.803758
461.039224	3033.395860
461.411782	3094.880293
461.784280	3123.660240
462.156719	3160.876558
462.529099	3187.115764
462.901419	3184.506967
463.273680	3212.918910
463.645882	3250.006679
464.018024	3285.060342
464.390106	3349.103161
464.762130	3459.138946
465.134094	3581.139910
465.505999	3826.235769
465.877845	4231.380701
466.249631	4582.083692
466.621358	4625.475423
466.993026	4580.435234
467.364634	4611.561839
467.736184	4581.231737
468.107674	4594.220270
468.479105	4717.983117
468.850477	4779.381850
469.221790	4827.146783
469.593043	4836.730017
469.964238	4885.142737
470.335373	4934.488072
470.706449	5109.020380
471.077467	5136.668588
471.448425	5565.799330
471.819324	6451.903106
472.190164	7002.639081
472.560945	6515.799731
472.931667	6170.326937
473.302330	6184.258166
473.672934	6196.845927
474.043479	6438.140756
474.413965	6537.028030
474.784393	6602.772238
475.154761	6913.725730
475.525070	7062.699388
475.895321	7111.643951
476.265513	7425.637259
476.635645	7747.696414
477.005719	7863.466512
477.375734	8085.088238
477.745691	8429.804859
478.115588	8736.276766
478.485427	9124.644737
478.855207	9656.524277
479.224928	10460.230393
479.594591	11529.171778
479.964194	11764.833118
480.333739	12146.783701
480.703226	12131.899694
481.072653	12276.724482
481.442022	12774.495575
481.811333	13390.872414
482.180584	13641.334581
482.549777	13435.249692
482.918912	13559.632601
483.287988	13834.919930
483.657005	13938.563533
484.025964	14018.967416
484.394864	14237.420777
484.763706	14324.186596
485.132489	14314.497498
485.501213	14579.876440
485.869879	14804.296006
486.238487	14826.340972
486.607036	15219.883688
486.975527	15240.799435
487.343959	15639.620240
487.712333	15889.054011
488.080648	15839.781774
488.448905	16392.445990
488.817104	16433.256651
489.185244	17059.367959
489.553326	17305.245197
489.921350	18092.691072
490.289315	19804.697165
490.657222	21273.568408
491.025070	21881.357642
491.392861	22006.975634
491.760593	21647.309472
492.128267	21340.782112
492.495883	20807.584311
492.863440	20419.077707
493.230939	19948.397776
493.598380	20048.845287
493.965763	19910.279091
494.333088	19761.202089
494.700354	19876.500839
495.067563	19986.052674
495.434713	19945.920048
495.801805	20183.456697
496.168839	20244.464741
496.535815	20264.510889
496.902733	20559.625077
497.269593	20415.473282
497.636395	20740.670555
498.003139	20860.624811
498.369825	20815.168727
498.736453	21066.772715
499.103023	21091.751632
499.469535	21236.667162
499.835989	21536.530116
500.202385	21687.928569
500.568723	21358.083352
500.935003	21688.949402
501.301226	21431.782501
501.667390	22227.193398
502.033497	22585.669848
502.399546	22415.417480
502.765537	22171.506292
503.131470	22582.998037
503.497345	22811.720228
503.863163	22150.371255
504.228923	22832.663702
504.594625	23069.383683
504.960269	22662.141632
505.325856	23225.364545
505.691385	22722.756466
506.056856	23358.879505
506.422270	23392.998034
506.787625	23060.601993
507.152924	23506.769315
507.518164	23577.857146
507.883347	23437.723151
508.248472	23186.862733
508.613540	23985.119362
508.978550	23815.676099
509.343503	23844.501417
509.708398	24167.951930
510.073236	24325.876156
510.438016	24572.605349
510.802738	24302.457476
511.167403	24563.072527
511.532010	24296.720643
511.896561	25103.799291
512.261053	25085.787249
512.625488	24950.449912
512.989866	24868.337077
513.354186	24759.823720
513.718449	24860.593865
514.082655	25269.363387
514.446803	25029.222982
514.810894	25482.062270
515.174927	24991.336190
515.538904	25029.570822
515.902822	25540.060745
516.266684	25294.498580
516.630488	25216.010335
516.994235	25228.507355
517.357925	25509.236610
517.721558	25718.560441
518.085133	25807.698123
518.448651	25736.002833
518.812112	25474.540869
519.175516	25651.654247
519.538863	25828.525651
519.902152	25618.821212
520.265385	25928.365702
520.628560	25712.115326
520.991678	25744.860141
521.354739	25823.207233
521.717743	25864.252308
522.080690	25671.317268
522.443580	25987.077501
522.806413	26013.014237
523.169189	26107.119977
523.531908	26169.128690
523.894569	25773.267043
524.257174	25831.338614
524.619722	26045.653188
524.982213	25726.873304
525.344647	25809.477651
525.707025	25918.343889
526.069345	25925.492245
526.431608	25874.074996
526.793815	26073.606386
527.155964	25517.831777
527.518057	25693.624374
527.880093	25616.807271
528.242072	25853.091193
528.603995	25560.036317
528.965860	25360.588107
529.327669	25416.716313
529.689421	25417.870738
530.051117	25232.015998
530.412755	25414.183134
530.774337	25228.824948
531.135862	25084.524440
531.497331	25292.330883
531.858743	24823.296888
532.220098	25317.269472
532.581396	25003.334136
532.942638	24965.109587
533.303824	25030.833631
533.664953	25065.927623
534.026025	24724.452464
534.387040	24966.747962
534.747999	25031.718353
535.108902	25194.318250
535.469748	24673.133518
535.830537	24871.616348
536.191270	24978.924869
536.551947	24890.220726
536.912567	24560.060437
537.273131	24856.676889
537.633638	24569.434463
537.994089	24783.212154
538.354483	24342.806871
538.714821	24841.371946
539.075103	24873.035433
539.435328	24669.508929
539.795497	24221.052924
540.155609	24635.977694
540.515665	24918.874645
540.875665	24165.083513
541.235609	24427.165540
541.595496	24413.700618
541.955328	24767.140955
542.315102	24682.661299
542.674821	24245.348765
543.034483	24132.048832
543.394090	24290.469612
543.753640	24068.026178
544.113134	24712.653644
544.472571	24315.884589
544.831953	24601.508804
545.191278	24210.892478
545.550548	24142.476459
545.909761	24351.243242
546.268918	24572.776748
546.628019	24538.176789
546.987064	24249.603498
547.346053	24014.474001
547.704986	24127.935250
548.063863	24297.229799
548.422684	24273.377580
548.781449	23852.897458
549.140158	24239.498506
549.498811	23824.654394
549.857408	23547.353124
550.215949	24000.555375
550.574434	23681.982178
550.932864	23892.253746
551.291237	24029.763820
551.649555	23915.082612
552.007817	23955.074085
552.366022	23834.774510
552.724173	23880.906109
553.082267	23806.571775
553.440305	24278.355719
553.798288	23565.476072
554.156215	24080.225770
554.514086	24163.989583
554.871902	23537.359036
555.229661	23823.389064
555.587365	23688.036604
555.945014	23524.864536
556.302606	23796.186998
556.660143	23720.562129
557.017625	23990.891483
557.375050	23527.362428
557.732421	23918.036728
558.089735	23731.476227
558.446994	23786.606285
558.804197	23806.168483
559.161345	23770.764459
559.518437	23505.415765
559.875474	23714.931160
560.232455	23891.840372
560.589381	23724.761410
560.946251	23697.435835
561.303065	24017.816286
561.659825	24095.752524
562.016528	23708.481003
562.373177	23438.433954
562.729770	23809.185613
563.086307	23671.670498
563.442789	23847.311860
563.799216	23672.797196
564.155587	23686.370503
564.511904	23671.272247
564.868164	23588.897273
565.224370	23577.365633
565.580520	23482.322239
565.936615	23623.872798
566.292654	23280.907978
566.648638	23609.568524
567.004567	23427.610596
567.360441	23374.741495
567.716260	23106.862142
568.072023	23427.686214
568.427732	23189.257281
568.783385	22971.940700
569.138982	23202.044168
569.494525	23252.329677
569.850013	22985.786229
570.205445	23089.071910
570.560823	22894.896746
570.916145	22660.662053
571.271412	22826.677332
571.626625	22589.859047
571.981782	22697.936345
572.336884	22503.904854
572.691931	22638.112972
573.046923	22377.087067
573.401860	22260.386876
573.756743	22256.583325
574.111570	22178.841171
574.466342	22110.881376
574.821059	22188.946164
575.175722	21905.393863
575.530330	21881.776058
575.884882	21911.218917
576.239380	21814.443886
576.593823	21703.644366
576.948211	21694.716482
577.302544	21538.836444
577.656823	21410.897000
578.011047	21496.740288
578.365216	21379.059593
578.719330	21262.785380
579.073389	21156.530459
579.427394	21307.523099
579.781344	21091.814647
580.135239	20969.327211
580.489080	20934.737334
580.842866	20699.718742
581.196597	20888.000797
581.550273	20870.865915
581.903895	20774.148858
582.257463	21075.672872
582.610975	20604.667786
582.964434	20915.656567
583.317837	20622.972216
583.671186	20712.598890
584.024481	20688.408913
584.377721	20455.976433
584.730906	20506.682879
585.084037	20539.402488
585.437113	20442.718198
585.790135	20647.754528
586.143103	20114.287025
586.496016	20129.450816
586.848874	20371.884946
587.201679	20309.712395
587.554428	19969.285797
587.907124	20307.854730
588.259765	20084.750905
588.612352	20169.510345
588.964884	19729.314271
589.317362	19908.071065
589.669786	19948.266706
590.022155	20017.650627
590.374470	20180.217756
590.726731	19987.844804
591.078937	19738.547144
591.431090	19852.134422
591.783188	19588.136757
592.135232	19564.886956
592.487222	19658.286933
592.839157	19691.119968
593.191038	19566.941226
593.542866	19463.325350
593.894639	19182.235652
594.246358	19394.871522
594.598022	19302.862902
594.949633	19068.245082
595.301190	19012.719293
595.652692	19180.856897
596.004141	19428.974927
596.355535	18757.301671
596.706876	18771.479916
597.058162	18658.013626
597.409395	18886.115755
597.760573	18976.745619
598.111698	18750.591895
598.462768	18687.164098
598.813785	18652.365013
599.164748	18468.272157
599.515657	18497.324326
599.866511	18295.448800
600.217312	18658.621085
600.568060	18188.893931
600.918753	18493.314088
601.269392	18391.702071
601.619978	18179.711469
601.970510	18389.368017
602.320988	18321.859405
602.671412	18537.099030
603.021783	18438.970450
603.372100	18168.701589
603.722363	18305.780645
604.072572	18245.581706
604.422728	18383.989105
604.772830	18148.231984
605.122878	18096.398840
605.472872	18087.811235
605.822813	18079.319411
606.172701	18038.944810
606.522534	18243.882837
606.872314	18255.021267
607.222041	18089.459692
607.571714	18313.939752
607.921333	18145.799627
608.270899	18211.987457
608.620411	18409.391480
608.969870	18157.177512
609.319276	18156.575094
609.668627	18194.136731
610.017926	18333.938009
610.367171	18454.797152
610.716362	18486.614395
611.065500	18309.357343
611.414585	18433.639430
611.763616	18420.759282
612.112594	18372.606180
612.461518	18349.827726
612.810389	18533.161889
613.159207	18389.292399
613.507971	18293.520558
613.856682	18572.563547
614.205340	18513.508951
614.553945	18642.456625
614.902496	18389.935146
615.250994	18634.705851
615.599439	18572.114885
615.947830	18555.678203
616.296169	18607.284494
616.644454	18572.780317
616.992686	18547.261996
617.340864	18748.895547
617.688990	18516.962141
618.037063	18688.603347
618.385082	18530.026291
618.733048	18813.787800
619.080961	18680.247635
619.428821	18715.966730
619.776628	18618.732955
620.124382	18533.713895
620.472083	18566.519204
620.819731	18596.468699
621.167326	18292.328326
621.514868	18326.837544
621.862357	18092.184436
622.209793	18105.367053
622.557176	17942.154656
622.904506	17767.035054
623.251783	17679.263524
623.599007	17438.273685
623.946179	17392.956232
624.293297	17331.008013
624.640363	17086.081033
624.987376	17107.720186
625.334336	16901.776449
625.681243	16744.593272
626.028097	16755.285559
626.374899	16686.872060
626.721647	16552.737039
627.068343	16390.704272
627.414987	16316.251471
627.761577	16281.936336
628.108115	16333.532546
628.454600	16050.592745
628.801032	16148.111346
629.147412	16080.559884
629.493739	16100.243069
629.840014	15918.713640
630.186236	16013.731828
630.532405	15776.830365
630.878521	15979.504914
631.224585	15868.586927
631.570597	15690.273753
631.916556	15724.369597
632.262462	15706.917123
632.608316	15617.471930
632.954117	15564.837243
633.299866	15564.456636
633.645562	15482.767258
633.991206	15243.037708
634.336797	15108.776657
634.682336	15072.687037
635.027823	14965.849863
635.373257	14852.151680
635.718639	14741.155554
636.063968	14697.655438
636.409245	14450.333909
636.754470	14472.514986
637.099642	14328.673223
637.444762	14098.277369
637.789829	14142.354697
638.134845	13979.747239
638.479808	14001.840096
638.824719	13950.546355
639.169577	13810.180468
639.514383	13857.973127
639.859137	13671.468078
640.203839	13758.622067
640.548489	13597.242129
640.893086	13593.695678
641.237632	13457.098052
641.582125	13600.586935
641.926566	13432.406481
642.270955	13443.171865
642.615292	13412.952668
642.959576	13422.394749
643.303809	13460.737765
643.647990	13389.092887
643.992118	13449.246455
644.336195	13217.640724
644.680219	13419.138164
645.024192	13343.951875
645.368112	13585.173607
645.711981	13639.464313
646.055797	13812.378411
646.399562	13785.582157
646.743274	14056.846646
647.086935	14329.759592
647.430544	14294.242142
647.774101	14329.215147
648.117606	14481.256347
648.461059	14442.968784
648.804460	14434.499645
649.147810	14162.161391
649.491108	14067.105394
649.834354	14089.815792
650.177548	13782.007979
650.520690	13597.489146
650.863781	13514.978060
651.206820	13556.171849
651.549807	13387.502403
651.892742	13194.527034
652.235626	13129.518834
652.578458	13128.898772
652.921238	12817.191627
653.263967	13018.409283
653.606644	12846.647089
653.949269	12812.417654
654.291843	12625.388326
654.634365	12784.106534
654.976836	12633.325623
655.319255	12648.189465
655.661622	12593.008995
656.003938	12520.181966
656.346203	12445.101541
656.688416	12517.311029
657.030577	12478.610091
657.372687	12398.244016
657.714746	12366.913245
658.056753	12562.230230
658.398708	12373.255017
658.740612	12387.705484
659.082465	12475.507261
659.424266	12441.668515
659.766016	12474.516674
660.107715	12381.020914
660.449362	12448.952983
660.790958	12417.896954
661.132503	12352.004032
661.473996	12418.151533
661.815438	12437.340685
662.156829	12451.932305
662.498168	12430.527565
662.839456	12427.407091
663.180693	12457.212913
663.521879	12538.483875
663.863013	12509.416582
664.204097	12489.907317
664.545129	12605.463166
664.886110	12584.076070
665.227040	12673.954802
665.567918	12674.829443
665.908746	12711.899567
666.249522	12687.165146
666.590248	12746.391142
666.930922	12850.904343
667.271545	12836.700892
667.612118	12921.606526
667.952639	12830.180160
668.293109	12831.034636
668.633528	12789.901341
668.973896	12760.697937
669.314213	12853.989530
669.654480	12588.318201
669.994695	12654.233808
670.334859	12675.509998
670.674973	12620.707615
671.015035	12661.467864
671.355047	12601.110129
671.695008	12569.696179
672.034918	12575.992580
672.374777	12620.261473
672.714585	12530.372658
673.054342	12562.721743
673.394049	12523.133562
673.733705	12613.458436
674.073310	12519.274558
674.412864	12546.852190
674.752368	12414.012745
675.091820	12419.608426
675.431223	12413.160790
675.770574	12284.550873
676.109875	12207.048174
676.449125	12176.685305
676.788324	12108.914553
677.127473	11940.792072
677.466571	11931.347470
677.805619	11832.049343
678.144616	11755.249884
678.483562	11724.226623
678.822458	11591.651839
679.161303	11575.774725
679.500098	11563.663353
679.838842	11516.868842
680.177535	11539.808613
680.516179	11598.659043
680.854771	11548.038297
681.193314	11757.425142
681.531805	11910.731672
681.870247	12322.828355
682.208638	12733.165675
682.546978	13048.242831
682.885268	13102.301645
683.223508	12790.733131
683.561697	12636.690593
683.899836	12537.889019
684.237925	12341.644461
684.575963	12259.881987
684.913951	12186.122345
685.251889	12134.203501
685.589776	12226.136503
685.927614	12155.351142
686.265401	12112.753392
686.603137	12163.507728
686.940824	12307.480562
687.278460	12433.348091
687.616046	12482.660658
687.953582	12646.651913
688.291068	12575.243969
688.628504	12813.635093
688.965889	12823.934170
689.303224	12786.700208
689.640510	12676.011593
689.977745	12373.376004
690.314930	12148.253197
690.652065	12067.072976
690.989150	11773.637493
691.326185	11557.097250
691.663170	11344.847029
692.000105	11097.165058
692.336990	10996.339461
692.673825	10742.040976
693.010610	10619.765268
693.347345	10419.823025
693.684030	10219.306089
694.020665	10164.511267
694.357251	9964.024579
694.693786	9914.525489
695.030272	9749.679759
695.366707	9625.012024
695.703093	9558.317559
696.039429	9553.543586
696.375716	9481.008944
696.711952	9346.823511
697.048139	9383.306341
697.384276	9341.358900
697.720363	9356.406744
698.056400	9295.471797
698.392388	9251.891022
698.728326	9212.053304
699.064214	9148.812029
699.400053	9186.242596
699.735842	9002.200152
700.071581	8969.004153
700.407270	8900.129389
700.742910	8814.296183
701.078501	8725.518943
701.414042	8604.057382
701.749533	8533.012401
702.084974	8397.586844
702.420366	8506.669852
702.755709	8388.338848
703.091002	8257.283971
703.426246	8285.101058
703.761440	8234.994509
704.096584	8197.594189
704.431679	8125.243549
704.766725	8119.237014
705.101721	8068.180208
705.436668	8106.908873
705.771565	8003.020774
706.106413	8080.531035
706.441212	8125.959393
706.775961	8084.818536
707.110661	8116.434133
707.445311	8265.359900
707.779913	8158.222777
708.114465	8293.494579
708.448967	8329.284251
708.783421	8459.303170
709.117825	8646.302252
709.452180	8679.788116
709.786485	8772.507538
710.120742	9051.495074
710.454949	9048.540958
710.789107	9150.899067
711.123216	9361.127785
711.457275	9530.939052
711.791286	9698.950627
712.125247	9684.401857
712.459159	9669.021297
712.793023	9923.778527
713.126837	9503.278241
713.460602	9653.204677
713.794318	9478.473243
714.127985	9511.573460
714.461602	9194.610912
714.795171	9138.495308
715.128691	8895.352896
715.462162	8641.903845
715.795584	8586.867048
716.128957	8439.020088
716.462281	8271.507587
716.795556	8316.414185
717.128782	8117.586036
717.461960	7850.205757
717.795088	7921.933814
718.128167	7827.064340
718.461198	7669.465268
718.794180	7601.248374
719.127113	7599.829289
719.459997	7448.370343
719.792833	7216.608336
720.125619	7274.407685
720.458357	7139.221583
720.791046	7129.585417
721.123686	7127.047197
721.456278	6968.550799
721.788821	6988.995198
722.121315	6875.475976
722.453761	6943.624814
722.786158	6893.293934
723.118506	6904.873464
723.450805	6865.912907
723.783056	6934.139883
724.115259	6837.710172
724.447412	6842.736202
724.779518	6885.104579
725.111574	6890.748151
725.443582	6967.645912
725.775542	6944.391069
726.107453	7133.709081
726.439315	7053.794190
726.771129	7112.306863
727.102895	7280.121833
727.434612	7391.047382
727.766281	7423.744306
728.097901	7506.966194
728.429473	7494.116293
728.760996	7473.281204
729.092471	7447.016793
729.423897	7391.730459
729.755276	7407.670587
730.086606	7332.186870
730.417887	7426.731190
730.749120	7617.644727
731.080305	7812.752504
731.411442	7934.609796
731.742530	7927.605112
732.073570	8042.435035
732.404562	8122.352447
732.735506	7971.132955
733.066401	8113.900953
733.397249	8044.408647
733.728048	7810.118502
734.058798	7479.272616
734.389501	7260.368072
734.720156	7079.927532
735.050762	6846.194433
735.381320	6742.565954
735.711831	6700.305962
736.042293	6590.630619
736.372707	6613.983764
736.703073	6471.727443
737.033391	6511.209760
737.363661	6522.000350
737.693883	6548.781480
738.024056	6634.299614
738.354182	6676.612539
738.684260	6707.943310
739.014290	6824.436813
739.344272	6935.062414
739.674207	6962.569470
740.004093	7028.908534
740.333931	7046.850001
740.663722	7053.882410
740.993464	7131.846375
741.323159	7124.337576
741.652806	6871.964812
741.982405	6879.955041
742.311956	6945.333765
742.641460	6786.396267
742.970915	6587.353869
743.300323	6579.918167
743.629683	6524.324322
743.958996	6395.457306
744.288260	6307.519419
744.617477	6257.485967
744.946647	6259.197438
745.275768	6091.654690
745.604842	6049.747578
745.933869	6032.831987
746.262847	5990.483774
746.591778	5981.117310
746.920662	5935.794816
747.249498	5926.816521
747.578286	5976.771835
747.907027	6048.212547
748.235720	6112.134378
748.564365	6080.594399
748.892963	6102.399910
749.221514	6260.679538
749.550017	6101.235403
749.878473	5976.600436
750.206881	6028.541965
750.535242	5965.562830
750.863555	5899.422891
751.191821	5920.507517
751.520039	5919.075830
751.848210	5827.478064
752.176334	5847.982958
752.504411	5901.731740
752.832440	5825.171736
753.160421	5750.981075
753.488356	5797.266429
753.816243	5835.911915
754.144082	5682.696126
754.471875	5653.767464
754.799620	5701.313107
755.127318	5708.819385
755.454969	5664.608466
755.782572	5632.652592
756.110129	5671.882851
756.437638	5658.082692
756.765100	5602.105720
757.092515	5596.822591
757.419882	5644.774046
757.747203	5629.401047
758.074477	5690.951015
758.401703	5680.722514
758.728882	5630.285770
759.056014	5685.798956
759.383099	5811.802596
759.710138	5822.363814
760.037129	5809.317308
760.364073	5816.896682
760.690970	5895.072376
761.017820	5877.211568
761.344623	5829.925544
761.671379	5933.072593
761.998088	6047.322783
762.324751	6284.821623
762.651366	6874.392127
762.977935	8166.936412
763.304456	9790.414802
763.630931	10702.553618
763.957359	10330.773562
764.283740	9392.529132
764.610074	8567.894665
764.936362	7583.102741
765.262602	6981.559497
765.588796	6440.658812
765.914943	6103.221618
766.241044	5940.888902
766.567097	5747.590899
766.893104	5483.746989
767.219064	5307.135205
767.544978	5244.753447
767.870845	5168.014483
768.196665	5063.254265
768.522438	4991.677442
768.848165	4958.534376
769.173846	4891.076176
769.499479	4848.680072
769.825066	4799.400272
770.150607	4735.710335
770.476101	4710.313002
770.801548	4708.568762
771.126949	4634.027741
771.452303	4583.288527
771.777611	4534.858162
772.102872	4551.899783
772.428087	4520.778220
772.753256	4478.611488
773.078378	4435.449129
773.403453	4364.520095
773.728482	4350.223382
774.053465	4302.339983
774.378401	4294.856390
774.703291	4297.318993
775.028135	4227.209146
775.352932	4170.647400
775.677683	4161.517870
776.002388	4181.712733
776.327046	4191.459804
776.651658	4116.313844
776.976224	4055.346129
777.300743	4061.685380
777.625216	4082.328905
777.949643	4080.632557
778.274024	4032.406359
778.598359	3987.983711
778.922647	4009.877442
779.246889	4003.757481
779.571086	3996.525946
779.895236	3985.256447
780.219339	3973.084581
780.543397	3960.196871
780.867409	4016.231817
781.191374	4027.067777
781.515294	3966.394970
781.839167	3958.704689
782.162995	3980.472392
782.486776	3962.709886
782.810511	3974.296978
783.134201	3974.153305
783.457844	3929.365174
783.781441	3871.086915
784.104993	3879.586300
784.428498	3897.865524
784.751958	3895.498702
785.075372	3872.730331
785.398739	3836.675999
785.722061	3846.571784
786.045337	3894.324114
786.368568	3921.100202
786.691752	3837.348993
787.014891	3881.698544
787.337983	4009.988347
787.661030	4169.954241
787.984031	4331.059436
788.306987	4501.485724
788.629897	4583.757355
788.952760	4541.789749
789.275579	4471.069922
789.598351	4406.890993
789.921078	4272.922329
790.243759	4070.441864
790.566395	4049.193401
790.888984	4047.701219
791.211529	3942.000826
791.534027	3877.486660
791.856480	3869.461143
792.178888	3806.781957
792.501249	3760.655399
792.823566	3768.491873
793.145836	3800.019249
793.468062	3747.785333
793.790241	3700.133826
794.112375	3728.470152
794.434464	3789.800830
794.756507	3819.420129
795.078505	3798.849701
795.400457	3831.407993
795.722364	3965.089311
796.044226	4073.458995
796.366042	4144.652690
796.687812	4129.539311
797.009538	4137.408552
797.331218	4091.584464
797.652852	4066.101431
797.974442	4043.128893
798.295986	4043.149057
798.617484	3963.072849
798.938938	3876.692678
799.260346	3915.070982
799.581709	3917.215993
799.903026	3842.841330
800.224299	3803.079229
800.545526	3798.776604
800.866708	3758.855707
801.187845	3696.335317
801.508936	3735.472315
801.829983	3733.854104
802.150984	3654.977691
802.471940	3645.472595
802.792851	3652.860406
803.113717	3654.874347
803.434538	3656.709327
803.755314	3598.625152
804.076045	3573.863005
804.396731	3592.119543
804.717372	3620.808750
805.037967	3605.907099
805.358518	3594.569544
805.679024	3625.292856
805.999485	3636.413642
806.319901	3635.783497
806.640272	3651.854696
806.960598	3667.993950
807.280879	3640.713746
807.601115	3654.309738
807.921306	3668.341790
808.241453	3711.405846
808.561554	3686.890715
808.881611	3622.772279
809.201623	3653.485509
809.521590	3665.443126
809.841513	3639.745844
810.161390	3670.577541
810.481223	3651.413595
810.801011	3595.686160
811.120755	3587.486723
811.440453	3620.690283
811.760107	3622.671456
812.079716	3582.382555
812.399281	3550.041032
812.718801	3572.244794
813.038276	3544.125238
813.357707	3543.500135
813.677093	3565.698856
813.996434	3509.270701
814.315731	3519.531969
814.634983	3522.702855
814.954191	3536.439999
815.273354	3565.295564
815.592473	3560.728278
815.911547	3567.324628
816.230577	3604.850977
816.549562	3654.481137
816.868502	3699.682643
817.187399	3722.758525
817.506250	3719.837176
817.825058	3690.366591
818.143821	3781.770272
818.462539	3883.959501
818.781213	3931.061522
819.099843	3986.456241
819.418429	4224.615473
819.736970	4464.355105
820.055466	4707.827713
820.373919	5070.213578
820.692327	5477.044775
821.010691	5907.612246
821.329011	7256.582165
821.647286	9959.369073
821.965517	14472.812414
822.283704	18515.991719
822.601847	20736.609906
822.919945	18947.774108
823.237999	16379.916203
823.556010	13898.972831
823.873976	11819.774133
824.191897	9730.455318
824.509775	8373.071713
824.827609	7250.852894
825.145398	6700.242947
825.463144	6581.501089
825.780845	6694.435538
826.098502	6882.450412
826.416116	7738.811380
826.733685	9048.649343
827.051210	10166.931021
827.368692	10234.268234
827.686129	9001.980861
828.003522	7488.069429
828.320872	6470.386497
828.638177	5767.879023
828.955439	5210.534095
829.272656	4714.030852
829.589830	4431.723717
829.906960	4257.864403
830.224046	4072.725507
830.541088	3946.268163
830.858086	3898.621697
831.175041	3823.662260
831.491952	3806.731545
831.808819	3816.680262
832.125642	3889.567785
832.442421	4032.474414
832.759157	4300.981392
833.075849	4844.024566
833.392497	5700.912335
833.709101	6476.198947
834.025662	6820.270300
834.342179	6475.730120
834.658653	5812.427699
834.975083	5174.041182
835.291469	4597.391155
835.607811	4184.298845
835.924110	4042.433214
836.240366	3847.552288
836.556578	3639.191318
836.872746	3529.904143
837.188871	3491.034327
837.504952	3427.321704
837.820990	3345.476050
838.136984	3299.788073
838.452935	3322.954696
838.768842	3318.684838
839.084706	3339.363651
839.400526	3491.407372
839.716303	3828.058146
840.032037	4343.024615
840.347727	4618.818580
840.663373	4347.052497
840.978977	3968.736586
841.294537	3662.753671
841.610054	3433.240018
841.925527	3321.701969
842.240957	3254.553800
842.556344	3200.363916
842.871687	3145.246461
843.186987	3090.517174
843.502244	3060.229922
843.817458	3022.141484
844.132629	2990.909015
844.447756	3000.540140
844.762840	2985.741833
845.077881	2957.604632
845.392879	2937.984462
845.707833	2934.745520
846.022745	2932.658483
846.337613	2932.517330
846.652438	2923.022317
846.967221	2919.692635
847.281960	2907.634195
847.596656	2902.492218
847.911309	2902.456930
848.225919	2894.151629
848.540485	2887.963612
848.855009	2889.717934
849.169490	2878.682848
849.483928	2872.373844
849.798323	2868.895448
850.112675	2867.587269
850.426984	2877.843496
850.741251	2876.603372
851.055474	2863.889582
851.369654	2856.395907
851.683792	2863.050230
851.997887	2873.525748
852.311938	2875.050697
852.625947	2864.650797
852.939914	2868.358565
853.253837	2869.281096
853.567718	2858.553521
853.881555	2854.558407
854.195350	2868.698843
854.509103	2866.115252
854.822812	2859.987729
855.136479	2854.802902
855.450103	2856.418592
855.763685	2853.656040
856.077224	2845.940554
856.390720	2858.871114
856.704173	2869.724718
857.017584	2863.435878
857.330953	2860.300281
857.644278	2868.824872
857.957561	2877.402395
858.270802	2880.326264
858.584000	2881.097561
858.897155	2866.931919
859.210268	2864.300436
859.523339	2866.014429
859.836367	2861.187524
860.149352	2857.787266
860.462295	2852.922552
860.775195	2861.578213
861.088054	2859.909591
861.400869	2845.101202
861.713642	2839.928978
862.026373	2858.498068
862.339062	2861.311032
862.651708	2866.521065
862.964312	2868.966024
863.276873	2865.469984
863.589392	2870.324615
863.901869	2883.108981
864.214303	2904.801066
864.526696	2920.302614
864.839045	2920.040474
865.151353	2915.740370
865.463619	2915.332037
865.775842	2914.689290
866.088023	2934.319543
866.400162	2941.155347
866.712258	2914.394382
867.024313	2901.063051
867.336325	2908.236613
867.648296	2931.579676
867.960224	2922.261103
868.272110	2913.189546
868.583954	2916.042839
868.895755	2928.991043
869.207515	2917.776996
869.519233	2919.019641
869.830909	2930.379881
870.142542	2939.834565
870.454134	2939.665686
870.765684	2941.661983
871.077191	2942.995368
871.388657	2950.002572
871.700081	2963.391877
872.011463	2975.399905
872.322803	2976.196408
872.634101	2973.784216
872.945357	2990.717451
873.256571	3016.618900
873.567744	3010.221676
873.878874	3002.400325
874.189963	3024.440250
874.501010	3026.053419
874.812015	3014.564630
875.122979	3017.869106
875.433900	3015.265350
875.744780	3021.087883
876.055618	3027.469983
876.366415	3023.343799
876.677169	3034.424255
876.987882	3030.119110
877.298554	3025.168697
877.609183	3046.051677
877.919771	3067.426169
878.230317	3097.111003
878.540822	3147.467089
878.851285	3185.278263
879.161707	3229.005232
879.472087	3331.433916
879.782425	3549.131104
880.092722	3977.977021
880.402977	4502.320035
880.713191	5126.976970
881.023363	6270.174551
881.333494	7554.025366
881.643583	8122.155842
881.953631	7824.901685
882.263637	7204.474278
882.573602	6621.152285
882.883526	6041.099479
883.193408	5469.588909
883.503248	5007.471377
883.813048	4702.511816
884.122806	4403.004263
884.432522	4092.789299
884.742197	3855.678628
885.051831	3660.885923
885.361424	3526.168648
885.670975	3453.271043
885.980485	3371.052344
886.289954	3297.620377
886.599382	3247.831421
886.908768	3211.459496
887.218113	3169.940553
887.527417	3112.292438
887.836680	3060.786969
888.145901	3054.266237
888.455082	3046.462531
888.764221	2992.025631
889.073319	2965.446147
889.382376	2962.529840
889.691392	2969.592496
890.000366	2965.425983
890.309300	2952.908798
890.618193	2966.280458
890.927044	2983.039774
891.235855	2984.166472
891.544625	2970.701550
891.853353	2979.543734
892.162041	2999.809172
892.470687	3038.487425
892.779293	3087.875609
893.087858	3135.882517
893.396381	3203.307950
893.704864	3323.199192
894.013306	3560.493865
894.321707	3858.910008
894.630068	4071.198038
894.938387	4069.985640
895.246665	4020.877240
895.554903	3898.566245
895.863100	3703.508879
896.171256	3535.262890
896.479371	3397.687281
896.787446	3278.312758
897.095480	3176.191584
897.403473	3110.563322
897.711425	3072.190059
898.019336	3067.494224
898.327207	3035.949204
898.635038	3003.017867
898.942827	2984.559682
899.250576	2976.748414
899.558284	2944.616099
899.865952	2924.108686
900.173579	2901.355438
900.481165	2896.286558
900.788711	2884.326420
901.096216	2860.572503
901.403681	2846.227900
901.711105	2853.603108
902.018489	2854.916328
902.325832	2853.093951
902.633135	2862.105014
902.940397	2893.476114
903.247619	2975.510811
903.554800	3163.651713
903.861941	3504.710977
904.169041	3929.413065
904.476101	4227.375504
904.783121	4196.080021
905.090100	3949.199594
905.397039	3679.046680
905.703938	3425.839604
906.010796	3243.899321
906.317614	3130.480921
906.624391	3037.842158
906.931129	2966.978658
907.237826	2905.534554
907.544483	2859.229036
907.851099	2826.932883
908.157675	2805.185346
908.464211	2786.646502
908.770707	2773.778957
909.077163	2761.574324
909.383578	2746.493712
909.689954	2735.037690
909.996289	2733.769840
910.302584	2733.974007
910.608839	2735.219172
910.915054	2727.541494
911.221229	2721.295505
911.527363	2723.488407
911.833458	2730.117524
912.139513	2735.322515
912.445527	2736.300499
912.751502	2747.249885
913.057436	2757.609456
913.363331	2768.732762
913.669186	2789.557769
913.975000	2822.708397
914.280775	2884.976729
914.586510	2952.883592
914.892205	3033.499203
915.197859	3156.039571
915.503475	3349.912266
915.809050	3562.936304
916.114585	3706.226061
916.420081	3729.329669
916.725536	3672.846061
917.030952	3554.817526
917.336328	3428.750871
917.641665	3301.025676
917.946961	3198.097918
918.252218	3128.368678
918.557435	3050.316493
918.862612	2990.677122
919.167750	2939.040583
919.472848	2902.572876
919.777906	2873.830738
920.082925	2849.141687
920.387904	2819.968529
920.692843	2797.716876
920.997743	2791.221350
921.302603	2774.865326
921.607423	2765.778646
921.912204	2757.143150
922.216946	2744.981366
922.521647	2733.792525
922.826310	2729.255487
923.130932	2721.895402
923.435516	2712.964998
923.740059	2705.277238
924.044564	2696.992102
924.349028	2692.142512
924.653454	2687.129084
924.957840	2680.452076
925.262186	2675.393278
925.566493	2670.866322
925.870761	2666.223419
926.174989	2661.847698
926.479178	2659.251504
926.783328	2653.759167
927.087438	2650.411840
927.391509	2651.341933
927.695541	2647.656850
927.999533	2645.290028
928.303486	2641.315078
928.607400	2642.587970
928.911275	2640.082516
929.215110	2639.850623
929.518906	2639.336425
929.822663	2636.793163
930.126381	2638.885242
930.430060	2638.638226
930.733699	2638.272742
931.037299	2639.802732
931.340861	2641.796508
931.644383	2640.611837
931.947866	2638.930612
932.251309	2637.340128
932.554714	2637.594707
932.858080	2638.020684
933.161407	2637.486322
933.464694	2633.965076
933.767943	2631.091618
934.071153	2632.198152
934.374323	2633.224026
934.677455	2629.359982
934.980548	2633.065230
935.283602	2628.666823
935.586617	2629.642287
935.889593	2629.186062
936.192530	2631.401649
936.495428	2631.197482
936.798287	2632.891310
937.101108	2633.743265
937.403890	2638.214769
937.706632	2643.434883
938.009336	2652.380411
938.312002	2657.948365
938.614628	2671.211641
938.917216	2677.109791
939.219765	2676.194822
939.522275	2676.083916
939.824747	2669.195180
940.127179	2667.516475
940.429573	2665.714263
940.731929	2660.433654
941.034246	2658.906185
941.336524	2657.119096
941.638763	2655.125319
941.940964	2653.275216
942.243126	2651.435195
942.545250	2650.958806
942.847335	2645.287507
943.149381	2642.323309
943.451389	2639.114615
943.753359	2637.564460
944.055290	2637.088071
944.357182	2637.428349
944.659036	2633.655045
944.960851	2634.106228
945.262628	2631.421814
945.564367	2632.694705
945.866067	2633.617236
946.167729	2634.484315
946.469352	2635.923564
946.770937	2632.800569
947.072484	2631.452061
947.373992	2631.653707
947.675462	2627.046092
947.976893	2624.041565
948.278286	2623.320680
948.579641	2624.066770
948.880958	2618.050153
949.182236	2621.916718
949.483476	2623.131636
949.784678	2623.802110
950.085841	2623.000566
950.386967	2626.294960
950.688054	2625.712707
950.989103	2626.151287
951.290114	2625.183386
951.591087	2629.765795
951.892021	2631.777215
952.192917	2632.286372
952.493776	2634.386012
952.794596	2636.410036
953.095378	2635.074130
953.396122	2634.325518
953.696828	2634.101187
953.997496	2631.119345
954.298126	2629.493572
954.598718	2628.356792
954.899272	2623.618108
955.199788	2620.956378
955.500266	2619.859927
955.800706	2616.058898
956.101108	2611.249637
956.401472	2610.203597
956.701798	2610.405243
957.002087	2610.241406
957.302337	2612.169647
957.602550	2609.301231
957.902724	2607.292331
958.202861	2601.003492
958.502960	2602.904007
958.803022	2604.784357
959.103045	2600.960642
959.403031	2600.040631
959.702979	2597.817482
960.002889	2602.415015
960.302762	2598.876125
960.602596	2599.886876
960.902393	2599.050044
961.202153	2599.609612
961.501875	2599.838985
961.801559	2598.576176
962.101205	2596.559714
962.400814	2598.913933
962.700385	2595.485949
962.999918	2593.918150
963.299414	2591.468149
963.598873	2594.505444
963.898293	2591.289188
964.197677	2597.439396
964.497022	2595.226329
964.796331	2597.530137
965.095601	2595.488469
965.394835	2596.443768
965.694030	2593.887903
965.993189	2598.452668
966.292309	2595.528798
966.591393	2596.645414
966.890439	2591.183324
967.189447	2593.524940
967.488419	2595.082656
967.787353	2594.245825
968.086249	2592.672985
968.385108	2592.539394
968.683930	2594.853284
968.982714	2596.912595
969.281462	2597.787235
969.580172	2595.710280
969.878844	2596.864704
970.177480	2595.596854
970.476078	2595.596854
970.774639	2595.254056
971.073162	2594.011411
971.371649	2595.589292
971.670098	2596.446288
971.968510	2593.474528
972.266885	2593.585434
972.565223	2595.125506
972.863524	2595.884200
973.161788	2594.132399
973.460014	2594.394539
973.758204	2596.544591
974.056356	2595.362440
974.354471	2594.427306
974.652550	2594.742378
974.950591	2595.400249
975.248595	2595.455702
975.546563	2594.520568
975.844493	2596.658017
976.142386	2591.304312
976.440243	2594.825558
976.738062	2594.583582
977.035845	2595.501072
977.333590	2597.734303
977.631299	2594.719693
977.928971	2592.350351
978.226606	2590.838005
978.524204	2588.614856
978.821765	2589.139136
979.119290	2594.344127
979.416777	2593.441761
979.714228	2590.061667
980.011642	2592.352872
980.309020	2593.240115
980.606360	2594.636514
980.903664	2593.333376
981.200931	2595.702718
981.498162	2593.444281
981.795356	2594.636514
982.092513	2598.679520
982.389633	2599.730600
982.686717	2602.084819
982.983764	2608.204780
983.280775	2609.565891
983.577749	2612.575460
983.874686	2607.798967
984.171587	2609.397013
984.468451	2605.011209
984.765279	2604.360900
985.062070	2600.544747
985.358824	2598.089705
985.655543	2598.651793
985.952224	2599.201279
986.248869	2592.438571
986.545478	2595.145671
986.842050	2592.065526
987.138586	2592.269693
987.435086	2591.896647
987.731549	2588.246852
988.027975	2590.530494
988.324366	2589.229877
988.620719	2589.003025
988.917037	2588.572006
989.213318	2588.917325
989.509563	2585.685946
989.805772	2588.854311
990.101944	2587.588981
990.398080	2588.120823
990.694180	2591.049733
990.990244	2590.202819
991.286271	2589.736513
991.582262	2589.620566
991.878217	2590.845567
992.174136	2590.112079
992.470019	2592.380598
992.765865	2585.945565
993.061676	2585.781727
993.357450	2585.443970
993.653188	2583.830801
993.948890	2589.078642
994.244556	2589.345823
994.540186	2588.602253
994.835780	2591.067377
995.131337	2588.249372
995.426859	2590.933787
995.722345	2589.237438
996.017795	2595.478387
996.313208	2594.394539
996.608586	2593.973602
996.903928	2594.570979
997.199234	2594.190372
997.494504	2595.657348
997.789738	2593.232553
998.084936	2592.567121
998.380099	2592.158787
998.675225	2592.617532
998.970316	2587.818354
999.265371	2592.831781
999.560390	2591.778180
999.855373	2589.282809
1000.150320	2591.079980
1000.445232	2589.111410
1000.740108	2589.232397
1001.034948	2589.164342
1001.329752	2589.255082
1001.624521	2587.974629
1001.919254	2589.794486
1002.213951	2590.553180
1002.508613	2586.938672
1002.803239	2587.722572
1003.097829	2588.085535
1003.392384	2587.488158
1003.686903	2586.603436
1003.981386	2586.918508
1004.275834	2586.931111
1004.570246	2587.266347
1004.864623	2587.251224
1005.158964	2589.040833
1005.453270	2586.016141
1005.747540	2585.040678
1006.041775	2585.771645
1006.335974	2585.358271
1006.630138	2587.641913
1006.924266	2586.852973
1007.218359	2585.340627
1007.512416	2582.099165
1007.806438	2583.079669
1008.100425	2584.284505
1008.394376	2582.159658
1008.688292	2586.124526
1008.982172	2586.326172
1009.276017	2585.597725
1009.569827	2584.057653
1009.863602	2587.750298
1010.157341	2587.704928
1010.451045	2587.344485
1010.744714	2585.126377
1011.038347	2587.495720
1011.331945	2584.040009
1011.625508	2586.815164
1011.919036	2584.493713
1012.212528	2587.077304
1012.505986	2589.456729
1012.799408	2586.346337
1013.092795	2586.182499
1013.386147	2584.854155
1013.679464	2584.970102
1013.972745	2585.484299
1014.265992	2585.146542
1014.559204	2586.280802
1014.852380	2587.321800
1015.145521	2587.679722
1015.438628	2588.209043
1015.731699	2585.552355
1016.024736	2586.051429
1016.317737	2585.580081
1016.610703	2584.876840
1016.903635	2584.554207
1017.196531	2584.002200
1017.489393	2581.683269
1017.782219	2587.450349
1018.075011	2583.097313
1018.367768	2585.312900
1018.660490	2584.062694
1018.953177	2584.062694
1019.245829	2584.062694
