Dividing Wavelength (nm)	Counts (n)	Blue Motor Position (mm): 0.000000	Red Motor Position (mm): 7.500000	
326.493990	2084.728844
326.888308	2084.728844
327.282561	2084.728844
327.676750	2062.204968
328.070874	2066.492470
328.464933	2070.969014
328.858929	2081.966292
329.252859	2091.549525
329.646726	2108.291197
330.040528	2123.097066
330.434265	2142.810498
330.827938	2163.950577
331.221547	2183.379183
331.615091	2203.508511
332.008571	2222.808568
332.401986	2243.454614
332.795338	2263.062182
333.188625	2282.367280
333.581847	2303.673717
333.975006	2319.039154
334.368100	2338.392144
334.761129	2354.861593
335.154095	2374.385982
335.546996	2387.548435
335.939833	2400.673079
336.332606	2414.717733
336.725315	2427.643252
337.117960	2436.886208
337.510540	2439.923503
337.903056	2451.273661
338.295508	2459.329424
338.687896	2460.617439
339.080220	2473.222844
339.472480	2473.714357
339.864676	2480.282980
340.256807	2485.029227
340.648875	2485.498054
341.040879	2484.542755
341.432818	2487.237252
341.824694	2488.452170
342.216506	2490.181286
342.608253	2488.081645
342.999937	2487.141470
343.391557	2486.060143
343.783113	2486.438229
344.174605	2485.228352
344.566033	2481.691983
344.957397	2480.446818
345.348697	2475.829121
345.739934	2474.790643
346.131106	2475.186374
346.522215	2473.913482
346.913260	2469.938533
347.304241	2470.311578
347.695159	2466.686988
348.086012	2467.349900
348.476802	2462.860753
348.867528	2465.124231
349.258191	2464.032821
349.648789	2462.835547
350.039324	2461.918057
350.429796	2463.838737
350.820203	2456.355144
351.210548	2460.136009
351.600828	2458.308591
351.991045	2460.020063
352.381198	2458.016204
352.771288	2456.960082
353.161314	2458.810186
353.551276	2456.501337
353.941175	2457.726338
354.331010	2461.660958
354.720782	2458.341358
355.110490	2456.821450
355.500135	2460.887141
355.889717	2458.132150
356.279235	2460.262038
356.668689	2461.764302
357.058080	2460.914867
357.447408	2457.270113
357.836672	2456.135853
358.225873	2461.887810
358.615010	2458.500155
359.004084	2464.673048
359.393095	2461.734055
359.782043	2463.483335
360.170927	2467.160857
360.559748	2464.983078
360.948505	2466.064406
361.337199	2467.833851
361.725830	2466.989458
362.114398	2468.902576
362.502903	2467.740590
362.891344	2469.159674
363.279722	2466.197997
363.668037	2469.320991
364.056289	2468.438789
364.444478	2470.460292
364.832603	2471.090436
365.220665	2471.224027
365.608665	2471.707978
365.996601	2471.927268
366.384474	2473.066569
366.772284	2472.912813
367.160031	2474.883905
367.547715	2474.336939
367.935336	2476.600418
368.322893	2475.385499
368.710388	2477.084368
369.097820	2477.371714
369.485189	2476.728967
369.872495	2478.722743
370.259738	2479.456231
370.646918	2480.590491
371.034035	2480.562764
371.421090	2483.053094
371.808081	2486.944865
372.195010	2490.120792
372.581875	2492.280927
372.968678	2500.601351
373.355418	2506.446569
373.742096	2515.215656
374.128710	2521.391069
374.515262	2530.684437
374.901751	2544.882846
375.288177	2558.113355
375.674540	2575.659091
376.060841	2592.312542
376.447079	2614.153341
376.833254	2639.989255
377.219367	2657.807213
377.605417	2688.835515
377.991404	2714.956254
378.377329	2747.978332
378.763191	2783.314300
379.148991	2821.377532
379.534727	2865.840509
379.920402	2911.263826
380.306013	2955.933490
380.691563	3010.627488
381.077049	3062.367371
381.462474	3113.189763
381.847835	3176.836851
382.233134	3238.112076
382.618371	3289.166362
383.003545	3359.868545
383.388657	3424.632248
383.773706	3502.288702
384.158693	3557.554872
384.543618	3632.899957
384.928480	3691.699976
385.313280	3772.219806
385.698017	3844.414170
386.082692	3931.003549
386.467305	3964.539825
386.851856	4045.062175
387.236344	4146.981703
387.620770	4172.484901
388.005133	4235.663161
388.389435	4322.371007
388.773674	4352.933002
389.157851	4415.092950
389.541965	4476.005212
389.926018	4459.558447
390.310008	4545.646232
390.693936	4581.733332
391.077802	4614.379844
391.461606	4657.937934
391.845348	4679.352755
392.229027	4702.375705
392.612645	4779.984268
392.996200	4796.483965
393.379694	4839.860573
393.763125	4898.436260
394.146494	4881.064444
394.529801	4886.546699
394.913047	4938.279020
395.296230	4864.773955
395.679351	4818.339887
396.062410	4864.564747
396.445408	4734.460128
396.828343	4725.781782
397.211217	4697.720199
397.594028	4576.424997
397.976778	4572.402156
398.359466	4556.739291
398.742092	4464.796206
399.124656	4434.813944
399.507158	4415.675203
399.889598	4339.939428
400.271977	4321.960153
400.654294	4249.448196
401.036549	4223.226635
401.418742	4146.096981
401.800874	4139.611536
402.182944	4078.394285
402.564952	4077.849840
402.946898	3957.305769
403.328783	3886.328844
403.710606	3843.539530
404.092367	3814.172288
404.474067	3796.535811
404.855705	3684.816280
405.237282	3605.355093
405.618797	3592.580809
406.000250	3556.009758
406.381642	3528.003628
406.762972	3454.324644
407.144240	3371.501007
407.525447	3328.633555
407.906593	3258.992536
408.287677	3225.287381
408.668700	3183.234076
409.049661	3126.609315
409.430560	3089.380394
409.811399	3041.310471
410.192176	3005.798063
410.572891	2965.171404
410.953545	2946.004937
411.334138	2884.465052
411.714669	2872.431818
412.095139	2817.291677
412.475547	2801.117135
412.855894	2770.441713
413.236180	2750.395565
413.616405	2721.197202
413.996568	2708.490974
414.376670	2687.731502
414.756711	2670.596620
415.136691	2658.757471
415.516609	2645.070738
415.896466	2632.477936
416.276262	2624.200361
416.655997	2614.629730
417.035670	2605.870726
417.415283	2603.108173
417.794834	2592.052923
418.174324	2584.624783
418.553753	2579.129925
418.933121	2578.898032
419.312428	2573.269584
419.691674	2569.544171
420.070859	2566.801783
420.449983	2559.663509
420.829045	2563.126782
421.208047	2556.754764
421.586988	2557.402552
421.965867	2555.156718
422.344686	2554.060267
422.723444	2553.170503
423.102141	2546.349822
423.480777	2549.601366
423.859352	2543.219266
424.237866	2547.090872
424.616319	2545.334030
424.994712	2548.789741
425.373044	2546.291849
425.751314	2545.903680
426.129524	2539.075437
426.507673	2544.681200
426.885762	2540.733977
427.263789	2541.278421
427.641756	2544.444266
428.019662	2541.318751
428.397508	2542.463093
428.775292	2543.226827
429.153016	2539.879501
429.530679	2541.164995
429.908282	2540.542413
430.285824	2539.844213
430.663305	2541.681714
431.040726	2540.093750
431.418086	2536.638039
431.795385	2540.199614
432.172624	2541.966539
432.549802	2540.434028
432.926920	2541.560726
433.303977	2542.294214
433.680974	2541.127187
434.057910	2542.072403
434.434786	2541.069213
434.811601	2543.093237
435.188355	2543.935109
435.565050	2544.986190
435.941683	2543.514173
436.318257	2545.147507
436.694770	2538.679707
437.071222	2545.018957
437.447614	2540.653318
437.823946	2542.558874
438.200218	2544.691282
438.576429	2544.245140
438.952580	2546.128011
439.328670	2545.036602
439.704700	2547.849565
440.080670	2545.122301
440.456580	2545.896118
440.832429	2548.237734
441.208218	2545.349153
441.583947	2546.377548
441.959616	2546.490974
442.335224	2544.903011
442.710773	2547.955430
443.086261	2550.002138
443.461689	2546.904349
443.837057	2548.459545
444.212365	2548.164637
444.587612	2551.017931
444.962800	2548.172199
445.337927	2553.200750
445.712995	2547.685728
446.088002	2553.639331
446.462949	2552.527756
446.837837	2550.191181
447.212664	2551.827036
447.587431	2559.325752
447.962139	2567.928481
448.336786	2574.913000
448.711374	2567.925961
449.085901	2562.216854
449.460369	2559.015721
449.834776	2560.359189
450.209124	2567.295816
450.583412	2566.035528
450.957640	2564.757595
451.331808	2560.641493
451.705917	2558.587223
452.079965	2558.037737
452.453954	2559.214847
452.827883	2559.676112
453.201752	2558.456153
453.575562	2562.030331
453.949311	2561.299364
454.323001	2561.049827
454.696632	2560.525547
455.070202	2564.954200
455.443713	2563.106617
455.817164	2563.146947
456.190556	2564.891186
456.563888	2561.861453
456.937160	2562.947821
457.310373	2559.620660
457.683526	2562.153839
458.056619	2562.746175
458.429653	2562.158881
458.802628	2562.209292
459.175542	2564.533264
459.548398	2564.818089
459.921194	2570.285221
460.293930	2571.769840
460.666607	2574.618092
461.039224	2577.849472
461.411782	2580.662436
461.784280	2574.504666
462.156719	2574.986097
462.529099	2574.998699
462.901419	2570.340673
463.273680	2570.065930
463.645882	2571.502659
464.018024	2571.517783
464.390106	2570.789336
464.762130	2580.430543
465.134094	2588.327510
465.505999	2597.018459
465.877845	2607.556992
466.249631	2612.855244
466.621358	2608.678648
466.993026	2606.170674
467.364634	2601.631115
467.736184	2594.674323
468.107674	2593.119127
468.479105	2589.960844
468.850477	2590.064188
469.221790	2585.897674
469.593043	2581.993300
469.964238	2579.818042
470.335373	2581.660584
470.706449	2583.019175
471.077467	2587.946903
471.448425	2595.770774
471.819324	2604.504573
472.190164	2598.697164
472.560945	2589.865062
472.931667	2582.482292
473.302330	2582.202508
473.672934	2576.049780
474.043479	2577.758731
474.413965	2576.511046
474.784393	2570.242371
475.154761	2574.779409
475.525070	2572.382341
475.895321	2571.185067
476.265513	2567.580642
476.635645	2575.026426
477.005719	2573.965263
477.375734	2573.042732
477.745691	2575.089440
478.115588	2578.749318
478.485427	2580.604462
478.855207	2585.000349
479.224928	2586.663929
479.594591	2590.739702
479.964194	2588.526636
480.333739	2588.866914
480.703226	2587.838518
481.072653	2585.761563
481.442022	2588.698035
481.811333	2587.727613
482.180584	2585.108733
482.549777	2583.394741
482.918912	2579.346695
483.287988	2577.753690
483.657005	2577.592373
484.025964	2578.419122
484.394864	2576.553895
484.763706	2578.083886
485.132489	2574.963411
485.501213	2575.205387
485.869879	2571.621126
486.238487	2573.141034
486.607036	2570.917885
486.975527	2570.247412
487.343959	2572.263873
487.712333	2572.684810
488.080648	2571.661456
488.448905	2570.817062
488.817104	2571.273287
489.185244	2570.517114
489.553326	2575.013823
489.921350	2578.963567
490.289315	2583.976994
490.657222	2584.907087
491.025070	2583.503126
491.392861	2582.583115
491.760593	2582.275605
492.128267	2577.738567
492.495883	2574.345870
492.863440	2572.513411
493.230939	2570.038204
493.598380	2569.211455
493.965763	2564.394632
494.333088	2566.065775
494.700354	2561.266596
495.067563	2566.544684
495.434713	2561.647203
495.801805	2561.493448
496.168839	2564.331618
496.535815	2566.169118
496.902733	2564.999571
497.269593	2566.501835
497.636395	2562.496638
498.003139	2566.912689
498.369825	2562.569735
498.736453	2563.464539
499.103023	2561.916905
499.469535	2563.792214
499.835989	2562.998233
500.202385	2561.034703
500.568723	2561.425393
500.935003	2561.019580
501.301226	2559.799621
501.667390	2560.470094
502.033497	2562.037893
502.399546	2563.487225
502.765537	2559.227450
503.131470	2560.757440
503.497345	2560.631411
503.863163	2558.294836
504.228923	2559.519837
504.594625	2558.844322
504.960269	2557.959599
505.325856	2558.070505
505.691385	2557.566389
506.056856	2557.304249
506.422270	2559.247614
506.787625	2558.007490
507.152924	2557.967161
507.518164	2558.186451
507.883347	2553.674619
508.248472	2556.273333
508.613540	2555.776780
508.978550	2557.092521
509.343503	2552.870555
509.708398	2556.921122
510.073236	2557.205947
510.438016	2557.314332
510.802738	2555.701162
511.167403	2555.300391
511.532010	2554.455997
511.896561	2557.079918
512.261053	2555.554969
512.625488	2551.743857
512.989866	2552.570606
513.354186	2551.249824
513.718449	2552.147149
514.082655	2552.558003
514.446803	2555.338199
514.810894	2554.818961
515.174927	2554.118240
515.538904	2553.387273
515.902822	2553.286450
516.266684	2553.142777
516.630488	2556.041440
516.994235	2553.470452
517.357925	2555.996070
517.721558	2555.512119
518.085133	2553.407437
518.448651	2555.398693
518.812112	2558.869528
519.175516	2556.434650
519.538863	2554.458518
519.902152	2553.725030
520.265385	2552.656306
520.628560	2551.585060
520.991678	2552.187478
521.354739	2551.257385
521.717743	2555.023127
522.080690	2552.066491
522.443580	2551.010369
522.806413	2553.384752
523.169189	2551.663198
523.531908	2553.586398
523.894569	2549.477858
524.257174	2551.421223
524.619722	2551.335523
524.982213	2553.568754
525.344647	2551.867365
525.707025	2551.489278
526.069345	2551.663198
526.431608	2549.828218
526.793815	2550.042467
527.155964	2550.050029
527.518057	2549.082127
527.880093	2550.050029
528.242072	2553.130174
528.603995	2552.875596
528.965860	2547.683207
529.327669	2548.905687
529.689421	2548.046170
530.051117	2550.501212
530.412755	2546.705223
530.774337	2550.355019
531.135862	2547.466438
531.497331	2549.039278
531.858743	2546.634647
532.220098	2547.380738
532.581396	2543.541899
532.942638	2542.453010
533.303824	2545.760007
533.664953	2548.593136
534.026025	2546.700182
534.387040	2548.633465
534.747999	2548.378887
535.108902	2547.461397
535.469748	2545.974256
535.830537	2545.386962
536.191270	2545.303783
536.551947	2546.269164
536.912567	2547.473999
537.273131	2544.643392
537.633638	2544.068700
537.994089	2547.824360
538.354483	2546.652291
538.714821	2548.751932
539.075103	2546.755635
539.435328	2543.378062
539.795497	2543.811601
540.155609	2545.727240
540.515665	2545.452497
540.875665	2545.427291
541.235609	2544.464431
541.595496	2545.576005
541.955328	2547.277394
542.315102	2547.970553
542.674821	2544.655994
543.034483	2545.107178
543.394090	2544.242620
543.753640	2542.483257
544.113134	2546.619524
544.472571	2544.872764
544.831953	2543.831766
545.191278	2543.993083
545.550548	2542.140459
545.909761	2544.514842
546.268918	2542.785726
546.628019	2545.177754
546.987064	2543.559543
547.346053	2546.667415
547.704986	2543.700696
548.063863	2546.266643
548.422684	2544.555171
548.781449	2542.594162
549.140158	2543.713299
549.498811	2544.313196
549.857408	2544.981149
550.215949	2540.572660
550.574434	2538.198276
550.932864	2543.173895
551.291237	2539.564429
551.649555	2542.057280
552.007817	2542.964687
552.366022	2541.376724
552.724173	2543.536858
553.082267	2541.961498
553.440305	2539.622402
553.798288	2541.888401
554.156215	2542.538710
554.514086	2542.740356
554.871902	2541.374203
555.229661	2542.485778
555.587365	2542.576518
555.945014	2541.200283
556.302606	2542.339584
556.660143	2541.928730
557.017625	2541.570808
557.375050	2541.734646
557.732421	2543.224307
558.089735	2541.235572
558.446994	2544.971067
558.804197	2541.848072
559.161345	2544.159441
559.518437	2541.666590
559.875474	2540.834800
560.232455	2539.705581
560.589381	2541.999306
560.946251	2541.366642
561.303065	2539.657690
561.659825	2539.274563
562.016528	2541.893442
562.373177	2539.287166
562.729770	2542.379913
563.086307	2541.243133
563.442789	2540.411343
563.799216	2540.144162
564.155587	2542.279090
564.511904	2542.135417
564.868164	2540.733977
565.224370	2541.492670
565.580520	2543.186498
565.936615	2540.870088
566.292654	2539.950077
566.648638	2542.188350
567.004567	2541.427135
567.360441	2541.414533
567.716260	2539.819007
568.072023	2540.774306
568.427732	2537.212731
568.783385	2538.067206
569.138982	2537.220292
569.494525	2535.395395
569.850013	2537.164840
570.205445	2543.178936
570.560823	2540.585263
570.916145	2539.214069
571.271412	2539.486291
571.626625	2538.122659
571.981782	2540.184491
572.336884	2539.708102
572.691931	2540.620551
573.046923	2539.566950
573.401860	2536.882535
573.756743	2539.541744
574.111570	2538.074768
574.466342	2537.212731
574.821059	2538.833462
575.175722	2536.887576
575.530330	2536.930426
575.884882	2536.176774
576.239380	2539.468647
576.593823	2538.314223
576.948211	2534.767771
577.302544	2539.009902
577.656823	2535.110570
578.011047	2538.241126
578.365216	2538.263811
578.719330	2538.601569
579.073389	2537.305992
579.427394	2535.223996
579.781344	2536.842206
580.135239	2536.607792
580.489080	2536.932947
580.842866	2534.997144
581.196597	2540.769265
581.550273	2539.183822
581.903895	2538.815818
582.257463	2538.606610
582.610975	2533.933460
582.964434	2535.758358
583.317837	2533.320960
583.671186	2537.444624
584.024481	2536.567463
584.377721	2536.287679
584.730906	2536.862371
585.084037	2536.103677
585.437113	2537.089223
585.790135	2535.105528
586.143103	2536.542257
586.496016	2536.932947
586.848874	2531.080167
587.201679	2533.210055
587.554428	2532.469005
587.907124	2536.005374
588.259765	2531.546474
588.612352	2533.199972
588.964884	2534.976979
589.317362	2534.987061
589.669786	2536.539737
590.022155	2536.506969
590.374470	2535.859181
590.726731	2534.523275
591.078937	2532.446320
591.431090	2534.457740
591.783188	2535.395395
592.135232	2534.397246
592.487222	2532.557225
592.839157	2532.695857
593.191038	2533.018491
593.542866	2536.605272
593.894639	2536.264994
594.246358	2532.257277
594.598022	2534.094777
594.949633	2534.203162
595.301190	2533.605785
595.652692	2533.230219
596.004141	2533.683923
596.355535	2537.394212
596.706876	2530.387008
597.058162	2532.920188
597.409395	2531.458254
597.760573	2529.638397
598.111698	2532.499252
598.462768	2530.381967
598.813785	2533.550332
599.164748	2534.157792
599.515657	2534.591331
599.866511	2534.883718
600.217312	2531.309540
600.568060	2533.268028
600.918753	2533.741896
601.269392	2533.043697
601.619978	2532.670651
601.970510	2533.089067
602.320988	2531.117976
602.671412	2531.657379
603.021783	2531.443130
603.372100	2528.458767
603.722363	2530.946577
604.072572	2531.503624
604.422728	2532.297606
604.772830	2530.253418
605.122878	2530.681916
605.472872	2529.482121
605.822813	2526.865763
606.172701	2531.523789
606.522534	2531.390198
606.872314	2534.621578
607.222041	2530.271062
607.571714	2532.007739
607.921333	2532.700898
608.270899	2532.723583
608.620411	2532.910106
608.969870	2531.722914
609.319276	2530.092101
609.668627	2533.459592
610.017926	2533.013450
610.367171	2533.774664
610.716362	2529.950949
611.065500	2533.217616
611.414585	2532.569828
611.763616	2533.406660
612.112594	2530.666793
612.461518	2531.286854
612.810389	2534.823224
613.159207	2532.037986
613.507971	2535.564273
613.856682	2530.447502
614.205340	2532.290044
614.553945	2533.449509
614.902496	2529.013294
615.250994	2531.029756
615.599439	2534.056968
615.947830	2532.516896
616.296169	2528.783922
616.644454	2535.297092
616.992686	2532.968079
617.340864	2533.179808
617.688990	2534.969417
618.037063	2533.913296
618.385082	2529.867770
618.733048	2533.071423
619.080961	2532.171577
619.428821	2531.826258
619.776628	2529.600588
620.124382	2533.706608
620.472083	2531.354910
620.819731	2532.353058
621.167326	2532.476567
621.514868	2533.205013
621.862357	2531.677544
622.209793	2535.990251
622.557176	2531.105373
622.904506	2529.847605
623.251783	2530.157636
623.599007	2529.691329
623.946179	2528.620084
624.293297	2529.162008
624.640363	2531.407842
624.987376	2527.579086
625.334336	2531.213758
625.681243	2530.182842
626.028097	2529.862728
626.374899	2529.477080
626.721647	2530.601258
627.068343	2531.422966
627.414987	2530.848274
627.761577	2530.903727
628.108115	2527.470701
628.454600	2526.490197
628.801032	2530.477749
629.147412	2529.918181
629.493739	2531.919519
629.840014	2530.795342
630.186236	2526.699404
630.532405	2530.019004
630.878521	2531.254087
631.224585	2529.809796
631.570597	2530.177801
631.916556	2529.653521
632.262462	2529.265352
632.608316	2528.957841
632.954117	2528.103366
633.299866	2529.303160
633.645562	2528.894827
633.991206	2528.373068
634.336797	2526.974147
634.682336	2527.011956
635.027823	2528.032790
635.373257	2525.986081
635.718639	2526.409538
636.063968	2527.294261
636.409245	2525.499610
636.754470	2528.806607
637.099642	2527.195958
637.444762	2527.775691
637.789829	2526.255783
638.134845	2526.152439
638.479808	2526.651513
638.824719	2524.912315
639.169577	2528.156298
639.514383	2528.015146
639.859137	2525.718900
640.203839	2527.538757
640.548489	2526.003725
640.893086	2524.995494
641.237632	2523.281502
641.582125	2523.296626
641.926566	2521.968282
642.270955	2524.617408
642.615292	2526.336441
642.959576	2525.819723
643.303809	2527.359796
643.647990	2527.344672
643.992118	2527.042203
644.336195	2527.132944
644.680219	2527.178314
645.024192	2525.857532
645.368112	2526.480114
645.711981	2526.908612
646.055797	2524.851822
646.399562	2526.210412
646.743274	2526.119672
647.086935	2528.161339
647.430544	2526.086904
647.774101	2525.807120
648.117606	2524.665299
648.461059	2528.090763
648.804460	2530.999509
649.147810	2526.384332
649.491108	2528.357944
649.834354	2525.875176
650.177548	2527.977337
650.520690	2525.335772
650.863781	2527.165711
651.206820	2526.641431
651.549807	2524.864424
651.892742	2525.411390
652.235626	2527.382481
652.578458	2526.278468
652.921238	2523.468025
653.263967	2525.635721
653.606644	2524.798889
653.949269	2523.321831
654.291843	2525.071112
654.634365	2524.889630
654.976836	2525.494569
655.319255	2526.626308
655.661622	2525.938190
656.003938	2525.328211
656.346203	2524.226718
656.688416	2526.727131
657.030577	2522.195133
657.372687	2524.057840
657.714746	2522.986595
658.056753	2525.257634
658.398708	2520.481141
658.740612	2523.757891
659.082465	2520.639938
659.424266	2521.539783
659.766016	2517.577437
660.107715	2525.696215
660.449362	2525.393746
660.790958	2522.288395
661.132503	2524.572038
661.473996	2524.483817
661.815438	2523.142870
662.156829	2525.950793
662.498168	2527.563962
662.839456	2525.081194
663.180693	2523.289064
663.521879	2525.673530
663.863013	2522.386697
664.204097	2521.501975
664.545129	2523.856194
664.886110	2523.997346
665.227040	2522.306039
665.567918	2525.610515
665.908746	2525.091276
666.249522	2526.434744
666.590248	2525.124044
666.930922	2526.530526
667.271545	2526.943900
667.612118	2523.888961
667.952639	2523.427696
668.293109	2525.529857
668.633528	2522.648837
668.973896	2521.305370
669.314213	2523.503313
669.654480	2523.765453
669.994695	2520.763446
670.334859	2525.943231
670.674973	2525.804600
671.015035	2523.752850
671.355047	2523.296626
671.695008	2526.371729
672.034918	2522.953827
672.374777	2524.319980
672.714585	2525.489528
673.054342	2526.283509
673.394049	2523.233611
673.733705	2525.083715
674.073310	2524.037675
674.412864	2524.844260
674.752368	2521.932993
675.091820	2525.239990
675.431223	2522.923580
675.770574	2523.568848
676.109875	2515.934020
676.449125	2521.963240
676.788324	2519.084742
677.127473	2524.148581
677.466571	2519.067098
677.805619	2523.924249
678.144616	2524.667819
678.483562	2522.845442
678.822458	2520.516429
679.161303	2522.283354
679.500098	2524.849301
679.838842	2521.963240
680.177535	2523.767973
680.516179	2522.686646
680.854771	2520.287057
681.193314	2523.120185
681.531805	2523.982222
681.870247	2527.374919
682.208638	2524.619928
682.546978	2525.146729
682.885268	2523.515916
683.223508	2526.185207
683.561697	2524.312418
683.899836	2524.284692
684.237925	2525.257634
684.575963	2523.846111
684.913951	2523.735206
685.251889	2523.329393
685.589776	2524.070443
685.927614	2522.540453
686.265401	2522.255627
686.603137	2521.020545
686.940824	2522.540452
687.278460	2525.068591
687.616046	2523.150432
687.953582	2522.855525
688.291068	2523.931811
688.628504	2522.989115
688.965889	2522.764784
689.303224	2524.972809
689.640510	2524.607326
689.977745	2520.108096
690.314930	2523.957017
690.652065	2522.127078
690.989150	2522.444671
691.326185	2523.059691
691.663170	2521.529701
692.000105	2521.663292
692.336990	2520.254289
692.673825	2520.387880
693.010610	2522.026255
693.347345	2515.228259
693.684030	2518.464680
694.020665	2516.533918
694.357251	2516.750687
694.693786	2518.711696
695.030272	2517.181706
695.366707	2520.024917
695.703093	2518.658764
696.039429	2518.651202
696.375716	2521.464166
696.711952	2522.122037
697.048139	2518.399145
697.384276	2519.684639
697.720363	2517.554751
698.056400	2519.861079
698.392388	2522.439629
698.728326	2517.869823
699.064214	2519.409896
699.400053	2519.321676
699.735842	2521.033147
700.071581	2520.977695
700.407270	2518.515091
700.742910	2520.818898
701.078501	2517.302694
701.414042	2517.060718
701.749533	2518.116840
702.084974	2521.726306
702.420366	2517.922756
702.755709	2521.028106
703.091002	2515.462673
703.426246	2517.978208
703.761440	2518.321007
704.096584	2519.583816
704.431679	2519.301511
704.766725	2519.936697
705.101721	2516.896881
705.436668	2517.164062
705.771565	2516.390245
706.106413	2518.280677
706.441212	2516.203722
706.775961	2518.038702
707.110661	2518.114319
707.445311	2520.234125
707.779913	2518.646161
708.114465	2517.635410
708.448967	2519.291429
708.783421	2517.176665
709.117825	2518.464680
709.452180	2517.554751
709.786485	2516.937210
710.120742	2520.004752
710.454949	2519.369567
710.789107	2515.676922
711.123216	2516.019720
711.457275	2518.179854
711.791286	2518.608352
712.125247	2516.808661
712.459159	2520.551717
712.793023	2521.398631
713.126837	2518.421830
713.460602	2521.073477
713.794318	2518.956192
714.127985	2520.531553
714.461602	2519.508198
714.795171	2520.488703
715.128691	2517.000224
715.462162	2519.291429
715.795584	2521.736388
716.128957	2516.541479
716.462281	2518.421830
716.795556	2516.773372
717.128782	2517.837056
717.461960	2518.532735
717.795088	2515.566016
718.128167	2517.295132
718.461198	2517.605163
718.794180	2517.032992
719.127113	2516.097858
719.459997	2515.785306
719.792833	2514.766993
720.125619	2518.517612
720.458357	2515.016530
720.791046	2517.327899
721.123686	2519.369567
721.456278	2519.293949
721.788821	2514.091479
722.121315	2516.624658
722.453761	2516.596932
722.786158	2515.157683
723.118506	2516.798578
723.450805	2515.248423
723.783056	2514.988804
724.115259	2514.913187
724.447412	2515.545852
724.779518	2518.636079
725.111574	2515.492919
725.443582	2514.953516
725.775542	2515.581140
726.107453	2516.518794
726.439315	2516.450739
726.771129	2519.125071
727.102895	2514.958557
727.434612	2516.125584
727.766281	2514.741788
728.097901	2515.893691
728.429473	2514.119205
728.760996	2515.976870
729.092471	2513.166427
729.423897	2520.266892
729.755276	2516.175996
730.086606	2517.761439
730.417887	2516.491068
730.749120	2517.756398
731.080305	2519.349402
731.411442	2520.385359
731.742530	2516.791017
732.073570	2517.877385
732.404562	2518.757067
732.735506	2519.813188
733.066401	2518.086593
733.397249	2517.645492
733.728048	2516.281860
734.058798	2516.347395
734.389501	2515.805471
734.720156	2515.976870
735.050762	2515.341685
735.381320	2515.039216
735.711831	2513.065604
736.042293	2519.412417
736.372707	2515.228259
736.703073	2517.711027
737.033391	2514.459483
737.363661	2515.618948
737.693883	2515.455111
738.024056	2519.485513
738.354182	2514.633403
738.684260	2519.041892
739.014290	2514.202384
739.344272	2517.103568
739.674207	2517.315297
740.004093	2519.344361
740.333931	2516.894360
740.663722	2516.319669
740.993464	2515.805471
741.323159	2515.041736
741.652806	2518.807478
741.982405	2517.186747
742.311956	2515.281191
742.641460	2516.453259
742.970915	2514.121726
743.300323	2516.642303
743.629683	2515.089627
743.958996	2518.416789
744.288260	2515.518125
744.617477	2513.516787
744.946647	2511.449914
745.275768	2514.300687
745.604842	2509.972856
745.933869	2513.471417
746.262847	2511.734739
746.591778	2516.201202
746.920662	2513.209277
747.249498	2515.097189
747.578286	2516.511233
747.907027	2515.351767
748.235720	2514.935872
748.564365	2515.089627
748.892963	2514.313289
749.221514	2516.634741
749.550017	2513.199194
749.878473	2514.784637
750.206881	2515.324041
750.535242	2512.904287
750.863555	2517.106089
751.191821	2515.641633
751.520039	2516.004597
751.848210	2517.562313
752.176334	2514.225069
752.504411	2514.338495
752.832440	2515.026613
753.160421	2514.295645
753.488356	2513.473937
753.816243	2513.920079
754.144082	2513.332785
754.471875	2512.657270
754.799620	2511.712054
755.127318	2511.356653
755.454969	2513.625172
755.782572	2515.742457
756.110129	2514.804802
756.437638	2513.685666
756.765100	2515.566016
757.092515	2513.355470
757.419882	2512.974863
757.747203	2511.132321
758.074477	2516.087776
758.401703	2514.638444
758.728882	2514.083917
759.056014	2513.935203
759.383099	2514.199863
759.710138	2515.008969
760.037129	2514.905625
760.364073	2513.635254
760.690970	2515.442508
761.017820	2514.293125
761.344623	2514.416633
761.671379	2513.156345
761.998088	2510.045953
762.324751	2511.946468
762.651366	2513.534431
762.977935	2517.090965
763.304456	2515.092148
763.630931	2521.932993
763.957359	2519.966943
764.283740	2517.837056
764.610074	2519.336799
764.936362	2517.035513
765.262602	2513.277332
765.588796	2518.615914
765.914943	2514.126767
766.241044	2514.688855
766.567097	2512.863958
766.893104	2512.896725
767.219064	2510.134173
767.544978	2515.500481
767.870845	2511.659122
768.196665	2515.437467
768.522438	2512.299348
768.848165	2517.227076
769.173846	2511.691889
769.499479	2512.823628
769.825066	2511.281035
770.150607	2511.626354
770.476101	2513.594925
770.801548	2513.922600
771.126949	2514.509894
771.452303	2512.306910
771.777611	2512.183402
772.102872	2513.204236
772.428087	2510.749194
772.753256	2510.292969
773.078378	2512.647188
773.403453	2510.539986
773.728482	2511.139883
774.053465	2512.294307
774.378401	2512.054852
774.703291	2511.649040
775.028135	2509.267094
775.352932	2515.586181
775.677683	2513.720954
776.002388	2511.777589
776.327046	2511.517970
776.651658	2511.800274
776.976224	2510.305572
777.300743	2512.465707
777.625216	2509.819101
777.949643	2513.126098
778.274024	2513.504184
778.598359	2509.141066
778.922647	2507.333812
779.246889	2510.671056
779.571086	2509.385562
779.895236	2510.887825
780.219339	2513.884791
780.543397	2510.718947
780.867409	2509.355315
781.191374	2511.961591
781.515294	2512.710202
781.839167	2512.400172
782.162995	2513.995697
782.486776	2512.130470
782.810511	2513.836900
783.134201	2511.911180
783.457844	2513.292456
783.781441	2510.862620
784.104993	2508.019409
784.428498	2510.827332
784.751958	2511.603669
785.075372	2513.017713
785.398739	2509.163751
785.722061	2512.710203
786.045337	2510.393792
786.368568	2512.289266
786.691752	2512.019564
787.014891	2512.611900
787.337983	2512.069976
787.661030	2510.718947
787.984031	2511.497805
788.306987	2511.989318
788.629897	2508.881446
788.952760	2509.854389
789.275579	2508.485716
789.598351	2513.312620
789.921078	2515.928979
790.243759	2513.799092
790.566395	2512.296828
790.888984	2511.160048
791.211529	2508.216014
791.534027	2513.080727
791.856480	2513.529390
792.178888	2512.932013
792.501249	2512.521159
792.823566	2510.734070
793.145836	2508.662156
793.468062	2511.195336
793.790241	2509.577125
794.112375	2511.391941
794.434464	2510.305572
794.756507	2512.536283
795.078505	2513.705830
795.400457	2510.459327
795.722364	2510.290449
796.044226	2508.876405
796.366042	2507.258195
796.687812	2512.687517
797.009538	2510.237517
797.331218	2512.299348
797.652852	2509.972856
797.974442	2510.192146
798.295986	2508.147958
798.617484	2511.470079
798.938938	2511.754904
799.260346	2511.263391
799.581709	2512.264060
799.903026	2510.340860
800.224299	2510.539986
800.545526	2511.160048
800.866708	2510.512259
801.187845	2511.243227
801.508936	2508.707526
801.829983	2511.331447
802.150984	2513.494102
802.471940	2511.197856
802.792851	2510.300531
803.113717	2512.122908
803.434538	2509.753566
803.755314	2509.947650
804.076045	2512.269102
804.396731	2512.788340
804.717372	2511.107116
805.037967	2508.926817
805.358518	2508.878926
805.679024	2510.746673
805.999485	2509.420850
806.319901	2512.581653
806.640272	2511.268433
806.960598	2511.298679
807.280879	2511.303721
807.601115	2506.159223
807.921306	2512.148114
808.241453	2509.463699
808.561554	2507.986641
808.881611	2509.337671
809.201623	2512.246416
809.521590	2509.904800
809.841513	2508.586539
810.161390	2510.177023
810.481223	2510.638288
810.801011	2509.899759
811.120755	2509.672907
811.440453	2509.748525
811.760107	2509.829183
812.079716	2505.428256
812.399281	2505.597134
812.718801	2509.493946
813.038276	2506.688544
813.357707	2511.308762
813.677093	2512.417816
813.996434	2511.434791
814.315731	2506.277690
814.634983	2512.579133
814.954191	2508.077382
815.273354	2509.441014
815.592473	2509.367917
815.911547	2512.755573
816.230577	2508.563853
816.549562	2511.752383
816.868502	2511.039060
817.187399	2509.982938
817.506250	2511.470079
817.825058	2510.114008
818.143821	2510.983607
818.462539	2510.078720
818.781213	2508.911693
819.099843	2511.160048
819.418429	2510.366066
819.736970	2510.920593
820.055466	2511.341529
820.373919	2513.670542
820.692327	2517.143897
821.010691	2519.248579
821.329011	2522.936183
821.647286	2528.486493
821.965517	2535.972607
822.283704	2538.208359
822.601847	2540.277752
822.919945	2535.836496
823.237999	2532.862215
823.556010	2530.457585
823.873976	2526.956503
824.191897	2523.820906
824.509775	2520.713034
824.827609	2518.416789
825.145398	2517.857221
825.463144	2518.242869
825.780845	2517.741274
826.098502	2519.528363
826.416116	2516.498630
826.733685	2519.878723
827.051210	2522.860566
827.368692	2519.561131
827.686129	2519.198167
828.003522	2518.638599
828.320872	2511.623834
828.638177	2513.257168
828.955439	2511.797754
829.272656	2510.638288
829.589830	2506.370952
829.906960	2511.200377
830.224046	2509.836745
830.541088	2512.173320
830.858086	2508.984790
831.175041	2511.470079
831.491952	2509.067969
831.808819	2510.343381
832.125642	2509.773730
832.442421	2511.633916
832.759157	2512.753052
833.075849	2513.093330
833.392497	2514.925790
833.709101	2516.528877
834.025662	2513.957888
834.342179	2514.746829
834.658653	2512.042250
834.975083	2512.861437
835.291469	2518.285719
835.607811	2512.735408
835.924110	2512.017044
836.240366	2513.032836
836.556578	2508.911693
836.872746	2511.414626
837.188871	2512.138032
837.504952	2508.760458
837.820990	2509.171313
838.136984	2506.794408
838.452935	2506.844820
838.768842	2508.536127
839.084706	2509.932527
839.400526	2510.615603
839.716303	2513.050480
840.032037	2512.553927
840.347727	2508.538648
840.663373	2511.840603
840.978977	2511.908659
841.294537	2510.507218
841.610054	2512.092661
841.925527	2510.240037
842.240957	2508.967146
842.556344	2510.789523
842.871687	2509.544358
843.186987	2511.200377
843.502244	2508.788185
843.817458	2510.315654
844.132629	2507.951353
844.447756	2508.538648
844.762840	2502.459016
845.077881	2507.081754
845.392879	2504.132679
845.707833	2504.551095
846.022745	2505.496311
846.337613	2511.719616
846.652438	2508.016888
846.967221	2508.710047
847.281960	2506.794408
847.596656	2508.936899
847.911309	2510.454286
848.225919	2507.013699
848.540485	2509.123422
848.855009	2505.135869
849.169490	2505.929851
849.483928	2508.047135
849.798323	2503.084119
850.112675	2508.810870
850.426984	2507.575787
850.741251	2506.859943
851.055474	2507.296003
851.369654	2509.125942
851.683792	2507.643843
851.997887	2507.386744
852.311938	2509.214162
852.625947	2506.940602
852.939914	2507.280880
853.253837	2510.585356
853.567718	2507.558143
853.881555	2508.289111
854.195350	2503.885663
854.509103	2508.037053
854.822812	2507.117042
855.136479	2508.974708
855.450103	2506.975890
855.763685	2505.433297
856.077224	2506.824655
856.390720	2507.865654
856.704173	2508.846158
857.017584	2506.943122
857.330953	2506.217196
857.644278	2506.930520
857.957561	2511.001251
858.270802	2507.487567
858.584000	2508.621827
858.897155	2506.769203
859.210268	2506.146620
859.523339	2509.236847
859.836367	2507.848010
860.149352	2510.676097
860.462295	2508.742814
860.775195	2504.178050
861.088054	2504.137720
861.400869	2504.132679
861.713642	2503.535303
862.026373	2505.027484
862.339062	2507.280880
862.651708	2506.885149
862.964312	2506.998575
863.276873	2506.101250
863.589392	2507.459841
863.901869	2505.294665
864.214303	2509.234327
864.526696	2507.787516
864.839045	2509.819101
865.151353	2508.634430
865.463619	2507.709378
865.775842	2506.781806
866.088023	2506.985972
866.400162	2506.481857
866.712258	2505.735766
867.024313	2507.810201
867.336325	2507.192660
867.648296	2510.383710
867.960224	2506.078565
868.272110	2506.514624
868.583954	2508.400016
868.895755	2507.628719
869.207515	2508.541168
869.519233	2506.655777
869.830909	2506.809532
870.142542	2508.952022
870.454134	2507.142248
870.765684	2506.930520
871.077191	2505.087978
871.388657	2508.589059
871.700081	2507.069151
872.011463	2507.278359
872.322803	2510.295490
872.634101	2508.052176
872.945357	2503.820128
873.256571	2510.814729
873.567744	2508.021929
873.878874	2508.752897
874.189963	2508.957063
874.501010	2506.421363
874.812015	2508.636950
875.122979	2510.613082
875.433900	2507.043946
875.744780	2506.751559
876.055618	2507.626199
876.366415	2509.919924
876.677169	2505.829028
876.987882	2504.543533
877.298554	2502.396002
877.609183	2506.134017
877.919771	2503.273163
878.230317	2505.977742
878.540822	2510.290449
878.851285	2507.704337
879.161707	2508.616786
879.472087	2510.358504
879.782425	2510.681138
880.092722	2512.359842
880.402977	2511.971673
880.713191	2517.191788
881.023363	2519.782941
881.333494	2520.327386
881.643583	2522.361492
881.953631	2521.128929
882.263637	2518.809999
882.573602	2518.131963
882.883526	2516.758249
883.193408	2515.089627
883.503248	2516.977539
883.813048	2514.761952
884.122806	2511.969153
884.432522	2512.478309
884.742197	2509.269615
885.051831	2510.083761
885.361424	2510.416477
885.670975	2509.768689
885.980485	2507.467403
886.289954	2509.357835
886.599382	2507.628719
886.908768	2508.641991
887.218113	2507.888339
887.527417	2505.118225
887.836680	2505.556805
888.145901	2507.487567
888.455082	2507.936230
888.764221	2507.752228
889.073319	2504.893893
889.382376	2506.103770
889.691392	2508.231137
890.000366	2507.832886
890.309300	2507.308606
890.618193	2507.721981
890.927044	2504.979593
891.235855	2508.752897
891.544625	2507.432114
891.853353	2508.044615
892.162041	2506.572598
892.470687	2509.516632
892.779293	2505.332474
893.087858	2507.046466
893.396381	2504.432628
893.704864	2508.578977
894.013306	2503.318533
894.321707	2510.837414
894.630068	2509.390603
894.938387	2511.258350
895.246665	2510.862620
895.554903	2510.214831
895.863100	2509.050325
896.171256	2508.914214
896.479371	2509.173833
896.787446	2509.793895
897.095480	2509.052845
897.403473	2506.678462
897.711425	2507.495129
898.019336	2507.714419
898.327207	2506.736435
898.635038	2512.022085
898.942827	2506.398678
899.250576	2507.739625
899.558284	2508.296672
899.865952	2507.525376
900.173579	2504.750221
900.481165	2507.686693
900.788711	2504.679644
901.096216	2506.060921
901.403681	2506.224758
901.711105	2508.941940
902.018489	2508.820952
902.325832	2511.631396
902.633135	2507.490088
902.940397	2505.899604
903.247619	2505.294665
903.554800	2506.807011
903.861941	2509.907321
904.169041	2510.262722
904.476101	2512.183402
904.783121	2511.555778
905.090100	2507.658966
905.397039	2509.435973
905.703938	2509.622496
906.010796	2510.050994
906.317614	2508.362207
906.624391	2508.208452
906.931129	2508.231137
907.237826	2509.143586
907.544483	2508.853720
907.851099	2508.815911
908.157675	2507.918586
908.464211	2506.136538
908.770707	2501.266783
909.077163	2504.558657
909.383578	2501.672596
909.689954	2505.980262
909.996289	2501.717967
910.302584	2506.554954
910.608839	2506.229799
910.915054	2507.714419
911.221229	2505.985303
911.527363	2506.733915
911.833458	2506.096209
912.139513	2506.491939
912.445527	2506.217196
912.751502	2507.956394
913.057436	2508.347084
913.363331	2504.533451
913.669186	2508.599142
913.975000	2508.145438
914.280775	2505.534120
914.586510	2507.424553
914.892205	2506.441528
915.197859	2508.014368
915.503475	2508.531086
915.809050	2509.146107
916.114585	2509.050325
916.420081	2511.023937
916.725536	2511.797754
917.030952	2511.691889
917.336328	2509.020078
917.641665	2511.339009
917.946961	2507.706857
918.252218	2505.569408
918.557435	2508.755417
918.862612	2507.815242
919.167750	2506.570077
919.472848	2504.001609
919.777906	2509.138545
920.082925	2503.729387
920.387904	2507.401867
920.692843	2506.738956
920.997743	2506.892711
921.302603	2505.851713
921.607423	2506.224758
921.912204	2506.597803
922.216946	2506.615447
922.521647	2508.833555
922.826310	2503.459685
923.130932	2504.483039
923.435516	2508.326919
923.740059	2505.781137
924.044564	2505.042608
924.349028	2506.154182
924.653454	2501.801146
924.957840	2503.797442
925.262186	2502.476660
925.566493	2503.056393
925.870761	2502.416166
926.174989	2508.488236
926.479178	2504.851044
926.783328	2505.158554
927.087438	2505.516476
927.391509	2505.997906
927.695541	2504.276352
927.999533	2506.514624
928.303486	2504.147803
928.607400	2508.062259
928.911275	2503.923471
929.215110	2502.154026
929.518906	2505.350118
929.822663	2503.749552
930.126381	2505.077896
930.430060	2506.015550
930.733699	2502.640498
931.037299	2505.871877
931.340861	2503.938595
931.644383	2505.251815
931.947866	2505.481188
932.251309	2505.977742
932.554714	2505.302227
932.858080	2506.348266
933.161407	2503.769716
933.464694	2503.890704
933.767943	2506.433966
934.071153	2503.348780
934.374323	2502.348111
934.677455	2504.162926
934.980548	2504.742659
935.283602	2503.467247
935.586617	2506.154182
935.889593	2503.792401
936.192530	2502.549757
936.495428	2506.812053
936.798287	2503.270642
937.101108	2505.488750
937.403890	2502.816938
937.706632	2505.531599
938.009336	2505.907165
938.312002	2503.966321
938.614628	2506.625530
938.917216	2506.121414
939.219765	2506.406240
939.522275	2506.305417
939.824747	2506.164264
940.127179	2502.963132
940.429573	2503.477329
940.731929	2501.851557
941.034246	2499.625888
941.336524	2500.918944
941.638763	2502.481701
941.940964	2505.710560
942.243126	2505.332474
942.545250	2506.807011
942.847335	2503.255518
943.149381	2506.081085
943.451389	2506.302896
943.753359	2502.917761
944.055290	2507.084275
944.357182	2502.653101
944.659036	2505.211486
944.960851	2503.331136
945.262628	2505.937412
945.564367	2506.509583
945.866067	2503.003461
946.167729	2504.805673
946.469352	2506.857423
946.770937	2504.707371
947.072484	2504.571260
947.373992	2507.507732
947.675462	2504.445231
947.976893	2504.528410
948.278286	2503.663852
948.579641	2504.883811
948.880958	2505.042608
949.182236	2504.858605
949.483476	2507.530417
949.784678	2508.021929
950.085841	2505.060252
950.386967	2503.275683
950.688054	2504.334325
950.989103	2503.709222
951.290114	2505.650067
951.591087	2505.849192
951.892021	2504.684686
952.192917	2504.593945
952.493776	2503.588235
952.794596	2504.583863
953.095378	2505.463544
953.396122	2505.140910
953.696828	2503.868019
953.997496	2506.945643
954.298126	2504.662000
954.598718	2502.249808
954.899272	2504.336846
955.199788	2505.967659
955.500266	2505.871877
955.800706	2502.670745
956.101108	2498.980620
956.401472	2502.968173
956.701798	2498.809221
957.002087	2499.308295
957.302337	2505.249295
957.602550	2506.199552
957.902724	2508.089985
958.202861	2503.590755
958.502960	2505.118225
958.803022	2504.765344
959.103045	2504.548574
959.403031	2501.944818
959.702979	2505.239212
960.002889	2506.905314
960.302762	2503.563029
960.602596	2501.667555
960.902393	2505.156033
961.202153	2502.327946
961.501875	2502.814418
961.801559	2504.682165
962.101205	2501.811228
962.400814	2505.234171
962.700385	2505.145951
962.999918	2505.216527
963.299414	2503.482370
963.598873	2505.090498
963.898293	2502.385919
964.197677	2505.418173
964.497022	2502.499345
964.796331	2503.361383
965.095601	2505.571929
965.394835	2504.402381
965.694030	2502.771568
965.993189	2504.054541
966.292309	2501.808707
966.591393	2502.300220
966.890439	2502.872391
967.189447	2504.286434
967.488419	2504.324243
967.787353	2506.592762
968.086249	2503.162257
968.385108	2503.300889
968.683930	2504.200735
968.982714	2507.706857
969.281462	2501.138234
969.580172	2503.066475
969.878844	2500.757627
970.177480	2505.271980
970.476078	2504.281393
970.774639	2505.130828
971.073162	2500.790394
971.371649	2501.135713
971.670098	2500.752586
971.968510	2501.004643
972.266885	2498.315188
972.565223	2502.786691
972.863524	2502.542195
973.161788	2505.304747
973.460014	2501.987668
973.758204	2503.807525
974.056356	2504.276352
974.354471	2505.438338
974.652550	2502.529592
974.950591	2506.733915
975.248595	2503.278204
975.546563	2502.728718
975.844493	2503.487412
976.142386	2502.494304
976.440243	2505.113184
976.738062	2505.256857
977.035845	2501.289468
977.333590	2503.081599
977.631299	2503.270642
977.928971	2503.900786
978.226606	2501.453306
978.524204	2502.915241
978.821765	2505.355159
979.119290	2506.484377
979.416777	2504.601507
979.714228	2504.397340
980.011642	2502.496825
980.309020	2505.110663
980.606360	2500.810559
980.903664	2501.508759
981.200931	2500.888697
981.498162	2503.605879
981.795356	2501.619664
982.092513	2503.217710
982.389633	2504.520848
982.686717	2502.224603
982.983764	2502.806856
983.280775	2504.883811
983.577749	2502.186794
983.874686	2501.602020
984.171587	2503.563029
984.468451	2504.924140
984.765279	2501.405415
985.062070	2504.241064
985.358824	2504.241064
985.655543	2502.958090
985.952224	2503.152175
986.248869	2504.001609
986.545478	2500.412308
986.842050	2501.531444
987.138586	2501.594458
987.435086	2500.896258
987.731549	2500.334170
988.027975	2504.498163
988.324366	2504.793070
988.620719	2501.501197
988.917037	2503.565549
989.213318	2504.697288
989.509563	2501.105466
989.805772	2503.527741
990.101944	2502.617812
990.398080	2505.140910
990.694180	2502.675786
990.990244	2501.879283
991.286271	2504.848523
991.582262	2500.137565
991.878217	2503.197545
992.174136	2504.364572
992.470019	2504.772906
992.765865	2502.516989
993.061676	2501.370127
993.357450	2503.489932
993.653188	2501.508759
993.948890	2503.260560
994.244556	2503.217710
994.540186	2504.011692
994.835780	2504.541013
995.131337	2503.429438
995.426859	2502.675786
995.722345	2500.699653
996.017795	2503.772237
996.313208	2503.298368
996.608586	2500.404746
996.903928	2500.273676
997.199234	2503.431959
997.494504	2505.198883
997.789738	2503.810045
998.084936	2502.950529
998.380099	2504.291476
998.675225	2503.961280
998.970316	2501.695281
999.265371	2503.154695
999.560390	2503.754593
999.855373	2503.258039
1000.150320	2502.554798
1000.445232	2504.006650
1000.740108	2501.546567
1001.034948	2504.029336
1001.329752	2499.953563
1001.624521	2504.425066
1001.919254	2499.383912
1002.213951	2500.901300
1002.508613	2498.113542
1002.803239	2499.139416
1003.097829	2497.017091
1003.392384	2501.733090
1003.686903	2503.066475
1003.981386	2503.694099
1004.275834	2500.813079
1004.570246	2504.261229
1004.864623	2500.876094
1005.158964	2500.286279
1005.453270	2499.817452
1005.747540	2503.116887
1006.041775	2503.003461
1006.335974	2503.159737
1006.630138	2502.388440
1006.924266	2501.208810
1007.218359	2503.126969
1007.512416	2502.658142
1007.806438	2501.022287
1008.100425	2501.102946
1008.394376	2503.888183
1008.688292	2504.001609
1008.982172	2502.968173
1009.276017	2505.314830
1009.569827	2502.900117
1009.863602	2502.665703
1010.157341	2502.292658
1010.451045	2501.685199
1010.744714	2500.233347
1011.038347	2501.178563
1011.331945	2503.068996
1011.625508	2504.009171
1011.919036	2497.319560
1012.212528	2502.900117
1012.505986	2500.543378
1012.799408	2501.465909
1013.092795	2500.939108
1013.386147	2502.711074
1013.679464	2502.300220
1013.972745	2503.555467
1014.265992	2501.944818
1014.559204	2503.560508
1014.852380	2503.074037
1015.145521	2501.970024
1015.438628	2501.314674
1015.731699	2502.474140
1016.024736	2503.328615
1016.317737	2502.867350
1016.610703	2502.093532
1016.903635	2496.979282
1017.196531	2496.512975
1017.489393	2500.780312
1017.782219	2496.281082
1018.075011	2500.694612
1018.367768	2501.901969
1018.660490	2501.806187
1018.953177	2501.806187
1019.245829	2501.806187
