Dividing Wavelength (nm)	Counts (n)	Blue Motor Position (mm): 0.000000	Red Motor Position (mm): 0.600000	
326.493990	2117.284615
326.888308	2117.284615
327.282561	2117.284615
327.676750	2094.599423
328.070874	2013.940962
328.464933	2066.873077
328.858929	2046.708462
329.252859	2069.393654
329.646726	2089.558269
330.040528	2099.640577
330.434265	2208.025385
330.827938	2081.996538
331.221547	2122.325769
331.615091	2213.066538
332.008571	2253.395769
332.401986	2223.148846
332.795338	2195.422500
333.188625	2215.587115
333.581847	2271.039808
333.975006	2240.792885
334.368100	2291.204423
334.761129	2341.615962
335.154095	2245.834038
335.546996	2298.766154
335.939833	2364.301154
336.332606	2419.753846
336.725315	2379.424615
337.117960	2402.109808
337.510540	2288.683846
337.903056	2432.356731
338.295508	2394.548077
338.687896	2434.877308
339.080220	2505.453462
339.472480	2429.836154
339.864676	2500.412308
340.256807	2442.439038
340.648875	2386.986346
341.040879	2467.644808
341.432818	2525.618077
341.824694	2434.877308
342.216506	2520.576923
342.608253	2513.015192
342.999937	2422.274423
343.391557	2538.220962
343.783113	2502.932885
344.174605	2434.877308
344.566033	2530.659231
344.957397	2409.671538
345.348697	2477.727115
345.739934	2550.823846
346.131106	2518.056346
346.522215	2475.206538
346.913260	2480.247692
347.304241	2462.603654
347.695159	2460.083077
348.086012	2452.521346
348.476802	2482.768269
348.867528	2510.494615
349.258191	2429.836154
349.648789	2409.671538
350.039324	2450.000769
350.429796	2465.124231
350.820203	2439.918462
351.210548	2359.260000
351.600828	2480.247692
351.991045	2409.671538
352.381198	2397.068654
352.771288	2480.247692
353.161314	2399.589231
353.551276	2505.453462
353.941175	2455.041923
354.331010	2457.562500
354.720782	2389.506923
355.110490	2444.959615
355.500135	2437.397885
355.889717	2422.274423
356.279235	2513.015192
356.668689	2404.630385
357.058080	2457.562500
357.447408	2397.068654
357.836672	2475.206538
358.225873	2505.453462
358.615010	2467.644808
359.004084	2392.027500
359.393095	2457.562500
359.782043	2407.150962
360.170927	2472.685962
360.559748	2356.739423
360.948505	2399.589231
361.337199	2437.397885
361.725830	2538.220962
362.114398	2444.959615
362.502903	2432.356731
362.891344	2500.412308
363.279722	2381.945192
363.668037	2336.574808
364.056289	2538.220962
364.444478	2424.795000
364.832603	2460.083077
365.220665	2455.041923
365.608665	2543.262115
365.996601	2452.521346
366.384474	2518.056346
366.772284	2434.877308
367.160031	2467.644808
367.547715	2460.083077
367.935336	2505.453462
368.322893	2457.562500
368.710388	2477.727115
369.097820	2467.644808
369.485189	2500.412308
369.872495	2381.945192
370.259738	2507.974038
370.646918	2492.850577
371.034035	2422.274423
371.421090	2460.083077
371.808081	2470.165385
372.195010	2502.932885
372.581875	2450.000769
372.968678	2369.342308
373.355418	2369.342308
373.742096	2444.959615
374.128710	2510.494615
374.515262	2394.548077
374.901751	2444.959615
375.288177	2530.659231
375.674540	2432.356731
376.060841	2480.247692
376.447079	2487.809423
376.833254	2477.727115
377.219367	2470.165385
377.605417	2525.618077
377.991404	2450.000769
378.377329	2482.768269
378.763191	2437.397885
379.148991	2475.206538
379.534727	2447.480192
379.920402	2490.330000
380.306013	2505.453462
380.691563	2487.809423
381.077049	2518.056346
381.462474	2497.891731
381.847835	2444.959615
382.233134	2462.603654
382.618371	2507.974038
383.003545	2452.521346
383.388657	2467.644808
383.773706	2376.904038
384.158693	2470.165385
384.543618	2502.932885
384.928480	2450.000769
385.313280	2472.685962
385.698017	2467.644808
386.082692	2444.959615
386.467305	2450.000769
386.851856	2354.218846
387.236344	2414.712692
387.620770	2472.685962
388.005133	2402.109808
388.389435	2480.247692
388.773674	2507.974038
389.157851	2427.315577
389.541965	2470.165385
389.926018	2394.548077
390.310008	2455.041923
390.693936	2452.521346
391.077802	2487.809423
391.461606	2490.330000
391.845348	2422.274423
392.229027	2457.562500
392.612645	2465.124231
392.996200	2422.274423
393.379694	2470.165385
393.763125	2505.453462
394.146494	2412.192115
394.529801	2543.262115
394.913047	2535.700385
395.296230	2394.548077
395.679351	2487.809423
396.062410	2455.041923
396.445408	2450.000769
396.828343	2412.192115
397.211217	2492.850577
397.594028	2502.932885
397.976778	2548.303269
398.359466	2555.865000
398.742092	2455.041923
399.124656	2485.288846
399.507158	2424.795000
399.889598	2533.179808
400.271977	2518.056346
400.654294	2558.385577
401.036549	2492.850577
401.418742	2528.138654
401.800874	2439.918462
402.182944	2417.233269
402.564952	2467.644808
402.946898	2414.712692
403.328783	2467.644808
403.710606	2429.836154
404.092367	2502.932885
404.474067	2447.480192
404.855705	2392.027500
405.237282	2543.262115
405.618797	2429.836154
406.000250	2374.383462
406.381642	2543.262115
406.762972	2500.412308
407.144240	2490.330000
407.525447	2414.712692
407.906593	2407.150962
408.287677	2460.083077
408.668700	2465.124231
409.049661	2455.041923
409.430560	2497.891731
409.811399	2507.974038
410.192176	2450.000769
410.572891	2513.015192
410.953545	2417.233269
411.334138	2442.439038
411.714669	2518.056346
412.095139	2490.330000
412.475547	2419.753846
412.855894	2497.891731
413.236180	2455.041923
413.616405	2487.809423
413.996568	2480.247692
414.376670	2520.576923
414.756711	2538.220962
415.136691	2407.150962
415.516609	2462.603654
415.896466	2500.412308
416.276262	2500.412308
416.655997	2467.644808
417.035670	2467.644808
417.415283	2465.124231
417.794834	2470.165385
418.174324	2394.548077
418.553753	2452.521346
418.933121	2442.439038
419.312428	2407.150962
419.691674	2555.865000
420.070859	2462.603654
420.449983	2510.494615
420.829045	2444.959615
421.208047	2528.138654
421.586988	2513.015192
421.965867	2510.494615
422.344686	2490.330000
422.723444	2563.426731
423.102141	2487.809423
423.480777	2470.165385
423.859352	2505.453462
424.237866	2450.000769
424.616319	2550.823846
424.994712	2432.356731
425.373044	2500.412308
425.751314	2502.932885
426.129524	2419.753846
426.507673	2515.535769
426.885762	2500.412308
427.263789	2515.535769
427.641756	2576.029615
428.019662	2540.741538
428.397508	2528.138654
428.775292	2510.494615
429.153016	2417.233269
429.530679	2523.097500
429.908282	2444.959615
430.285824	2492.850577
430.663305	2500.412308
431.040726	2497.891731
431.418086	2480.247692
431.795385	2447.480192
432.172624	2460.083077
432.549802	2490.330000
432.926920	2507.974038
433.303977	2510.494615
433.680974	2397.068654
434.057910	2455.041923
434.434786	2535.700385
434.811601	2513.015192
435.188355	2525.618077
435.565050	2482.768269
435.941683	2457.562500
436.318257	2528.138654
436.694770	2475.206538
437.071222	2462.603654
437.447614	2450.000769
437.823946	2392.027500
438.200218	2523.097500
438.576429	2502.932885
438.952580	2525.618077
439.328670	2404.630385
439.704700	2525.618077
440.080670	2429.836154
440.456580	2550.823846
440.832429	2528.138654
441.208218	2528.138654
441.583947	2417.233269
441.959616	2399.589231
442.335224	2495.371154
442.710773	2452.521346
443.086261	2502.932885
443.461689	2427.315577
443.837057	2470.165385
444.212365	2432.356731
444.587612	2505.453462
444.962800	2550.823846
445.337927	2442.439038
445.712995	2560.906154
446.088002	2439.918462
446.462949	2437.397885
446.837837	2465.124231
447.212664	2450.000769
447.587431	2540.741538
447.962139	2550.823846
448.336786	2462.603654
448.711374	2513.015192
449.085901	2424.795000
449.460369	2530.659231
449.834776	2439.918462
450.209124	2470.165385
450.583412	2455.041923
450.957640	2402.109808
451.331808	2515.535769
451.705917	2495.371154
452.079965	2525.618077
452.453954	2437.397885
452.827883	2495.371154
453.201752	2467.644808
453.575562	2497.891731
453.949311	2482.768269
454.323001	2477.727115
454.696632	2553.344423
455.070202	2492.850577
455.443713	2568.467885
455.817164	2520.576923
456.190556	2553.344423
456.563888	2465.124231
456.937160	2455.041923
457.310373	2533.179808
457.683526	2495.371154
458.056619	2475.206538
458.429653	2482.768269
458.802628	2462.603654
459.175542	2555.865000
459.548398	2523.097500
459.921194	2497.891731
460.293930	2520.576923
460.666607	2495.371154
461.039224	2437.397885
461.411782	2434.877308
461.784280	2487.809423
462.156719	2500.412308
462.529099	2437.397885
462.901419	2502.932885
463.273680	2477.727115
463.645882	2487.809423
464.018024	2475.206538
464.390106	2497.891731
464.762130	2465.124231
465.134094	2492.850577
465.505999	2568.467885
465.877845	2507.974038
466.249631	2477.727115
466.621358	2518.056346
466.993026	2510.494615
467.364634	2427.315577
467.736184	2528.138654
468.107674	2502.932885
468.479105	2492.850577
468.850477	2490.330000
469.221790	2507.974038
469.593043	2452.521346
469.964238	2535.700385
470.335373	2399.589231
470.706449	2485.288846
471.077467	2523.097500
471.448425	2500.412308
471.819324	2427.315577
472.190164	2470.165385
472.560945	2467.644808
472.931667	2455.041923
473.302330	2570.988462
473.672934	2457.562500
474.043479	2525.618077
474.413965	2472.685962
474.784393	2538.220962
475.154761	2560.906154
475.525070	2497.891731
475.895321	2568.467885
476.265513	2434.877308
476.635645	2462.603654
477.005719	2470.165385
477.375734	2482.768269
477.745691	2518.056346
478.115588	2543.262115
478.485427	2581.070769
478.855207	2510.494615
479.224928	2450.000769
479.594591	2427.315577
479.964194	2495.371154
480.333739	2485.288846
480.703226	2470.165385
481.072653	2505.453462
481.442022	2487.809423
481.811333	2497.891731
482.180584	2437.397885
482.549777	2475.206538
482.918912	2588.632500
483.287988	2543.262115
483.657005	2482.768269
484.025964	2457.562500
484.394864	2482.768269
484.763706	2452.521346
485.132489	2460.083077
485.501213	2581.070769
485.869879	2462.603654
486.238487	2535.700385
486.607036	2434.877308
486.975527	2510.494615
487.343959	2424.795000
487.712333	2439.918462
488.080648	2472.685962
488.448905	2462.603654
488.817104	2409.671538
489.185244	2447.480192
489.553326	2444.959615
489.921350	2500.412308
490.289315	2545.782692
490.657222	2465.124231
491.025070	2457.562500
491.392861	2482.768269
491.760593	2490.330000
492.128267	2477.727115
492.495883	2437.397885
492.863440	2518.056346
493.230939	2470.165385
493.598380	2485.288846
493.965763	2467.644808
494.333088	2492.850577
494.700354	2593.673654
495.067563	2525.618077
495.434713	2528.138654
495.801805	2492.850577
496.168839	2495.371154
496.535815	2490.330000
496.902733	2558.385577
497.269593	2553.344423
497.636395	2470.165385
498.003139	2518.056346
498.369825	2485.288846
498.736453	2477.727115
499.103023	2490.330000
499.469535	2470.165385
499.835989	2543.262115
500.202385	2538.220962
500.568723	2533.179808
500.935003	2470.165385
501.301226	2611.317692
501.667390	2525.618077
502.033497	2417.233269
502.399546	2475.206538
502.765537	2510.494615
503.131470	2414.712692
503.497345	2502.932885
503.863163	2528.138654
504.228923	2467.644808
504.594625	2530.659231
504.960269	2472.685962
505.325856	2460.083077
505.691385	2447.480192
506.056856	2528.138654
506.422270	2510.494615
506.787625	2490.330000
507.152924	2540.741538
507.518164	2482.768269
507.883347	2492.850577
508.248472	2460.083077
508.613540	2414.712692
508.978550	2424.795000
509.343503	2450.000769
509.708398	2500.412308
510.073236	2490.330000
510.438016	2472.685962
510.802738	2513.015192
511.167403	2576.029615
511.532010	2500.412308
511.896561	2470.165385
512.261053	2455.041923
512.625488	2465.124231
512.989866	2492.850577
513.354186	2460.083077
513.718449	2490.330000
514.082655	2452.521346
514.446803	2487.809423
514.810894	2540.741538
515.174927	2500.412308
515.538904	2485.288846
515.902822	2555.865000
516.266684	2437.397885
516.630488	2560.906154
516.994235	2460.083077
517.357925	2618.879423
517.721558	2553.344423
518.085133	2492.850577
518.448651	2475.206538
518.812112	2475.206538
519.175516	2543.262115
519.538863	2465.124231
519.902152	2455.041923
520.265385	2427.315577
520.628560	2553.344423
520.991678	2565.947308
521.354739	2523.097500
521.717743	2533.179808
522.080690	2538.220962
522.443580	2460.083077
522.806413	2507.974038
523.169189	2555.865000
523.531908	2545.782692
523.894569	2553.344423
524.257174	2500.412308
524.619722	2502.932885
524.982213	2482.768269
525.344647	2467.644808
525.707025	2465.124231
526.069345	2495.371154
526.431608	2565.947308
526.793815	2490.330000
527.155964	2467.644808
527.518057	2497.891731
527.880093	2518.056346
528.242072	2563.426731
528.603995	2460.083077
528.965860	2477.727115
529.327669	2492.850577
529.689421	2507.974038
530.051117	2485.288846
530.412755	2565.947308
530.774337	2543.262115
531.135862	2495.371154
531.497331	2543.262115
531.858743	2442.439038
532.220098	2502.932885
532.581396	2450.000769
532.942638	2427.315577
533.303824	2550.823846
533.664953	2520.576923
534.026025	2429.836154
534.387040	2505.453462
534.747999	2502.932885
535.108902	2555.865000
535.469748	2434.877308
535.830537	2581.070769
536.191270	2553.344423
536.551947	2490.330000
536.912567	2497.891731
537.273131	2538.220962
537.633638	2570.988462
537.994089	2404.630385
538.354483	2439.918462
538.714821	2432.356731
539.075103	2487.809423
539.435328	2439.918462
539.795497	2507.974038
540.155609	2399.589231
540.515665	2485.288846
540.875665	2513.015192
541.235609	2616.358846
541.595496	2477.727115
541.955328	2490.330000
542.315102	2432.356731
542.674821	2465.124231
543.034483	2523.097500
543.394090	2538.220962
543.753640	2475.206538
544.113134	2450.000769
544.472571	2492.850577
544.831953	2550.823846
545.191278	2502.932885
545.550548	2507.974038
545.909761	2465.124231
546.268918	2540.741538
546.628019	2545.782692
546.987064	2525.618077
547.346053	2538.220962
547.704986	2452.521346
548.063863	2450.000769
548.422684	2523.097500
548.781449	2513.015192
549.140158	2563.426731
549.498811	2424.795000
549.857408	2525.618077
550.215949	2480.247692
550.574434	2505.453462
550.932864	2455.041923
551.291237	2553.344423
551.649555	2477.727115
552.007817	2565.947308
552.366022	2472.685962
552.724173	2482.768269
553.082267	2465.124231
553.440305	2543.262115
553.798288	2482.768269
554.156215	2525.618077
554.514086	2505.453462
554.871902	2477.727115
555.229661	2550.823846
555.587365	2581.070769
555.945014	2462.603654
556.302606	2482.768269
556.660143	2608.797115
557.017625	2465.124231
557.375050	2530.659231
557.732421	2480.247692
558.089735	2414.712692
558.446994	2467.644808
558.804197	2538.220962
559.161345	2455.041923
559.518437	2525.618077
559.875474	2477.727115
560.232455	2457.562500
560.589381	2523.097500
560.946251	2467.644808
561.303065	2386.986346
561.659825	2507.974038
562.016528	2447.480192
562.373177	2530.659231
562.729770	2502.932885
563.086307	2513.015192
563.442789	2492.850577
563.799216	2553.344423
564.155587	2505.453462
564.511904	2480.247692
564.868164	2470.165385
565.224370	2535.700385
565.580520	2429.836154
565.936615	2558.385577
566.292654	2470.165385
566.648638	2500.412308
567.004567	2467.644808
567.360441	2525.618077
567.716260	2548.303269
568.072023	2525.618077
568.427732	2470.165385
568.783385	2578.550192
569.138982	2457.562500
569.494525	2513.015192
569.850013	2447.480192
570.205445	2480.247692
570.560823	2513.015192
570.916145	2472.685962
571.271412	2495.371154
571.626625	2507.974038
571.981782	2540.741538
572.336884	2444.959615
572.691931	2555.865000
573.046923	2477.727115
573.401860	2518.056346
573.756743	2409.671538
574.111570	2523.097500
574.466342	2467.644808
574.821059	2497.891731
575.175722	2442.439038
575.530330	2560.906154
575.884882	2505.453462
576.239380	2482.768269
576.593823	2558.385577
576.948211	2495.371154
577.302544	2535.700385
577.656823	2548.303269
578.011047	2530.659231
578.365216	2447.480192
578.719330	2533.179808
579.073389	2492.850577
579.427394	2381.945192
579.781344	2505.453462
580.135239	2467.644808
580.489080	2424.795000
580.842866	2500.412308
581.196597	2606.276538
581.550273	2502.932885
581.903895	2553.344423
582.257463	2618.879423
582.610975	2520.576923
582.964434	2497.891731
583.317837	2450.000769
583.671186	2565.947308
584.024481	2558.385577
584.377721	2601.235385
584.730906	2518.056346
585.084037	2480.247692
585.437113	2487.809423
585.790135	2482.768269
586.143103	2485.288846
586.496016	2492.850577
586.848874	2525.618077
587.201679	2442.439038
587.554428	2570.988462
587.907124	2533.179808
588.259765	2450.000769
588.612352	2432.356731
588.964884	2535.700385
589.317362	2429.836154
589.669786	2475.206538
590.022155	2434.877308
590.374470	2535.700385
590.726731	2472.685962
591.078937	2520.576923
591.431090	2402.109808
591.783188	2497.891731
592.135232	2568.467885
592.487222	2576.029615
592.839157	2570.988462
593.191038	2470.165385
593.542866	2502.932885
593.894639	2412.192115
594.246358	2502.932885
594.598022	2510.494615
594.949633	2510.494615
595.301190	2475.206538
595.652692	2510.494615
596.004141	2414.712692
596.355535	2475.206538
596.706876	2409.671538
597.058162	2467.644808
597.409395	2510.494615
597.760573	2477.727115
598.111698	2533.179808
598.462768	2490.330000
598.813785	2543.262115
599.164748	2470.165385
599.515657	2513.015192
599.866511	2450.000769
600.217312	2540.741538
600.568060	2540.741538
600.918753	2480.247692
601.269392	2490.330000
601.619978	2576.029615
601.970510	2465.124231
602.320988	2434.877308
602.671412	2465.124231
603.021783	2570.988462
603.372100	2487.809423
603.722363	2513.015192
604.072572	2487.809423
604.422728	2578.550192
604.772830	2495.371154
605.122878	2472.685962
605.472872	2419.753846
605.822813	2492.850577
606.172701	2548.303269
606.522534	2452.521346
606.872314	2535.700385
607.222041	2485.288846
607.571714	2576.029615
607.921333	2558.385577
608.270899	2465.124231
608.620411	2477.727115
608.969870	2437.397885
609.319276	2513.015192
609.668627	2381.945192
610.017926	2533.179808
610.367171	2497.891731
610.716362	2492.850577
611.065500	2455.041923
611.414585	2581.070769
611.763616	2490.330000
612.112594	2558.385577
612.461518	2480.247692
612.810389	2553.344423
613.159207	2490.330000
613.507971	2510.494615
613.856682	2593.673654
614.205340	2535.700385
614.553945	2530.659231
614.902496	2475.206538
615.250994	2530.659231
615.599439	2475.206538
615.947830	2457.562500
616.296169	2475.206538
616.644454	2457.562500
616.992686	2439.918462
617.340864	2513.015192
617.688990	2472.685962
618.037063	2402.109808
618.385082	2518.056346
618.733048	2570.988462
619.080961	2490.330000
619.428821	2475.206538
619.776628	2515.535769
620.124382	2487.809423
620.472083	2465.124231
620.819731	2560.906154
621.167326	2427.315577
621.514868	2487.809423
621.862357	2573.509038
622.209793	2487.809423
622.557176	2520.576923
622.904506	2452.521346
623.251783	2492.850577
623.599007	2475.206538
623.946179	2412.192115
624.293297	2495.371154
624.640363	2550.823846
624.987376	2510.494615
625.334336	2442.439038
625.681243	2555.865000
626.028097	2472.685962
626.374899	2515.535769
626.721647	2535.700385
627.068343	2465.124231
627.414987	2502.932885
627.761577	2450.000769
628.108115	2437.397885
628.454600	2533.179808
628.801032	2457.562500
629.147412	2525.618077
629.493739	2535.700385
629.840014	2568.467885
630.186236	2510.494615
630.532405	2528.138654
630.878521	2482.768269
631.224585	2482.768269
631.570597	2437.397885
631.916556	2540.741538
632.262462	2472.685962
632.608316	2525.618077
632.954117	2550.823846
633.299866	2533.179808
633.645562	2485.288846
633.991206	2450.000769
634.336797	2608.797115
634.682336	2450.000769
635.027823	2429.836154
635.373257	2553.344423
635.718639	2515.535769
636.063968	2467.644808
636.409245	2480.247692
636.754470	2455.041923
637.099642	2490.330000
637.444762	2518.056346
637.789829	2402.109808
638.134845	2535.700385
638.479808	2583.591346
638.824719	2444.959615
639.169577	2437.397885
639.514383	2555.865000
639.859137	2538.220962
640.203839	2515.535769
640.548489	2447.480192
640.893086	2497.891731
641.237632	2477.727115
641.582125	2447.480192
641.926566	2513.015192
642.270955	2442.439038
642.615292	2477.727115
642.959576	2543.262115
643.303809	2523.097500
643.647990	2429.836154
643.992118	2505.453462
644.336195	2487.809423
644.680219	2490.330000
645.024192	2470.165385
645.368112	2581.070769
645.711981	2482.768269
646.055797	2472.685962
646.399562	2500.412308
646.743274	2414.712692
647.086935	2530.659231
647.430544	2475.206538
647.774101	2525.618077
648.117606	2394.548077
648.461059	2497.891731
648.804460	2434.877308
649.147810	2588.632500
649.491108	2543.262115
649.834354	2563.426731
650.177548	2497.891731
650.520690	2608.797115
650.863781	2518.056346
651.206820	2500.412308
651.549807	2530.659231
651.892742	2523.097500
652.235626	2518.056346
652.578458	2513.015192
652.921238	2399.589231
653.263967	2555.865000
653.606644	2565.947308
653.949269	2447.480192
654.291843	2480.247692
654.634365	2455.041923
654.976836	2462.603654
655.319255	2507.974038
655.661622	2381.945192
656.003938	2565.947308
656.346203	2538.220962
656.688416	2525.618077
657.030577	2462.603654
657.372687	2550.823846
657.714746	2427.315577
658.056753	2502.932885
658.398708	2492.850577
658.740612	2480.247692
659.082465	2520.576923
659.424266	2593.673654
659.766016	2480.247692
660.107715	2525.618077
660.449362	2424.795000
660.790958	2535.700385
661.132503	2520.576923
661.473996	2520.576923
661.815438	2492.850577
662.156829	2477.727115
662.498168	2462.603654
662.839456	2570.988462
663.180693	2581.070769
663.521879	2450.000769
663.863013	2528.138654
664.204097	2540.741538
664.545129	2550.823846
664.886110	2490.330000
665.227040	2545.782692
665.567918	2477.727115
665.908746	2505.453462
666.249522	2450.000769
666.590248	2596.194231
666.930922	2457.562500
667.271545	2487.809423
667.612118	2533.179808
667.952639	2581.070769
668.293109	2482.768269
668.633528	2513.015192
668.973896	2543.262115
669.314213	2500.412308
669.654480	2530.659231
669.994695	2475.206538
670.334859	2515.535769
670.674973	2490.330000
671.015035	2525.618077
671.355047	2500.412308
671.695008	2487.809423
672.034918	2518.056346
672.374777	2621.400000
672.714585	2573.509038
673.054342	2500.412308
673.394049	2442.439038
673.733705	2543.262115
674.073310	2505.453462
674.412864	2444.959615
674.752368	2429.836154
675.091820	2500.412308
675.431223	2480.247692
675.770574	2462.603654
676.109875	2518.056346
676.449125	2485.288846
676.788324	2525.618077
677.127473	2485.288846
677.466571	2540.741538
677.805619	2482.768269
678.144616	2437.397885
678.483562	2467.644808
678.822458	2553.344423
679.161303	2591.153077
679.500098	2495.371154
679.838842	2588.632500
680.177535	2553.344423
680.516179	2510.494615
680.854771	2525.618077
681.193314	2437.397885
681.531805	2482.768269
681.870247	2439.918462
682.208638	2515.535769
682.546978	2533.179808
682.885268	2533.179808
683.223508	2515.535769
683.561697	2470.165385
683.899836	2442.439038
684.237925	2570.988462
684.575963	2455.041923
684.913951	2492.850577
685.251889	2490.330000
685.589776	2505.453462
685.927614	2540.741538
686.265401	2447.480192
686.603137	2500.412308
686.940824	2455.041923
687.278460	2482.768269
687.616046	2576.029615
687.953582	2472.685962
688.291068	2505.453462
688.628504	2462.603654
688.965889	2444.959615
689.303224	2482.768269
689.640510	2475.206538
689.977745	2447.480192
690.314930	2545.782692
690.652065	2477.727115
690.989150	2495.371154
691.326185	2548.303269
691.663170	2543.262115
692.000105	2553.344423
692.336990	2528.138654
692.673825	2487.809423
693.010610	2497.891731
693.347345	2424.795000
693.684030	2510.494615
694.020665	2472.685962
694.357251	2442.439038
694.693786	2603.755962
695.030272	2462.603654
695.366707	2490.330000
695.703093	2570.988462
696.039429	2520.576923
696.375716	2490.330000
696.711952	2490.330000
697.048139	2560.906154
697.384276	2515.535769
697.720363	2520.576923
698.056400	2535.700385
698.392388	2515.535769
698.728326	2525.618077
699.064214	2462.603654
699.400053	2490.330000
699.735842	2477.727115
700.071581	2603.755962
700.407270	2553.344423
700.742910	2444.959615
701.078501	2540.741538
701.414042	2513.015192
701.749533	2570.988462
702.084974	2424.795000
702.420366	2528.138654
702.755709	2485.288846
703.091002	2505.453462
703.426246	2525.618077
703.761440	2548.303269
704.096584	2518.056346
704.431679	2417.233269
704.766725	2543.262115
705.101721	2497.891731
705.436668	2513.015192
705.771565	2578.550192
706.106413	2502.932885
706.441212	2500.412308
706.775961	2492.850577
707.110661	2424.795000
707.445311	2447.480192
707.779913	2424.795000
708.114465	2505.453462
708.448967	2525.618077
708.783421	2497.891731
709.117825	2502.932885
709.452180	2462.603654
709.786485	2543.262115
710.120742	2533.179808
710.454949	2477.727115
710.789107	2535.700385
711.123216	2545.782692
711.457275	2465.124231
711.791286	2515.535769
712.125247	2442.439038
712.459159	2497.891731
712.793023	2492.850577
713.126837	2492.850577
713.460602	2502.932885
713.794318	2475.206538
714.127985	2472.685962
714.461602	2540.741538
714.795171	2460.083077
715.128691	2570.988462
715.462162	2467.644808
715.795584	2444.959615
716.128957	2555.865000
716.462281	2601.235385
716.795556	2540.741538
717.128782	2513.015192
717.461960	2467.644808
717.795088	2482.768269
718.128167	2490.330000
718.461198	2520.576923
718.794180	2444.959615
719.127113	2518.056346
719.459997	2591.153077
719.792833	2545.782692
720.125619	2490.330000
720.458357	2437.397885
720.791046	2513.015192
721.123686	2500.412308
721.456278	2518.056346
721.788821	2565.947308
722.121315	2502.932885
722.453761	2485.288846
722.786158	2500.412308
723.118506	2482.768269
723.450805	2502.932885
723.783056	2470.165385
724.115259	2543.262115
724.447412	2540.741538
724.779518	2500.412308
725.111574	2485.288846
725.443582	2525.618077
725.775542	2540.741538
726.107453	2419.753846
726.439315	2560.906154
726.771129	2417.233269
727.102895	2497.891731
727.434612	2470.165385
727.766281	2530.659231
728.097901	2581.070769
728.429473	2528.138654
728.760996	2578.550192
729.092471	2439.918462
729.423897	2495.371154
729.755276	2444.959615
730.086606	2472.685962
730.417887	2548.303269
730.749120	2439.918462
731.080305	2528.138654
731.411442	2518.056346
731.742530	2545.782692
732.073570	2457.562500
732.404562	2490.330000
732.735506	2452.521346
733.066401	2568.467885
733.397249	2553.344423
733.728048	2513.015192
734.058798	2490.330000
734.389501	2490.330000
734.720156	2507.974038
735.050762	2470.165385
735.381320	2480.247692
735.711831	2520.576923
736.042293	2530.659231
736.372707	2407.150962
736.703073	2404.630385
737.033391	2505.453462
737.363661	2565.947308
737.693883	2465.124231
738.024056	2472.685962
738.354182	2462.603654
738.684260	2558.385577
739.014290	2563.426731
739.344272	2528.138654
739.674207	2490.330000
740.004093	2520.576923
740.333931	2538.220962
740.663722	2505.453462
740.993464	2507.974038
741.323159	2480.247692
741.652806	2586.111923
741.982405	2482.768269
742.311956	2528.138654
742.641460	2447.480192
742.970915	2419.753846
743.300323	2507.974038
743.629683	2439.918462
743.958996	2523.097500
744.288260	2553.344423
744.617477	2515.535769
744.946647	2497.891731
745.275768	2409.671538
745.604842	2490.330000
745.933869	2555.865000
746.262847	2518.056346
746.591778	2422.274423
746.920662	2520.576923
747.249498	2475.206538
747.578286	2528.138654
747.907027	2442.439038
748.235720	2460.083077
748.564365	2389.506923
748.892963	2467.644808
749.221514	2533.179808
749.550017	2550.823846
749.878473	2485.288846
750.206881	2384.465769
750.535242	2417.233269
750.863555	2379.424615
751.191821	2465.124231
751.520039	2472.685962
751.848210	2482.768269
752.176334	2432.356731
752.504411	2485.288846
752.832440	2432.356731
753.160421	2515.535769
753.488356	2490.330000
753.816243	2505.453462
754.144082	2543.262115
754.471875	2505.453462
754.799620	2472.685962
755.127318	2535.700385
755.454969	2472.685962
755.782572	2540.741538
756.110129	2482.768269
756.437638	2505.453462
756.765100	2467.644808
757.092515	2455.041923
757.419882	2500.412308
757.747203	2460.083077
758.074477	2502.932885
758.401703	2467.644808
758.728882	2472.685962
759.056014	2475.206538
759.383099	2570.988462
759.710138	2480.247692
760.037129	2507.974038
760.364073	2540.741538
760.690970	2543.262115
761.017820	2470.165385
761.344623	2500.412308
761.671379	2462.603654
761.998088	2530.659231
762.324751	2560.906154
762.651366	2470.165385
762.977935	2475.206538
763.304456	2439.918462
763.630931	2611.317692
763.957359	2520.576923
764.283740	2530.659231
764.610074	2502.932885
764.936362	2450.000769
765.262602	2500.412308
765.588796	2460.083077
765.914943	2455.041923
766.241044	2540.741538
766.567097	2540.741538
766.893104	2515.535769
767.219064	2545.782692
767.544978	2477.727115
767.870845	2525.618077
768.196665	2480.247692
768.522438	2558.385577
768.848165	2497.891731
769.173846	2578.550192
769.499479	2497.891731
769.825066	2505.453462
770.150607	2452.521346
770.476101	2437.397885
770.801548	2497.891731
771.126949	2523.097500
771.452303	2457.562500
771.777611	2505.453462
772.102872	2558.385577
772.428087	2467.644808
772.753256	2424.795000
773.078378	2472.685962
773.403453	2457.562500
773.728482	2477.727115
774.053465	2386.986346
774.378401	2412.192115
774.703291	2500.412308
775.028135	2447.480192
775.352932	2472.685962
775.677683	2528.138654
776.002388	2545.782692
776.327046	2560.906154
776.651658	2447.480192
776.976224	2606.276538
777.300743	2543.262115
777.625216	2497.891731
777.949643	2485.288846
778.274024	2568.467885
778.598359	2487.809423
778.922647	2505.453462
779.246889	2402.109808
779.571086	2487.809423
779.895236	2467.644808
780.219339	2533.179808
780.543397	2427.315577
780.867409	2535.700385
781.191374	2472.685962
781.515294	2462.603654
781.839167	2520.576923
782.162995	2497.891731
782.486776	2497.891731
782.810511	2550.823846
783.134201	2424.795000
783.457844	2525.618077
783.781441	2507.974038
784.104993	2487.809423
784.428498	2495.371154
784.751958	2356.739423
785.075372	2548.303269
785.398739	2502.932885
785.722061	2467.644808
786.045337	2407.150962
786.368568	2533.179808
786.691752	2477.727115
787.014891	2515.535769
787.337983	2538.220962
787.661030	2548.303269
787.984031	2475.206538
788.306987	2538.220962
788.629897	2523.097500
788.952760	2563.426731
789.275579	2472.685962
789.598351	2523.097500
789.921078	2518.056346
790.243759	2444.959615
790.566395	2475.206538
790.888984	2490.330000
791.211529	2465.124231
791.534027	2487.809423
791.856480	2518.056346
792.178888	2487.809423
792.501249	2510.494615
792.823566	2497.891731
793.145836	2457.562500
793.468062	2457.562500
793.790241	2538.220962
794.112375	2444.959615
794.434464	2563.426731
794.756507	2518.056346
795.078505	2497.891731
795.400457	2427.315577
795.722364	2442.439038
796.044226	2480.247692
796.366042	2533.179808
796.687812	2528.138654
797.009538	2442.439038
797.331218	2540.741538
797.652852	2500.412308
797.974442	2530.659231
798.295986	2528.138654
798.617484	2465.124231
798.938938	2460.083077
799.260346	2475.206538
799.581709	2450.000769
799.903026	2518.056346
800.224299	2538.220962
800.545526	2510.494615
800.866708	2427.315577
801.187845	2545.782692
801.508936	2462.603654
801.829983	2427.315577
802.150984	2495.371154
802.471940	2563.426731
802.792851	2452.521346
803.113717	2591.153077
803.434538	2492.850577
803.755314	2482.768269
804.076045	2465.124231
804.396731	2525.618077
804.717372	2409.671538
805.037967	2414.712692
805.358518	2480.247692
805.679024	2613.838269
805.999485	2477.727115
806.319901	2545.782692
806.640272	2603.755962
806.960598	2480.247692
807.280879	2535.700385
807.601115	2427.315577
807.921306	2497.891731
808.241453	2475.206538
808.561554	2495.371154
808.881611	2578.550192
809.201623	2538.220962
809.521590	2528.138654
809.841513	2472.685962
810.161390	2543.262115
810.481223	2447.480192
810.801011	2507.974038
811.120755	2492.850577
811.440453	2520.576923
811.760107	2525.618077
812.079716	2457.562500
812.399281	2563.426731
812.718801	2535.700385
813.038276	2565.947308
813.357707	2482.768269
813.677093	2528.138654
813.996434	2450.000769
814.315731	2538.220962
814.634983	2563.426731
814.954191	2470.165385
815.273354	2477.727115
815.592473	2495.371154
815.911547	2437.397885
816.230577	2495.371154
816.549562	2505.453462
816.868502	2462.603654
817.187399	2422.274423
817.506250	2477.727115
817.825058	2513.015192
818.143821	2487.809423
818.462539	2429.836154
818.781213	2455.041923
819.099843	2523.097500
819.418429	2374.383462
819.736970	2497.891731
820.055466	2545.782692
820.373919	2507.974038
820.692327	2545.782692
821.010691	2422.274423
821.329011	2472.685962
821.647286	2412.192115
821.965517	2518.056346
822.283704	2518.056346
822.601847	2530.659231
822.919945	2591.153077
823.237999	2505.453462
823.556010	2548.303269
823.873976	2452.521346
824.191897	2530.659231
824.509775	2505.453462
824.827609	2437.397885
825.145398	2533.179808
825.463144	2560.906154
825.780845	2500.412308
826.098502	2412.192115
826.416116	2472.685962
826.733685	2475.206538
827.051210	2510.494615
827.368692	2444.959615
827.686129	2586.111923
828.003522	2560.906154
828.320872	2523.097500
828.638177	2480.247692
828.955439	2422.274423
829.272656	2513.015192
829.589830	2465.124231
829.906960	2510.494615
830.224046	2475.206538
830.541088	2540.741538
830.858086	2565.947308
831.175041	2452.521346
831.491952	2505.453462
831.808819	2523.097500
832.125642	2384.465769
832.442421	2482.768269
832.759157	2429.836154
833.075849	2437.397885
833.392497	2444.959615
833.709101	2513.015192
834.025662	2475.206538
834.342179	2510.494615
834.658653	2477.727115
834.975083	2558.385577
835.291469	2490.330000
835.607811	2513.015192
835.924110	2475.206538
836.240366	2538.220962
836.556578	2523.097500
836.872746	2515.535769
837.188871	2500.412308
837.504952	2513.015192
837.820990	2513.015192
838.136984	2429.836154
838.452935	2462.603654
838.768842	2409.671538
839.084706	2470.165385
839.400526	2490.330000
839.716303	2545.782692
840.032037	2455.041923
840.347727	2520.576923
840.663373	2465.124231
840.978977	2444.959615
841.294537	2472.685962
841.610054	2482.768269
841.925527	2515.535769
842.240957	2386.986346
842.556344	2513.015192
842.871687	2475.206538
843.186987	2480.247692
843.502244	2417.233269
843.817458	2528.138654
844.132629	2540.741538
844.447756	2437.397885
844.762840	2480.247692
845.077881	2487.809423
845.392879	2518.056346
845.707833	2455.041923
846.022745	2588.632500
846.337613	2495.371154
846.652438	2523.097500
846.967221	2472.685962
847.281960	2497.891731
847.596656	2518.056346
847.911309	2447.480192
848.225919	2565.947308
848.540485	2460.083077
848.855009	2548.303269
849.169490	2482.768269
849.483928	2467.644808
849.798323	2497.891731
850.112675	2480.247692
850.426984	2432.356731
850.741251	2535.700385
851.055474	2467.644808
851.369654	2477.727115
851.683792	2540.741538
851.997887	2490.330000
852.311938	2568.467885
852.625947	2523.097500
852.939914	2497.891731
853.253837	2586.111923
853.567718	2510.494615
853.881555	2452.521346
854.195350	2545.782692
854.509103	2452.521346
854.822812	2462.603654
855.136479	2545.782692
855.450103	2470.165385
855.763685	2507.974038
856.077224	2490.330000
856.390720	2450.000769
856.704173	2477.727115
857.017584	2515.535769
857.330953	2513.015192
857.644278	2515.535769
857.957561	2510.494615
858.270802	2523.097500
858.584000	2513.015192
858.897155	2450.000769
859.210268	2437.397885
859.523339	2515.535769
859.836367	2520.576923
860.149352	2535.700385
860.462295	2545.782692
860.775195	2472.685962
861.088054	2497.891731
861.400869	2465.124231
861.713642	2457.562500
862.026373	2477.727115
862.339062	2475.206538
862.651708	2513.015192
862.964312	2502.932885
863.276873	2467.644808
863.589392	2457.562500
863.901869	2523.097500
864.214303	2505.453462
864.526696	2495.371154
864.839045	2502.932885
865.151353	2417.233269
865.463619	2389.506923
865.775842	2578.550192
866.088023	2432.356731
866.400162	2450.000769
866.712258	2437.397885
867.024313	2555.865000
867.336325	2427.315577
867.648296	2586.111923
867.960224	2485.288846
868.272110	2467.644808
868.583954	2432.356731
868.895755	2487.809423
869.207515	2558.385577
869.519233	2523.097500
869.830909	2543.262115
870.142542	2535.700385
870.454134	2472.685962
870.765684	2487.809423
871.077191	2505.453462
871.388657	2515.535769
871.700081	2477.727115
872.011463	2515.535769
872.322803	2513.015192
872.634101	2432.356731
872.945357	2452.521346
873.256571	2497.891731
873.567744	2497.891731
873.878874	2540.741538
874.189963	2510.494615
874.501010	2555.865000
874.812015	2518.056346
875.122979	2558.385577
875.433900	2500.412308
875.744780	2465.124231
876.055618	2467.644808
876.366415	2558.385577
876.677169	2502.932885
876.987882	2475.206538
877.298554	2548.303269
877.609183	2553.344423
877.919771	2487.809423
878.230317	2611.317692
878.540822	2417.233269
878.851285	2467.644808
879.161707	2450.000769
879.472087	2492.850577
879.782425	2490.330000
880.092722	2543.262115
880.402977	2492.850577
880.713191	2555.865000
881.023363	2460.083077
881.333494	2475.206538
881.643583	2510.494615
881.953631	2460.083077
882.263637	2543.262115
882.573602	2424.795000
882.883526	2558.385577
883.193408	2439.918462
883.503248	2530.659231
883.813048	2495.371154
884.122806	2457.562500
884.432522	2457.562500
884.742197	2525.618077
885.051831	2470.165385
885.361424	2462.603654
885.670975	2437.397885
885.980485	2477.727115
886.289954	2432.356731
886.599382	2490.330000
886.908768	2545.782692
887.218113	2487.809423
887.527417	2523.097500
887.836680	2495.371154
888.145901	2520.576923
888.455082	2533.179808
888.764221	2518.056346
889.073319	2470.165385
889.382376	2432.356731
889.691392	2510.494615
890.000366	2485.288846
890.309300	2523.097500
890.618193	2404.630385
890.927044	2520.576923
891.235855	2581.070769
891.544625	2467.644808
891.853353	2429.836154
892.162041	2482.768269
892.470687	2444.959615
892.779293	2480.247692
893.087858	2487.809423
893.396381	2439.918462
893.704864	2495.371154
894.013306	2462.603654
894.321707	2384.465769
894.630068	2467.644808
894.938387	2560.906154
895.246665	2497.891731
895.554903	2505.453462
895.863100	2528.138654
896.171256	2397.068654
896.479371	2570.988462
896.787446	2482.768269
897.095480	2497.891731
897.403473	2492.850577
897.711425	2533.179808
898.019336	2465.124231
898.327207	2465.124231
898.635038	2518.056346
898.942827	2414.712692
899.250576	2495.371154
899.558284	2558.385577
899.865952	2523.097500
900.173579	2462.603654
900.481165	2351.698269
900.788711	2523.097500
901.096216	2502.932885
901.403681	2515.535769
901.711105	2545.782692
902.018489	2515.535769
902.325832	2606.276538
902.633135	2510.494615
902.940397	2457.562500
903.247619	2452.521346
903.554800	2502.932885
903.861941	2558.385577
904.169041	2505.453462
904.476101	2487.809423
904.783121	2555.865000
905.090100	2399.589231
905.397039	2533.179808
905.703938	2497.891731
906.010796	2427.315577
906.317614	2548.303269
906.624391	2540.741538
906.931129	2510.494615
907.237826	2563.426731
907.544483	2467.644808
907.851099	2386.986346
908.157675	2490.330000
908.464211	2490.330000
908.770707	2520.576923
909.077163	2427.315577
909.383578	2613.838269
909.689954	2545.782692
909.996289	2409.671538
910.302584	2394.548077
910.608839	2467.644808
910.915054	2510.494615
911.221229	2452.521346
911.527363	2424.795000
911.833458	2543.262115
912.139513	2432.356731
912.445527	2565.947308
912.751502	2530.659231
913.057436	2543.262115
913.363331	2570.988462
913.669186	2480.247692
913.975000	2563.426731
914.280775	2510.494615
914.586510	2510.494615
914.892205	2414.712692
915.197859	2439.918462
915.503475	2480.247692
915.809050	2510.494615
916.114585	2535.700385
916.420081	2502.932885
916.725536	2389.506923
917.030952	2470.165385
917.336328	2555.865000
917.641665	2487.809423
917.946961	2439.918462
918.252218	2586.111923
918.557435	2475.206538
918.862612	2487.809423
919.167750	2497.891731
919.472848	2455.041923
919.777906	2528.138654
920.082925	2482.768269
920.387904	2497.891731
920.692843	2497.891731
920.997743	2528.138654
921.302603	2598.714808
921.607423	2399.589231
921.912204	2477.727115
922.216946	2487.809423
922.521647	2563.426731
922.826310	2472.685962
923.130932	2525.618077
923.435516	2457.562500
923.740059	2553.344423
924.044564	2460.083077
924.349028	2530.659231
924.653454	2447.480192
924.957840	2497.891731
925.262186	2444.959615
925.566493	2480.247692
925.870761	2394.548077
926.174989	2558.385577
926.479178	2497.891731
926.783328	2452.521346
927.087438	2495.371154
927.391509	2558.385577
927.695541	2513.015192
927.999533	2558.385577
928.303486	2490.330000
928.607400	2507.974038
928.911275	2588.632500
929.215110	2485.288846
929.518906	2462.603654
929.822663	2465.124231
930.126381	2573.509038
930.430060	2467.644808
930.733699	2513.015192
931.037299	2490.330000
931.340861	2472.685962
931.644383	2510.494615
931.947866	2462.603654
932.251309	2470.165385
932.554714	2525.618077
932.858080	2495.371154
933.161407	2450.000769
933.464694	2530.659231
933.767943	2535.700385
934.071153	2507.974038
934.374323	2477.727115
934.677455	2535.700385
934.980548	2409.671538
935.283602	2513.015192
935.586617	2457.562500
935.889593	2452.521346
936.192530	2573.509038
936.495428	2444.959615
936.798287	2550.823846
937.101108	2533.179808
937.403890	2480.247692
937.706632	2525.618077
938.009336	2462.603654
938.312002	2515.535769
938.614628	2515.535769
938.917216	2505.453462
939.219765	2492.850577
939.522275	2530.659231
939.824747	2467.644808
940.127179	2472.685962
940.429573	2487.809423
940.731929	2530.659231
941.034246	2470.165385
941.336524	2548.303269
941.638763	2490.330000
941.940964	2523.097500
942.243126	2515.535769
942.545250	2505.453462
942.847335	2507.974038
943.149381	2515.535769
943.451389	2475.206538
943.753359	2538.220962
944.055290	2492.850577
944.357182	2442.439038
944.659036	2437.397885
944.960851	2432.356731
945.262628	2467.644808
945.564367	2560.906154
945.866067	2530.659231
946.167729	2502.932885
946.469352	2515.535769
946.770937	2497.891731
947.072484	2439.918462
947.373992	2460.083077
947.675462	2404.630385
947.976893	2427.315577
948.278286	2467.644808
948.579641	2515.535769
948.880958	2475.206538
949.182236	2513.015192
949.483476	2513.015192
949.784678	2497.891731
950.085841	2538.220962
950.386967	2507.974038
950.688054	2429.836154
950.989103	2500.412308
951.290114	2477.727115
951.591087	2528.138654
951.892021	2543.262115
952.192917	2530.659231
952.493776	2586.111923
952.794596	2432.356731
953.095378	2482.768269
953.396122	2500.412308
953.696828	2515.535769
953.997496	2533.179808
954.298126	2495.371154
954.598718	2581.070769
954.899272	2429.836154
955.199788	2497.891731
955.500266	2495.371154
955.800706	2533.179808
956.101108	2520.576923
956.401472	2475.206538
956.701798	2533.179808
957.002087	2472.685962
957.302337	2460.083077
957.602550	2500.412308
957.902724	2427.315577
958.202861	2399.589231
958.502960	2515.535769
958.803022	2460.083077
959.103045	2424.795000
959.403031	2518.056346
959.702979	2495.371154
960.002889	2482.768269
960.302762	2520.576923
960.602596	2548.303269
960.902393	2513.015192
961.202153	2533.179808
961.501875	2485.288846
961.801559	2545.782692
962.101205	2472.685962
962.400814	2475.206538
962.700385	2439.918462
962.999918	2457.562500
963.299414	2507.974038
963.598873	2444.959615
963.898293	2502.932885
964.197677	2505.453462
964.497022	2523.097500
964.796331	2457.562500
965.095601	2543.262115
965.394835	2510.494615
965.694030	2543.262115
965.993189	2485.288846
966.292309	2553.344423
966.591393	2480.247692
966.890439	2520.576923
967.189447	2404.630385
967.488419	2487.809423
967.787353	2555.865000
968.086249	2515.535769
968.385108	2520.576923
968.683930	2507.974038
968.982714	2437.397885
969.281462	2513.015192
969.580172	2472.685962
969.878844	2535.700385
970.177480	2543.262115
970.476078	2502.932885
970.774639	2515.535769
971.073162	2460.083077
971.371649	2513.015192
971.670098	2490.330000
971.968510	2596.194231
972.266885	2482.768269
972.565223	2500.412308
972.863524	2495.371154
973.161788	2545.782692
973.460014	2482.768269
973.758204	2520.576923
974.056356	2450.000769
974.354471	2422.274423
974.652550	2528.138654
974.950591	2419.753846
975.248595	2495.371154
975.546563	2535.700385
975.844493	2485.288846
976.142386	2432.356731
976.440243	2414.712692
976.738062	2548.303269
977.035845	2467.644808
977.333590	2497.891731
977.631299	2455.041923
977.928971	2558.385577
978.226606	2442.439038
978.524204	2452.521346
978.821765	2477.727115
979.119290	2578.550192
979.416777	2467.644808
979.714228	2530.659231
980.011642	2475.206538
980.309020	2502.932885
980.606360	2533.179808
980.903664	2437.397885
981.200931	2540.741538
981.498162	2467.644808
981.795356	2450.000769
982.092513	2475.206538
982.389633	2543.262115
982.686717	2510.494615
982.983764	2507.974038
983.280775	2515.535769
983.577749	2462.603654
983.874686	2485.288846
984.171587	2455.041923
984.468451	2538.220962
984.765279	2513.015192
985.062070	2510.494615
985.358824	2457.562500
985.655543	2492.850577
985.952224	2462.603654
986.248869	2490.330000
986.545478	2485.288846
986.842050	2422.274423
987.138586	2535.700385
987.435086	2434.877308
987.731549	2495.371154
988.027975	2523.097500
988.324366	2520.576923
988.620719	2482.768269
988.917037	2442.439038
989.213318	2437.397885
989.509563	2515.535769
989.805772	2540.741538
990.101944	2465.124231
990.398080	2485.288846
990.694180	2477.727115
990.990244	2482.768269
991.286271	2570.988462
991.582262	2533.179808
991.878217	2477.727115
992.174136	2528.138654
992.470019	2505.453462
992.765865	2520.576923
993.061676	2490.330000
993.357450	2507.974038
993.653188	2644.085192
993.948890	2437.397885
994.244556	2460.083077
994.540186	2500.412308
994.835780	2533.179808
995.131337	2560.906154
995.426859	2437.397885
995.722345	2550.823846
996.017795	2581.070769
996.313208	2394.548077
996.608586	2515.535769
996.903928	2507.974038
997.199234	2520.576923
997.494504	2510.494615
997.789738	2492.850577
998.084936	2533.179808
998.380099	2422.274423
998.675225	2450.000769
998.970316	2490.330000
999.265371	2480.247692
999.560390	2460.083077
999.855373	2485.288846
1000.150320	2475.206538
1000.445232	2560.906154
1000.740108	2399.589231
1001.034948	2505.453462
1001.329752	2422.274423
1001.624521	2477.727115
1001.919254	2480.247692
1002.213951	2455.041923
1002.508613	2447.480192
1002.803239	2384.465769
1003.097829	2502.932885
1003.392384	2490.330000
1003.686903	2513.015192
1003.981386	2492.850577
1004.275834	2472.685962
1004.570246	2505.453462
1004.864623	2414.712692
1005.158964	2555.865000
1005.453270	2444.959615
1005.747540	2555.865000
1006.041775	2477.727115
1006.335974	2533.179808
1006.630138	2563.426731
1006.924266	2437.397885
1007.218359	2341.615962
1007.512416	2528.138654
1007.806438	2444.959615
1008.100425	2510.494615
1008.394376	2533.179808
1008.688292	2570.988462
1008.982172	2507.974038
1009.276017	2523.097500
1009.569827	2480.247692
1009.863602	2520.576923
1010.157341	2530.659231
1010.451045	2497.891731
1010.744714	2495.371154
1011.038347	2530.659231
1011.331945	2510.494615
1011.625508	2470.165385
1011.919036	2366.821731
1012.212528	2507.974038
1012.505986	2475.206538
1012.799408	2530.659231
1013.092795	2520.576923
1013.386147	2497.891731
1013.679464	2518.056346
1013.972745	2442.439038
1014.265992	2475.206538
1014.559204	2606.276538
1014.852380	2462.603654
1015.145521	2432.356731
1015.438628	2520.576923
1015.731699	2407.150962
1016.024736	2518.056346
1016.317737	2429.836154
1016.610703	2475.206538
1016.903635	2460.083077
1017.196531	2523.097500
1017.489393	2467.644808
1017.782219	2500.412308
1018.075011	2482.768269
1018.367768	2500.412308
1018.660490	2540.741538
1018.953177	2540.741538
1019.245829	2540.741538
