Dividing Wavelength (nm)	Counts (n)	Blue Motor Position (mm): 0.000000	Red Motor Position (mm): 3.500000	
326.493990	2126.991357
326.888308	2126.991357
327.282561	2126.991357
327.676750	2096.762078
328.070874	2094.397777
328.464933	2097.069588
328.858929	2104.563264
329.252859	2112.762700
329.646726	2124.964813
330.040528	2138.041566
330.434265	2157.245842
330.827938	2172.759993
331.221547	2190.852694
331.615091	2209.578060
332.008571	2227.900134
332.401986	2247.953844
332.795338	2265.590320
333.188625	2284.940789
333.581847	2304.301341
333.975006	2321.516881
334.368100	2339.702844
334.761129	2361.047089
335.154095	2373.201311
335.546996	2394.371637
335.939833	2407.372772
336.332606	2422.287026
336.725315	2433.223809
337.117960	2445.148659
337.510540	2453.224587
337.903056	2466.177832
338.295508	2470.036835
338.687896	2481.437405
339.080220	2488.409320
339.472480	2496.167656
339.864676	2497.906854
340.256807	2503.537823
340.648875	2507.127125
341.040879	2508.705006
341.432818	2510.282887
341.824694	2513.252127
342.216506	2511.626354
342.608253	2512.470748
342.999937	2510.030829
343.391557	2510.860099
343.783113	2512.014523
344.174605	2506.998575
344.566033	2508.586539
344.957397	2507.444717
345.348697	2506.663338
345.739934	2506.776764
346.131106	2503.981445
346.522215	2502.055724
346.913260	2497.685043
347.304241	2494.572131
347.695159	2495.451812
348.086012	2494.572131
348.476802	2490.687922
348.867528	2489.145329
349.258191	2490.088025
349.648789	2487.506954
350.039324	2485.969402
350.429796	2484.714155
350.820203	2481.202991
351.210548	2481.956643
351.600828	2482.596870
351.991045	2480.383803
352.381198	2479.665439
352.771288	2481.954123
353.161314	2477.006230
353.551276	2479.055459
353.941175	2476.660911
354.331010	2479.768783
354.720782	2479.073103
355.110490	2477.500263
355.500135	2478.465644
355.889717	2478.511015
356.279235	2480.041005
356.668689	2480.033443
357.058080	2478.516056
357.447408	2476.955819
357.836672	2475.839203
358.225873	2479.294914
358.615010	2478.352218
359.004084	2482.087713
359.393095	2482.780872
359.782043	2484.749443
360.170927	2485.626603
360.559748	2484.439412
360.948505	2483.965543
361.337199	2485.477889
361.725830	2485.278764
362.114398	2487.612818
362.502903	2482.874133
362.891344	2485.389669
363.279722	2488.028713
363.668037	2489.586430
364.056289	2487.580051
364.444478	2490.665237
364.832603	2489.488127
365.220665	2491.302943
365.608665	2490.713128
365.996601	2490.758498
366.384474	2492.109527
366.772284	2491.542398
367.160031	2492.074239
367.547715	2493.528612
367.935336	2496.165136
368.322893	2495.522388
368.710388	2496.449961
369.097820	2498.416011
369.485189	2497.616988
369.872495	2500.223264
370.259738	2499.825013
370.646918	2500.752586
371.034035	2502.073368
371.421090	2505.453462
371.808081	2502.244767
372.195010	2506.585201
372.581875	2507.109481
372.968678	2509.345232
373.355418	2507.669049
373.742096	2509.362876
374.128710	2510.008144
374.515262	2510.313134
374.901751	2511.875892
375.288177	2509.630058
375.674540	2509.425891
376.060841	2513.607528
376.447079	2512.889163
376.833254	2510.444204
377.219367	2509.584687
377.605417	2510.078720
377.991404	2508.495798
378.377329	2513.849503
378.763191	2508.092506
379.148991	2513.065604
379.534727	2513.841942
379.920402	2513.345388
380.306013	2509.451097
380.691563	2512.425377
381.077049	2510.456807
381.462474	2512.725326
381.847835	2509.834224
382.233134	2509.435973
382.618371	2508.551251
383.003545	2509.735922
383.388657	2506.040756
383.773706	2508.246261
384.158693	2504.072185
384.543618	2508.521004
384.928480	2504.901455
385.313280	2508.069820
385.698017	2505.524038
386.082692	2505.254336
386.467305	2503.782319
386.851856	2504.672083
387.236344	2505.957577
387.620770	2507.099398
388.005133	2504.064624
388.389435	2507.298524
388.773674	2503.492453
389.157851	2502.832062
389.541965	2505.171157
389.926018	2504.644356
390.310008	2505.382885
390.693936	2503.570591
391.077802	2505.599655
391.461606	2504.447751
391.845348	2505.390447
392.229027	2504.997237
392.612645	2506.978411
392.996200	2506.572598
393.379694	2505.768534
393.763125	2505.776095
394.146494	2506.877588
394.529801	2505.594614
394.913047	2506.862464
395.296230	2505.518997
395.679351	2506.363390
396.062410	2509.567043
396.445408	2505.450941
396.828343	2508.825993
397.211217	2504.432628
397.594028	2504.966990
397.976778	2504.656959
398.359466	2505.224089
398.742092	2501.667555
399.124656	2508.732732
399.507158	2508.243740
399.889598	2508.813391
400.271977	2507.500170
400.654294	2508.016888
401.036549	2511.119718
401.418742	2508.621827
401.800874	2509.365397
402.182944	2511.535614
402.564952	2509.811539
402.946898	2510.708864
403.328783	2510.527383
403.710606	2512.735408
404.092367	2510.482013
404.474067	2513.869668
404.855705	2510.476971
405.237282	2515.412261
405.618797	2512.226252
406.000250	2512.274143
406.381642	2510.076200
406.762972	2512.803464
407.144240	2511.177692
407.525447	2512.846314
407.906593	2511.976715
408.287677	2511.908659
408.668700	2511.570902
409.049661	2511.568381
409.430560	2512.180881
409.811399	2512.861437
410.192176	2514.076355
410.572891	2515.225738
410.953545	2512.294307
411.334138	2512.669873
411.714669	2515.631551
412.095139	2513.015192
412.475547	2516.186078
412.855894	2516.347395
413.236180	2515.077024
413.616405	2517.204391
413.996568	2515.782786
414.376670	2513.118536
414.756711	2516.027282
415.136691	2515.608866
415.516609	2515.976870
415.896466	2516.143228
416.276262	2517.748836
416.655997	2511.573422
417.035670	2510.751714
417.415283	2514.557785
417.794834	2511.245747
418.174324	2517.476613
418.553753	2516.294463
418.933121	2517.511902
419.312428	2515.432426
419.691674	2519.175482
420.070859	2516.017199
420.449983	2516.372601
420.829045	2516.128105
421.208047	2518.076511
421.586988	2514.754390
421.965867	2518.903260
422.344686	2518.923425
422.723444	2518.870492
423.102141	2517.630369
423.480777	2518.547859
423.859352	2518.792355
424.237866	2516.906963
424.616319	2516.843949
424.994712	2517.494258
425.373044	2518.356295
425.751314	2521.408713
426.129524	2521.781759
426.507673	2518.676408
426.885762	2517.821932
427.263789	2517.274967
427.641756	2520.029958
428.019662	2519.046933
428.397508	2519.929135
428.775292	2522.525329
429.153016	2519.500637
429.530679	2518.295801
429.908282	2517.406037
430.285824	2519.793024
430.663305	2519.866120
431.040726	2519.067098
431.418086	2516.803619
431.795385	2522.570699
432.172624	2521.068436
432.549802	2521.572551
432.926920	2520.440812
433.303977	2518.366377
433.680974	2522.636234
434.057910	2521.229752
434.434786	2521.416275
434.811601	2521.431399
435.188355	2521.133971
435.565050	2522.432068
435.941683	2522.056502
436.318257	2519.558610
436.694770	2518.673888
437.071222	2519.044412
437.447614	2516.327230
437.823946	2520.420647
438.200218	2523.468025
438.576429	2521.454084
438.952580	2523.316790
439.328670	2523.896523
439.704700	2521.796882
440.080670	2523.568848
440.456580	2522.195133
440.832429	2524.972809
441.208218	2523.034486
441.583947	2524.705628
441.959616	2522.537932
442.335224	2524.607326
442.710773	2523.737727
443.086261	2524.045237
443.461689	2523.339475
443.837057	2526.245701
444.212365	2522.230422
444.587612	2522.893333
444.962800	2525.938190
445.337927	2524.118334
445.712995	2524.312418
446.088002	2524.365350
446.462949	2525.272758
446.837837	2526.868283
447.212664	2524.566996
447.587431	2526.565814
447.962139	2523.273940
448.336786	2525.663447
448.711374	2526.754857
449.085901	2526.349044
449.460369	2526.853160
449.834776	2526.959024
450.209124	2526.318797
450.583412	2524.917357
450.957640	2524.675381
451.331808	2527.211082
451.705917	2526.291071
452.079965	2526.684281
452.453954	2527.780732
452.827883	2526.840557
453.201752	2529.172090
453.575562	2524.839219
453.949311	2527.274096
454.323001	2526.248221
454.696632	2527.553880
455.070202	2525.890299
455.443713	2524.685463
455.817164	2524.214116
456.190556	2521.862417
456.563888	2522.469876
456.937160	2523.120185
457.310373	2527.654703
457.683526	2528.229395
458.056619	2525.847449
458.429653	2526.565814
458.802628	2527.110258
459.175542	2527.836185
459.548398	2524.040196
459.921194	2526.477594
460.293930	2528.695701
460.666607	2527.488345
461.039224	2523.445340
461.411782	2527.405166
461.784280	2528.418438
462.156719	2526.520443
462.529099	2529.056144
462.901419	2526.850639
463.273680	2529.835002
463.645882	2527.982378
464.018024	2529.512368
464.390106	2527.901720
464.762130	2530.308871
465.134094	2531.773326
465.505999	2526.636390
465.877845	2528.922553
466.249631	2531.556556
466.621358	2528.819210
466.993026	2533.028573
467.364634	2533.141999
467.736184	2528.305012
468.107674	2525.963396
468.479105	2527.884076
468.850477	2529.630835
469.221790	2527.949611
469.593043	2529.136802
469.964238	2528.534384
470.335373	2531.309540
470.706449	2529.351051
471.077467	2530.331556
471.448425	2531.251566
471.819324	2529.792152
472.190164	2532.000178
472.560945	2530.883562
472.931667	2531.649817
473.302330	2527.127903
473.672934	2532.605116
474.043479	2529.570342
474.413965	2529.131761
474.784393	2526.374250
475.154761	2527.626977
475.525070	2526.044054
475.895321	2527.856349
476.265513	2525.217305
476.635645	2527.957172
477.005719	2530.039169
477.375734	2529.671165
477.745691	2530.787780
478.115588	2533.056299
478.485427	2530.384488
478.855207	2528.922553
479.224928	2531.070085
479.594591	2532.567308
479.964194	2528.952800
480.333739	2531.012112
480.703226	2532.569828
481.072653	2529.567821
481.442022	2528.196627
481.811333	2532.350538
482.180584	2530.208047
482.549777	2533.757020
482.918912	2530.780218
483.287988	2531.559077
483.657005	2532.557225
484.025964	2532.569828
484.394864	2529.998840
484.763706	2532.411032
485.132489	2531.334745
485.501213	2532.416073
485.869879	2531.569159
486.238487	2530.792821
486.607036	2533.580579
486.975527	2534.228368
487.343959	2531.833820
487.712333	2533.023532
488.080648	2532.615198
488.448905	2531.927081
488.817104	2531.624612
489.185244	2532.831968
489.553326	2530.177801
489.921350	2534.387164
490.289315	2533.976310
490.657222	2532.816845
491.025070	2532.905065
491.392861	2532.952956
491.760593	2532.443799
492.128267	2534.268697
492.495883	2531.105373
492.863440	2533.109232
493.230939	2533.441948
493.598380	2532.723583
493.965763	2529.192255
494.333088	2529.139323
494.700354	2529.519930
495.067563	2532.330373
495.434713	2527.884076
495.801805	2531.100332
496.168839	2533.114273
496.535815	2532.310209
496.902733	2532.421114
497.269593	2536.179294
497.636395	2532.257277
498.003139	2532.630322
498.369825	2535.644932
498.736453	2532.668131
499.103023	2533.749458
499.469535	2532.358100
499.835989	2532.489170
500.202385	2533.399098
500.568723	2533.217616
500.935003	2531.914478
501.301226	2533.678882
501.667390	2535.221475
502.033497	2535.115611
502.399546	2535.254242
502.765537	2534.044366
503.131470	2534.780374
503.497345	2534.021680
503.863163	2534.412370
504.228923	2534.825744
504.594625	2532.368182
504.960269	2532.887421
505.325856	2533.396577
505.691385	2535.279448
506.056856	2533.822555
506.422270	2533.643594
506.787625	2534.775333
507.152924	2532.731145
507.518164	2533.310878
507.883347	2532.950435
508.248472	2536.212062
508.613540	2531.871628
508.978550	2532.801721
509.343503	2534.901362
509.708398	2535.103008
510.073236	2534.883718
510.438016	2534.961856
510.802738	2532.436238
511.167403	2534.099818
511.532010	2534.145189
511.896561	2533.109232
512.261053	2535.347504
512.625488	2528.410876
512.989866	2529.764426
513.354186	2532.844571
513.718449	2527.087573
514.082655	2533.152081
514.446803	2534.122503
514.810894	2534.046886
515.174927	2533.404139
515.538904	2536.804397
515.902822	2534.883718
516.266684	2535.259284
516.630488	2534.956814
516.994235	2537.099305
517.357925	2537.459747
517.721558	2535.085364
518.085133	2536.441434
518.448651	2533.205013
518.812112	2536.431352
519.175516	2534.160312
519.538863	2534.873635
519.902152	2534.694674
520.265385	2530.949097
520.628560	2536.232226
520.991678	2537.260622
521.354739	2537.164840
521.717743	2533.313398
522.080690	2534.959335
522.443580	2533.540250
522.806413	2534.881197
523.169189	2536.688451
523.531908	2534.858512
523.894569	2534.853471
524.257174	2537.747093
524.619722	2538.334388
524.982213	2537.926054
525.344647	2535.839016
525.707025	2535.566794
526.069345	2534.820703
526.431608	2536.053265
526.793815	2536.315405
527.155964	2536.499408
527.518057	2536.572504
527.880093	2535.465971
528.242072	2534.596372
528.603995	2539.448483
528.965860	2537.525282
529.327669	2535.760878
529.689421	2534.601413
530.051117	2538.127700
530.412755	2534.374561
530.774337	2534.424973
531.135862	2535.382792
531.497331	2536.035621
531.858743	2533.217616
532.220098	2534.747607
532.581396	2531.806093
532.942638	2533.444468
533.303824	2535.259284
533.664953	2536.940508
534.026025	2532.983203
534.387040	2536.469161
534.747999	2536.625436
535.108902	2534.767771
535.469748	2537.016126
535.830537	2536.489325
536.191270	2536.131403
536.551947	2537.658873
536.912567	2533.101670
537.273131	2537.268183
537.633638	2534.573687
537.994089	2537.245498
538.354483	2536.224665
538.714821	2534.974458
539.075103	2537.109387
539.435328	2537.043852
539.795497	2534.911444
540.155609	2537.500077
540.515665	2536.844727
540.875665	2537.575694
541.235609	2537.058976
541.595496	2537.346321
541.955328	2534.755168
542.315102	2536.970755
542.674821	2540.018133
543.034483	2538.997299
543.394090	2534.926567
543.753640	2536.300282
544.113134	2537.739531
544.472571	2536.116280
544.831953	2537.132072
545.191278	2537.542926
545.550548	2535.836496
545.909761	2536.713657
546.268918	2536.844727
546.628019	2536.292720
546.987064	2537.459747
547.346053	2535.859181
547.704986	2536.469161
548.063863	2537.936136
548.422684	2534.603934
548.781449	2534.901362
549.140158	2536.837165
549.498811	2537.361445
549.857408	2536.383461
550.215949	2533.762061
550.574434	2532.474046
550.932864	2533.489839
551.291237	2530.288706
551.649555	2535.652494
552.007817	2535.758358
552.366022	2538.977135
552.724173	2535.846578
553.082267	2535.367668
553.440305	2535.395395
553.798288	2535.942360
554.156215	2536.746424
554.514086	2537.578214
554.871902	2537.721887
555.229661	2537.573173
555.587365	2537.081661
555.945014	2536.106197
556.302606	2537.782381
556.660143	2539.274563
557.017625	2538.659542
557.375050	2537.550488
557.732421	2535.216434
558.089735	2536.360776
558.446994	2536.171732
558.804197	2535.438245
559.161345	2536.325488
559.518437	2537.497556
559.875474	2535.604603
560.232455	2535.294572
560.589381	2538.611651
560.946251	2538.722556
561.303065	2536.146527
561.659825	2537.106867
562.016528	2535.758358
562.373177	2534.858512
562.729770	2537.061496
563.086307	2536.587628
563.442789	2535.894469
563.799216	2539.972763
564.155587	2535.350024
564.511904	2537.958822
564.868164	2537.800025
565.224370	2535.942360
565.580520	2535.518903
565.936615	2535.332380
566.292654	2536.932947
566.648638	2534.283820
567.004567	2535.952442
567.360441	2532.126207
567.716260	2535.660055
568.072023	2535.571835
568.427732	2533.855322
568.783385	2536.766589
569.138982	2532.373223
569.494525	2536.176774
569.850013	2531.859025
570.205445	2537.356404
570.560823	2536.995961
570.916145	2537.043852
571.271412	2538.520910
571.626625	2537.845396
571.981782	2538.692309
572.336884	2537.149716
572.691931	2536.340611
573.046923	2537.986548
573.401860	2539.385468
573.756743	2535.682741
574.111570	2538.974614
574.466342	2538.508307
574.821059	2536.869932
575.175722	2536.978317
575.530330	2536.769109
575.884882	2537.926054
576.239380	2535.624767
576.593823	2537.684079
576.948211	2535.702905
577.302544	2537.326157
577.656823	2537.396733
578.011047	2536.751465
578.365216	2537.331198
578.719330	2536.196938
579.073389	2537.111908
579.427394	2536.020498
579.781344	2536.088553
580.135239	2536.476722
580.489080	2536.585107
580.842866	2536.270035
581.196597	2537.926054
581.550273	2537.351362
581.903895	2538.528472
582.257463	2535.977648
582.610975	2538.546116
582.964434	2539.869419
583.317837	2540.812115
583.671186	2537.381609
584.024481	2536.791794
584.377721	2537.900848
584.730906	2536.638039
585.084037	2540.945705
585.437113	2536.607792
585.790135	2538.962011
586.143103	2538.256250
586.496016	2538.442772
586.848874	2532.295085
587.201679	2538.110056
587.554428	2533.242822
587.907124	2535.045035
588.259765	2531.183511
588.612352	2535.791125
588.964884	2538.031918
589.317362	2538.674665
589.669786	2537.525282
590.022155	2537.396733
590.374470	2535.967566
590.726731	2537.358924
591.078937	2538.906558
591.431090	2538.891435
591.783188	2540.219779
592.135232	2537.013605
592.487222	2537.623585
592.839157	2537.116949
593.191038	2535.914634
593.542866	2536.481763
593.894639	2537.013605
594.246358	2541.285983
594.598022	2536.217103
594.949633	2539.168698
595.301190	2537.482432
595.652692	2537.462268
596.004141	2535.347504
596.355535	2539.393030
596.706876	2536.343132
597.058162	2539.420756
597.409395	2534.435055
597.760573	2538.780530
598.111698	2539.642567
598.462768	2537.298430
598.813785	2535.889428
599.164748	2538.346990
599.515657	2535.113090
599.866511	2539.972763
600.217312	2537.215251
600.568060	2537.316074
600.918753	2539.244316
601.269392	2539.307330
601.619978	2537.855478
601.970510	2536.101156
602.320988	2537.311033
602.671412	2537.981507
603.021783	2535.400436
603.372100	2538.160468
603.722363	2535.765920
604.072572	2536.144006
604.422728	2538.654501
604.772830	2532.312729
605.122878	2533.630991
605.472872	2535.970086
605.822813	2532.786598
606.172701	2535.977648
606.522534	2537.815149
606.872314	2537.192566
607.222041	2538.641898
607.571714	2535.523944
607.921333	2537.245498
608.270899	2537.878163
608.620411	2540.618030
608.969870	2538.417567
609.319276	2541.351518
609.668627	2542.190870
610.017926	2542.969728
610.367171	2546.806047
610.716362	2543.504091
611.065500	2545.094575
611.414585	2540.814635
611.763616	2540.209697
612.112594	2540.005530
612.461518	2539.148534
612.810389	2538.480581
613.159207	2540.108874
613.507971	2536.012936
613.856682	2537.169881
614.205340	2539.642567
614.553945	2539.909748
614.902496	2539.660211
615.250994	2537.502597
615.599439	2538.016795
615.947830	2539.398071
616.296169	2537.028729
616.644454	2538.142824
616.992686	2538.281455
617.340864	2536.365817
617.688990	2536.784233
618.037063	2538.155427
618.385082	2538.087371
618.733048	2538.843544
619.080961	2535.259284
619.428821	2538.525951
619.776628	2538.687268
620.124382	2539.705581
620.472083	2541.790098
620.819731	2536.887576
621.167326	2535.619726
621.514868	2535.876825
621.862357	2539.186343
622.209793	2539.183822
622.557176	2538.412525
622.904506	2535.218954
623.251783	2534.513193
623.599007	2534.530837
623.946179	2533.663758
624.293297	2534.379602
624.640363	2536.161650
624.987376	2538.742721
625.334336	2538.455375
625.681243	2538.805735
626.028097	2536.186856
626.374899	2537.608461
626.721647	2536.771630
627.068343	2539.088040
627.414987	2536.108718
627.761577	2535.665097
628.108115	2538.374717
628.454600	2539.592155
628.801032	2539.660211
629.147412	2538.911600
629.493739	2535.503780
629.840014	2538.639377
630.186236	2539.854295
630.532405	2537.127031
630.878521	2537.462268
631.224585	2537.111908
631.570597	2538.117618
631.916556	2538.687268
632.262462	2536.176774
632.608316	2538.495704
632.954117	2538.394881
633.299866	2538.969573
633.645562	2537.187525
633.991206	2537.162319
634.336797	2534.361958
634.682336	2536.474202
635.027823	2536.196938
635.373257	2538.031918
635.718639	2536.040663
636.063968	2535.609644
636.409245	2536.922864
636.754470	2537.769778
637.099642	2537.187525
637.444762	2541.323792
637.789829	2534.853471
638.134845	2540.277752
638.479808	2535.108049
638.824719	2537.651311
639.169577	2538.495704
639.514383	2536.512010
639.859137	2538.208359
640.203839	2538.866229
640.548489	2535.856660
640.893086	2534.636701
641.237632	2532.592513
641.582125	2534.271217
641.926566	2532.837009
642.270955	2537.517721
642.615292	2537.452186
642.959576	2534.661907
643.303809	2536.446475
643.647990	2538.888914
643.992118	2540.040818
644.336195	2539.385468
644.680219	2537.500077
645.024192	2537.424459
645.368112	2537.890766
645.711981	2536.849768
646.055797	2538.341949
646.399562	2534.677030
646.743274	2535.954963
647.086935	2539.403112
647.430544	2537.810108
647.774101	2536.418749
648.117606	2535.039993
648.461059	2537.623585
648.804460	2540.794471
649.147810	2537.053934
649.491108	2537.353883
649.834354	2536.244829
650.177548	2537.928575
650.520690	2535.796167
650.863781	2535.183666
651.206820	2538.805735
651.549807	2537.898328
651.892742	2537.530323
652.235626	2533.681403
652.578458	2535.271887
652.921238	2535.486136
653.263967	2537.651311
653.606644	2537.217772
653.949269	2536.822041
654.291843	2537.905889
654.634365	2538.198276
654.976836	2536.141486
655.319255	2537.631147
655.661622	2535.723070
656.003938	2536.380940
656.346203	2536.113759
656.688416	2534.059489
657.030577	2538.747762
657.372687	2536.912782
657.714746	2534.982020
658.056753	2535.947401
658.398708	2529.693850
658.740612	2534.051927
659.082465	2530.507996
659.424266	2537.789943
659.766016	2531.407842
660.107715	2535.312216
660.449362	2534.034283
660.790958	2539.095602
661.132503	2536.723739
661.473996	2536.693492
661.815438	2537.270704
662.156829	2536.917823
662.498168	2535.846578
662.839456	2539.171219
663.180693	2537.374048
663.521879	2536.101156
663.863013	2537.681558
664.204097	2536.370858
664.545129	2536.872453
664.886110	2537.603420
665.227040	2535.937319
665.567918	2536.655683
665.908746	2534.510672
666.249522	2539.211548
666.590248	2534.298944
666.930922	2535.407998
667.271545	2533.555374
667.612118	2536.385982
667.952639	2536.028060
668.293109	2538.467978
668.633528	2534.868594
668.973896	2534.740045
669.314213	2538.135262
669.654480	2536.433873
669.994695	2539.027546
670.334859	2537.333718
670.674973	2536.257432
671.015035	2535.339942
671.355047	2533.232740
671.695008	2537.676517
672.034918	2538.624254
672.374777	2537.663914
672.714585	2535.695343
673.054342	2535.614685
673.394049	2537.210210
673.733705	2536.443955
674.073310	2537.618544
674.412864	2535.806249
674.752368	2536.960673
675.091820	2537.560570
675.431223	2536.345652
675.770574	2537.598379
676.109875	2533.482277
676.449125	2533.605785
676.788324	2533.935981
677.127473	2535.108049
677.466571	2531.957328
677.805619	2536.617875
678.144616	2538.407484
678.483562	2535.949922
678.822458	2534.815662
679.161303	2536.116280
679.500098	2534.074613
679.838842	2536.940508
680.177535	2536.123842
680.516179	2534.077133
680.854771	2537.369007
681.193314	2535.803728
681.531805	2535.718029
681.870247	2535.143337
682.208638	2536.811959
682.546978	2537.689120
682.885268	2534.248532
683.223508	2536.393543
683.561697	2536.249870
683.899836	2536.035621
684.237925	2534.402287
684.575963	2534.528316
684.913951	2533.799870
685.251889	2536.290200
685.589776	2533.520086
685.927614	2536.149047
686.265401	2536.060827
686.603137	2535.995292
686.940824	2536.391023
687.278460	2536.237268
687.616046	2536.257432
687.953582	2535.864222
688.291068	2535.166022
688.628504	2535.481094
688.965889	2534.931609
689.303224	2538.823379
689.640510	2537.394212
689.977745	2534.510672
690.314930	2534.755168
690.652065	2537.409336
690.989150	2534.341794
691.326185	2536.075951
691.663170	2536.446475
692.000105	2536.136444
692.336990	2533.615868
692.673825	2537.104346
693.010610	2536.738862
693.347345	2535.024870
693.684030	2530.485311
694.020665	2533.023532
694.357251	2533.038655
694.693786	2536.759027
695.030272	2534.424973
695.366707	2536.534696
695.703093	2535.798687
696.039429	2536.779192
696.375716	2536.426311
696.711952	2536.343132
697.048139	2533.787267
697.384276	2537.255581
697.720363	2537.489994
698.056400	2535.060158
698.392388	2535.314736
698.728326	2535.488656
699.064214	2535.871784
699.400053	2536.965714
699.735842	2535.362627
700.071581	2535.818852
700.407270	2534.114942
700.742910	2536.680889
701.078501	2534.283820
701.414042	2537.132072
701.749533	2535.337422
702.084974	2535.728111
702.420366	2533.709129
702.755709	2534.997144
703.091002	2536.191897
703.426246	2535.720549
703.761440	2534.871115
704.096584	2536.017977
704.431679	2533.167205
704.766725	2537.053934
705.101721	2535.672658
705.436668	2535.692823
705.771565	2535.246681
706.106413	2536.693492
706.441212	2532.756351
706.775961	2535.758358
707.110661	2535.009747
707.445311	2535.879346
707.779913	2536.433873
708.114465	2536.559901
708.448967	2535.970086
708.783421	2537.361445
709.117825	2534.462781
709.452180	2534.336752
709.786485	2536.587628
710.120742	2537.230375
710.454949	2537.016126
710.789107	2532.731145
711.123216	2532.650487
711.457275	2532.763912
711.791286	2532.088398
712.125247	2533.431865
712.459159	2532.768954
712.793023	2533.794828
713.126837	2532.340456
713.460602	2537.900848
713.794318	2536.726259
714.127985	2537.739531
714.461602	2534.208203
714.795171	2535.516382
715.128691	2534.006557
715.462162	2533.091587
715.795584	2535.574356
716.128957	2535.438245
716.462281	2536.678368
716.795556	2533.018491
717.128782	2535.546629
717.461960	2535.241640
717.795088	2536.600231
718.128167	2533.991433
718.461198	2533.711649
718.794180	2535.430683
719.127113	2535.334901
719.459997	2534.626619
719.792833	2533.436907
720.125619	2534.795498
720.458357	2534.467823
720.791046	2536.522093
721.123686	2531.972451
721.456278	2535.755837
721.788821	2532.017822
722.121315	2537.908410
722.453761	2533.308357
722.786158	2538.677186
723.118506	2533.767102
723.450805	2533.063861
723.783056	2532.607637
724.115259	2532.685775
724.447412	2533.671320
724.779518	2534.803059
725.111574	2534.971938
725.443582	2533.767102
725.775542	2536.146527
726.107453	2534.823224
726.439315	2533.399098
726.771129	2535.561753
727.102895	2535.823893
727.434612	2535.891948
727.766281	2536.126362
728.097901	2533.547812
728.429473	2530.316432
728.760996	2532.506814
729.092471	2531.327184
729.423897	2530.928932
729.755276	2531.629653
730.086606	2532.322812
730.417887	2535.753317
730.749120	2534.603934
731.080305	2533.729293
731.411442	2533.141999
731.742530	2533.232740
732.073570	2536.317926
732.404562	2535.279448
732.735506	2534.082174
733.066401	2535.798687
733.397249	2532.910106
733.728048	2535.508821
734.058798	2533.552853
734.389501	2534.523275
734.720156	2535.899510
735.050762	2532.806762
735.381320	2537.053934
735.711831	2534.036804
736.042293	2533.326001
736.372707	2535.329860
736.703073	2534.477905
737.033391	2534.707277
737.363661	2534.291382
737.693883	2532.302647
738.024056	2535.130734
738.354182	2535.377751
738.684260	2537.253060
739.014290	2533.462112
739.344272	2531.801052
739.674207	2534.248532
740.004093	2533.787267
740.333931	2534.601413
740.663722	2532.257277
740.993464	2534.490508
741.323159	2535.481094
741.652806	2534.717360
741.982405	2536.196938
742.311956	2533.230219
742.641460	2535.065199
742.970915	2532.340456
743.300323	2534.631660
743.629683	2534.591331
743.958996	2535.602082
744.288260	2533.633512
744.617477	2533.830117
744.946647	2529.033459
745.275768	2532.080836
745.604842	2531.947246
745.933869	2531.309540
746.262847	2531.712832
746.591778	2536.136444
746.920662	2533.189890
747.249498	2534.815662
747.578286	2531.609488
747.907027	2533.205013
748.235720	2534.654345
748.564365	2535.027391
748.892963	2533.507483
749.221514	2537.190046
749.550017	2533.414221
749.878473	2535.917154
750.206881	2532.499252
750.535242	2534.243491
750.863555	2533.058820
751.191821	2532.710980
751.520039	2533.714170
751.848210	2536.874973
752.176334	2533.673841
752.504411	2535.342463
752.832440	2532.400949
753.160421	2533.933460
753.488356	2533.260466
753.816243	2535.836496
754.144082	2532.816845
754.471875	2535.763399
754.799620	2533.320960
755.127318	2532.237112
755.454969	2534.460261
755.782572	2535.050076
756.110129	2534.379602
756.437638	2531.516227
756.765100	2532.539581
757.092515	2538.029398
757.419882	2531.906916
757.747203	2534.462781
758.074477	2534.732483
758.401703	2532.141330
758.728882	2532.907585
759.056014	2535.992772
759.383099	2533.966228
759.710138	2533.215096
760.037129	2534.180477
760.364073	2534.276259
760.690970	2535.251722
761.017820	2531.952287
761.344623	2533.701567
761.671379	2535.062679
761.998088	2526.964065
762.324751	2530.089580
762.651366	2530.051772
762.977935	2531.475898
763.304456	2530.850795
763.630931	2535.428162
763.957359	2532.978162
764.283740	2537.928575
764.610074	2532.728624
764.936362	2534.044366
765.262602	2533.779705
765.588796	2534.432534
765.914943	2531.211237
766.241044	2532.050589
766.567097	2534.465302
766.893104	2535.544109
767.219064	2531.614529
767.544978	2532.214427
767.870845	2532.166536
768.196665	2535.604603
768.522438	2532.196783
768.848165	2533.242822
769.173846	2535.309695
769.499479	2533.560415
769.825066	2535.135775
770.150607	2531.380116
770.476101	2535.478574
770.801548	2535.334901
771.126949	2533.341125
771.452303	2530.528161
771.777611	2536.575025
772.102872	2532.557225
772.428087	2532.771474
772.753256	2531.047400
773.078378	2533.804911
773.403453	2533.704088
773.728482	2535.173584
774.053465	2533.363810
774.378401	2532.224509
774.703291	2533.812472
775.028135	2534.601413
775.352932	2533.822555
775.677683	2533.126876
776.002388	2533.096629
776.327046	2532.940353
776.651658	2531.296937
776.976224	2531.493542
777.300743	2533.479756
777.625216	2533.651156
777.949643	2537.361445
778.274024	2531.702750
778.598359	2529.595547
778.922647	2528.723428
779.246889	2529.315763
779.571086	2528.325177
779.895236	2530.172759
780.219339	2532.239633
780.543397	2532.035466
780.867409	2531.175949
781.191374	2533.096629
781.515294	2532.557225
781.839167	2532.191742
782.162995	2534.331711
782.486776	2533.673841
782.810511	2535.251722
783.134201	2534.886238
783.457844	2533.341125
783.781441	2535.155940
784.104993	2532.201824
784.428498	2531.748120
784.751958	2533.225178
785.075372	2531.934643
785.398739	2532.768954
785.722061	2533.998995
786.045337	2534.850950
786.368568	2532.602596
786.691752	2528.819210
787.014891	2531.906916
787.337983	2531.727955
787.661030	2532.322812
787.984031	2534.833306
788.306987	2531.899355
788.629897	2530.606299
788.952760	2532.542102
789.275579	2531.662420
789.598351	2536.272556
789.921078	2532.242153
790.243759	2532.796680
790.566395	2531.324663
790.888984	2531.748120
791.211529	2532.310209
791.534027	2535.039993
791.856480	2532.302647
792.178888	2532.448840
792.501249	2531.806093
792.823566	2533.293234
793.145836	2532.728624
793.468062	2532.166536
793.790241	2532.572349
794.112375	2532.131248
794.434464	2532.431196
794.756507	2532.746268
795.078505	2534.336752
795.400457	2530.946577
795.722364	2528.378109
796.044226	2530.586134
796.366042	2528.148736
796.687812	2531.884231
797.009538	2530.540764
797.331218	2534.132586
797.652852	2532.658048
797.974442	2532.055630
798.295986	2530.409694
798.617484	2532.262318
798.938938	2532.484128
799.260346	2532.627801
799.581709	2532.068233
799.903026	2535.450848
800.224299	2533.051258
800.545526	2532.521937
800.866708	2533.784746
801.187845	2532.844571
801.508936	2530.601257
801.829983	2533.414221
802.150984	2532.743748
802.471940	2532.779036
802.792851	2531.705270
803.113717	2532.373223
803.434538	2533.930940
803.755314	2532.658048
804.076045	2532.332894
804.396731	2534.374561
804.717372	2530.581093
805.037967	2532.365661
805.358518	2533.615867
805.679024	2532.204344
805.999485	2531.450692
806.319901	2534.510672
806.640272	2531.110414
806.960598	2531.422966
807.280879	2533.699047
807.601115	2530.104704
807.921306	2534.361958
808.241453	2530.518078
808.561554	2530.765095
808.881611	2531.569159
809.201623	2530.886083
809.521590	2532.020342
809.841513	2535.075282
810.161390	2533.389016
810.481223	2533.071423
810.801011	2532.544622
811.120755	2530.613860
811.440453	2534.757689
811.760107	2531.959848
812.079716	2530.697039
812.399281	2525.015659
812.718801	2529.298119
813.038276	2527.581606
813.357707	2532.375744
813.677093	2531.158305
813.996434	2534.165353
814.315731	2530.321473
814.634983	2532.012781
814.954191	2528.068078
815.273354	2534.424973
815.592473	2532.494211
815.911547	2529.419107
816.230577	2532.721063
816.549562	2530.901206
816.868502	2531.876669
817.187399	2530.565969
817.506250	2533.504962
817.825058	2532.458923
818.143821	2533.237781
818.462539	2531.296937
818.781213	2533.391536
819.099843	2532.925229
819.418429	2532.032945
819.736970	2532.332894
820.055466	2531.128058
820.373919	2529.388860
820.692327	2530.850795
821.010691	2531.218799
821.329011	2532.703419
821.647286	2536.398584
821.965517	2531.538912
822.283704	2531.536392
822.601847	2532.975641
822.919945	2532.837009
823.237999	2531.395239
823.556010	2535.418080
823.873976	2532.174098
824.191897	2534.881197
824.509775	2532.103521
824.827609	2533.595703
825.145398	2529.842564
825.463144	2534.359438
825.780845	2528.637728
826.098502	2532.922709
826.416116	2533.023532
826.733685	2532.101001
827.051210	2530.828109
827.368692	2530.303829
827.686129	2531.304498
828.003522	2532.095960
828.320872	2527.208561
828.638177	2529.119158
828.955439	2527.087573
829.272656	2527.934487
829.589830	2525.391225
829.906960	2530.933974
830.224046	2532.126207
830.541088	2529.794673
830.858086	2531.806093
831.175041	2531.443130
831.491952	2530.082019
831.808819	2532.373223
832.125642	2530.369364
832.442421	2531.725435
832.759157	2529.623274
833.075849	2532.796680
833.392497	2532.559746
833.709101	2531.990095
834.025662	2528.594878
834.342179	2532.290044
834.658653	2530.876000
834.975083	2531.584282
835.291469	2537.353883
835.607811	2530.364323
835.924110	2529.557739
836.240366	2532.413552
836.556578	2532.153933
836.872746	2532.176618
837.188871	2533.257946
837.504952	2530.197965
837.820990	2529.802235
838.136984	2532.758871
838.452935	2530.936494
838.768842	2531.458254
839.084706	2529.061185
839.400526	2528.985568
839.716303	2531.458254
840.032037	2531.982534
840.347727	2530.621422
840.663373	2532.395908
840.978977	2529.739220
841.294537	2531.483459
841.610054	2530.608819
841.925527	2533.053779
842.240957	2532.179139
842.556344	2531.417924
842.871687	2533.391536
843.186987	2532.116124
843.502244	2529.610671
843.817458	2531.377595
844.132629	2532.854653
844.447756	2532.963038
844.762840	2525.003056
845.077881	2531.233922
845.392879	2527.143026
845.707833	2530.122348
846.022745	2523.538601
846.337613	2529.146885
846.652438	2532.469005
846.967221	2530.540764
847.281960	2530.318953
847.596656	2534.253573
847.911309	2530.230733
848.225919	2531.869108
848.540485	2529.966072
848.855009	2533.111752
849.169490	2530.341638
849.483928	2529.109076
849.798323	2529.116638
850.112675	2532.799201
850.426984	2530.490352
850.741251	2531.614529
851.055474	2529.890455
851.369654	2529.398942
851.683792	2528.594878
851.997887	2530.984385
852.311938	2531.780888
852.625947	2531.241484
852.939914	2530.802904
853.253837	2534.679551
853.567718	2531.241484
853.881555	2531.445651
854.195350	2531.599406
854.509103	2532.862215
854.822812	2532.088398
855.136479	2531.528830
855.450103	2530.429858
855.763685	2531.412883
856.077224	2525.587830
856.390720	2528.194107
856.704173	2529.340969
857.017584	2529.048582
857.330953	2530.099663
857.644278	2531.266690
857.957561	2535.186187
858.270802	2529.703932
858.584000	2529.615712
858.897155	2529.711494
859.210268	2530.984385
859.523339	2528.657893
859.836367	2529.177132
860.149352	2533.331042
860.462295	2530.714683
860.775195	2528.599919
861.088054	2529.242667
861.400869	2528.151257
861.713642	2526.492717
862.026373	2527.170752
862.339062	2531.740558
862.651708	2531.168387
862.964312	2529.860208
863.276873	2529.028418
863.589392	2530.170239
863.901869	2529.240146
864.214303	2529.978675
864.526696	2530.477749
864.839045	2527.324507
865.151353	2531.478418
865.463619	2531.367513
865.775842	2531.324663
866.088023	2531.304498
866.400162	2529.555218
866.712258	2528.128572
867.024313	2531.927081
867.336325	2529.877852
867.648296	2531.105373
867.960224	2529.524971
868.272110	2528.816689
868.583954	2527.695032
868.895755	2531.455733
869.207515	2530.568490
869.519233	2529.492204
869.830909	2530.923891
870.142542	2528.572193
870.454134	2529.797193
870.765684	2528.451205
871.077191	2530.076977
871.388657	2530.487832
871.700081	2529.373737
872.011463	2530.722245
872.322803	2526.457429
872.634101	2527.591689
872.945357	2530.117307
873.256571	2530.530681
873.567744	2532.630322
873.878874	2531.075126
874.189963	2530.523120
874.501010	2532.542102
874.812015	2529.703932
875.122979	2531.342307
875.433900	2529.371216
875.744780	2528.763757
876.055618	2531.760723
876.366415	2531.236443
876.677169	2530.359282
876.987882	2529.792152
877.298554	2526.109589
877.609183	2529.356092
877.919771	2524.304856
878.230317	2526.918695
878.540822	2528.511699
878.851285	2530.634025
879.161707	2529.320804
879.472087	2528.337779
879.782425	2528.375588
880.092722	2531.571680
880.402977	2528.811648
880.713191	2530.094622
881.023363	2530.147554
881.333494	2532.239632
881.643583	2529.958510
881.953631	2529.724097
882.263637	2530.089580
882.573602	2528.675537
882.883526	2531.223840
883.193408	2529.968593
883.503248	2529.940866
883.813048	2531.115455
884.122806	2526.903571
884.432522	2530.084539
884.742197	2529.754344
885.051831	2529.104035
885.361424	2528.448685
885.670975	2530.006401
885.980485	2528.912471
886.289954	2528.539426
886.599382	2528.158818
886.908768	2529.300640
887.218113	2530.094622
887.527417	2531.102852
887.836680	2530.273583
888.145901	2531.727955
888.455082	2528.935156
888.764221	2531.617050
889.073319	2530.157636
889.382376	2529.225023
889.691392	2529.920702
890.000366	2530.145033
890.309300	2532.529499
890.618193	2530.550846
890.927044	2527.170752
891.235855	2531.201155
891.544625	2530.099663
891.853353	2529.840043
892.162041	2528.927594
892.470687	2531.354910
892.779293	2530.578572
893.087858	2527.241328
893.396381	2523.790659
893.704864	2528.163860
894.013306	2523.382325
894.321707	2530.613860
894.630068	2529.192255
894.938387	2530.881042
895.246665	2526.359127
895.554903	2530.893644
895.863100	2528.146216
896.171256	2529.986237
896.479371	2529.184693
896.787446	2530.092101
897.095480	2530.051772
897.403473	2528.491535
897.711425	2529.242667
898.019336	2528.332738
898.327207	2527.974816
898.635038	2531.488501
898.942827	2529.736700
899.250576	2530.170239
899.558284	2532.012781
899.865952	2529.300640
900.173579	2529.325846
900.481165	2530.971782
900.788711	2529.295599
901.096216	2528.509179
901.403681	2527.538757
901.711105	2529.714014
902.018489	2528.945238
902.325832	2532.174098
902.633135	2527.984899
902.940397	2530.313912
903.247619	2527.372398
903.554800	2526.162522
903.861941	2528.224353
904.169041	2526.941380
904.476101	2529.033459
904.783121	2528.456247
905.090100	2528.730989
905.397039	2527.788294
905.703938	2527.329549
906.010796	2529.613191
906.317614	2526.258303
906.624391	2531.392719
906.931129	2527.848788
907.237826	2527.269055
907.544483	2530.548325
907.851099	2528.849457
908.157675	2527.579086
908.464211	2529.499765
908.770707	2523.951976
909.077163	2530.686957
909.383578	2526.893489
909.689954	2523.573889
909.996289	2523.357119
910.302584	2530.429858
910.608839	2529.497245
910.915054	2529.053623
911.221229	2528.100845
911.527363	2530.296268
911.833458	2528.204189
912.139513	2531.541433
912.445527	2529.124199
912.751502	2529.590506
913.057436	2530.056813
913.363331	2528.446164
913.669186	2528.995650
913.975000	2530.056813
914.280775	2533.061341
914.586510	2527.556401
914.892205	2528.357944
915.197859	2528.577234
915.503475	2530.757533
915.809050	2530.691998
916.114585	2528.400794
916.420081	2529.242667
916.725536	2528.400794
917.030952	2527.687471
917.336328	2528.804086
917.641665	2528.617563
917.946961	2529.484642
918.252218	2527.243849
918.557435	2528.267203
918.862612	2528.947759
919.167750	2528.453726
919.472848	2527.851308
919.777906	2527.858870
920.082925	2527.485824
920.387904	2527.644621
920.692843	2529.580424
920.997743	2527.647141
921.302603	2528.282327
921.607423	2528.299971
921.912204	2525.857532
922.216946	2528.456247
922.521647	2531.188552
922.826310	2528.723428
923.130932	2531.221319
923.435516	2526.548170
923.740059	2529.542615
924.044564	2529.721576
924.349028	2530.896165
924.653454	2527.339631
924.957840	2528.221833
925.262186	2523.770494
925.566493	2526.931297
925.870761	2525.169414
926.174989	2528.902389
926.479178	2528.168901
926.783328	2528.345341
927.087438	2525.325690
927.391509	2528.478932
927.695541	2527.347193
927.999533	2526.991791
928.303486	2529.282996
928.607400	2526.172604
928.911275	2529.189734
929.215110	2527.150588
929.518906	2526.704446
929.822663	2528.221833
930.126381	2526.931298
930.430060	2529.199817
930.733699	2528.110928
931.037299	2528.231915
931.340861	2529.787111
931.644383	2531.826258
931.947866	2527.505989
932.251309	2528.723428
932.554714	2526.749816
932.858080	2529.731658
933.161407	2526.764939
933.464694	2531.722914
933.767943	2527.440454
934.071153	2528.882224
934.374323	2529.131761
934.677455	2529.870290
934.980548	2527.480783
935.283602	2527.790814
935.586617	2528.799045
935.889593	2527.876514
936.192530	2526.255783
936.495428	2530.316432
936.798287	2528.262162
937.101108	2527.569003
937.403890	2527.614374
937.706632	2528.809127
938.009336	2531.911958
938.312002	2529.247708
938.614628	2524.720752
938.917216	2530.003881
939.219765	2529.887934
939.522275	2529.759385
939.824747	2530.238294
940.127179	2527.082532
940.429573	2524.592202
940.731929	2527.190917
941.034246	2523.495751
941.336524	2526.989271
941.638763	2528.259642
941.940964	2528.093283
942.243126	2527.127902
942.545250	2528.761236
942.847335	2529.769467
943.149381	2527.216123
943.451389	2526.593540
943.753359	2530.329035
944.055290	2527.730320
944.357182	2526.180166
944.659036	2527.919364
944.960851	2527.175793
945.262628	2526.843077
945.564367	2527.591689
945.866067	2526.580937
946.167729	2528.393232
946.469352	2527.253931
946.770937	2528.927594
947.072484	2528.612522
947.373992	2527.127903
947.675462	2528.650331
947.976893	2528.993129
948.278286	2528.652852
948.579641	2528.652852
948.880958	2526.492717
949.182236	2528.912471
949.483476	2529.068747
949.784678	2530.439941
950.085841	2528.955321
950.386967	2527.770650
950.688054	2528.108407
950.989103	2527.952131
951.290114	2527.463139
951.591087	2526.182686
951.892021	2525.681091
952.192917	2528.602440
952.493776	2526.722090
952.794596	2527.647141
953.095378	2529.545136
953.396122	2528.231915
953.696828	2528.705784
953.997496	2528.294930
954.298126	2526.923736
954.598718	2530.162677
954.899272	2528.766278
955.199788	2529.643438
955.500266	2528.844415
955.800706	2523.362161
956.101108	2523.836029
956.401472	2525.471883
956.701798	2521.673374
957.002087	2522.358971
957.302337	2526.971627
957.602550	2528.960362
957.902724	2527.926925
958.202861	2530.901206
958.502960	2527.395084
958.803022	2525.487007
959.103045	2527.145547
959.403031	2527.518592
959.702979	2527.679909
960.002889	2527.939528
960.302762	2526.676719
960.602596	2526.268386
960.902393	2527.717718
961.202153	2526.979188
961.501875	2527.647141
961.801559	2526.331400
962.101205	2530.535723
962.400814	2528.511699
962.700385	2528.305012
962.999918	2531.344828
963.299414	2527.916843
963.598873	2531.112935
963.898293	2524.698066
964.197677	2529.386339
964.497022	2527.929446
964.796331	2526.104548
965.095601	2528.650331
965.394835	2529.822399
965.694030	2527.140505
965.993189	2528.398273
966.292309	2525.970958
966.591393	2527.450536
966.890439	2530.029087
967.189447	2525.406348
967.488419	2526.117151
967.787353	2530.225692
968.086249	2523.609177
968.385108	2524.912315
968.683930	2527.208561
968.982714	2526.643952
969.281462	2526.875845
969.580172	2525.504651
969.878844	2527.679909
970.177480	2525.784435
970.476078	2525.217305
970.774639	2528.070598
971.073162	2528.100845
971.371649	2524.196472
971.670098	2526.177645
971.968510	2524.133457
972.266885	2521.819567
972.565223	2528.037831
972.863524	2528.158818
973.161788	2528.156298
973.460014	2525.918026
973.758204	2526.898530
974.056356	2529.426669
974.354471	2527.916843
974.652550	2528.262162
974.950591	2528.158818
975.248595	2526.911133
975.546563	2528.264683
975.844493	2527.178314
976.142386	2528.738551
976.440243	2523.231091
976.738062	2527.642100
977.035845	2527.533715
977.333590	2527.158149
977.631299	2527.243849
977.928971	2526.376771
978.226606	2528.670496
978.524204	2525.113962
978.821765	2527.964734
979.119290	2527.125382
979.416777	2526.210413
979.714228	2525.986081
980.011642	2524.612367
980.309020	2529.328366
980.606360	2525.925587
980.903664	2525.605474
981.200931	2526.487676
981.498162	2523.911646
981.795356	2526.583458
982.092513	2527.420289
982.389633	2528.907430
982.686717	2526.694363
982.983764	2527.768129
983.280775	2526.475073
983.577749	2524.851822
983.874686	2528.194107
984.171587	2527.931967
984.468451	2526.462470
984.765279	2525.350896
985.062070	2526.452388
985.358824	2529.560259
985.655543	2524.899713
985.952224	2526.296112
986.248869	2525.182017
986.545478	2521.532222
986.842050	2526.003725
987.138586	2522.532891
987.435086	2525.618077
987.731549	2521.133971
988.027975	2529.764426
988.324366	2526.974147
988.620719	2527.720238
988.917037	2526.913653
989.213318	2528.007584
989.509563	2527.337110
989.805772	2525.751668
990.101944	2526.654034
990.398080	2528.630166
990.694180	2524.322500
990.990244	2526.250742
991.286271	2526.475073
991.582262	2525.736544
991.878217	2524.783766
992.174136	2528.045392
992.470019	2523.183200
992.765865	2528.247039
993.061676	2525.945752
993.357450	2528.960362
993.653188	2526.724610
993.948890	2528.564631
994.244556	2524.529188
994.540186	2528.241998
994.835780	2526.243180
995.131337	2527.022038
995.426859	2525.711338
995.722345	2525.199661
996.017795	2525.713859
996.313208	2527.919364
996.608586	2524.667819
996.903928	2529.688809
997.199234	2527.087573
997.494504	2527.115300
997.789738	2526.951462
998.084936	2526.795186
998.380099	2524.040196
998.675225	2526.880886
998.970316	2527.233767
999.265371	2525.915505
999.560390	2526.815351
999.855373	2526.989271
1000.150320	2527.896678
1000.445232	2527.102697
1000.740108	2525.718900
1001.034948	2525.280320
1001.329752	2526.442306
1001.624521	2526.971627
1001.919254	2523.031965
1002.213951	2521.580113
1002.508613	2523.926770
1002.803239	2527.649662
1003.097829	2519.510719
1003.392384	2526.558252
1003.686903	2527.059847
1003.981386	2522.787469
1004.275834	2526.480114
1004.570246	2527.856349
1004.864623	2526.812830
1005.158964	2528.310053
1005.453270	2524.771163
1005.747540	2525.693694
1006.041775	2529.086391
1006.335974	2527.460619
1006.630138	2524.675381
1006.924266	2524.826616
1007.218359	2525.088756
1007.512416	2527.231246
1007.806438	2526.414579
1008.100425	2525.912984
1008.394376	2522.275792
1008.688292	2526.971627
1008.982172	2525.658406
1009.276017	2529.056144
1009.569827	2524.582120
1009.863602	2526.717048
1010.157341	2526.893489
1010.451045	2524.201513
1010.744714	2525.640762
1011.038347	2529.383819
1011.331945	2524.410721
1011.625508	2525.028262
1011.919036	2525.502130
1012.212528	2525.048427
1012.505986	2521.464166
1012.799408	2525.655886
1013.092795	2526.772501
1013.386147	2528.083201
1013.679464	2527.536236
1013.972745	2526.838036
1014.265992	2524.458612
1014.559204	2525.756709
1014.852380	2524.514064
1015.145521	2526.422141
1015.438628	2526.114631
1015.731699	2525.340813
1016.024736	2526.434744
1016.317737	2525.607995
1016.610703	2526.243180
1016.903635	2521.018024
1017.196531	2521.849814
1017.489393	2526.706966
1017.782219	2522.626152
1018.075011	2524.511544
1018.367768	2526.858201
1018.660490	2524.521626
1018.953177	2524.521626
1019.245829	2524.521626
