Dividing Wavelength (nm)	Counts (n)	Blue Motor Position (mm): 0.000000	Red Motor Position (mm): 40.700000	
326.493990	2127.170318
326.888308	2127.170318
327.282561	2127.170318
327.676750	2094.117993
328.070874	2093.588672
328.464933	2095.534557
328.858929	2102.851792
329.252859	2112.256064
329.646726	2123.132354
330.040528	2137.035856
330.434265	2154.284164
330.827938	2171.771927
331.221547	2191.283713
331.615091	2207.470858
332.008571	2225.397201
332.401986	2248.049626
332.795338	2269.192225
333.188625	2285.641510
333.581847	2304.934006
333.975006	2325.065853
334.368100	2342.404902
334.761129	2356.963754
335.154095	2376.168030
335.546996	2396.403222
335.939833	2417.160173
336.332606	2435.338573
336.725315	2444.556323
337.117960	2455.702314
337.510540	2461.421503
337.903056	2475.246868
338.295508	2481.974288
338.687896	2488.903353
339.080220	2496.117245
339.472480	2506.171826
339.864676	2507.706857
340.256807	2511.601149
340.648875	2514.787158
341.040879	2518.689011
341.432818	2522.822757
341.824694	2521.063394
342.216506	2521.317973
342.608253	2524.188910
342.999937	2522.169928
343.391557	2523.132788
343.783113	2521.776718
344.174605	2520.438291
344.566033	2518.328568
344.957397	2516.460821
345.348697	2516.917045
345.739934	2512.488392
346.131106	2511.865809
346.522215	2510.338340
346.913260	2506.912876
347.304241	2509.514111
347.695159	2508.392454
348.086012	2508.095026
348.476802	2504.001609
348.867528	2501.327277
349.258191	2495.739158
349.648789	2497.622029
350.039324	2495.310660
350.429796	2496.102121
350.820203	2494.647748
351.210548	2498.511793
351.600828	2492.086842
351.991045	2493.763026
352.381198	2491.416369
352.771288	2489.651965
353.161314	2491.131543
353.551276	2492.636328
353.941175	2493.377377
354.331010	2491.653303
354.720782	2487.706079
355.110490	2492.467449
355.500135	2491.625577
355.889717	2490.216574
356.279235	2491.691112
356.668689	2493.674806
357.058080	2492.797645
357.447408	2491.043323
357.836672	2490.244300
358.225873	2492.540546
358.615010	2489.450319
359.004084	2494.786380
359.393095	2492.366626
359.782043	2495.300578
360.170927	2494.980464
360.559748	2498.635301
360.948505	2497.899293
361.337199	2498.753768
361.725830	2501.274345
362.114398	2501.334839
362.502903	2502.388440
362.891344	2501.473471
363.279722	2501.672596
363.668037	2501.236536
364.056289	2502.632936
364.444478	2504.843482
364.832603	2504.369613
365.220665	2504.367093
365.608665	2505.392968
365.996601	2508.359687
366.384474	2508.112670
366.772284	2506.557474
367.160031	2510.630727
367.547715	2512.949657
367.935336	2513.385717
368.322893	2519.077180
368.710388	2520.660102
369.097820	2530.565969
369.485189	2532.002698
369.872495	2536.237268
370.259738	2541.369162
370.646918	2549.712272
371.034035	2557.710062
371.421090	2564.855898
371.808081	2577.461303
372.195010	2588.766091
372.581875	2598.518203
372.968678	2612.809874
373.355418	2626.126082
373.742096	2642.225007
374.128710	2656.859476
374.515262	2671.919923
374.901751	2683.295287
375.288177	2697.647452
375.674540	2722.734754
376.060841	2740.938361
376.447079	2758.547111
376.833254	2782.013682
377.219367	2790.941566
377.605417	2829.715600
377.991404	2840.906962
378.377329	2862.780528
378.763191	2879.048332
379.148991	2916.151224
379.534727	2942.271963
379.920402	2969.123669
380.306013	2984.859631
380.691563	3031.969213
381.077049	3050.349260
381.462474	3068.237795
381.847835	3109.963425
382.233134	3132.391518
382.618371	3135.068371
383.003545	3198.309646
383.388657	3207.882797
383.773706	3240.781367
384.158693	3258.551435
384.543618	3282.625465
384.928480	3316.088644
385.313280	3363.936756
385.698017	3363.825850
386.082692	3416.820980
386.467305	3421.378183
386.851856	3453.485292
387.236344	3475.240392
387.620770	3506.616533
388.005133	3533.473280
388.389435	3561.459246
388.773674	3569.018456
389.157851	3614.598048
389.541965	3631.362406
389.926018	3592.485027
390.310008	3665.561593
390.693936	3684.894418
391.077802	3725.200964
391.461606	3715.234603
391.845348	3778.954787
392.229027	3774.195938
392.612645	3788.996766
392.996200	3871.094477
393.379694	3907.879776
393.763125	3972.656083
394.146494	3939.084519
394.529801	4002.655989
394.913047	4051.774472
395.296230	4019.052342
395.679351	4072.786001
396.062410	4095.874486
396.445408	4076.029983
396.828343	4110.173718
397.211217	4131.288591
397.594028	4050.247002
397.976778	4118.161427
398.359466	4142.845437
398.742092	4175.978420
399.124656	4099.264662
399.507158	4180.167619
399.889598	4203.563614
400.271977	4267.021659
400.654294	4233.712235
401.036549	4243.023246
401.418742	4214.018967
401.800874	4316.944205
402.182944	4334.681505
402.564952	4400.881937
402.946898	4388.205956
403.328783	4384.465420
403.710606	4297.734888
404.092367	4490.042305
404.474067	4454.469403
404.855705	4459.397131
405.237282	4390.681163
405.618797	4498.347606
406.000250	4533.456722
406.381642	4614.488229
406.762972	4576.745110
407.144240	4588.175926
407.525447	4590.557871
407.906593	4647.089371
408.287677	4691.282646
408.668700	4620.981235
409.049661	4669.396476
409.430560	4710.552456
409.811399	4637.518740
410.192176	4801.066374
410.572891	4737.736878
410.953545	4840.215974
411.334138	4716.407757
411.714669	4785.751348
412.095139	4687.315258
412.475547	4827.066125
412.855894	4809.192714
413.236180	4816.300741
413.616405	4771.421868
413.996568	4858.724571
414.376670	4797.318276
414.756711	4753.611472
415.136691	4785.564826
415.516609	4861.252709
415.896466	4902.597733
416.276262	4932.300211
416.655997	4914.449485
417.035670	5100.392445
417.415283	5189.111712
417.794834	5130.168020
418.174324	5087.923151
418.553753	4995.909490
418.933121	5175.170401
419.312428	5245.756637
419.691674	5182.122152
420.070859	5311.649559
420.449983	5222.864757
420.829045	5335.123692
421.208047	5248.572121
421.586988	5316.191638
421.965867	5326.715047
422.344686	5461.618844
422.723444	5313.116534
423.102141	5133.719513
423.480777	5432.682621
423.859352	5201.434812
424.237866	5460.935768
424.616319	5453.865550
424.994712	5560.788423
425.373044	5438.180000
425.751314	5580.073357
426.129524	5381.842585
426.507673	5572.766204
426.885762	5663.544782
427.263789	5593.361838
427.641756	5473.563858
428.019662	5595.461479
428.397508	5602.758549
428.775292	5544.926432
429.153016	5650.556249
429.530679	5574.056740
429.908282	5662.092930
430.285824	5533.457807
430.663305	5806.897554
431.040726	5540.535587
431.418086	5540.429723
431.795385	5642.518130
432.172624	5658.700233
432.549802	5653.951467
432.926920	5665.515873
433.303977	5674.206823
433.680974	5713.915992
434.057910	5729.490636
434.434786	5738.103448
434.811601	5706.109765
435.188355	5941.428306
435.565050	5814.943235
435.941683	5796.502694
436.318257	6012.349779
436.694770	5992.510318
437.071222	6030.273601
437.447614	5963.453107
437.823946	5872.130084
438.200218	6024.935019
438.576429	5893.499536
438.952580	5990.997972
439.328670	6035.632348
439.704700	5942.728923
440.080670	5931.580412
440.456580	6199.863058
440.832429	6080.533905
441.208218	5929.798364
441.583947	6082.177321
441.959616	6085.247384
442.335224	6011.709552
442.710773	6154.064175
443.086261	6177.044275
443.461689	5976.285364
443.837057	6120.921109
444.212365	6276.050016
444.587612	6168.570095
444.962800	6323.318395
445.337927	6303.143697
445.712995	5915.337814
446.088002	6492.141596
446.462949	6320.694474
446.837837	6251.043372
447.212664	6425.321102
447.587431	6568.905766
447.962139	7106.441480
448.336786	8035.032101
448.711374	7777.562730
449.085901	6850.469332
449.460369	6768.190139
449.834776	6706.201591
450.209124	7091.673420
450.583412	7247.084631
450.957640	7390.709625
451.331808	7161.717732
451.705917	6716.309105
452.079965	6638.960161
452.453954	6846.277613
452.827883	6721.662810
453.201752	6820.963458
453.575562	6613.467046
453.949311	6818.483211
454.323001	6707.502209
454.696632	6785.672861
455.070202	6920.203613
455.443713	7080.456853
455.817164	7177.080648
456.190556	7257.678616
456.563888	7332.554874
456.937160	7382.593367
457.310373	7033.455655
457.683526	7059.319295
458.056619	6946.357119
458.429653	6933.310613
458.802628	6871.889195
459.175542	6984.105279
459.548398	7332.285172
459.921194	7495.326170
460.293930	7498.441603
460.666607	8025.839557
461.039224	8338.738935
461.411782	8460.606309
461.784280	8486.399372
462.156719	8371.839151
462.529099	8249.470183
462.901419	7843.188471
463.273680	7734.168478
463.645882	7744.361691
464.018024	7614.710776
464.390106	7777.361084
464.762130	8170.298862
465.134094	8633.853122
465.505999	9654.805243
465.877845	10882.071627
466.249631	11534.502798
466.621358	11151.170939
466.993026	10516.562767
467.364634	10254.619372
467.736184	9892.354495
468.107674	9561.145646
468.479105	9596.579916
468.850477	9361.445378
469.221790	9138.460019
469.593043	8804.783526
469.964238	8667.054162
470.335373	8674.474740
470.706449	8728.518430
471.077467	8711.310451
471.448425	10016.046766
471.819324	11101.775193
472.190164	11128.626899
472.560945	9874.884376
472.931667	9085.661495
473.302330	8945.832490
473.672934	8596.283923
474.043479	8955.740878
474.413965	8894.289212
474.784393	8780.207901
475.154761	8936.811345
475.525070	9024.492134
475.895321	8842.677879
476.265513	9027.897433
476.635645	9191.215694
477.005719	9192.443215
477.375734	9305.450761
477.745691	9547.378255
478.115588	9680.651239
478.485427	9920.912631
478.855207	10450.642119
479.224928	11264.750656
479.594591	11901.498798
479.964194	11714.696322
480.333739	11652.755665
480.703226	11568.369270
481.072653	11664.877119
481.442022	11897.254147
481.811333	12087.625760
482.180584	11893.846327
482.549777	11605.721699
482.918912	11430.309710
483.287988	11444.508120
483.657005	11458.724174
484.025964	11138.741975
484.394864	11272.360278
484.763706	11243.494631
485.132489	11002.701397
485.501213	10961.648761
485.869879	11043.570031
486.238487	10872.420338
486.607036	10988.946609
486.975527	10772.673547
487.343959	10955.327154
487.712333	11003.273568
488.080648	10940.856522
488.448905	10987.323357
488.817104	10922.637792
489.185244	11187.598317
489.553326	11336.261944
489.921350	11876.719007
490.289315	12940.379783
490.657222	13291.024801
491.025070	13200.089947
491.392861	13070.083630
491.760593	12689.685723
492.128267	12345.677384
492.495883	12011.796724
492.863440	11676.086125
493.230939	11339.067346
493.598380	11271.601584
493.965763	11143.528550
494.333088	11039.408559
494.700354	10961.202618
495.067563	11015.027018
495.434713	10850.735814
495.801805	10981.271452
496.168839	10894.548482
496.535815	10837.180152
496.902733	10836.229894
497.269593	10765.391600
497.636395	10869.367919
498.003139	10855.718995
498.369825	10725.329551
498.736453	10878.255473
499.103023	10811.129989
499.469535	10838.143012
499.835989	10827.082720
500.202385	10793.243975
500.568723	10639.458536
500.935003	10860.041784
501.301226	10672.841057
501.667390	10928.014182
502.033497	11021.877946
502.399546	10885.043387
502.765537	10791.003182
503.131470	10862.600170
503.497345	11036.020903
503.863163	10646.760647
504.228923	10966.329472
504.594625	11022.946671
504.960269	10775.912488
505.325856	10992.051959
505.691385	10785.427666
506.056856	10940.478435
506.422270	10960.617845
506.787625	10856.351660
507.152924	10966.904163
507.518164	10955.332195
507.883347	10871.601150
508.248472	10792.132401
508.613540	11024.910200
508.978550	10906.556511
509.343503	10888.035312
509.708398	11005.055616
510.073236	11113.228695
510.438016	11119.852771
510.802738	11070.109186
511.167403	11117.410332
511.532010	11019.755620
511.896561	11252.762792
512.261053	11325.988073
512.625488	11187.956239
512.989866	11174.718169
513.354186	11160.769296
513.718449	11061.849255
514.082655	11261.184040
514.446803	11155.113122
514.810894	11277.015783
515.174927	11142.537963
515.538904	11167.524442
515.902822	11314.456433
516.266684	11202.008455
516.630488	11147.690023
516.994235	11202.628517
517.357925	11263.253433
517.721558	11349.464726
518.085133	11369.934331
518.448651	11372.449867
518.812112	11258.083730
519.175516	11275.642069
519.538863	11394.459545
519.902152	11308.656586
520.265385	11470.903602
520.628560	11383.936136
520.991678	11361.785306
521.354739	11422.024574
521.717743	11358.805984
522.080690	11333.995945
522.443580	11468.105761
522.806413	11425.755028
523.169189	11452.188318
523.531908	11506.418530
523.894569	11322.895325
524.257174	11329.852117
524.619722	11450.257556
524.982213	11397.912735
525.344647	11451.812752
525.707025	11398.384083
526.069345	11491.773978
526.431608	11412.128789
526.793815	11521.597445
527.155964	11315.951135
527.518057	11362.100378
527.880093	11313.604478
528.242072	11384.031918
528.603995	11287.145982
528.965860	11211.022038
529.327669	11260.526169
529.689421	11205.628004
530.051117	11183.590600
530.412755	11284.194387
530.774337	11170.337406
531.135862	11154.850982
531.497331	11179.756802
531.858743	11023.743173
532.220098	11195.396982
532.581396	11073.879969
532.942638	11050.521782
533.303824	11012.042655
533.664953	11021.429283
534.026025	10940.513723
534.387040	11037.934021
534.747999	11043.396111
535.108902	11092.154151
535.469748	10851.260094
535.830537	10955.874119
536.191270	10926.469068
536.551947	10957.716661
536.912567	10953.408995
537.273131	10881.433921
537.633638	10861.143276
537.994089	10846.407984
538.354483	10794.325303
538.714821	10939.508013
539.075103	10948.977820
539.435328	10916.719477
539.795497	10743.260935
540.155609	10903.607436
540.515665	10988.941568
540.875665	10720.341329
541.235609	10786.947574
541.595496	10784.754672
541.955328	10942.106728
542.315102	10827.975005
542.674821	10774.879052
543.034483	10779.693354
543.394090	10779.716039
543.753640	10709.177694
544.113134	10931.482496
544.472571	10788.343974
544.831953	10928.445201
545.191278	10731.252906
545.550548	10762.591239
545.909761	10907.395863
546.268918	10872.929494
546.628019	10963.178751
546.987064	10822.099540
547.346053	10737.869421
547.704986	10840.582930
548.063863	10828.660602
548.422684	10816.982769
548.781449	10732.331713
549.140158	10833.316107
549.498811	10711.640297
549.857408	10562.860724
550.215949	10793.128029
550.574434	10645.757458
550.932864	10745.337890
551.291237	10806.640842
551.649555	10758.553275
552.007817	10763.448235
552.366022	10723.676052
552.724173	10722.844262
553.082267	10706.019411
553.440305	10849.624240
553.798288	10648.124279
554.156215	10795.308328
554.514086	10776.353589
554.871902	10622.885743
555.229661	10656.593418
555.587365	10638.367126
555.945014	10536.926508
556.302606	10662.683132
556.660143	10551.223220
557.017625	10704.418844
557.375050	10603.031158
557.732421	10735.386652
558.089735	10656.777420
558.446994	10646.891717
558.804197	10688.685403
559.161345	10685.887563
559.518437	10538.607733
559.875474	10624.703079
560.232455	10656.472430
560.589381	10602.637948
560.946251	10606.365882
561.303065	10709.548218
561.659825	10639.113217
562.016528	10569.998998
562.373177	10460.805085
562.729770	10568.942876
563.086307	10485.360545
563.442789	10578.826058
563.799216	10453.031626
564.155587	10497.996197
564.511904	10453.465165
564.868164	10447.307395
565.224370	10451.794022
565.580520	10379.090502
565.936615	10389.876050
566.292654	10253.432180
566.648638	10385.089475
567.004567	10339.086425
567.360441	10325.860958
567.716260	10244.295089
568.072023	10329.183078
568.427732	10281.183732
568.783385	10186.142859
569.138982	10255.509136
569.494525	10278.355645
569.850013	10143.376230
570.205445	10226.885464
570.560823	10122.342016
570.916145	10044.446106
571.271412	10115.551581
571.626625	10053.164782
571.981782	10036.748264
572.336884	10010.035190
572.691931	10011.663483
573.046923	9955.164751
573.401860	9907.508203
573.756743	9845.481846
574.111570	9886.410974
574.466342	9867.453715
574.821059	9899.943952
575.175722	9785.451786
575.530330	9797.386718
575.884882	9790.467734
576.239380	9707.858346
576.593823	9695.356285
576.948211	9705.665444
577.302544	9585.128935
577.656823	9597.013456
578.011047	9593.774514
578.365216	9565.644876
578.719330	9488.789965
579.073389	9498.910081
579.427394	9444.170712
579.781344	9416.613245
580.135239	9370.325370
580.489080	9373.115649
580.842866	9270.669320
581.196597	9280.421432
581.550273	9315.250764
581.903895	9278.014281
582.257463	9338.740021
582.610975	9214.581443
582.964434	9242.058252
583.317837	9157.119850
583.671186	9145.583170
584.024481	9128.763360
584.377721	9052.967091
584.730906	9022.364767
585.084037	9050.769148
585.437113	8984.707348
585.790135	9002.953804
586.143103	8898.725428
586.496016	8867.344245
586.848874	8920.503212
587.201679	8906.456037
587.554428	8791.089231
587.907124	8836.356272
588.259765	8794.817165
588.612352	8804.639853
588.964884	8679.873816
589.317362	8683.616872
589.669786	8676.672683
590.022155	8721.097851
590.374470	8730.983554
590.726731	8670.807301
591.078937	8519.814661
591.431090	8625.504972
591.783188	8495.604519
592.135232	8484.249320
592.487222	8480.085327
592.839157	8527.376391
593.191038	8456.265875
593.542866	8398.317812
593.894639	8292.337634
594.246358	8340.155499
594.598022	8346.025923
594.949633	8240.675890
595.301190	8210.802012
595.652692	8236.600117
596.004141	8334.970673
596.355535	8115.945141
596.706876	8087.250893
597.058162	8012.185592
597.409395	8085.352899
597.760573	8137.796022
598.111698	8049.084317
598.462768	8017.030141
598.813785	7982.057136
599.164748	7944.714789
599.515657	7933.009229
599.866511	7832.455854
600.217312	7952.231149
600.568060	7802.040053
600.918753	7898.348776
601.269392	7857.485183
601.619978	7765.902541
601.970510	7815.147053
602.320988	7806.488871
602.671412	7850.861107
603.021783	7779.233873
603.372100	7752.112465
603.722363	7737.293993
604.072572	7709.343316
604.422728	7710.248203
604.772830	7630.693754
605.122878	7630.000595
605.472872	7617.412834
605.822813	7634.583004
606.172701	7573.143942
606.522534	7629.793908
606.872314	7621.037424
607.222041	7578.351453
607.571714	7624.745192
607.921333	7573.955567
608.270899	7571.177892
608.620411	7632.876573
608.969870	7532.761779
609.319276	7522.029162
609.668627	7521.555294
610.017926	7542.750825
610.367171	7566.131697
610.716362	7541.707306
611.065500	7512.934921
611.414585	7521.542691
611.763616	7499.200297
612.112594	7466.647046
612.461518	7460.978268
612.810389	7508.173551
613.159207	7437.453724
613.507971	7375.039198
613.856682	7462.382230
614.205340	7412.149652
614.553945	7464.769216
614.902496	7361.854060
615.250994	7389.855149
615.599439	7360.132506
615.947830	7356.233174
616.296169	7317.940569
616.644454	7310.900598
616.992686	7295.983824
617.340864	7322.853174
617.688990	7225.427834
618.037063	7288.598533
618.385082	7221.102524
618.733048	7273.429701
619.080961	7207.998045
619.428821	7204.156686
619.776628	7187.727565
620.124382	7132.985676
620.472083	7099.441838
620.819731	7112.992460
621.167326	7007.256778
621.514868	7001.645974
621.862357	6897.631847
622.209793	6898.977835
622.557176	6830.478636
622.904506	6791.727287
623.251783	6729.776547
623.599007	6680.537077
623.946179	6667.997207
624.293297	6615.798579
624.640363	6547.659823
624.987376	6509.397466
625.334336	6458.373427
625.681243	6397.441000
626.028097	6378.627414
626.374899	6344.478638
626.721647	6317.637014
627.068343	6251.633187
627.414987	6215.689760
627.761577	6164.282594
628.108115	6177.500499
628.454600	6083.830820
628.801032	6095.070072
629.147412	6055.290327
629.493739	6027.649681
629.840014	5964.728519
630.186236	5992.248178
630.532405	5890.618516
630.878521	5910.566362
631.224585	5865.052304
631.570597	5792.426922
631.916556	5796.779958
632.262462	5783.214213
632.608316	5733.601697
632.954117	5699.039547
633.299866	5682.285272
633.645562	5653.298637
633.991206	5590.054842
634.336797	5534.418147
634.682336	5497.723588
635.027823	5452.232216
635.373257	5440.319969
635.718639	5377.930649
636.063968	5373.292788
636.409245	5294.630623
636.754470	5275.312922
637.099642	5235.245831
637.444762	5180.882028
637.789829	5170.749309
638.134845	5122.298779
638.479808	5098.688535
638.824719	5092.021609
639.169577	5032.357033
639.514383	5025.402761
639.859137	4967.371518
640.203839	4961.347340
640.548489	4934.475469
640.893086	4911.510493
641.237632	4877.520513
641.582125	4877.069330
641.926566	4844.488352
642.270955	4845.002550
642.615292	4827.723995
642.959576	4816.086492
643.303809	4804.285150
643.647990	4791.505825
643.992118	4771.346251
644.336195	4734.389552
644.680219	4727.266402
645.024192	4715.308785
645.368112	4757.588942
645.711981	4758.143469
646.055797	4782.625833
646.399562	4749.260956
646.743274	4802.427485
647.086935	4819.542202
647.430544	4802.271209
647.774101	4794.359118
648.117606	4791.606648
648.461059	4772.425058
648.804460	4731.367381
649.147810	4674.896375
649.491108	4641.793638
649.834354	4615.924958
650.177548	4557.059404
650.520690	4496.462214
650.863781	4475.037310
651.206820	4469.907936
651.549807	4419.534207
651.892742	4376.613823
652.235626	4366.350033
652.578458	4342.863298
652.921238	4287.763486
653.263967	4296.998880
653.606644	4258.149228
653.949269	4243.174480
654.291843	4205.423800
654.634365	4219.838979
654.976836	4180.540664
655.319255	4177.329449
655.661622	4148.448679
656.003938	4133.980568
656.346203	4110.014922
656.688416	4110.846713
657.030577	4075.606527
657.372687	4056.540883
657.714746	4038.876680
658.056753	4048.359090
658.398708	4002.764374
658.740612	3999.243128
659.082465	4000.493334
659.424266	3996.208353
659.766016	3977.135148
660.107715	3959.523877
660.449362	3954.991880
660.790958	3942.580559
661.132503	3927.923404
661.473996	3930.975823
661.815438	3921.531221
662.156829	3904.613109
662.498168	3891.254051
662.839456	3876.591855
663.180693	3876.543964
663.521879	3871.152450
663.863013	3855.282898
664.204097	3847.897607
664.545129	3862.882437
664.886110	3844.341073
665.227040	3844.683872
665.567918	3835.002336
665.908746	3826.611335
666.249522	3820.196467
666.590248	3808.339673
666.930922	3809.385713
667.271545	3803.936225
667.612118	3794.421047
667.952639	3776.358593
668.293109	3767.650000
668.633528	3747.787854
668.973896	3735.918457
669.314213	3725.531159
669.654480	3706.649518
669.994695	3696.993188
670.334859	3683.548430
670.674973	3665.085204
671.015035	3661.180831
671.355047	3647.083244
671.695008	3634.593785
672.034918	3622.918473
672.374777	3615.336578
672.714585	3598.095831
673.054342	3598.110955
673.394049	3583.171495
673.733705	3586.249120
674.073310	3565.981161
674.412864	3552.526321
674.752368	3538.655586
675.091820	3527.597815
675.431223	3502.056809
675.770574	3490.429388
676.109875	3469.001964
676.449125	3455.030406
676.788324	3440.799228
677.127473	3417.405754
677.466571	3403.598034
677.805619	3393.281312
678.144616	3380.441493
678.483562	3366.134699
678.822458	3351.154910
679.161303	3343.527644
679.500098	3329.525840
679.838842	3323.867144
680.177535	3318.319355
680.516179	3315.823983
680.854771	3309.313333
681.193314	3326.017197
681.531805	3352.142976
681.870247	3386.319479
682.208638	3410.824528
682.546978	3404.351686
682.885268	3388.504819
683.223508	3353.776310
683.561697	3338.814166
683.899836	3319.940086
684.237925	3304.390647
684.575963	3292.211219
684.913951	3279.943571
685.251889	3284.533542
685.589776	3278.940381
685.927614	3271.182046
686.265401	3277.090278
686.603137	3271.867643
686.940824	3282.678397
687.278460	3286.519756
687.616046	3285.594704
687.953582	3306.361738
688.291068	3294.968730
688.628504	3300.221612
688.965889	3287.137298
689.303224	3269.498300
689.640510	3250.878798
689.977745	3224.349726
690.314930	3194.254038
690.652065	3175.823579
690.989150	3149.453304
691.326185	3122.042030
691.663170	3102.923454
692.000105	3079.673652
692.336990	3056.542318
692.673825	3043.793240
693.010610	3026.650796
693.347345	3013.793333
693.684030	2997.170128
694.020665	2981.923158
694.357251	2963.706949
694.693786	2963.948924
695.030272	2953.395269
695.366707	2942.944957
695.703093	2935.695778
696.039429	2929.351486
696.375716	2921.749426
696.711952	2917.822367
697.048139	2911.367169
697.384276	2907.631674
697.720363	2908.841551
698.056400	2904.422980
698.392388	2893.672719
698.728326	2889.642317
699.064214	2880.661501
699.400053	2876.588249
699.735842	2864.030735
700.071581	2854.868438
700.407270	2846.658918
700.742910	2839.082064
701.078501	2828.115034
701.414042	2825.604539
701.749533	2814.841676
702.084974	2807.776499
702.420366	2810.866726
702.755709	2800.398770
703.091002	2786.994342
703.426246	2788.763787
703.761440	2782.820267
704.096584	2777.562343
704.431679	2774.935902
704.766725	2773.408432
705.101721	2766.839809
705.436668	2765.952566
705.771565	2758.842018
706.106413	2760.276227
706.441212	2759.101638
706.775961	2760.918974
707.110661	2756.298756
707.445311	2760.266144
707.779913	2761.135743
708.114465	2759.517533
708.448967	2760.404776
708.783421	2766.466764
709.117825	2768.967176
709.452180	2770.499687
709.786485	2775.939092
710.120742	2786.674229
710.454949	2785.003086
710.789107	2794.056999
711.123216	2799.448513
711.457275	2802.543781
711.791286	2810.680203
712.125247	2810.619710
712.459159	2802.805921
712.793023	2808.628454
713.126837	2795.781073
713.460602	2791.034827
713.794318	2781.234824
714.127985	2776.365069
714.461602	2762.254880
714.795171	2755.212388
715.128691	2743.310223
715.462162	2733.739593
715.795584	2725.063767
716.128957	2721.802141
716.462281	2715.465410
716.795556	2710.772096
717.128782	2701.987885
717.461960	2695.436906
717.795088	2694.894982
718.128167	2687.756708
718.461198	2681.319155
718.794180	2681.654391
719.127113	2676.628361
719.459997	2671.604851
719.792833	2667.057730
720.125619	2666.664520
720.458357	2662.180414
720.791046	2662.984478
721.123686	2656.118427
721.456278	2655.253869
721.788821	2655.402583
722.121315	2651.581388
722.453761	2650.356388
722.786158	2646.512508
723.118506	2647.631644
723.450805	2647.172899
723.783056	2644.806077
724.115259	2646.262971
724.447412	2644.682569
724.779518	2645.264822
725.111574	2643.281128
725.443582	2647.714823
725.775542	2645.005203
726.107453	2647.198105
726.439315	2646.779689
726.771129	2653.648261
727.102895	2652.687921
727.434612	2653.474341
727.766281	2656.166317
728.097901	2653.088693
728.429473	2650.542910
728.760996	2649.262457
729.092471	2647.004020
729.423897	2649.575009
729.755276	2649.123826
730.086606	2646.058804
730.417887	2649.259937
730.749120	2650.918476
731.080305	2654.013745
731.411442	2654.759836
731.742530	2652.151038
732.073570	2650.880668
732.404562	2653.348312
732.735506	2652.864362
733.066401	2651.130205
733.397249	2643.460089
733.728048	2636.047072
734.058798	2628.243366
734.389501	2625.115330
734.720156	2622.292284
735.050762	2616.275667
735.381320	2614.768362
735.711831	2609.636468
736.042293	2611.320213
736.372707	2611.030347
736.703073	2610.460696
737.033391	2609.102105
737.363661	2607.831734
737.693883	2606.440376
738.024056	2614.478496
738.354182	2610.863988
738.684260	2615.900101
739.014290	2614.702827
739.344272	2616.366408
739.674207	2619.514608
740.004093	2618.745832
740.333931	2615.973198
740.663722	2617.440174
740.993464	2617.029320
741.323159	2613.813063
741.652806	2610.687548
741.982405	2611.244596
742.311956	2605.681682
742.641460	2604.766713
742.970915	2604.055910
743.300323	2598.699684
743.629683	2598.263624
743.958996	2598.540888
744.288260	2593.265320
744.617477	2593.802203
744.946647	2588.362798
745.275768	2585.721234
745.604842	2585.973291
745.933869	2585.086048
746.262847	2581.229566
746.591778	2588.740885
746.920662	2587.115113
747.249498	2583.046902
747.578286	2584.276943
747.907027	2586.800041
748.235720	2588.267016
748.564365	2585.746439
748.892963	2586.487489
749.221514	2586.704259
749.550017	2584.614700
749.878473	2586.497571
750.206881	2586.500092
750.535242	2580.143197
750.863555	2582.295770
751.191821	2583.132601
751.520039	2581.872313
751.848210	2581.227045
752.176334	2581.892477
752.504411	2579.510532
752.832440	2580.213773
753.160421	2579.008937
753.488356	2577.884760
753.816243	2578.494740
754.144082	2577.463824
754.471875	2575.452403
754.799620	2574.197156
755.127318	2578.240161
755.454969	2575.709502
755.782572	2577.594894
756.110129	2576.463155
756.437638	2575.994327
756.765100	2575.149934
757.092515	2574.779409
757.419882	2575.643967
757.747203	2574.547516
758.074477	2577.877198
758.401703	2576.054821
758.728882	2576.442990
759.056014	2576.674883
759.383099	2579.381983
759.710138	2581.254771
760.037129	2579.291242
760.364073	2575.928792
760.690970	2576.006930
761.017820	2576.483319
761.344623	2577.801581
761.671379	2579.429874
761.998088	2573.526682
762.324751	2582.351222
762.651366	2591.566452
762.977935	2614.685183
763.304456	2627.366206
763.630931	2631.026083
763.957359	2618.329937
764.283740	2607.037753
764.610074	2599.574324
764.936362	2588.841708
765.262602	2585.005390
765.588796	2576.989955
765.914943	2575.853175
766.241044	2573.173802
766.567097	2571.643812
766.893104	2569.075344
767.219064	2567.510065
767.544978	2568.488049
767.870845	2563.613253
768.196665	2564.298850
768.522438	2563.887996
768.848165	2561.541339
769.173846	2561.745506
769.499479	2565.092832
769.825066	2558.670402
770.150607	2560.903633
770.476101	2562.789025
770.801548	2562.597461
771.126949	2558.753581
771.452303	2560.031514
771.777611	2559.464384
772.102872	2557.450443
772.428087	2558.846842
772.753256	2557.543704
773.078378	2559.376164
773.403453	2555.617983
773.728482	2553.921635
774.053465	2555.600339
774.378401	2554.536656
774.703291	2556.288457
775.028135	2556.613611
775.352932	2552.467262
775.677683	2552.641182
776.002388	2553.793086
776.327046	2552.328631
776.651658	2552.502550
776.976224	2553.367108
777.300743	2552.673950
777.625216	2551.494320
777.949643	2552.684032
778.274024	2554.077911
778.598359	2547.088351
778.922647	2546.284287
779.246889	2549.354350
779.571086	2547.642878
779.895236	2552.114382
780.219339	2548.399051
780.543397	2554.511450
780.867409	2549.440049
781.191374	2553.294012
781.515294	2552.217725
781.839167	2552.565565
782.162995	2552.613456
782.486776	2551.728733
782.810511	2551.915256
783.134201	2550.972560
783.457844	2549.525749
783.781441	2551.194371
784.104993	2552.671429
784.428498	2549.611449
784.751958	2549.926521
785.075372	2550.060111
785.398739	2549.828218
785.722061	2552.169834
786.045337	2551.834598
786.368568	2552.815102
786.691752	2550.748229
787.014891	2551.214536
787.337983	2552.903322
787.661030	2555.499516
787.984031	2554.098076
788.306987	2558.239383
788.629897	2556.969013
788.952760	2556.474980
789.275579	2555.426420
789.598351	2556.263251
789.921078	2556.560679
790.243759	2551.622869
790.566395	2551.479196
790.888984	2551.690925
791.211529	2548.283105
791.534027	2551.504402
791.856480	2548.940975
792.178888	2551.907694
792.501249	2549.724875
792.823566	2550.662529
793.145836	2550.435677
793.468062	2549.021634
793.790241	2550.420554
794.112375	2549.901315
794.434464	2550.357539
794.756507	2551.259906
795.078505	2547.879812
795.400457	2549.061963
795.722364	2545.639019
796.044226	2551.254865
796.366042	2551.015410
796.687812	2550.344937
797.009538	2552.164793
797.331218	2553.568754
797.652852	2551.519525
797.974442	2551.398538
798.295986	2550.780996
798.617484	2551.091027
798.938938	2549.707231
799.260346	2550.193702
799.581709	2551.569937
799.903026	2551.794268
800.224299	2550.334854
800.545526	2548.305790
800.866708	2548.136911
801.187845	2552.336192
801.508936	2546.508618
801.829983	2548.215049
802.150984	2544.527445
802.471940	2547.068187
802.792851	2547.481561
803.113717	2552.464742
803.434538	2549.676984
803.755314	2547.705893
804.076045	2547.141283
804.396731	2546.511139
804.717372	2548.252858
805.037967	2548.106664
805.358518	2546.372507
805.679024	2546.740512
805.999485	2547.423588
806.319901	2551.143959
806.640272	2548.474668
806.960598	2549.407282
807.280879	2545.278577
807.601115	2547.806716
807.921306	2547.393341
808.241453	2549.009031
808.561554	2546.929555
808.881611	2543.945192
809.201623	2549.734957
809.521590	2550.360060
809.841513	2546.022147
810.161390	2546.516180
810.481223	2550.009700
810.801011	2548.436860
811.120755	2547.103475
811.440453	2548.227652
811.760107	2548.638506
812.079716	2545.013916
812.399281	2544.928217
812.718801	2543.120963
813.038276	2541.162475
813.357707	2547.045501
813.677093	2548.192364
813.996434	2547.000131
814.315731	2544.182126
814.634983	2546.576674
814.954191	2545.165151
815.273354	2547.224462
815.592473	2546.090203
815.911547	2549.256047
816.230577	2549.760163
816.549562	2549.757642
816.868502	2548.409133
817.187399	2548.139432
817.506250	2549.001469
817.825058	2548.308310
818.143821	2551.643034
818.462539	2551.895091
818.781213	2550.748229
819.099843	2551.980791
819.418429	2556.129661
819.736970	2558.776266
820.055466	2563.850188
820.373919	2568.982082
820.692327	2573.030129
821.010691	2581.040522
821.329011	2603.226640
821.647286	2649.012920
821.965517	2701.887062
822.283704	2731.773543
822.601847	2737.868298
822.919945	2714.205122
823.237999	2686.002387
823.556010	2658.903664
823.873976	2632.964407
824.191897	2616.043774
824.509775	2604.839810
824.827609	2592.317583
825.145398	2588.551842
825.463144	2584.070256
825.780845	2586.242993
826.098502	2591.687439
826.416116	2605.636312
826.733685	2620.283384
827.051210	2624.472583
827.368692	2618.796244
827.686129	2606.521034
828.003522	2589.060998
828.320872	2573.680438
828.638177	2571.424521
828.955439	2559.474466
829.272656	2557.747871
829.589830	2554.957592
829.906960	2556.018755
830.224046	2554.934907
830.541088	2554.231666
830.858086	2551.940462
831.175041	2554.294681
831.491952	2550.176058
831.808819	2551.726213
832.125642	2553.301573
832.442421	2555.471790
832.759157	2560.759960
833.075849	2566.597617
833.392497	2579.387024
833.709101	2587.021851
834.025662	2585.070925
834.342179	2580.004565
834.658653	2576.327043
834.975083	2565.990158
835.291469	2566.786660
835.607811	2555.915412
835.924110	2552.134546
836.240366	2551.401058
836.556578	2547.993238
836.872746	2545.200439
837.188871	2549.074566
837.504952	2548.535162
837.820990	2546.014585
838.136984	2544.870243
838.452935	2545.553320
838.768842	2547.625234
839.084706	2544.275387
839.400526	2549.591284
839.716303	2551.872406
840.032037	2562.436144
840.347727	2561.551422
840.663373	2558.534291
840.978977	2553.916594
841.294537	2549.480379
841.610054	2549.939124
841.925527	2545.626417
842.240957	2546.705223
842.556344	2544.502239
842.871687	2546.107847
843.186987	2541.810263
843.502244	2541.016281
843.817458	2542.710109
844.132629	2540.512166
844.447756	2539.771116
844.762840	2534.598893
845.077881	2537.041332
845.392879	2538.833462
845.707833	2539.246836
846.022745	2537.046373
846.337613	2540.217258
846.652438	2539.125849
846.967221	2539.690458
847.281960	2538.621733
847.596656	2540.582742
847.911309	2541.603576
848.225919	2540.355890
848.540485	2540.353370
848.855009	2538.324305
849.169490	2539.302289
849.483928	2540.572660
849.798323	2539.821528
850.112675	2539.687937
850.426984	2539.312371
850.741251	2538.775488
851.055474	2538.344470
851.369654	2538.110056
851.683792	2541.023843
851.997887	2540.839841
852.311938	2538.725077
852.625947	2541.780016
852.939914	2539.889583
853.253837	2541.989224
853.567718	2539.219110
853.881555	2538.798174
854.195350	2540.764224
854.509103	2540.514687
854.822812	2538.510828
855.136479	2540.842362
855.450103	2539.191384
855.763685	2541.253216
856.077224	2538.215920
856.390720	2538.924202
856.704173	2539.561908
857.017584	2538.682227
857.330953	2538.886394
857.644278	2539.387989
857.957561	2544.650953
858.270802	2540.406302
858.584000	2539.093081
858.897155	2540.731456
859.210268	2537.978986
859.523339	2541.573329
859.836367	2537.381609
860.149352	2539.937474
860.462295	2539.627443
860.775195	2538.611651
861.088054	2534.576207
861.400869	2539.158616
861.713642	2537.837834
862.026373	2539.030067
862.339062	2541.974101
862.651708	2538.624254
862.964312	2539.400592
863.276873	2539.970242
863.589392	2539.065355
863.901869	2539.887063
864.214303	2540.391178
864.526696	2541.293545
864.839045	2538.044521
865.151353	2540.980993
865.463619	2541.031405
865.775842	2542.866385
866.088023	2539.670293
866.400162	2543.584749
866.712258	2541.938813
867.024313	2543.239430
867.336325	2543.226827
867.648296	2542.158103
867.960224	2541.621220
868.272110	2538.503266
868.583954	2542.125335
868.895755	2541.107022
869.207515	2540.728936
869.519233	2542.546272
869.830909	2544.595501
870.142542	2541.984183
870.454134	2541.696837
870.765684	2543.183977
871.077191	2542.125335
871.388657	2544.945861
871.700081	2543.758669
872.011463	2540.529810
872.322803	2541.018802
872.634101	2542.594162
872.945357	2542.742877
873.256571	2543.713299
873.567744	2543.206663
873.878874	2542.516025
874.189963	2544.860161
874.501010	2542.205994
874.812015	2543.312527
875.122979	2544.320758
875.433900	2543.869574
875.744780	2544.744215
876.055618	2542.442928
876.366415	2546.405275
876.677169	2545.893598
876.987882	2544.688762
877.298554	2541.096940
877.609183	2545.021478
877.919771	2542.616848
878.230317	2546.919472
878.540822	2546.725388
878.851285	2547.942827
879.161707	2550.707900
879.472087	2553.586398
879.782425	2557.659651
880.092722	2565.526371
880.402977	2582.298290
880.713191	2602.102463
881.023363	2625.954682
881.333494	2642.650984
881.643583	2647.719864
881.953631	2642.114101
882.263637	2639.764923
882.573602	2628.825620
882.883526	2612.953547
883.193408	2605.182608
883.503248	2594.843202
883.813048	2588.035123
884.122806	2579.518094
884.432522	2575.041549
884.742197	2570.640622
885.051831	2565.846485
885.361424	2558.693087
885.670975	2557.868859
885.980485	2553.694783
886.289954	2552.507592
886.599382	2548.189843
886.908768	2551.118754
887.218113	2550.246634
887.527417	2550.874258
887.836680	2546.690100
888.145901	2546.433001
888.455082	2547.289997
888.764221	2547.549617
889.073319	2545.563402
889.382376	2544.356046
889.691392	2544.696324
890.000366	2545.218083
890.309300	2544.764379
890.618193	2547.476520
890.927044	2547.032898
891.235855	2545.087013
891.544625	2544.388813
891.853353	2547.668084
892.162041	2547.526932
892.470687	2546.909390
892.779293	2549.767724
893.087858	2550.334854
893.396381	2547.713454
893.704864	2553.178065
894.013306	2558.297357
894.321707	2570.688513
894.630068	2575.583473
894.938387	2579.742425
895.246665	2577.294945
895.554903	2573.193966
895.863100	2568.954356
896.171256	2561.606874
896.479371	2560.951524
896.787446	2561.145609
897.095480	2554.881975
897.403473	2550.670091
897.711425	2548.172199
898.019336	2550.662529
898.327207	2551.728733
898.635038	2548.812426
898.942827	2547.032898
899.250576	2548.136911
899.558284	2546.173382
899.865952	2545.666746
900.173579	2545.543238
900.481165	2542.568957
900.788711	2543.763710
901.096216	2540.754141
901.403681	2542.488298
901.711105	2545.414688
902.018489	2542.815973
902.325832	2547.143804
902.633135	2547.421067
902.940397	2546.579195
903.247619	2547.988197
903.554800	2556.414486
903.861941	2567.772205
904.169041	2581.184195
904.476101	2590.868252
904.783121	2588.037644
905.090100	2584.105544
905.397039	2578.126735
905.703938	2567.873028
906.010796	2558.388097
906.317614	2555.297870
906.624391	2553.031872
906.931129	2548.426778
907.237826	2547.854607
907.544483	2542.972249
907.851099	2544.885367
908.157675	2543.841848
908.464211	2541.706919
908.770707	2537.898328
909.077163	2541.258257
909.383578	2534.309026
909.689954	2535.365148
909.996289	2536.615354
910.302584	2541.850592
910.608839	2540.907897
910.915054	2542.884029
911.221229	2538.762886
911.527363	2541.704399
911.833458	2538.339429
912.139513	2539.871939
912.445527	2541.432177
912.751502	2543.017619
913.057436	2542.332023
913.363331	2542.465613
913.669186	2544.376210
913.975000	2544.509801
914.280775	2546.349822
914.586510	2550.685214
914.892205	2553.818292
915.197859	2560.482697
915.503475	2568.856053
915.809050	2579.676890
916.114585	2584.637386
916.420081	2587.410020
916.725536	2586.046388
917.030952	2580.929617
917.336328	2574.373596
917.641665	2574.792012
917.946961	2565.072668
918.252218	2562.317677
918.557435	2554.289639
918.862612	2555.159238
919.167750	2553.470452
919.472848	2547.814277
919.777906	2548.716644
920.082925	2547.471479
920.387904	2545.749925
920.692843	2544.214893
920.997743	2542.392516
921.302603	2544.212373
921.607423	2543.405788
921.912204	2540.053421
922.216946	2544.792106
922.521647	2544.081303
922.826310	2540.648277
923.130932	2542.558874
923.435516	2538.672145
923.740059	2542.851261
924.044564	2539.904707
924.349028	2539.776158
924.653454	2536.484284
924.957840	2538.299099
925.262186	2533.285672
925.566493	2534.966897
925.870761	2532.877338
926.174989	2538.485622
926.479178	2537.076620
926.783328	2541.104502
927.087438	2536.499408
927.391509	2535.786084
927.695541	2536.867412
927.999533	2535.392874
928.303486	2534.901362
928.607400	2537.419418
928.911275	2535.145858
929.215110	2536.103677
929.518906	2532.514375
929.822663	2537.318595
930.126381	2533.709129
930.430060	2538.498225
930.733699	2533.419263
931.037299	2536.189377
931.340861	2537.001002
931.644383	2539.055272
931.947866	2536.539737
932.251309	2532.539581
932.554714	2536.181815
932.858080	2537.104346
933.161407	2535.788605
933.464694	2534.939170
933.767943	2535.045035
934.071153	2537.525282
934.374323	2533.953625
934.677455	2533.817514
934.980548	2532.153933
935.283602	2535.324819
935.586617	2534.188038
935.889593	2532.779036
936.192530	2534.571166
936.495428	2533.633512
936.798287	2536.189377
937.101108	2534.258615
937.403890	2536.519572
937.706632	2536.249870
938.009336	2535.433203
938.312002	2538.281455
938.614628	2537.704243
938.917216	2539.471168
939.219765	2539.456044
939.522275	2539.763555
939.824747	2541.510314
940.127179	2535.778523
940.429573	2535.929757
940.731929	2534.220806
941.034246	2531.720394
941.336524	2538.042001
941.638763	2535.375230
941.940964	2539.012423
942.243126	2538.949408
942.545250	2536.577545
942.847335	2539.040149
943.149381	2535.922195
943.451389	2538.173071
943.753359	2535.776002
944.055290	2537.694161
944.357182	2534.540919
944.659036	2534.747607
944.960851	2536.897659
945.262628	2535.667617
945.564367	2537.358924
945.866067	2534.268697
946.167729	2538.631816
946.469352	2537.089223
946.770937	2533.419263
947.072484	2534.850950
947.373992	2534.934129
947.675462	2534.939170
947.976893	2537.268183
948.278286	2534.682072
948.579641	2536.877494
948.880958	2533.910775
949.182236	2533.021011
949.483476	2536.050745
949.784678	2535.707946
950.085841	2532.809283
950.386967	2535.435724
950.688054	2536.373379
950.989103	2533.343645
951.290114	2536.456558
951.591087	2536.905220
951.892021	2532.743748
952.192917	2537.495035
952.493776	2533.923378
952.794596	2537.847916
953.095378	2536.146527
953.396122	2538.178112
953.696828	2537.762217
953.997496	2536.504449
954.298126	2532.078316
954.598718	2534.180477
954.899272	2533.729293
955.199788	2533.252904
955.500266	2532.146371
955.800706	2533.736855
956.101108	2527.140505
956.401472	2533.908254
956.701798	2528.244518
957.002087	2530.830630
957.302337	2530.634025
957.602550	2532.050589
957.902724	2531.775846
958.202861	2532.370703
958.502960	2531.924560
958.803022	2532.121165
959.103045	2531.856505
959.403031	2533.136958
959.702979	2531.518748
960.002889	2533.391536
960.302762	2531.334745
960.602596	2531.637215
960.902393	2534.021680
961.202153	2532.390867
961.501875	2534.185518
961.801559	2531.929602
962.101205	2532.713501
962.400814	2530.671834
962.700385	2529.280475
962.999918	2532.214427
963.299414	2530.248377
963.598873	2529.207378
963.898293	2530.863398
964.197677	2532.181659
964.497022	2534.533358
964.796331	2533.973789
965.095601	2529.933305
965.394835	2534.956814
965.694030	2531.556556
965.993189	2531.216278
966.292309	2529.613191
966.591393	2530.828109
966.890439	2530.036648
967.189447	2530.762574
967.488419	2531.052441
967.787353	2532.355579
968.086249	2530.273582
968.385108	2530.855836
968.683930	2530.659231
968.982714	2529.948428
969.281462	2529.325846
969.580172	2530.094622
969.878844	2530.941535
970.177480	2531.150743
970.476078	2530.296268
970.774639	2530.157636
971.073162	2531.765764
971.371649	2530.835671
971.670098	2529.232584
971.968510	2529.086391
972.266885	2526.654034
972.565223	2529.714014
972.863524	2533.956145
973.161788	2530.928933
973.460014	2529.761905
973.758204	2530.538243
974.056356	2529.255269
974.354471	2530.618902
974.652550	2530.739889
974.950591	2530.800383
975.248595	2529.587986
975.546563	2527.642100
975.844493	2530.722245
976.142386	2530.291227
976.440243	2528.864580
976.738062	2533.875487
977.035845	2529.378778
977.333590	2530.001360
977.631299	2530.623943
977.928971	2532.368182
978.226606	2529.860208
978.524204	2530.873480
978.821765	2530.898686
979.119290	2532.360620
979.416777	2530.175280
979.714228	2530.472708
980.011642	2529.754344
980.309020	2530.644107
980.606360	2528.617563
980.903664	2529.746782
981.200931	2532.161495
981.498162	2530.747451
981.795356	2528.489014
982.092513	2532.355579
982.389633	2532.587472
982.686717	2530.465146
982.983764	2530.475229
983.280775	2532.481608
983.577749	2533.250384
983.874686	2531.972451
984.171587	2530.507996
984.468451	2533.890610
984.765279	2530.286185
985.062070	2529.829961
985.358824	2530.873480
985.655543	2531.042358
985.952224	2530.450023
986.248869	2529.406504
986.545478	2525.940711
986.842050	2526.681760
987.138586	2525.542460
987.435086	2528.262162
987.731549	2521.660771
988.027975	2529.794673
988.324366	2528.110928
988.620719	2529.577903
988.917037	2528.980527
989.213318	2532.171577
989.509563	2529.353572
989.805772	2530.296268
990.101944	2532.708460
990.398080	2528.864580
990.694180	2529.310722
990.990244	2529.237625
991.286271	2529.582944
991.582262	2529.330887
991.878217	2529.774508
992.174136	2528.768798
992.470019	2529.504807
992.765865	2530.518078
993.061676	2528.894827
993.357450	2529.719056
993.653188	2530.550846
993.948890	2532.214427
994.244556	2528.098325
994.540186	2530.933974
994.835780	2530.008922
995.131337	2529.003212
995.426859	2529.260311
995.722345	2526.230577
996.017795	2530.087060
996.313208	2528.733510
996.608586	2529.567821
996.903928	2528.955321
997.199234	2530.414735
997.494504	2528.393232
997.789738	2529.708973
998.084936	2530.704601
998.380099	2527.495907
998.675225	2527.626977
998.970316	2530.006401
999.265371	2532.315250
999.560390	2530.608819
999.855373	2527.374919
1000.150320	2528.297450
1000.445232	2529.073788
1000.740108	2528.095804
1001.034948	2528.047913
1001.329752	2530.581093
1001.624521	2529.935825
1001.919254	2520.138343
1002.213951	2523.170597
1002.508613	2525.134126
1002.803239	2527.919364
1003.097829	2522.941224
1003.392384	2527.556401
1003.686903	2528.927594
1003.981386	2528.874662
1004.275834	2528.836854
1004.570246	2530.686957
1004.864623	2526.313756
1005.158964	2528.340300
1005.453270	2527.495907
1005.747540	2529.892975
1006.041775	2526.956503
1006.335974	2528.118489
1006.630138	2526.974147
1006.924266	2528.826771
1007.218359	2526.223015
1007.512416	2525.560104
1007.806438	2526.187727
1008.100425	2526.475073
1008.394376	2527.266534
1008.688292	2529.051103
1008.982172	2527.783253
1009.276017	2528.040351
1009.569827	2524.264527
1009.863602	2530.137471
1010.157341	2528.103366
1010.451045	2525.834847
1010.744714	2527.432892
1011.038347	2526.807789
1011.331945	2528.894827
1011.625508	2529.063706
1011.919036	2528.047913
1012.212528	2529.076308
1012.505986	2528.952800
1012.799408	2527.158149
1013.092795	2527.251411
1013.386147	2527.841226
1013.679464	2529.948428
1013.972745	2526.699404
1014.265992	2528.604961
1014.559204	2529.111597
1014.852380	2527.027079
1015.145521	2528.279806
1015.438628	2528.559590
1015.731699	2528.594878
1016.024736	2527.954652
1016.317737	2525.613036
1016.610703	2530.021525
1016.903635	2526.109589
1017.196531	2523.684794
1017.489393	2523.732685
1017.782219	2525.350896
1018.075011	2526.855680
1018.367768	2526.747295
1018.660490	2527.725279
1018.953177	2527.725279
1019.245829	2527.725279
