Dividing Wavelength (nm)	Counts (n)	Blue Motor Position (mm): 0.000000	Red Motor Position (mm): 34.500000	
326.493990	2078.460169
326.888308	2078.460169
327.282561	2078.460169
327.676750	2054.892775
328.070874	2057.257076
328.464933	2061.458878
328.858929	2070.086813
329.252859	2087.924935
329.646726	2100.563108
330.040528	2115.132043
330.434265	2135.087450
330.827938	2155.083187
331.221547	2174.763852
331.615091	2195.845957
332.008571	2216.187013
332.401986	2236.656618
332.795338	2257.859711
333.188625	2276.494336
333.581847	2297.208437
333.975006	2311.676549
334.368100	2331.248829
334.761129	2346.720130
335.154095	2362.269569
335.546996	2390.318549
335.939833	2430.136103
336.332606	2440.130190
336.725315	2456.695422
337.117960	2461.552573
337.510540	2468.774026
337.903056	2477.235603
338.295508	2484.633496
338.687896	2492.273365
339.080220	2503.036228
339.472480	2505.539161
339.864676	2508.382372
340.256807	2511.787671
340.648875	2513.141221
341.040879	2514.081396
341.432818	2515.361849
341.824694	2515.838238
342.216506	2514.993845
342.608253	2515.397138
342.999937	2515.366891
343.391557	2515.986952
343.783113	2511.205418
344.174605	2511.661643
344.566033	2510.933196
344.957397	2506.688544
345.348697	2507.782475
345.739934	2505.292145
346.131106	2504.929182
346.522215	2498.973058
346.913260	2501.619664
347.304241	2501.937257
347.695159	2497.180928
348.086012	2496.681854
348.476802	2491.345792
348.867528	2492.437202
349.258191	2491.837305
349.648789	2491.804538
350.039324	2489.588950
350.429796	2489.210864
350.820203	2489.004177
351.210548	2488.454691
351.600828	2487.796820
351.991045	2488.464773
352.381198	2487.867396
352.771288	2487.925370
353.161314	2488.064001
353.551276	2488.565596
353.941175	2487.121306
354.331010	2490.143477
354.720782	2488.923518
355.110490	2489.747747
355.500135	2487.353199
355.889717	2489.586430
356.279235	2490.100628
356.668689	2492.384270
357.058080	2491.257572
357.447408	2490.067860
357.836672	2489.720020
358.225873	2493.904178
358.615010	2491.040803
359.004084	2494.095742
359.393095	2496.810403
359.782043	2496.097080
360.170927	2495.449292
360.559748	2499.933398
360.948505	2499.850219
361.337199	2498.584889
361.725830	2500.303923
362.114398	2501.604541
362.502903	2503.051352
362.891344	2502.834582
363.279722	2505.655108
363.668037	2507.343894
364.056289	2506.156702
364.444478	2506.872546
364.832603	2508.518483
365.220665	2507.812722
365.608665	2509.448576
365.996601	2507.916065
366.384474	2512.196005
366.772284	2512.062414
367.160031	2514.028464
367.547715	2513.418485
367.935336	2512.740449
368.322893	2514.209946
368.710388	2515.744977
369.097820	2519.233456
369.485189	2519.924094
369.872495	2517.844618
370.259738	2521.285205
370.646918	2524.503982
371.034035	2524.322500
371.421090	2528.804086
371.808081	2529.668644
372.195010	2535.924716
372.581875	2541.790098
372.968678	2547.045501
373.355418	2551.131357
373.742096	2561.443037
374.128710	2568.498132
374.515262	2580.730491
374.901751	2594.432347
375.288177	2610.806015
375.674540	2626.907461
376.060841	2647.344298
376.447079	2668.285251
376.833254	2690.000022
377.219367	2712.954916
377.605417	2742.932137
377.991404	2767.132196
378.377329	2804.986220
378.763191	2837.347907
379.148991	2881.662170
379.534727	2928.668409
379.920402	2972.125676
380.306013	3018.176616
380.691563	3076.044021
381.077049	3129.185345
381.462474	3183.413037
381.847835	3248.713623
382.233134	3319.062925
382.618371	3374.843292
383.003545	3460.442084
383.388657	3530.708207
383.773706	3620.609624
384.158693	3688.990356
384.543618	3773.333901
384.928480	3847.348122
385.313280	3951.132876
385.698017	4044.023698
386.082692	4162.473169
386.467305	4223.602201
386.851856	4339.556301
387.236344	4485.235565
387.620770	4548.456675
388.005133	4662.157379
388.389435	4802.523267
388.773674	4880.426738
389.157851	5007.884751
389.541965	5136.217405
389.926018	5159.966281
390.310008	5333.132436
390.693936	5447.886741
391.077802	5559.618875
391.461606	5690.817425
391.845348	5794.385410
392.229027	5917.008957
392.612645	6123.759279
392.996200	6240.167083
393.379694	6411.866262
393.763125	6623.675382
394.146494	6715.396656
394.529801	6843.978846
394.913047	7076.746563
395.296230	7077.033909
395.679351	7131.511138
396.062410	7384.198975
396.445408	7281.989581
396.828343	7433.844258
397.211217	7563.318733
397.594028	7457.015922
397.976778	7653.933473
398.359466	7817.823905
398.742092	7796.429248
399.124656	7942.146321
399.507158	8128.260680
399.889598	8154.131881
400.271977	8364.307667
400.654294	8387.282726
401.036549	8590.910053
401.418742	8619.937017
401.800874	8913.417871
402.182944	8993.473914
402.564952	9348.184622
402.946898	9191.682001
403.328783	9235.512313
403.710606	9435.739382
404.092367	9688.759935
404.474067	10045.182115
404.855705	9845.991003
405.237282	9801.636411
405.618797	10223.785154
406.000250	10462.297266
406.381642	10809.128651
406.762972	10774.304360
407.144240	10586.067676
407.525447	10839.862045
407.906593	10783.504466
408.287677	11053.977493
408.668700	11192.899090
409.049661	11177.168170
409.430560	11333.816984
409.811399	11315.820065
410.192176	11474.916360
410.572891	11547.042669
410.953545	12025.175946
411.334138	11518.131651
411.714669	12093.186153
412.095139	11449.458533
412.475547	11916.254256
412.855894	11790.593414
413.236180	12099.245620
413.616405	11807.017493
413.996568	12079.542270
414.376670	12055.178373
414.756711	11941.598657
415.136691	12217.533774
415.516609	12386.024259
415.896466	12476.187816
416.276262	12762.860592
416.655997	13219.740365
417.035670	13264.813321
417.415283	13883.776273
417.794834	13961.778046
418.174324	13721.690574
418.553753	13629.820586
418.933121	14113.229431
419.312428	13947.587198
419.691674	13850.759236
420.070859	14317.426409
420.449983	13973.516373
420.829045	14534.198545
421.208047	14289.233756
421.586988	14730.077619
421.965867	14979.365197
422.344686	14988.913142
422.723444	15547.848554
423.102141	14255.624383
423.480777	15441.951556
423.859352	14944.550988
424.237866	16038.304933
424.616319	15758.283960
424.994712	16409.958959
425.373044	16192.808736
425.751314	16893.511477
426.129524	16030.561720
426.507673	17087.885766
426.885762	16828.946899
427.263789	17006.282088
427.641756	17191.128597
428.019662	17252.245026
428.397508	17298.704300
428.775292	17584.212568
429.153016	17569.041216
429.530679	17644.822361
429.908282	17678.020880
430.285824	17410.171773
430.663305	18125.778685
431.040726	17737.471207
431.418086	17572.023058
431.795385	18212.922591
432.172624	18651.878541
432.549802	18209.098876
432.926920	18425.659283
433.303977	18306.012538
433.680974	18556.136948
434.057910	18861.451910
434.434786	18905.309948
434.811601	18833.987703
435.188355	19879.893536
435.565050	19548.838442
435.941683	19506.754890
436.318257	20399.061806
436.694770	20198.441527
437.071222	20795.057043
437.447614	19873.135869
437.823946	19906.530993
438.200218	20077.955429
438.576429	19854.400421
438.952580	20166.788122
439.328670	20125.707759
439.704700	20550.671987
440.080670	20124.944024
440.456580	20728.208823
440.832429	20907.298334
441.208218	19908.187012
441.583947	20352.143787
441.959616	20477.403857
442.335224	20723.684387
442.710773	20869.454392
443.086261	21423.217580
443.461689	20748.499467
443.837057	20911.845455
444.212365	21567.029097
444.587612	21569.267369
444.962800	21173.814055
445.337927	21605.205755
445.712995	20313.871347
446.088002	22212.959701
446.462949	22418.406884
446.837837	22603.029062
447.212664	22627.518987
447.587431	25585.728558
447.962139	28556.208297
448.336786	30869.245957
448.711374	29205.019921
449.085901	25469.356042
449.460369	25475.377700
449.834776	25477.149666
450.209124	28035.520119
450.583412	27512.228185
450.957640	28005.326128
451.331808	26664.233012
451.705917	25273.595435
452.079965	25316.543545
452.453954	25696.820465
452.827883	25626.319929
453.201752	25421.394504
453.575562	25584.838794
453.949311	26714.190846
454.323001	26793.402497
454.696632	26576.718581
455.070202	28155.630651
455.443713	28361.319810
455.817164	28943.159705
456.190556	29497.868109
456.563888	28916.436548
456.937160	29351.926705
457.310373	27641.813566
457.683526	28071.967662
458.056619	28087.113808
458.429653	28056.340085
458.802628	28675.653396
459.175542	28811.462081
459.548398	30184.692553
459.921194	31821.615701
460.293930	32565.417786
460.666607	34652.029501
461.039224	36463.547971
461.411782	36802.121946
461.784280	35526.031987
462.156719	34948.998833
462.529099	34394.635747
462.901419	33053.945923
463.273680	31978.960195
463.645882	32137.570018
464.018024	32130.608185
464.390106	33074.027360
464.762130	35990.299572
465.134094	40321.265746
465.505999	45823.617114
465.877845	50374.274252
466.249631	51361.001980
466.621358	49508.221666
466.993026	47255.098119
467.364634	45119.894722
467.736184	43156.892099
468.107674	41867.795964
468.479105	41092.658067
468.850477	40365.731244
469.221790	38906.886856
469.593043	37125.368292
469.964238	36227.866467
470.335373	36187.202000
470.706449	38039.258908
471.077467	40806.189458
471.448425	45484.221431
471.819324	48237.223273
472.190164	46241.203613
472.560945	42614.610139
472.931667	39446.376017
473.302330	38339.222686
473.672934	37502.759151
474.043479	38036.221613
474.413965	37232.941474
474.784393	36858.673610
475.154761	37790.195661
475.525070	37833.791560
475.895321	37350.670060
476.265513	37986.049529
476.635645	38989.034978
477.005719	38817.383690
477.375734	39329.945528
477.745691	40060.640613
478.115588	41422.087388
478.485427	43552.526894
478.855207	47033.965385
479.224928	49686.355878
479.594591	51237.528999
479.964194	50135.371451
480.333739	50263.852818
480.703226	50329.856646
481.072653	50992.523881
481.442022	51475.007674
481.811333	51665.757374
482.180584	50385.609287
482.549777	49856.215036
482.918912	49323.856587
483.287988	49006.374800
483.657005	48164.534875
484.025964	47483.036410
484.394864	47468.780027
484.763706	47034.426650
485.132489	46145.376320
485.501213	45995.286046
485.869879	46145.020918
486.238487	45719.156844
486.607036	45916.578511
486.975527	45345.715729
487.343959	45573.152426
487.712333	45640.172046
488.080648	45520.043870
488.448905	45978.919940
488.817104	45793.097968
489.185244	46797.746998
489.553326	48573.143080
489.921350	51336.277641
490.289315	54169.088510
490.657222	54692.332552
491.025070	54918.942500
491.392861	53984.980530
491.760593	52712.482394
492.128267	51017.956502
492.495883	49451.977512
492.863440	48014.386629
493.230939	46637.922256
493.598380	45541.441048
493.965763	45214.194546
494.333088	44367.568045
494.700354	43878.530752
495.067563	43572.643619
495.434713	43424.350517
495.801805	43502.642157
496.168839	43102.989562
496.535815	42749.952517
496.902733	42763.707305
497.269593	42327.183711
497.636395	42266.450410
498.003139	42647.609532
498.369825	42080.199940
498.736453	42391.042528
499.103023	41909.690473
499.469535	41775.144598
499.835989	41855.760209
500.202385	41507.625687
500.568723	41499.779131
500.935003	41689.714684
501.301226	41482.740031
501.667390	42092.059255
502.033497	42323.775891
502.399546	41741.706624
502.765537	41023.155678
503.131470	41396.488409
503.497345	41735.896694
503.863163	40368.108148
504.228923	40971.377987
504.594625	41377.445450
504.960269	40630.865689
505.325856	41299.423512
505.691385	40659.925420
506.056856	40781.916302
506.422270	41184.822962
506.787625	40734.443757
507.152924	40925.145565
507.518164	40991.451862
507.883347	40178.185197
508.248472	40385.028781
508.613540	40857.677283
508.978550	41137.599953
509.343503	40864.064425
509.708398	41016.521520
510.073236	41529.998327
510.438016	41497.258554
510.802738	40907.251990
511.167403	41503.060922
511.532010	41692.477236
511.896561	41946.115330
512.261053	42750.935542
512.625488	42265.361521
512.989866	42092.185284
513.354186	41905.476069
513.718449	41846.993643
514.082655	42467.030360
514.446803	42082.292019
514.810894	42574.550610
515.174927	42431.296141
515.538904	42270.657253
515.902822	42887.991912
516.266684	42283.739047
516.630488	42653.094307
516.994235	42433.254629
517.357925	42932.109570
517.721558	43043.844224
518.085133	43288.993015
518.448651	43319.426461
518.812112	43047.801530
519.175516	43060.303592
519.538863	43302.518431
519.902152	43197.801063
520.265385	43575.756531
520.628560	43523.570507
520.991678	43222.427099
521.354739	43376.817477
521.717743	43598.401394
522.080690	43396.324222
522.443580	43844.344167
522.806413	43773.032005
523.169189	43642.360256
523.531908	43709.861306
523.894569	43473.900018
524.257174	43525.949931
524.619722	43699.816807
524.982213	43575.164196
525.344647	43409.252261
525.707025	43335.779964
526.069345	43614.104589
526.431608	43417.159311
526.793815	43608.012354
527.155964	43046.279102
527.518057	43090.810134
527.880093	42763.790484
528.242072	43116.141932
528.603995	42715.327352
528.965860	42610.690642
529.327669	42558.560070
529.689421	42346.544263
530.051117	42177.995804
530.412755	42196.771582
530.774337	42112.130609
531.135862	41814.604229
531.497331	41838.582478
531.858743	41631.275108
532.220098	41800.884729
532.581396	41389.362738
532.942638	40934.827101
533.303824	41082.283372
533.664953	40916.494945
534.026025	40516.703719
534.387040	40780.658534
534.747999	40605.667482
535.108902	40593.367066
535.469748	39999.317497
535.830537	39945.901431
536.191270	39978.731945
536.551947	39517.970484
536.912567	39635.008432
537.273131	39578.920554
537.633638	38980.548196
537.994089	39102.695353
538.354483	38587.955737
538.714821	38920.162734
539.075103	39050.653002
539.435328	38684.569450
539.795497	38406.968232
540.155609	38233.892817
540.515665	38455.244841
540.875665	37820.951741
541.235609	37909.607993
541.595496	37728.940601
541.955328	38106.949002
542.315102	37392.327635
542.674821	37035.224900
543.034483	36885.550521
543.394090	36694.253856
543.753640	36484.781311
544.113134	37109.050077
544.472571	36111.456142
544.831953	36915.694101
545.191278	36090.716836
545.550548	35689.630033
545.909761	35864.873143
546.268918	35826.351166
546.628019	35874.980657
546.987064	35334.286660
547.346053	34581.871763
547.704986	35056.667797
548.063863	34522.141652
548.422684	34455.008606
548.781449	34132.515912
549.140158	34253.760703
549.498811	33930.816826
549.857408	33300.649910
550.215949	33717.518045
550.574434	33456.401399
550.932864	33091.381532
551.291237	33397.230856
551.649555	32918.618669
552.007817	32872.139230
552.366022	32416.509663
552.724173	32325.869717
553.082267	32394.711714
553.440305	32372.250853
553.798288	31682.852900
554.156215	31702.513400
554.514086	31626.966669
554.871902	31240.620200
555.229661	31031.230833
555.587365	30698.371007
555.945014	30573.549517
556.302606	30312.087552
556.660143	30242.438971
557.017625	30094.549161
557.375050	29726.991072
557.732421	29722.300278
558.089735	29501.149900
558.446994	29236.935466
558.804197	29301.011052
559.161345	29041.711742
559.518437	28350.337656
559.875474	28339.695781
560.232455	28241.098373
560.589381	28121.083623
560.946251	27730.726917
561.303065	27911.232992
561.659825	27544.342856
562.016528	27144.271846
562.373177	26774.651925
562.729770	26854.168565
563.086307	26357.478800
563.442789	26389.583388
563.799216	26209.800719
564.155587	25873.134821
564.511904	25663.813510
564.868164	25499.759241
565.224370	25419.509113
565.580520	25064.402674
565.936615	24962.180677
566.292654	24596.742393
566.648638	24523.323029
567.004567	24279.616008
567.360441	24100.617238
567.716260	23810.445902
568.072023	23746.110696
568.427732	23523.125338
568.783385	23084.600406
569.138982	23068.035175
569.494525	22840.422038
569.850013	22512.590762
570.205445	22295.806023
570.560823	22063.255075
570.916145	21808.550777
571.271412	21625.708127
571.626625	21307.845733
571.981782	21126.694390
572.336884	20774.847058
572.691931	20721.531815
573.046923	20359.347596
573.401860	20088.098231
573.756743	19884.170955
574.111570	19724.709177
574.466342	19478.597525
574.821059	19332.731739
575.175722	18948.174879
575.530330	18767.184853
575.884882	18465.343246
576.239380	18260.120394
576.593823	18055.159681
576.948211	17837.326382
577.302544	17475.069067
577.656823	17298.855534
578.011047	17197.941717
578.365216	16928.973474
578.719330	16669.742219
579.073389	16450.704085
579.427394	16301.223791
579.781344	16112.752693
580.135239	15828.144270
580.489080	15681.383679
580.842866	15356.738412
581.196597	15324.459904
581.550273	15147.507842
581.903895	14943.333550
582.257463	14893.458894
582.610975	14558.995981
582.964434	14485.982429
583.317837	14221.316811
583.671186	14019.915153
584.024481	13928.685392
584.377721	13640.089416
584.730906	13564.968662
585.084037	13422.210747
585.437113	13196.016695
585.790135	13044.928273
586.143103	12775.723096
586.496016	12656.595589
586.848874	12518.543591
587.201679	12387.748334
587.554428	12120.040379
587.907124	12021.586645
588.259765	11835.031185
588.612352	11753.548495
588.964884	11486.004378
589.317362	11416.300344
589.669786	11272.236770
590.022155	11090.530900
590.374470	11043.396111
590.726731	10821.227420
591.078937	10592.427091
591.431090	10486.209980
591.783188	10291.150093
592.135232	10112.325243
592.487222	10035.472853
592.839157	9935.756309
593.191038	9754.332744
593.542866	9593.587992
593.894639	9385.151403
594.246358	9314.602976
594.598022	9199.921767
594.949633	9026.294346
595.301190	8909.715143
595.652692	8781.402654
596.004141	8727.048933
596.355535	8467.837844
596.706876	8354.865586
597.058162	8237.131959
597.409395	8199.857667
597.760573	8116.897919
598.111698	7955.787683
598.462768	7860.920729
598.813785	7777.323275
599.164748	7605.303983
599.515657	7569.705875
599.866511	7410.508757
600.217312	7407.237048
600.568060	7192.867022
600.918753	7201.777261
601.269392	7111.114630
601.619978	6987.457647
601.970510	6931.858761
602.320988	6874.185440
602.671412	6832.726991
603.021783	6724.523665
603.372100	6613.769515
603.722363	6547.770729
604.072572	6480.478887
604.422728	6411.878865
604.772830	6317.425286
605.122878	6256.301296
605.472872	6183.317991
605.822813	6137.556917
606.172701	6061.664866
606.522534	6019.362024
606.872314	5971.758408
607.222041	5892.168671
607.571714	5861.485688
607.921333	5750.902937
608.270899	5717.346497
608.620411	5686.419018
608.969870	5615.129541
609.319276	5557.672990
609.668627	5508.856977
610.017926	5483.752030
610.367171	5447.201144
610.716362	5399.421088
611.065500	5343.360937
611.414585	5307.044465
611.763616	5275.121358
612.112594	5219.749324
612.461518	5185.910579
612.810389	5158.025436
613.159207	5102.837405
613.507971	5063.067742
613.856682	5050.180032
614.205340	4994.611393
614.553945	4994.119881
614.902496	4916.992748
615.250994	4901.511364
615.599439	4866.056929
615.947830	4836.911498
616.296169	4804.872445
616.644454	4773.826499
616.992686	4749.462602
617.340864	4735.042382
617.688990	4688.434394
618.037063	4687.239640
618.385082	4651.298734
618.733048	4632.785097
619.080961	4598.739664
619.428821	4566.720775
619.776628	4537.383781
620.124382	4494.249148
620.472083	4461.511895
620.819731	4433.581382
621.167326	4384.034401
621.514868	4346.906303
621.862357	4292.958395
622.209793	4256.190740
622.557176	4211.410170
622.904506	4168.580527
623.251783	4119.971201
623.599007	4088.927776
623.946179	4048.414543
624.293297	4017.600490
624.640363	3975.559787
624.987376	3950.686734
625.334336	3916.991662
625.681243	3883.881363
626.028097	3858.650388
626.374899	3834.795648
626.721647	3814.013492
627.068343	3789.992394
627.414987	3761.913167
627.761577	3738.209661
628.108115	3726.592322
628.454600	3696.960420
628.801032	3680.616999
629.147412	3665.826254
629.493739	3650.783451
629.840014	3622.336220
630.186236	3617.476547
630.532405	3593.130295
630.878521	3586.622165
631.224585	3570.772777
631.570597	3547.611196
631.916556	3540.825803
632.262462	3525.024306
632.608316	3513.774972
632.954117	3499.027076
633.299866	3482.882781
633.645562	3466.529278
633.991206	3445.744600
634.336797	3417.839293
634.682336	3406.224475
635.027823	3386.785786
635.373257	3366.527909
635.718639	3348.402440
636.063968	3334.171263
636.409245	3313.689055
636.754470	3302.540543
637.099642	3288.319448
637.444762	3268.875718
637.789829	3260.028493
638.134845	3247.241606
638.479808	3238.752303
638.824719	3229.436251
639.169577	3211.731718
639.514383	3205.778116
639.859137	3193.691949
640.203839	3187.451001
640.548489	3175.974814
640.893086	3167.384688
641.237632	3154.159221
641.582125	3152.115033
641.926566	3140.379227
642.270955	3138.831592
642.615292	3134.793628
642.959576	3125.759881
643.303809	3117.323510
643.647990	3117.021040
643.992118	3107.954525
644.336195	3101.486725
644.680219	3099.843309
645.024192	3098.199892
645.368112	3100.838937
645.711981	3096.143102
646.055797	3104.345059
646.399562	3102.555449
646.743274	3107.084926
647.086935	3112.675566
647.430544	3105.640636
647.774101	3103.472939
648.117606	3100.778443
648.461059	3100.428083
648.804460	3093.544387
649.147810	3076.031418
649.491108	3066.337280
649.834354	3058.929304
650.177548	3042.336346
650.520690	3031.598688
650.863781	3029.100797
651.206820	3027.553162
651.549807	3011.156810
651.892742	3002.997702
652.235626	2996.933194
652.578458	2992.600322
652.921238	2982.006338
653.263967	2984.302583
653.606644	2972.077785
653.949269	2968.697691
654.291843	2962.391208
654.634365	2966.777012
654.976836	2958.764098
655.319255	2952.923921
655.661622	2951.131791
656.003938	2945.944443
656.346203	2939.907662
656.688416	2941.543516
657.030577	2933.888524
657.372687	2930.944490
657.714746	2931.209151
658.056753	2930.422731
658.398708	2916.912438
658.740612	2918.029054
659.082465	2920.592481
659.424266	2911.115112
659.766016	2909.466654
660.107715	2910.898342
660.449362	2908.886922
660.790958	2910.099319
661.132503	2908.297107
661.473996	2904.244019
661.815438	2904.967424
662.156829	2903.389543
662.498168	2901.453740
662.839456	2895.784963
663.180693	2895.656413
663.521879	2898.683626
663.863013	2894.761608
664.204097	2892.603995
664.545129	2895.626166
664.886110	2891.817575
665.227040	2888.374467
665.567918	2891.598284
665.908746	2888.049312
666.249522	2891.290774
666.590248	2890.068294
666.930922	2885.979918
667.271545	2884.172665
667.612118	2886.433622
667.952639	2881.246275
668.293109	2880.084289
668.633528	2877.188146
668.973896	2873.412322
669.314213	2874.218907
669.654480	2872.467106
669.994695	2868.560211
670.334859	2865.717001
670.674973	2864.101311
671.015035	2862.898996
671.355047	2862.084849
671.695008	2859.793645
672.034918	2855.564117
672.374777	2857.149560
672.714585	2855.279292
673.054342	2855.485979
673.394049	2851.143025
673.733705	2852.176461
674.073310	2850.346522
674.412864	2849.882736
674.752368	2844.874350
675.091820	2847.132787
675.431223	2840.861592
675.770574	2836.677434
676.109875	2831.469922
676.449125	2829.327432
676.788324	2827.489931
677.127473	2821.874086
677.466571	2815.965853
677.805619	2813.737663
678.144616	2818.057932
678.483562	2814.259423
678.822458	2810.017292
679.161303	2811.161634
679.500098	2809.782878
679.838842	2807.791622
680.177535	2807.784061
680.516179	2808.177271
680.854771	2809.714822
681.193314	2819.197233
681.531805	2824.112358
681.870247	2832.780622
682.208638	2836.659790
682.546978	2841.257322
682.885268	2839.306396
683.223508	2836.410253
683.561697	2830.527226
683.899836	2830.260045
684.237925	2822.030361
684.575963	2820.855772
684.913951	2816.480051
685.251889	2817.248827
685.589776	2813.593990
685.927614	2813.747746
686.265401	2815.590287
686.603137	2817.712613
686.940824	2819.134218
687.278460	2824.777790
687.616046	2827.744509
687.953582	2829.662668
688.291068	2825.024807
688.628504	2830.018070
688.965889	2828.742658
689.303224	2826.108655
689.640510	2821.644713
689.977745	2812.076603
690.314930	2807.426139
690.652065	2802.803401
690.989150	2794.919036
691.326185	2787.841256
691.663170	2780.425719
692.000105	2775.097219
692.336990	2767.086826
692.673825	2764.566249
693.010610	2762.958121
693.347345	2749.742736
693.684030	2745.805595
694.020665	2743.446335
694.357251	2737.061713
694.693786	2738.861405
695.030272	2736.580283
695.366707	2732.469222
695.703093	2727.783470
696.039429	2731.529047
696.375716	2727.912019
696.711952	2727.652400
697.048139	2725.872872
697.384276	2725.620815
697.720363	2726.306412
698.056400	2722.175186
698.392388	2722.245762
698.728326	2720.352809
699.064214	2719.198385
699.400053	2717.746532
699.735842	2717.812067
700.071581	2713.905173
700.407270	2709.852085
700.742910	2707.056766
701.078501	2705.645242
701.414042	2703.356559
701.749533	2700.588965
702.084974	2699.187524
702.420366	2700.117617
702.755709	2696.024200
703.091002	2692.755012
703.426246	2693.821216
703.761440	2692.848273
704.096584	2690.635207
704.431679	2690.206709
704.766725	2691.343489
705.101721	2685.599094
705.436668	2686.937521
705.771565	2684.699248
706.106413	2686.294773
706.441212	2688.863241
706.775961	2691.913139
707.110661	2687.605473
707.445311	2694.985723
707.779913	2686.708148
708.114465	2691.918181
708.448967	2693.909436
708.783421	2699.928574
709.117825	2703.570808
709.452180	2704.795808
709.786485	2707.666745
710.120742	2715.475492
710.454949	2713.456510
710.789107	2717.635627
711.123216	2720.277192
711.457275	2726.233315
711.791286	2727.617112
712.125247	2729.081567
712.459159	2725.656103
712.793023	2736.325705
713.126837	2728.257338
713.460602	2727.450753
713.794318	2725.857749
714.127985	2721.653427
714.461602	2715.009186
714.795171	2714.245451
715.128691	2704.344625
715.462162	2698.602751
715.795584	2696.828264
716.128957	2693.218798
716.462281	2691.222501
716.795556	2688.893488
717.128782	2683.330575
717.461960	2679.224555
717.795088	2680.336130
718.128167	2676.799760
718.461198	2673.775068
718.794180	2671.637619
719.127113	2670.082423
719.459997	2665.018584
719.792833	2662.447595
720.125619	2664.761485
720.458357	2660.375681
720.791046	2659.818633
721.123686	2658.727224
721.456278	2658.260917
721.788821	2658.427275
722.121315	2653.161790
722.453761	2656.499034
722.786158	2653.484424
723.118506	2653.144146
723.450805	2655.291677
723.783056	2654.611122
724.115259	2656.592295
724.447412	2654.432161
724.779518	2657.086328
725.111574	2655.964671
725.443582	2660.572286
725.775542	2658.427275
726.107453	2661.772081
726.439315	2660.879796
726.771129	2668.267607
727.102895	2669.255673
727.434612	2673.114677
727.766281	2673.228103
728.097901	2672.282886
728.429473	2674.886642
728.760996	2673.860767
729.092471	2673.485202
729.423897	2675.410922
729.755276	2672.071158
730.086606	2673.084430
730.417887	2679.753876
730.749120	2685.934331
731.080305	2685.233611
731.411442	2688.225535
731.742530	2690.224353
732.073570	2688.951462
732.404562	2692.694518
732.735506	2689.132943
733.066401	2690.080680
733.397249	2683.895184
733.728048	2680.689010
734.058798	2673.918741
734.389501	2664.600168
734.720156	2663.634787
735.050762	2655.664723
735.381320	2652.657674
735.711831	2652.148518
736.042293	2652.153559
736.372707	2649.204484
736.703073	2647.608959
737.033391	2649.751449
737.363661	2648.660039
737.693883	2650.127015
738.024056	2654.565751
738.354182	2655.629435
738.684260	2656.856956
739.014290	2657.141781
739.344272	2661.343582
739.674207	2665.522699
740.004093	2668.522186
740.333931	2665.368944
740.663722	2664.292657
740.993464	2665.671413
741.323159	2664.224602
741.652806	2662.503048
741.982405	2660.201761
742.311956	2658.462563
742.641460	2657.262768
742.970915	2652.476193
743.300323	2650.555513
743.629683	2648.995276
743.958996	2647.853455
744.288260	2643.341622
744.617477	2639.396919
744.946647	2636.062196
745.275768	2638.055972
745.604842	2632.346866
745.933869	2630.847122
746.262847	2629.743110
746.591778	2631.378964
746.920662	2631.013480
747.249498	2632.553553
747.578286	2635.210241
747.907027	2635.016157
748.235720	2636.788122
748.564365	2638.968421
748.892963	2639.457413
749.221514	2638.247536
749.550017	2637.103194
749.878473	2639.303658
750.206881	2634.131434
750.535242	2636.455406
750.863555	2634.350724
751.191821	2632.248563
751.520039	2630.610188
751.848210	2631.925929
752.176334	2631.830147
752.504411	2631.983903
752.832440	2629.100362
753.160421	2630.950466
753.488356	2628.568521
753.816243	2630.317801
754.144082	2627.015845
754.471875	2625.148098
754.799620	2625.044754
755.127318	2627.444343
755.454969	2627.212450
755.782572	2626.257152
756.110129	2625.705145
756.437638	2625.697584
756.765100	2624.817902
757.092515	2625.697584
757.419882	2624.628859
757.747203	2626.751185
758.074477	2627.285547
758.401703	2626.161370
758.728882	2630.406021
759.056014	2630.741258
759.383099	2631.482308
759.710138	2632.649335
760.037129	2632.079684
760.364073	2633.753347
760.690970	2633.274438
761.017820	2634.408697
761.344623	2636.455406
761.671379	2641.662918
761.998088	2644.901859
762.324751	2663.312153
762.651366	2692.109744
762.977935	2731.521485
763.304456	2748.744587
763.630931	2760.881165
763.957359	2752.044022
764.283740	2731.995354
764.610074	2712.755790
764.936362	2692.507996
765.262602	2674.130469
765.588796	2661.315856
765.914943	2647.679535
766.241044	2637.766106
766.567097	2630.516927
766.893104	2622.443519
767.219064	2617.551079
767.544978	2616.941099
767.870845	2611.065635
768.196665	2606.135386
768.522438	2604.804522
768.848165	2604.123966
769.173846	2602.558687
769.499479	2600.441403
769.825066	2598.432503
770.150607	2597.507451
770.476101	2596.930239
770.801548	2594.495362
771.126949	2590.996801
771.452303	2589.305494
771.777611	2588.957654
772.102872	2590.593509
772.428087	2588.982860
772.753256	2585.431367
773.078378	2584.067735
773.403453	2585.408682
773.728482	2583.235945
774.053465	2583.535893
774.378401	2582.910790
774.703291	2580.828794
775.028135	2577.889801
775.352932	2579.581108
775.677683	2578.411561
776.002388	2576.281673
776.327046	2576.435428
776.651658	2576.455593
776.976224	2575.021385
777.300743	2573.448545
777.625216	2574.776889
777.949643	2571.956363
778.274024	2570.774212
778.598359	2570.643142
778.922647	2571.167423
779.246889	2570.711198
779.571086	2568.296485
779.895236	2571.747155
780.219339	2573.546847
780.543397	2573.912331
780.867409	2573.667835
781.191374	2576.082547
781.515294	2576.465675
781.839167	2572.886456
782.162995	2575.903587
782.486776	2575.805284
782.810511	2575.926272
783.134201	2572.490725
783.457844	2572.334450
783.781441	2573.070458
784.104993	2572.626837
784.428498	2573.289748
784.751958	2570.706157
785.075372	2571.951322
785.398739	2568.102401
785.722061	2569.778585
786.045337	2571.001064
786.368568	2572.654563
786.691752	2572.831003
787.014891	2577.310068
787.337983	2578.971129
787.661030	2588.541759
787.984031	2593.557707
788.306987	2597.348655
788.629897	2597.376381
788.952760	2595.372523
789.275579	2594.134919
789.598351	2593.567790
789.921078	2588.062850
790.243759	2585.522108
790.566395	2580.246541
790.888984	2574.867629
791.211529	2575.459965
791.534027	2572.861250
791.856480	2571.104408
792.178888	2574.315623
792.501249	2571.800087
792.823566	2569.385375
793.145836	2569.292113
793.468062	2568.977041
793.790241	2567.028635
794.112375	2569.720611
794.434464	2571.432083
794.756507	2570.925447
795.078505	2572.929306
795.400457	2573.723287
795.722364	2574.645819
796.044226	2581.287539
796.366042	2581.174113
796.687812	2581.617734
797.009538	2583.903898
797.331218	2582.762076
797.652852	2584.037488
797.974442	2581.693352
798.295986	2579.513053
798.617484	2579.452559
798.938938	2577.897363
799.260346	2575.026426
799.581709	2573.123390
799.903026	2578.035995
800.224299	2571.878225
800.545526	2569.828996
800.866708	2566.998388
801.187845	2566.784139
801.508936	2567.368913
801.829983	2567.953687
802.150984	2565.702812
802.471940	2567.346228
802.792851	2565.942267
803.113717	2566.829510
803.434538	2564.984447
803.755314	2563.058727
804.076045	2564.485373
804.396731	2561.001936
804.717372	2563.744323
805.037967	2563.963614
805.358518	2564.195507
805.679024	2565.163408
805.999485	2561.914385
806.319901	2563.749365
806.640272	2563.172152
806.960598	2565.899417
807.280879	2564.261042
807.601115	2567.542833
807.921306	2565.969993
808.241453	2567.663821
808.561554	2565.770867
808.881611	2568.460323
809.201623	2568.283882
809.521590	2565.793553
809.841513	2565.493604
810.161390	2566.706001
810.481223	2564.744992
810.801011	2562.226936
811.120755	2564.021587
811.440453	2564.712225
811.760107	2561.874055
812.079716	2561.069991
812.399281	2560.444888
812.718801	2559.769374
813.038276	2558.640155
813.357707	2562.456309
813.677093	2563.507389
813.996434	2562.768860
814.315731	2561.382543
814.634983	2563.134344
814.954191	2560.911195
815.273354	2562.554611
815.592473	2565.551577
815.911547	2567.217678
816.230577	2568.972000
816.549562	2566.826989
816.868502	2572.342011
817.187399	2572.999882
817.506250	2572.455437
817.825058	2575.691858
818.143821	2576.813515
818.462539	2579.515573
818.781213	2585.789289
819.099843	2595.496031
819.418429	2605.260746
819.736970	2620.127109
820.055466	2632.586320
820.373919	2652.236738
820.692327	2678.760769
821.010691	2727.274313
821.329011	2839.278669
821.647286	3010.657735
821.965517	3195.070705
822.283704	3295.677012
822.601847	3328.298319
822.919945	3253.495157
823.237999	3163.450067
823.556010	3072.356417
823.873976	2990.475476
824.191897	2915.914290
824.509775	2858.614015
824.827609	2807.925213
825.145398	2776.503701
825.463144	2763.799993
825.780845	2767.220416
826.098502	2787.712707
826.416116	2825.712924
826.733685	2871.882332
827.051210	2878.335009
827.368692	2855.937162
827.686129	2812.404278
828.003522	2767.628750
828.320872	2724.536967
828.638177	2691.661082
828.955439	2669.439676
829.272656	2648.075266
829.589830	2628.092132
829.906960	2618.513939
830.224046	2605.734614
830.541088	2597.618357
830.858086	2592.234404
831.175041	2588.491348
831.491952	2586.053950
831.808819	2584.100503
832.125642	2592.718355
832.442421	2606.090016
832.759157	2629.165897
833.075849	2662.618994
833.392497	2698.280117
833.709101	2724.131154
834.025662	2714.341233
834.342179	2699.011084
834.658653	2672.630726
834.975083	2652.703045
835.291469	2634.202010
835.607811	2618.639968
835.924110	2606.223606
836.240366	2595.969899
836.556578	2583.364494
836.872746	2576.967270
837.188871	2569.778585
837.504952	2566.365723
837.820990	2561.425393
838.136984	2560.954045
838.452935	2557.760474
838.768842	2559.542522
839.084706	2565.849005
839.400526	2581.622776
839.716303	2601.590786
840.032037	2612.769545
840.347727	2612.414143
840.663373	2599.465940
840.978977	2584.155955
841.294537	2574.487022
841.610054	2570.685992
841.925527	2562.796587
842.240957	2556.132181
842.556344	2552.724361
842.871687	2549.437529
843.186987	2542.596683
843.502244	2540.371014
843.817458	2540.285314
844.132629	2537.568132
844.447756	2539.027546
844.762840	2531.304498
845.077881	2532.960517
845.392879	2530.684437
845.707833	2534.377082
846.022745	2527.780732
846.337613	2530.339118
846.652438	2531.168387
846.967221	2528.665454
847.281960	2531.218799
847.596656	2530.273582
847.911309	2532.247194
848.225919	2529.154446
848.540485	2528.526823
848.855009	2529.167049
849.169490	2528.426000
849.483928	2531.052441
849.798323	2530.235774
850.112675	2530.467667
850.426984	2527.747964
850.741251	2531.332225
851.055474	2528.000022
851.369654	2530.041689
851.683792	2530.707122
851.997887	2530.039169
852.311938	2530.674354
852.625947	2530.167718
852.939914	2529.346010
853.253837	2527.425331
853.567718	2526.583458
853.881555	2530.268541
854.195350	2528.972965
854.509103	2528.166380
854.822812	2528.806607
855.136479	2528.700743
855.450103	2528.090763
855.763685	2527.321987
856.077224	2527.969775
856.390720	2530.089580
856.704173	2530.150074
857.017584	2531.591844
857.330953	2531.559077
857.644278	2528.932636
857.957561	2530.323994
858.270802	2531.203675
858.584000	2530.477749
858.897155	2530.414735
859.210268	2529.275434
859.523339	2530.427338
859.836367	2526.507841
860.149352	2527.863911
860.462295	2530.341638
860.775195	2524.645134
861.088054	2528.380629
861.400869	2525.708818
861.713642	2523.591533
862.026373	2526.565814
862.339062	2529.988757
862.651708	2528.993129
862.964312	2529.162008
863.276873	2530.117307
863.589392	2529.454395
863.901869	2530.011443
864.214303	2535.234078
864.526696	2531.952287
864.839045	2533.242822
865.151353	2532.854653
865.463619	2532.471526
865.775842	2534.656866
866.088023	2536.685930
866.400162	2535.085364
866.712258	2533.441948
867.024313	2534.803059
867.336325	2534.480425
867.648296	2534.351876
867.960224	2533.555374
868.272110	2535.846578
868.583954	2535.402957
868.895755	2535.448327
869.207515	2536.149047
869.519233	2534.997144
869.830909	2535.891948
870.142542	2535.108049
870.454134	2535.833975
870.765684	2538.662063
871.077191	2537.918492
871.388657	2539.725746
871.700081	2539.869419
872.011463	2540.055942
872.322803	2540.786909
872.634101	2544.403937
872.945357	2542.344625
873.256571	2544.489636
873.567744	2542.576518
873.878874	2541.172557
874.189963	2542.536189
874.501010	2546.959802
874.812015	2544.555171
875.122979	2543.776313
875.433900	2546.813608
875.744780	2546.264123
876.055618	2545.626417
876.366415	2547.030378
876.677169	2547.340409
876.987882	2542.493339
877.298554	2548.767055
877.609183	2550.181099
877.919771	2549.253527
878.230317	2555.708724
878.540822	2562.355486
878.851285	2565.957390
879.161707	2578.174626
879.472087	2590.006214
879.782425	2613.283742
880.092722	2653.469300
880.402977	2712.213866
880.713191	2777.612755
881.023363	2843.112467
881.333494	2883.048488
881.643583	2898.184552
881.953631	2891.499982
882.263637	2869.006353
882.573602	2843.523321
882.883526	2817.107675
883.193408	2791.105403
883.503248	2764.072216
883.813048	2738.085067
884.122806	2711.230841
884.432522	2689.594209
884.742197	2666.498162
885.051831	2648.052580
885.361424	2632.480456
885.670975	2619.592746
885.980485	2605.694285
886.289954	2595.932091
886.599382	2587.427664
886.908768	2581.257292
887.218113	2575.112125
887.527417	2571.626167
887.836680	2563.240208
888.145901	2564.747513
888.455082	2557.551266
888.764221	2555.439022
889.073319	2554.173693
889.382376	2551.091027
889.691392	2551.020451
890.000366	2550.652447
890.309300	2547.040460
890.618193	2553.659495
890.927044	2550.090358
891.235855	2550.541542
891.544625	2549.182951
891.853353	2553.765359
892.162041	2556.175031
892.470687	2560.323901
892.779293	2563.681309
893.087858	2570.433935
893.396381	2574.262691
893.704864	2595.339755
894.013306	2612.784668
894.321707	2635.477422
894.630068	2650.432005
894.938387	2650.527787
895.246665	2647.785399
895.554903	2638.779378
895.863100	2626.937707
896.171256	2619.779269
896.479371	2608.199739
896.787446	2600.733790
897.095480	2592.531832
897.403473	2584.970102
897.711425	2579.944071
898.019336	2576.082547
898.327207	2568.593913
898.635038	2567.172308
898.942827	2562.904971
899.250576	2559.030845
899.558284	2552.805020
899.865952	2553.810730
900.173579	2547.854607
900.481165	2549.608928
900.788711	2545.626417
901.096216	2544.598021
901.403681	2541.727084
901.711105	2544.335881
902.018489	2544.706406
902.325832	2547.393341
902.633135	2549.621531
902.940397	2555.660833
903.247619	2572.425190
903.554800	2603.493822
903.861941	2637.879532
904.169041	2666.755261
904.476101	2675.637774
904.783121	2667.395488
905.090100	2653.217242
905.397039	2638.028246
905.703938	2624.036523
906.010796	2611.226952
906.317614	2601.396702
906.624391	2590.790114
906.931129	2581.126222
907.237826	2575.833010
907.544483	2566.600137
907.851099	2558.163766
908.157675	2550.886861
908.464211	2548.772097
908.770707	2537.089223
909.077163	2537.389171
909.383578	2533.041176
909.689954	2531.455733
909.996289	2524.319980
910.302584	2531.438089
910.608839	2530.571011
910.915054	2529.272913
911.221229	2526.797707
911.527363	2532.348017
911.833458	2530.182842
912.139513	2531.538912
912.445527	2531.349869
912.751502	2531.866587
913.057436	2536.101156
913.363331	2541.018802
913.669186	2542.047197
913.975000	2547.456355
914.280775	2556.916081
914.586510	2571.164902
914.892205	2587.460432
915.197859	2607.977928
915.503475	2633.007257
915.809050	2652.062818
916.114585	2663.889365
916.420081	2666.278872
916.725536	2667.574449
917.030952	2658.891061
917.336328	2650.671460
917.641665	2642.908083
917.946961	2632.044396
918.252218	2622.355299
918.557435	2612.298197
918.862612	2602.800663
919.167750	2597.439396
919.472848	2588.980340
919.777906	2580.606983
920.082925	2574.865109
920.387904	2564.634087
920.692843	2561.125444
920.997743	2555.660833
921.302603	2552.789896
921.607423	2551.285112
921.912204	2542.319420
922.216946	2544.353525
922.521647	2540.580222
922.826310	2536.764068
923.130932	2536.698533
923.435516	2532.348017
923.740059	2531.382636
924.044564	2528.950280
924.349028	2527.831143
924.653454	2525.797038
924.957840	2524.579599
925.262186	2523.641945
925.566493	2522.306039
925.870761	2518.532735
926.174989	2522.177489
926.479178	2521.184382
926.783328	2522.361492
927.087438	2519.304032
927.391509	2520.680267
927.695541	2518.260513
927.999533	2515.765142
928.303486	2519.457787
928.607400	2517.968126
928.911275	2513.874709
929.215110	2515.508043
929.518906	2519.412417
929.822663	2514.681294
930.126381	2517.083403
930.430060	2516.586850
930.733699	2516.544000
931.037299	2514.935872
931.340861	2519.175482
931.644383	2517.481655
931.947866	2518.938548
932.251309	2517.141377
932.554714	2518.179854
932.858080	2517.786644
933.161407	2516.682632
933.464694	2519.046933
933.767943	2512.339678
934.071153	2517.159021
934.374323	2516.158352
934.677455	2516.765811
934.980548	2515.961747
935.283602	2516.891840
935.586617	2513.967970
935.889593	2515.235821
936.192530	2516.239010
936.495428	2518.444515
936.798287	2515.734895
937.101108	2518.598270
937.403890	2518.628517
937.706632	2520.919722
938.009336	2519.041892
938.312002	2522.815195
938.614628	2523.157994
938.917216	2527.425331
939.219765	2525.973478
939.522275	2529.542615
939.824747	2529.530012
940.127179	2526.606143
940.429573	2521.643127
940.731929	2524.219157
941.034246	2521.580113
941.336524	2525.567665
941.638763	2524.829136
941.940964	2526.734693
942.243126	2524.014990
942.545250	2524.630011
942.847335	2521.113806
943.149381	2521.806965
943.451389	2519.412417
943.753359	2521.428878
944.055290	2521.224711
944.357182	2519.969464
944.659036	2517.678260
944.960851	2519.107427
945.262628	2521.373425
945.564367	2520.955010
945.866067	2520.282016
946.167729	2519.072139
946.469352	2518.643641
946.770937	2517.620286
947.072484	2516.327230
947.373992	2517.958044
947.675462	2518.903260
947.976893	2513.642816
948.278286	2517.925276
948.579641	2517.569875
948.880958	2515.480317
949.182236	2516.632220
949.483476	2518.308404
949.784678	2516.387724
950.085841	2517.990811
950.386967	2517.716068
950.688054	2517.358146
950.989103	2519.656913
951.290114	2517.360667
951.591087	2517.441325
951.892021	2519.414937
952.192917	2522.900895
952.493776	2517.990811
952.794596	2523.336955
953.095378	2521.567510
953.396122	2521.040709
953.696828	2520.922242
953.997496	2519.709845
954.298126	2519.697242
954.598718	2520.614732
954.899272	2518.225225
955.199788	2516.914525
955.500266	2520.413086
955.800706	2513.158865
956.101108	2509.685510
956.401472	2512.460665
956.701798	2508.878926
957.002087	2508.833555
957.302337	2511.223062
957.602550	2510.925634
957.902724	2510.285408
958.202861	2509.040243
958.502960	2510.741632
958.803022	2511.623834
959.103045	2509.723319
959.403031	2507.031343
959.702979	2507.023781
960.002889	2507.152330
960.302762	2508.619306
960.602596	2509.957733
960.902393	2507.543020
961.202153	2506.315499
961.501875	2507.109481
961.801559	2505.438338
962.101205	2506.421363
962.400814	2503.694099
962.700385	2507.938750
962.999918	2505.224089
963.299414	2505.024963
963.598873	2504.656959
963.898293	2505.345077
964.197677	2504.556136
964.497022	2502.771568
964.796331	2506.461692
965.095601	2503.036228
965.394835	2504.372134
965.694030	2503.394150
965.993189	2503.437000
966.292309	2504.861126
966.591393	2504.097391
966.890439	2505.070334
967.189447	2505.992865
967.488419	2503.202586
967.787353	2505.327433
968.086249	2503.895745
968.385108	2504.886332
968.683930	2503.618482
968.982714	2506.121414
969.281462	2506.088647
969.580172	2504.911538
969.878844	2505.554285
970.177480	2504.520848
970.476078	2504.157885
970.774639	2503.805004
971.073162	2505.675272
971.371649	2501.997751
971.670098	2500.238388
971.968510	2503.585714
972.266885	2499.946001
972.565223	2506.922958
972.863524	2506.375993
973.161788	2505.163595
973.460014	2505.387927
973.758204	2504.392299
974.056356	2506.111332
974.354471	2508.488236
974.652550	2504.480519
974.950591	2510.348422
975.248595	2507.142248
975.546563	2506.353308
975.844493	2505.733246
976.142386	2506.297855
976.440243	2507.230468
976.738062	2505.695437
977.035845	2507.280880
977.333590	2505.161075
977.631299	2506.985972
977.928971	2504.956908
978.226606	2507.517814
978.524204	2504.367093
978.821765	2506.255005
979.119290	2506.320540
979.416777	2503.328615
979.714228	2504.566218
980.011642	2506.368431
980.309020	2506.655777
980.606360	2506.512104
980.903664	2507.202742
981.200931	2506.338184
981.498162	2509.332629
981.795356	2509.844307
982.092513	2512.932013
982.389633	2515.442508
982.686717	2517.947961
982.983764	2519.412417
983.280775	2522.061543
983.577749	2520.773528
983.874686	2522.550535
984.171587	2519.372087
984.468451	2517.849659
984.765279	2516.743126
985.062070	2514.343536
985.358824	2511.828001
985.655543	2514.711541
985.952224	2510.983607
986.248869	2508.573936
986.545478	2503.978924
986.842050	2506.184429
987.138586	2500.760147
987.435086	2502.990858
987.731549	2500.094715
988.027975	2502.401043
988.324366	2500.417349
988.620719	2503.618482
988.917037	2502.453975
989.213318	2504.044459
989.509563	2501.397853
989.805772	2499.837616
990.101944	2500.339211
990.398080	2500.545898
990.694180	2500.500528
990.990244	2500.412308
991.286271	2498.300064
991.582262	2502.516989
991.878217	2500.203100
992.174136	2501.017246
992.470019	2502.794253
992.765865	2503.797442
993.061676	2501.889366
993.357450	2504.636795
993.653188	2504.324243
993.948890	2501.113028
994.244556	2500.462719
994.540186	2502.718636
994.835780	2505.592093
995.131337	2504.924140
995.426859	2506.186949
995.722345	2508.838596
996.017795	2511.162568
996.313208	2512.818587
996.608586	2510.600480
996.903928	2511.185253
997.199234	2512.599297
997.494504	2511.026457
997.789738	2510.305572
998.084936	2511.094513
998.380099	2507.462361
998.675225	2509.975377
998.970316	2508.982269
999.265371	2510.141735
999.560390	2503.184942
999.855373	2505.783657
1000.150320	2503.621002
1000.445232	2502.005312
1000.740108	2503.946157
1001.034948	2501.478512
1001.329752	2499.784684
1001.624521	2501.682678
1001.919254	2496.545743
1002.213951	2499.701505
1002.508613	2495.081288
1002.803239	2502.370796
1003.097829	2494.940135
1003.392384	2502.592607
1003.686903	2499.280569
1003.981386	2500.369458
1004.275834	2498.161433
1004.570246	2499.709067
1004.864623	2498.405928
1005.158964	2500.671927
1005.453270	2498.965497
1005.747540	2497.243942
1006.041775	2498.663027
1006.335974	2499.885507
1006.630138	2500.374499
1006.924266	2496.278562
1007.218359	2501.115549
1007.512416	2497.982472
1007.806438	2500.939108
1008.100425	2496.439878
1008.394376	2497.889210
1008.688292	2497.032214
1008.982172	2494.148674
1009.276017	2498.539519
1009.569827	2498.005157
1009.863602	2500.714777
1010.157341	2495.608088
1010.451045	2498.093377
1010.744714	2497.770743
1011.038347	2498.884838
1011.331945	2495.086329
1011.625508	2496.707060
1011.919036	2497.138078
1012.212528	2497.753099
1012.505986	2496.523058
1012.799408	2496.049189
1013.092795	2497.942142
1013.386147	2500.145127
1013.679464	2497.160763
1013.972745	2499.714108
1014.265992	2496.966679
1014.559204	2500.339211
1014.852380	2499.154540
1015.145521	2498.214365
1015.438628	2497.218737
1015.731699	2499.207472
1016.024736	2497.301916
1016.317737	2500.329129
1016.610703	2498.146309
1016.903635	2494.451143
1017.196531	2493.924343
1017.489393	2495.260248
1017.782219	2492.469970
1018.075011	2495.890393
1018.367768	2499.522544
1018.660490	2500.271155
1018.953177	2500.271155
1019.245829	2500.271155
