Dividing Wavelength (nm)	Counts (n)	Blue Motor Position (mm): 0.000000	Red Motor Position (mm): 8.700000	
326.493990	2127.258538
326.888308	2127.258538
327.282561	2127.258538
327.676750	2095.874835
328.070874	2092.928281
328.464933	2096.099166
328.858929	2102.251895
329.252859	2111.038626
329.646726	2120.369802
330.040528	2137.045938
330.434265	2154.226191
330.827938	2172.258398
331.221547	2190.182221
331.615091	2207.410364
332.008571	2226.854094
332.401986	2248.752867
332.795338	2267.142996
333.188625	2289.871038
333.581847	2305.244037
333.975006	2325.247335
334.368100	2342.336847
334.761129	2358.193796
335.154095	2376.594008
335.546996	2393.801986
335.939833	2406.470406
336.332606	2421.707293
336.725315	2435.716660
337.117960	2443.255705
337.510540	2448.992538
337.903056	2464.794035
338.295508	2468.872329
338.687896	2480.116622
339.080220	2487.854793
339.472480	2495.638335
339.864676	2496.669251
340.256807	2502.418687
340.648875	2505.418173
341.040879	2508.606703
341.432818	2508.518483
341.824694	2511.212980
342.216506	2512.742970
342.608253	2514.285563
342.999937	2515.452590
343.391557	2511.071828
343.783113	2508.677279
344.174605	2507.953874
344.566033	2507.346415
344.957397	2506.537310
345.348697	2502.975734
345.739934	2505.448420
346.131106	2501.191166
346.522215	2500.190497
346.913260	2496.250835
347.304241	2498.930208
347.695159	2493.538694
348.086012	2495.469456
348.476802	2493.649600
348.867528	2490.904692
349.258191	2490.123313
349.648789	2488.222798
350.039324	2483.993270
350.429796	2487.146511
350.820203	2483.521922
351.210548	2483.776500
351.600828	2483.342961
351.991045	2482.599391
352.381198	2483.622745
352.771288	2480.855151
353.161314	2479.637713
353.551276	2482.795996
353.941175	2481.994452
354.331010	2480.754328
354.720782	2480.129225
355.110490	2479.751139
355.500135	2480.214925
355.889717	2481.036633
356.279235	2477.911118
356.668689	2480.928248
357.058080	2481.686942
357.447408	2477.452372
357.836672	2476.484471
358.225873	2478.742908
358.615010	2478.347177
359.004084	2480.245172
359.393095	2485.341778
359.782043	2483.176603
360.170927	2483.733650
360.559748	2485.046871
360.948505	2484.963692
361.337199	2487.544763
361.725830	2483.345481
362.114398	2487.179279
362.502903	2490.234218
362.891344	2488.613487
363.279722	2485.959320
363.668037	2488.621049
364.056289	2488.106851
364.444478	2487.708600
364.832603	2488.530308
365.220665	2492.207830
365.608665	2489.190699
365.996601	2491.227325
366.384474	2490.327479
366.772284	2495.119096
367.160031	2495.071205
367.547715	2496.707060
367.935336	2500.498007
368.322893	2503.058913
368.710388	2504.636795
369.097820	2514.126767
369.485189	2514.121726
369.872495	2520.758405
370.259738	2525.403828
370.646918	2534.114942
371.034035	2538.384799
371.421090	2550.208825
371.808081	2561.616957
372.195010	2570.454099
372.581875	2582.051274
372.968678	2597.192379
373.355418	2604.073554
373.742096	2624.734723
374.128710	2638.751652
374.515262	2653.244969
374.901751	2667.602175
375.288177	2678.445697
375.674540	2700.437731
376.060841	2715.914073
376.447079	2734.483163
376.833254	2752.079311
377.219367	2760.611463
377.605417	2795.266876
377.991404	2798.735189
378.377329	2814.743373
378.763191	2823.610763
379.148991	2852.864579
379.534727	2864.134078
379.920402	2882.050339
380.306013	2884.817933
380.691563	2917.449321
381.077049	2926.014242
381.462474	2931.037752
381.847835	2948.016358
382.233134	2952.613890
382.618371	2939.910182
383.003545	2976.105667
383.388657	2967.669296
383.773706	2974.769761
384.158693	2966.575366
384.543618	2967.583596
384.928480	2975.692292
385.313280	2982.805360
385.698017	2960.939356
386.082692	2970.961169
386.467305	2954.499282
386.851856	2948.384362
387.236344	2938.768361
387.620770	2928.192020
388.005133	2916.814136
388.389435	2910.311048
388.773674	2891.169786
389.157851	2883.358518
389.541965	2866.667258
389.926018	2836.886642
390.310008	2832.279027
390.693936	2815.547437
391.077802	2806.979997
391.461606	2780.725667
391.845348	2774.013371
392.229027	2754.899836
392.612645	2737.767475
392.996200	2734.987278
393.379694	2722.747357
393.763125	2713.312837
394.146494	2692.187882
394.529801	2682.657581
394.913047	2669.341373
395.296230	2650.248003
395.679351	2639.165026
396.062410	2630.043058
396.445408	2614.561675
396.828343	2603.574480
397.211217	2590.835484
397.594028	2577.756211
397.976778	2569.907134
398.359466	2561.218705
398.742092	2552.983981
399.124656	2550.488609
399.507158	2546.611962
399.889598	2543.904862
400.271977	2537.621064
400.654294	2536.506969
401.036549	2531.246525
401.418742	2527.495907
401.800874	2525.320649
402.182944	2522.351409
402.564952	2524.579599
402.946898	2522.747140
403.328783	2522.394259
403.710606	2517.897550
404.092367	2520.155987
404.474067	2521.113806
404.855705	2518.525173
405.237282	2518.368898
405.618797	2517.453928
406.000250	2516.352436
406.381642	2515.014010
406.762972	2517.108609
407.144240	2519.296470
407.525447	2516.574247
407.906593	2517.166582
408.287677	2517.980729
408.668700	2515.971829
409.049661	2516.077693
409.430560	2517.642972
409.811399	2517.277488
410.192176	2517.587519
410.572891	2517.897550
410.953545	2516.410409
411.334138	2516.768331
411.714669	2514.212466
412.095139	2516.859072
412.475547	2518.358815
412.855894	2518.620955
413.236180	2517.907632
413.616405	2515.538290
413.996568	2520.718075
414.376670	2518.328568
414.756711	2518.386542
415.136691	2520.256810
415.516609	2517.844618
415.896466	2519.767818
416.276262	2520.539114
416.655997	2514.925790
417.035670	2516.975019
417.415283	2517.905112
417.794834	2516.544000
418.174324	2519.109947
418.553753	2521.411234
418.933121	2519.520801
419.312428	2519.583816
419.691674	2518.769669
420.070859	2519.407375
420.449983	2519.558610
420.829045	2520.791172
421.208047	2522.132119
421.586988	2522.180010
421.965867	2523.049609
422.344686	2523.208405
422.723444	2521.128929
423.102141	2520.476100
423.480777	2521.829650
423.859352	2523.117665
424.237866	2522.573220
424.616319	2521.156656
424.994712	2523.248735
425.373044	2522.830319
425.751314	2522.943745
426.129524	2522.321162
426.507673	2524.012469
426.885762	2521.829650
427.263789	2523.140350
427.641756	2522.961389
428.019662	2524.014990
428.397508	2523.619259
428.775292	2524.771163
429.153016	2524.332583
429.530679	2523.427696
429.908282	2523.914167
430.285824	2523.984743
430.663305	2522.716893
431.040726	2524.002387
431.418086	2523.644465
431.795385	2523.180679
432.172624	2522.979033
432.549802	2524.120854
432.926920	2524.990453
433.303977	2527.271575
433.680974	2524.665299
434.057910	2524.743437
434.434786	2526.459950
434.811601	2527.803417
435.188355	2525.008097
435.565050	2525.227388
435.941683	2527.269055
436.318257	2525.479445
436.694770	2521.015503
437.071222	2522.684125
437.447614	2520.803775
437.823946	2526.727131
438.200218	2523.682274
438.576429	2526.197810
438.952580	2526.338962
439.328670	2526.729651
439.704700	2527.193438
440.080670	2528.657893
440.456580	2527.372398
440.832429	2524.899713
441.208218	2526.636390
441.583947	2526.996832
441.959616	2526.656555
442.335224	2526.676719
442.710773	2529.051103
443.086261	2529.053623
443.461689	2527.566483
443.837057	2526.643952
444.212365	2528.335259
444.587612	2526.341482
444.962800	2527.112779
445.337927	2529.860208
445.712995	2528.675537
446.088002	2529.998840
446.462949	2528.869621
446.837837	2528.214271
447.212664	2528.264683
447.587431	2528.710825
447.962139	2529.734179
448.336786	2531.420445
448.711374	2529.547656
449.085901	2530.699560
449.460369	2527.634538
449.834776	2530.465146
450.209124	2526.517923
450.583412	2528.879703
450.957640	2529.013294
451.331808	2530.787780
451.705917	2530.248377
452.079965	2530.097142
452.453954	2529.618233
452.827883	2531.763243
453.201752	2527.594209
453.575562	2532.405991
453.949311	2530.608819
454.323001	2532.098480
454.696632	2531.049920
455.070202	2533.817514
455.443713	2532.025383
455.817164	2529.537574
456.190556	2527.248890
456.563888	2528.567152
456.937160	2526.464991
457.310373	2530.102183
457.683526	2530.356762
458.056619	2533.426824
458.429653	2530.611340
458.802628	2531.425486
459.175542	2529.378778
459.548398	2533.668800
459.921194	2532.612678
460.293930	2535.765920
460.666607	2533.139478
461.039224	2535.990251
461.411782	2532.864736
461.784280	2534.490508
462.156719	2534.868594
462.529099	2533.459592
462.901419	2532.106042
463.273680	2532.637884
463.645882	2534.200641
464.018024	2533.930940
464.390106	2533.144520
464.762130	2533.235260
465.134094	2536.665766
465.505999	2535.438245
465.877845	2536.416228
466.249631	2538.780530
466.621358	2539.975283
466.993026	2538.725077
467.364634	2539.405633
467.736184	2534.387164
468.107674	2538.530993
468.479105	2537.575694
468.850477	2535.145858
469.221790	2538.513348
469.593043	2533.767102
469.964238	2535.624767
470.335373	2533.515044
470.706449	2536.320447
471.077467	2535.211393
471.448425	2537.734490
471.819324	2539.047711
472.190164	2537.908410
472.560945	2536.675848
472.931667	2533.746937
473.302330	2535.249201
473.672934	2537.031249
474.043479	2535.589479
474.413965	2535.884387
474.784393	2529.474560
475.154761	2531.823737
475.525070	2533.426824
475.895321	2533.444468
476.265513	2531.110414
476.635645	2534.984541
477.005719	2531.790970
477.375734	2535.067720
477.745691	2538.394881
478.115588	2537.227854
478.485427	2535.344983
478.855207	2537.810107
479.224928	2538.261291
479.594591	2538.296579
479.964194	2540.439069
480.333739	2537.721887
480.703226	2538.397402
481.072653	2539.261960
481.442022	2539.181301
481.811333	2538.435211
482.180584	2540.033256
482.549777	2541.709440
482.918912	2536.829603
483.287988	2539.637526
483.657005	2532.990764
484.025964	2538.026877
484.394864	2537.467309
484.763706	2539.390509
485.132489	2537.888245
485.501213	2537.353883
485.869879	2537.159799
486.238487	2536.514531
486.607036	2538.946888
486.975527	2538.740200
487.343959	2540.917979
487.712333	2538.132741
488.080648	2537.053934
488.448905	2536.481763
488.817104	2540.766744
489.185244	2536.993441
489.553326	2541.051569
489.921350	2539.635005
490.289315	2541.401930
490.657222	2540.678524
491.025070	2539.377906
491.392861	2541.162475
491.760593	2543.078113
492.128267	2540.754141
492.495883	2540.023174
492.863440	2540.411343
493.230939	2541.288504
493.598380	2542.488298
493.965763	2537.033770
494.333088	2534.775333
494.700354	2537.888245
495.067563	2539.272042
495.434713	2537.870601
495.801805	2540.391178
496.168839	2539.796322
496.535815	2540.650798
496.902733	2539.685417
497.269593	2539.682896
497.636395	2538.152906
498.003139	2539.403112
498.369825	2538.510828
498.736453	2539.309851
499.103023	2540.121477
499.469535	2542.458051
499.835989	2541.507794
500.202385	2537.555529
500.568723	2537.061496
500.935003	2541.669111
501.301226	2541.437218
501.667390	2537.429500
502.033497	2539.077958
502.399546	2541.669111
502.765537	2539.786240
503.131470	2543.090716
503.497345	2540.459234
503.863163	2542.417722
504.228923	2540.242464
504.594625	2538.959491
504.960269	2539.082999
505.325856	2540.633154
505.691385	2538.132741
506.056856	2539.758513
506.422270	2541.389327
506.787625	2541.459903
507.152924	2540.441590
507.518164	2538.155427
507.883347	2537.726928
508.248472	2539.163657
508.613540	2539.715664
508.978550	2543.383103
509.343503	2540.469316
509.708398	2542.455531
510.073236	2540.333205
510.438016	2542.732794
510.802738	2540.058462
511.167403	2543.383103
511.532010	2540.363452
511.896561	2542.107691
512.261053	2540.615510
512.625488	2538.031918
512.989866	2535.365148
513.354186	2538.611651
513.718449	2538.220962
514.082655	2538.977135
514.446803	2541.008720
514.810894	2542.369831
515.174927	2542.246323
515.538904	2542.498381
515.902822	2539.841692
516.266684	2541.238092
516.630488	2541.182639
516.994235	2542.652136
517.357925	2542.354708
517.721558	2540.144162
518.085133	2544.461910
518.448651	2539.929913
518.812112	2542.301776
519.175516	2544.154400
519.538863	2541.689275
519.902152	2540.587783
520.265385	2542.727753
520.628560	2542.790767
520.991678	2542.886549
521.354739	2547.070707
521.717743	2544.560212
522.080690	2542.095088
522.443580	2543.002496
522.806413	2543.060469
523.169189	2542.563916
523.531908	2541.611137
523.894569	2544.151879
524.257174	2542.384955
524.619722	2541.774975
524.982213	2541.152392
525.344647	2540.587783
525.707025	2544.184647
526.069345	2543.529297
526.431608	2542.395037
526.793815	2543.584749
527.155964	2543.499050
527.518057	2540.292876
527.880093	2544.562733
528.242072	2542.712630
528.603995	2544.620706
528.965860	2540.822197
529.327669	2546.758156
529.689421	2541.926210
530.051117	2544.320758
530.412755	2541.890922
530.774337	2545.966694
531.135862	2544.547610
531.497331	2542.773123
531.858743	2539.524100
532.220098	2541.031405
532.581396	2541.802701
532.942638	2538.639377
533.303824	2542.397557
533.664953	2541.679193
534.026025	2543.804039
534.387040	2544.968546
534.747999	2541.044008
535.108902	2543.378062
535.469748	2542.626930
535.830537	2543.070552
536.191270	2543.458720
536.551947	2546.037271
536.912567	2542.778165
537.273131	2544.101468
537.633638	2545.427291
537.994089	2543.231868
538.354483	2543.607434
538.714821	2543.068031
539.075103	2544.754297
539.435328	2544.285470
539.795497	2541.467465
540.155609	2544.610624
540.515665	2542.856303
540.875665	2543.143648
541.235609	2543.821683
541.595496	2545.941489
541.955328	2544.061138
542.315102	2544.209852
542.674821	2543.040305
543.034483	2547.937786
543.394090	2544.822353
543.753640	2546.362425
544.113134	2547.189174
544.472571	2541.177598
544.831953	2544.784544
545.191278	2542.715150
545.550548	2543.236910
545.909761	2543.887218
546.268918	2541.079296
546.628019	2542.248843
546.987064	2542.904193
547.346053	2545.613814
547.704986	2545.260933
548.063863	2543.884698
548.422684	2544.877805
548.781449	2542.029553
549.140158	2545.160110
549.498811	2547.063145
549.857408	2545.011396
550.215949	2542.213555
550.574434	2541.616179
550.932864	2546.095244
551.291237	2541.016281
551.649555	2541.200283
552.007817	2543.335212
552.366022	2544.648433
552.724173	2542.702547
553.082267	2544.857641
553.440305	2542.906714
553.798288	2543.867054
554.156215	2544.444266
554.514086	2547.103475
554.871902	2544.028371
555.229661	2543.899821
555.587365	2540.834800
555.945014	2543.395706
556.302606	2544.966025
556.660143	2542.677342
557.017625	2546.443083
557.375050	2544.318237
557.732421	2544.061138
558.089735	2544.408978
558.446994	2542.921838
558.804197	2544.527445
559.161345	2544.686241
559.518437	2544.872764
559.875474	2545.512991
560.232455	2543.062990
560.589381	2545.071890
560.946251	2544.930737
561.303065	2545.286139
561.659825	2546.639688
562.016528	2542.027033
562.373177	2542.175747
562.729770	2545.777651
563.086307	2545.717157
563.442789	2543.657846
563.799216	2543.284801
564.155587	2546.707744
564.511904	2544.328319
564.868164	2543.446117
565.224370	2545.008875
565.580520	2543.582229
565.936615	2541.212886
566.292654	2546.473330
566.648638	2544.020809
567.004567	2543.201622
567.360441	2544.008206
567.716260	2543.854451
568.072023	2543.393185
568.427732	2540.290355
568.783385	2545.160110
569.138982	2542.218597
569.494525	2540.091230
569.850013	2537.913451
570.205445	2545.540717
570.560823	2542.894111
570.916145	2541.538041
571.271412	2544.703885
571.626625	2547.196736
571.981782	2543.980480
572.336884	2544.406457
572.691931	2542.233720
573.046923	2542.914276
573.401860	2542.309337
573.756743	2542.329502
574.111570	2541.832948
574.466342	2544.512322
574.821059	2545.381921
575.175722	2544.270346
575.530330	2544.169523
575.884882	2543.312527
576.239380	2542.427804
576.593823	2545.384441
576.948211	2543.917465
577.302544	2546.561551
577.656823	2544.837476
578.011047	2545.641540
578.365216	2544.945861
578.719330	2544.088865
579.073389	2543.836807
579.427394	2544.913093
579.781344	2546.228834
580.135239	2540.207176
580.489080	2544.590459
580.842866	2542.155582
581.196597	2544.214893
581.550273	2545.238248
581.903895	2544.353525
582.257463	2541.230530
582.610975	2541.424615
582.964434	2543.486447
583.317837	2545.636499
583.671186	2544.655994
584.024481	2543.925027
584.377721	2549.034237
584.730906	2545.303783
585.084037	2545.056766
585.437113	2542.770603
585.790135	2543.796478
586.143103	2544.766900
586.496016	2545.296221
586.848874	2536.945550
587.201679	2541.606096
587.554428	2541.918648
587.907124	2543.418391
588.259765	2541.255736
588.612352	2544.577857
588.964884	2544.799667
589.317362	2542.508463
589.669786	2542.561395
590.022155	2545.762528
590.374470	2542.846220
590.726731	2544.098947
591.078937	2544.487116
591.431090	2542.994934
591.783188	2540.212217
592.135232	2543.458720
592.487222	2542.977290
592.839157	2542.745397
593.191038	2543.919986
593.542866	2542.682383
593.894639	2541.354039
594.246358	2542.803370
594.598022	2540.842362
594.949633	2544.129194
595.301190	2541.946374
595.652692	2543.146169
596.004141	2544.736653
596.355535	2545.351674
596.706876	2539.652649
597.058162	2541.480068
597.409395	2541.129707
597.760573	2543.090716
598.111698	2543.509132
598.462768	2544.769420
598.813785	2543.418391
599.164748	2545.447456
599.515657	2543.509132
599.866511	2542.193391
600.217312	2542.145500
600.568060	2542.347146
600.918753	2544.681200
601.269392	2542.453010
601.619978	2542.480737
601.970510	2544.650953
602.320988	2541.341436
602.671412	2543.904862
603.021783	2542.057280
603.372100	2541.830428
603.722363	2541.459903
604.072572	2541.802701
604.422728	2545.359235
604.772830	2539.672814
605.122878	2537.275745
605.472872	2540.968390
605.822813	2538.349511
606.172701	2541.709440
606.522534	2540.701209
606.872314	2540.607948
607.222041	2542.495860
607.571714	2544.149358
607.921333	2541.129707
608.270899	2541.404450
608.620411	2544.570295
608.969870	2542.979811
609.319276	2541.822866
609.668627	2547.128680
610.017926	2547.589946
610.367171	2552.525236
610.716362	2549.193033
611.065500	2550.143290
611.414585	2546.438042
611.763616	2543.551982
612.112594	2546.528783
612.461518	2545.911242
612.810389	2545.001313
613.159207	2545.898639
613.507971	2543.703216
613.856682	2545.034081
614.205340	2543.917465
614.553945	2548.152035
614.902496	2541.835469
615.250994	2542.904193
615.599439	2545.049204
615.947830	2543.960315
616.296169	2543.123484
616.644454	2545.530635
616.992686	2544.023330
617.340864	2540.688606
617.688990	2542.407640
618.037063	2543.589790
618.385082	2545.432332
618.733048	2541.590973
619.080961	2542.750438
619.428821	2542.324461
619.776628	2542.853782
620.124382	2546.561551
620.472083	2543.567105
620.819731	2543.645243
621.167326	2544.991231
621.514868	2543.607434
621.862357	2543.942671
622.209793	2543.355377
622.557176	2544.560213
622.904506	2535.740714
623.251783	2537.472350
623.599007	2540.497042
623.946179	2539.534182
624.293297	2538.939326
624.640363	2544.903011
624.987376	2542.833617
625.334336	2543.693134
625.681243	2540.378575
626.028097	2542.107691
626.374899	2540.897814
626.721647	2540.426466
627.068343	2544.005686
627.414987	2542.347146
627.761577	2542.863864
628.108115	2541.026364
628.454600	2543.892260
628.801032	2540.265149
629.147412	2541.653987
629.493739	2540.958308
629.840014	2542.306817
630.186236	2542.178267
630.532405	2541.820345
630.878521	2541.401930
631.224585	2541.144831
631.570597	2539.372865
631.916556	2540.756662
632.262462	2540.444110
632.608316	2542.347146
632.954117	2540.136600
633.299866	2541.071734
633.645562	2541.543082
633.991206	2541.868236
634.336797	2538.873791
634.682336	2540.381096
635.027823	2541.303627
635.373257	2539.564429
635.718639	2538.962011
636.063968	2543.299924
636.409245	2539.297248
636.754470	2541.001158
637.099642	2537.520241
637.444762	2541.643905
637.789829	2538.921682
638.134845	2539.929913
638.479808	2541.994265
638.824719	2540.736497
639.169577	2535.728111
639.514383	2540.499563
639.859137	2538.861188
640.203839	2540.701209
640.548489	2540.761703
640.893086	2537.739531
641.237632	2535.017308
641.582125	2537.376568
641.926566	2535.423121
642.270955	2537.295910
642.615292	2541.633823
642.959576	2541.442259
643.303809	2539.554347
643.647990	2540.731456
643.992118	2540.363452
644.336195	2540.169368
644.680219	2538.818338
645.024192	2539.327495
645.368112	2540.471837
645.711981	2539.057793
646.055797	2541.228010
646.399562	2539.793802
646.743274	2538.591486
647.086935	2537.890766
647.430544	2538.316743
647.774101	2539.826569
648.117606	2540.796991
648.461059	2541.580891
648.804460	2542.936961
649.147810	2543.536858
649.491108	2539.307330
649.834354	2540.156765
650.177548	2542.211035
650.520690	2539.022505
650.863781	2536.078471
651.206820	2543.075593
651.549807	2538.518390
651.892742	2538.962011
652.235626	2537.185004
652.578458	2540.199614
652.921238	2536.774150
653.263967	2536.610313
653.606644	2537.444624
653.949269	2541.021323
654.291843	2541.066693
654.634365	2538.457896
654.976836	2539.118287
655.319255	2538.573842
655.661622	2538.228523
656.003938	2540.623071
656.346203	2539.319933
656.688416	2540.814635
657.030577	2538.962011
657.372687	2540.890252
657.714746	2536.602751
658.056753	2536.065868
658.398708	2535.004705
658.740612	2536.912782
659.082465	2535.478574
659.424266	2536.880015
659.766016	2535.476053
660.107715	2538.883873
660.449362	2541.250695
660.790958	2536.547298
661.132503	2538.838503
661.473996	2538.994779
661.815438	2537.737011
662.156829	2540.393699
662.498168	2536.822041
662.839456	2539.902186
663.180693	2538.147865
663.521879	2539.922351
663.863013	2537.852957
664.204097	2539.451003
664.545129	2539.025026
664.886110	2538.430169
665.227040	2538.601569
665.567918	2538.198276
665.908746	2537.553009
666.249522	2537.235416
666.590248	2539.428318
666.930922	2539.340098
667.271545	2539.521579
667.612118	2537.628626
667.952639	2538.402443
668.293109	2539.539223
668.633528	2540.817156
668.973896	2535.526465
669.314213	2537.621064
669.654480	2539.070396
669.994695	2537.605941
670.334859	2539.196425
670.674973	2536.186856
671.015035	2536.703574
671.355047	2537.250539
671.695008	2539.261960
672.034918	2536.834644
672.374777	2539.529141
672.714585	2539.226672
673.054342	2539.652649
673.394049	2538.876312
673.733705	2538.503266
674.073310	2539.602238
674.412864	2540.527289
674.752368	2538.772968
675.091820	2537.873122
675.431223	2535.841537
675.770574	2538.198276
676.109875	2535.561753
676.449125	2535.012267
676.788324	2535.632329
677.127473	2537.673996
677.466571	2532.617719
677.805619	2539.050231
678.144616	2537.076620
678.483562	2538.599048
678.822458	2538.311702
679.161303	2538.977135
679.500098	2537.207690
679.838842	2538.538554
680.177535	2536.028060
680.516179	2536.930426
680.854771	2539.156096
681.193314	2539.665252
681.531805	2536.375899
681.870247	2539.357742
682.208638	2537.532844
682.546978	2538.241126
682.885268	2536.378420
683.223508	2538.276414
683.561697	2540.088709
683.899836	2537.058976
684.237925	2540.181970
684.575963	2539.330015
684.913951	2537.545447
685.251889	2537.691640
685.589776	2540.517207
685.927614	2536.499408
686.265401	2535.350024
686.603137	2540.156765
686.940824	2537.686599
687.278460	2539.264480
687.616046	2535.256763
687.953582	2537.187525
688.291068	2537.195087
688.628504	2540.421425
688.965889	2538.805735
689.303224	2538.599048
689.640510	2536.209541
689.977745	2538.654501
690.314930	2541.885880
690.652065	2538.949408
690.989150	2538.011754
691.326185	2537.177443
691.663170	2535.942360
692.000105	2537.900848
692.336990	2536.827082
692.673825	2536.567463
693.010610	2537.290869
693.347345	2535.677699
693.684030	2534.608975
694.020665	2535.450847
694.357251	2531.291896
694.693786	2535.284489
695.030272	2535.468492
695.366707	2538.684748
695.703093	2536.403626
696.039429	2534.422452
696.375716	2537.989068
696.711952	2534.210724
697.048139	2535.234078
697.384276	2538.568801
697.720363	2539.138452
698.056400	2538.601569
698.392388	2534.825744
698.728326	2539.637526
699.064214	2535.798687
699.400053	2532.978162
699.735842	2537.769778
700.071581	2536.391023
700.407270	2536.713657
700.742910	2538.881353
701.078501	2538.369676
701.414042	2538.518390
701.749533	2534.117462
702.084974	2535.987730
702.420366	2537.326157
702.755709	2535.400436
703.091002	2534.908923
703.426246	2535.501259
703.761440	2535.715508
704.096584	2537.474871
704.431679	2538.069727
704.766725	2535.387833
705.101721	2536.428831
705.436668	2536.421270
705.771565	2537.043852
706.106413	2538.024357
706.441212	2536.900179
706.775961	2535.460930
707.110661	2534.094777
707.445311	2536.857329
707.779913	2535.977648
708.114465	2537.048893
708.448967	2535.854140
708.783421	2534.369520
709.117825	2535.483615
709.452180	2537.719367
709.786485	2535.465971
710.120742	2534.548481
710.454949	2538.362114
710.789107	2535.730632
711.123216	2533.661238
711.457275	2536.335570
711.791286	2533.000847
712.125247	2535.004705
712.459159	2532.310209
712.793023	2534.238450
713.126837	2535.758358
713.460602	2537.956301
713.794318	2535.271887
714.127985	2538.427649
714.461602	2537.326157
714.795171	2537.023688
715.128691	2538.389840
715.462162	2537.212731
715.795584	2535.982689
716.128957	2538.079809
716.462281	2538.566281
716.795556	2536.522093
717.128782	2539.972762
717.461960	2536.902700
717.795088	2536.474202
718.128167	2533.751979
718.461198	2536.229706
718.794180	2535.211393
719.127113	2535.813811
719.459997	2535.939839
719.792833	2537.568132
720.125619	2534.644263
720.458357	2535.662576
720.791046	2538.175591
721.123686	2535.821372
721.456278	2536.383461
721.788821	2533.537730
722.121315	2537.069058
722.453761	2535.128214
722.786158	2535.546629
723.118506	2535.471012
723.450805	2536.519572
723.783056	2534.649304
724.115259	2533.905734
724.447412	2537.613503
724.779518	2536.512010
725.111574	2533.172246
725.443582	2536.648122
725.775542	2532.905065
726.107453	2537.825231
726.439315	2535.599562
726.771129	2541.626261
727.102895	2536.237267
727.434612	2534.828265
727.766281	2537.006043
728.097901	2536.706095
728.429473	2529.955990
728.760996	2535.443286
729.092471	2532.267359
729.423897	2535.496218
729.755276	2535.418080
730.086606	2535.259284
730.417887	2534.712318
730.749120	2533.910775
731.080305	2534.818183
731.411442	2539.645087
731.742530	2533.890610
732.073570	2538.132741
732.404562	2538.576363
732.735506	2537.079140
733.066401	2534.886238
733.397249	2535.992772
733.728048	2535.801208
734.058798	2535.927237
734.389501	2537.495035
734.720156	2535.276928
735.050762	2535.859181
735.381320	2538.578883
735.711831	2537.593338
736.042293	2537.994110
736.372707	2534.891279
736.703073	2532.852133
737.033391	2531.571680
737.363661	2536.852288
737.693883	2534.119983
738.024056	2539.203987
738.354182	2534.230888
738.684260	2535.299613
739.014290	2535.221475
739.344272	2534.573687
739.674207	2533.441948
740.004093	2536.509490
740.333931	2534.843388
740.663722	2536.272556
740.993464	2533.953625
741.323159	2532.582431
741.652806	2533.431865
741.982405	2534.545960
742.311956	2536.922864
742.641460	2536.527134
742.970915	2537.411856
743.300323	2533.414221
743.629683	2534.518234
743.958996	2536.645601
744.288260	2535.009747
744.617477	2534.092257
744.946647	2529.885414
745.275768	2534.404808
745.604842	2530.245856
745.933869	2532.968079
746.262847	2530.195445
746.591778	2537.686599
746.920662	2533.610826
747.249498	2534.533357
747.578286	2533.757020
747.907027	2534.024201
748.235720	2533.038655
748.564365	2531.972451
748.892963	2534.462781
749.221514	2535.158461
749.550017	2535.508821
749.878473	2537.379089
750.206881	2536.353214
750.535242	2537.006043
750.863555	2533.938501
751.191821	2534.868594
751.520039	2535.813811
751.848210	2536.670807
752.176334	2535.624767
752.504411	2535.367668
752.832440	2536.285158
753.160421	2532.118645
753.488356	2533.991433
753.816243	2534.631660
754.144082	2533.913296
754.471875	2533.172246
754.799620	2534.982020
755.127318	2536.189377
755.454969	2534.009078
755.782572	2533.855322
756.110129	2537.278266
756.437638	2534.246012
756.765100	2534.039324
757.092515	2532.219468
757.419882	2535.145858
757.747203	2534.677030
758.074477	2531.130579
758.401703	2535.536547
758.728882	2534.195600
759.056014	2535.166022
759.383099	2532.811803
759.710138	2538.052083
760.037129	2535.183666
760.364073	2535.944881
760.690970	2533.769623
761.017820	2534.520755
761.344623	2536.753986
761.671379	2536.010416
761.998088	2530.344159
762.324751	2533.162164
762.651366	2531.173428
762.977935	2534.407329
763.304456	2530.870959
763.630931	2534.591331
763.957359	2536.262473
764.283740	2534.361958
764.610074	2535.561753
764.936362	2537.840354
765.262602	2535.539068
765.588796	2536.282638
765.914943	2531.634694
766.241044	2535.032432
766.567097	2536.005374
766.893104	2533.290713
767.219064	2533.439427
767.544978	2534.266176
767.870845	2534.528316
768.196665	2534.654345
768.522438	2536.232226
768.848165	2535.723070
769.173846	2533.867925
769.499479	2533.958666
769.825066	2535.077802
770.150607	2534.959335
770.476101	2529.406504
770.801548	2536.506969
771.126949	2533.935981
771.452303	2532.269879
771.777611	2533.031094
772.102872	2531.949766
772.428087	2533.676361
772.753256	2535.095446
773.078378	2534.883718
773.403453	2535.465971
773.728482	2530.906247
774.053465	2535.758358
774.378401	2534.208203
774.703291	2534.767771
775.028135	2533.762061
775.352932	2533.068902
775.677683	2532.519417
776.002388	2534.656866
776.327046	2532.973120
776.651658	2533.734335
776.976224	2532.635363
777.300743	2536.559901
777.625216	2533.114273
777.949643	2533.741896
778.274024	2535.776002
778.598359	2527.679909
778.922647	2529.930784
779.246889	2528.950280
779.571086	2529.464477
779.895236	2535.092926
780.219339	2530.921371
780.543397	2534.571166
780.867409	2533.320960
781.191374	2531.175949
781.515294	2531.296937
781.839167	2534.152750
782.162995	2534.586290
782.486776	2534.177956
782.810511	2535.362627
783.134201	2533.026053
783.457844	2532.534540
783.781441	2535.478574
784.104993	2534.087215
784.428498	2532.547143
784.751958	2533.235260
785.075372	2533.136958
785.398739	2533.691485
785.722061	2532.499252
786.045337	2532.887421
786.368568	2532.504293
786.691752	2531.879190
787.014891	2533.885569
787.337983	2535.372710
787.661030	2532.494211
787.984031	2533.368851
788.306987	2530.954138
788.629897	2532.617719
788.952760	2532.373223
789.275579	2534.175436
789.598351	2532.133768
789.921078	2530.981865
790.243759	2533.883049
790.566395	2533.149561
790.888984	2532.005219
791.211529	2532.360620
791.534027	2531.120496
791.856480	2533.981351
792.178888	2532.653007
792.501249	2530.452543
792.823566	2532.842050
793.145836	2534.397246
793.468062	2533.000847
793.790241	2529.832482
794.112375	2531.475898
794.434464	2530.800383
794.756507	2533.820034
795.078505	2532.269879
795.400457	2530.591175
795.722364	2531.901875
796.044226	2528.196627
796.366042	2531.420445
796.687812	2528.239477
797.009538	2534.177956
797.331218	2531.596885
797.652852	2534.815662
797.974442	2533.986392
798.295986	2534.455220
798.617484	2533.005888
798.938938	2532.282482
799.260346	2535.644932
799.581709	2534.190559
799.903026	2534.263656
800.224299	2531.244005
800.545526	2531.251566
800.866708	2533.028573
801.187845	2531.705270
801.508936	2534.235929
801.829983	2534.414890
802.150984	2532.219468
802.471940	2533.076464
802.792851	2533.560415
803.113717	2533.194931
803.434538	2532.491690
803.755314	2532.693336
804.076045	2531.952287
804.396731	2531.934643
804.717372	2531.019673
805.037967	2533.845240
805.358518	2530.502955
805.679024	2533.764582
805.999485	2531.410363
806.319901	2534.818183
806.640272	2530.749972
806.960598	2532.337935
807.280879	2530.215609
807.601115	2532.766433
807.921306	2532.549663
808.241453	2532.456402
808.561554	2532.484128
808.881611	2534.616537
809.201623	2532.342976
809.521590	2535.150899
809.841513	2535.188708
810.161390	2532.920188
810.481223	2530.795342
810.801011	2529.479601
811.120755	2530.646628
811.440453	2533.605785
811.760107	2531.738038
812.079716	2529.366175
812.399281	2527.931967
812.718801	2530.802904
813.038276	2527.357275
813.357707	2529.489683
813.677093	2529.978675
813.996434	2531.294416
814.315731	2531.249046
814.634983	2531.914478
814.954191	2530.145033
815.273354	2532.441279
815.592473	2534.566125
815.911547	2531.042358
816.230577	2531.523789
816.549562	2530.623943
816.868502	2530.510517
817.187399	2535.657535
817.506250	2531.632173
817.825058	2533.318439
818.143821	2532.519417
818.462539	2533.167205
818.781213	2531.375075
819.099843	2532.146371
819.418429	2531.569159
819.736970	2531.443130
820.055466	2530.974303
820.373919	2534.208203
820.692327	2533.983872
821.010691	2535.155940
821.329011	2535.276928
821.647286	2539.274563
821.965517	2543.136087
822.283704	2542.458051
822.601847	2545.928886
822.919945	2540.514687
823.237999	2537.333718
823.556010	2540.121477
823.873976	2535.546629
824.191897	2536.486805
824.509775	2532.675692
824.827609	2535.493697
825.145398	2535.909593
825.463144	2537.689120
825.780845	2532.335414
826.098502	2535.100487
826.416116	2533.875487
826.733685	2536.393543
827.051210	2535.440765
827.368692	2538.546116
827.686129	2536.325488
828.003522	2533.323481
828.320872	2526.585978
828.638177	2530.278624
828.955439	2530.785260
829.272656	2528.121010
829.589830	2529.862728
829.906960	2532.373223
830.224046	2530.752492
830.541088	2533.139478
830.858086	2530.490352
831.175041	2534.959335
831.491952	2531.859025
831.808819	2531.488501
832.125642	2532.768954
832.442421	2531.014632
832.759157	2532.577390
833.075849	2532.330373
833.392497	2533.157123
833.709101	2534.435055
834.025662	2533.898172
834.342179	2534.125024
834.658653	2531.760723
834.975083	2530.331556
835.291469	2535.980169
835.607811	2532.925229
835.924110	2531.115455
836.240366	2531.639735
836.556578	2534.296423
836.872746	2531.410363
837.188871	2532.650487
837.504952	2531.924560
837.820990	2530.651669
838.136984	2530.434899
838.452935	2530.366844
838.768842	2530.891124
839.084706	2532.375744
839.400526	2532.673172
839.716303	2532.700898
840.032037	2530.886083
840.347727	2533.517565
840.663373	2530.500434
840.978977	2533.194931
841.294537	2533.845240
841.610054	2531.009591
841.925527	2530.021525
842.240957	2533.956145
842.556344	2531.551515
842.871687	2531.065044
843.186987	2531.521268
843.502244	2530.316432
843.817458	2529.829961
844.132629	2530.157636
844.447756	2529.416586
844.762840	2524.123375
845.077881	2527.536236
845.392879	2526.671678
845.707833	2528.846936
846.022745	2527.831143
846.337613	2531.831299
846.652438	2530.397091
846.967221	2533.479756
847.281960	2529.068747
847.596656	2529.507327
847.911309	2532.494211
848.225919	2528.466329
848.540485	2531.697708
848.855009	2530.424817
849.169490	2530.492873
849.483928	2531.029756
849.798323	2531.420445
850.112675	2529.701412
850.426984	2531.183511
850.741251	2532.519417
851.055474	2532.773995
851.369654	2530.878521
851.683792	2530.084539
851.997887	2528.330218
852.311938	2530.641587
852.625947	2529.908099
852.939914	2527.218643
853.253837	2534.356917
853.567718	2526.926256
853.881555	2530.016484
854.195350	2527.563962
854.509103	2530.601258
854.822812	2527.087573
855.136479	2529.829961
855.450103	2528.710825
855.763685	2531.271731
856.077224	2530.744930
856.390720	2532.118645
856.704173	2530.399611
857.017584	2530.129910
857.330953	2529.940866
857.644278	2529.953469
857.957561	2532.068233
858.270802	2530.555887
858.584000	2529.726617
858.897155	2531.407842
859.210268	2530.901206
859.523339	2531.637215
859.836367	2527.687471
860.149352	2529.812317
860.462295	2531.256608
860.775195	2527.281658
861.088054	2525.388704
861.400869	2528.168901
861.713642	2523.944414
862.026373	2526.875845
862.339062	2532.126207
862.651708	2529.731658
862.964312	2529.421628
863.276873	2529.484642
863.589392	2530.558408
863.901869	2528.113448
864.214303	2531.813655
864.526696	2529.507327
864.839045	2528.514220
865.151353	2530.331556
865.463619	2527.770650
865.775842	2531.062523
866.088023	2528.478932
866.400162	2528.370547
866.712258	2525.633200
867.024313	2532.892462
867.336325	2529.235105
867.648296	2529.179652
867.960224	2528.080681
868.272110	2530.651669
868.583954	2526.475073
868.895755	2532.862215
869.207515	2528.602440
869.519233	2530.119827
869.830909	2529.071267
870.142542	2530.518078
870.454134	2529.288037
870.765684	2530.525640
871.077191	2530.422297
871.388657	2530.646628
871.700081	2529.976154
872.011463	2532.272400
872.322803	2530.172759
872.634101	2528.640249
872.945357	2531.211237
873.256571	2530.376926
873.567744	2529.041020
873.878874	2529.401463
874.189963	2529.280475
874.501010	2531.891793
874.812015	2529.451874
875.122979	2530.996988
875.433900	2528.534384
875.744780	2531.634694
876.055618	2528.110928
876.366415	2531.390198
876.677169	2534.062010
876.987882	2528.783922
877.298554	2524.070443
877.609183	2527.299302
877.919771	2527.125382
878.230317	2527.299302
878.540822	2532.912627
878.851285	2529.746782
879.161707	2530.931453
879.472087	2532.645445
879.782425	2528.660413
880.092722	2530.611340
880.402977	2529.124199
880.713191	2531.400280
881.023363	2534.598893
881.333494	2537.699202
881.643583	2537.006043
881.953631	2536.151568
882.263637	2537.036290
882.573602	2535.871784
882.883526	2533.318439
883.193408	2533.308357
883.503248	2533.363810
883.813048	2532.421114
884.122806	2534.752648
884.432522	2528.090763
884.742197	2529.156967
885.051831	2529.814837
885.361424	2530.535722
885.670975	2527.795855
885.980485	2531.700229
886.289954	2531.304498
886.599382	2530.177801
886.908768	2530.999509
887.218113	2527.667306
887.527417	2528.670496
887.836680	2530.593696
888.145901	2529.711494
888.455082	2527.780732
888.764221	2529.363654
889.073319	2527.248890
889.382376	2529.025897
889.691392	2529.020856
890.000366	2529.880372
890.309300	2531.125537
890.618193	2532.640404
890.927044	2529.295599
891.235855	2531.264169
891.544625	2528.226874
891.853353	2528.176462
892.162041	2530.150074
892.470687	2531.939684
892.779293	2529.333407
893.087858	2527.087573
893.396381	2526.119672
893.704864	2528.546987
894.013306	2524.355268
894.321707	2529.600588
894.630068	2529.759385
894.938387	2529.835002
895.246665	2532.532019
895.554903	2531.173428
895.863100	2529.199817
896.171256	2531.415404
896.479371	2529.393901
896.787446	2531.748120
897.095480	2527.279137
897.403473	2528.093283
897.711425	2527.332069
898.019336	2531.226361
898.327207	2533.066382
898.635038	2528.057995
898.942827	2530.644107
899.250576	2530.288706
899.558284	2529.436751
899.865952	2528.383150
900.173579	2532.138809
900.481165	2532.186700
900.788711	2530.840712
901.096216	2529.068747
901.403681	2527.858870
901.711105	2526.802748
902.018489	2528.902389
902.325832	2530.606299
902.633135	2529.882893
902.940397	2529.023376
903.247619	2530.392050
903.554800	2529.532533
903.861941	2528.297450
904.169041	2531.314581
904.476101	2533.441948
904.783121	2531.692667
905.090100	2530.505476
905.397039	2528.920033
905.703938	2528.620084
906.010796	2533.714170
906.317614	2529.335928
906.624391	2531.342307
906.931129	2527.352234
907.237826	2530.082019
907.544483	2525.716379
907.851099	2532.287523
908.157675	2528.937677
908.464211	2529.842564
908.770707	2524.645134
909.077163	2526.727131
909.383578	2523.102541
909.689954	2524.972809
909.996289	2520.256810
910.302584	2527.939528
910.608839	2530.704601
910.915054	2527.795855
911.221229	2530.334076
911.527363	2527.042203
911.833458	2529.910619
912.139513	2528.531864
912.445527	2526.800228
912.751502	2529.335928
913.057436	2527.914323
913.363331	2530.321473
913.669186	2528.491535
913.975000	2529.207378
914.280775	2527.105217
914.586510	2530.845753
914.892205	2527.538757
915.197859	2531.780887
915.503475	2528.325177
915.809050	2529.729138
916.114585	2530.684437
916.420081	2530.316432
916.725536	2531.765764
917.030952	2530.651669
917.336328	2530.049251
917.641665	2529.472039
917.946961	2530.326515
918.252218	2528.504137
918.557435	2532.370703
918.862612	2531.004550
919.167750	2529.464477
919.472848	2528.088242
919.777906	2527.616894
920.082925	2527.904240
920.387904	2530.263500
920.692843	2528.610002
920.997743	2529.842564
921.302603	2526.187727
921.607423	2530.502955
921.912204	2528.332738
922.216946	2529.605630
922.521647	2530.107224
922.826310	2527.818541
923.130932	2526.757378
923.435516	2531.264169
923.740059	2528.332738
924.044564	2526.495238
924.349028	2530.911288
924.653454	2522.782428
924.957840	2528.030269
925.262186	2522.699249
925.566493	2528.801566
925.870761	2521.350740
926.174989	2529.421627
926.479178	2529.610671
926.783328	2525.287881
927.087438	2527.248890
927.391509	2528.935156
927.695541	2525.388704
927.999533	2527.616894
928.303486	2526.331400
928.607400	2528.514220
928.911275	2525.623118
929.215110	2527.747964
929.518906	2528.078160
929.822663	2526.974147
930.126381	2526.200330
930.430060	2529.429189
930.733699	2527.992460
931.037299	2529.761905
931.340861	2530.507996
931.644383	2526.502799
931.947866	2528.466329
932.251309	2525.315608
932.554714	2529.535053
932.858080	2527.586647
933.161407	2526.301153
933.464694	2527.543798
933.767943	2526.873324
934.071153	2530.573531
934.374323	2526.989271
934.677455	2526.953983
934.980548	2527.122861
935.283602	2526.364168
935.586617	2526.195289
935.889593	2529.882893
936.192530	2530.041689
936.495428	2526.480114
936.798287	2525.587830
937.101108	2527.054806
937.403890	2527.090094
937.706632	2526.754857
938.009336	2529.898017
938.312002	2531.130579
938.614628	2526.454908
938.917216	2526.848118
939.219765	2525.635721
939.522275	2529.411545
939.824747	2527.289219
940.127179	2525.517254
940.429573	2519.818229
940.731929	2527.500948
941.034246	2521.912829
941.336524	2525.476925
941.638763	2528.247039
941.940964	2528.667975
942.243126	2528.564631
942.545250	2526.301153
942.847335	2525.791997
943.149381	2525.590351
943.451389	2528.204189
943.753359	2530.641587
944.055290	2529.267872
944.357182	2526.054137
944.659036	2527.130423
944.960851	2526.654034
945.262628	2526.003725
945.564367	2525.839888
945.866067	2527.432892
946.167729	2530.510517
946.469352	2526.346524
946.770937	2526.855680
947.072484	2528.753675
947.373992	2526.328880
947.675462	2527.518592
947.976893	2527.153108
948.278286	2526.359127
948.579641	2527.226205
948.880958	2525.005577
949.182236	2529.429189
949.483476	2526.497758
949.784678	2526.162522
950.085841	2528.010104
950.386967	2528.637728
950.688054	2527.243849
950.989103	2527.778211
951.290114	2528.121010
951.591087	2526.835516
951.892021	2527.135464
952.192917	2529.131761
952.493776	2525.539939
952.794596	2525.915505
953.095378	2525.423992
953.396122	2529.915661
953.696828	2528.428520
953.997496	2528.912471
954.298126	2523.906605
954.598718	2528.604961
954.899272	2526.606143
955.199788	2526.641431
955.500266	2529.005732
955.800706	2522.749660
956.101108	2525.171935
956.401472	2525.192099
956.701798	2523.992305
957.002087	2523.573889
957.302337	2526.951462
957.602550	2526.777542
957.902724	2527.682429
958.202861	2530.618902
958.502960	2528.231915
958.803022	2525.595392
959.103045	2525.497089
959.403031	2527.150588
959.702979	2524.733354
960.002889	2527.881555
960.302762	2526.180166
960.602596	2527.306863
960.902393	2527.780732
961.202153	2527.180835
961.501875	2528.121010
961.801559	2529.093953
962.101205	2529.204858
962.400814	2526.122192
962.700385	2525.650844
962.999918	2527.450536
963.299414	2527.707635
963.598873	2527.064888
963.898293	2527.266534
964.197677	2524.214116
964.497022	2527.987419
964.796331	2526.996832
965.095601	2525.237470
965.394835	2525.633200
965.694030	2526.475073
965.993189	2523.977181
966.292309	2524.730834
966.591393	2527.342152
966.890439	2528.322656
967.189447	2527.203520
967.488419	2525.325690
967.787353	2525.706297
968.086249	2525.968437
968.385108	2527.450536
968.683930	2526.699404
968.982714	2527.727800
969.281462	2527.846267
969.580172	2525.446678
969.878844	2526.749816
970.177480	2523.357119
970.476078	2528.110927
970.774639	2528.627646
971.073162	2526.696884
971.371649	2522.404341
971.670098	2523.364681
971.968510	2524.846780
972.266885	2520.377798
972.565223	2527.558921
972.863524	2525.663447
973.161788	2528.849457
973.460014	2523.510875
973.758204	2528.872142
974.056356	2526.565814
974.354471	2528.315094
974.652550	2526.636390
974.950591	2526.618746
975.248595	2526.112110
975.546563	2527.463139
975.844493	2526.447347
976.142386	2527.248890
976.440243	2527.296781
976.738062	2525.343334
977.035845	2525.671009
977.333590	2527.223684
977.631299	2526.633869
977.928971	2523.707480
978.226606	2526.666637
978.524204	2526.303674
978.821765	2526.873324
979.119290	2525.945752
979.416777	2523.006759
979.714228	2525.933149
980.011642	2526.611184
980.309020	2527.934487
980.606360	2524.393077
980.903664	2525.814682
981.200931	2524.506503
981.498162	2527.274096
981.795356	2528.294930
982.092513	2528.042872
982.389633	2523.394928
982.686717	2528.136133
982.983764	2524.614887
983.280775	2525.063550
983.577749	2527.533715
983.874686	2527.672347
984.171587	2526.248221
984.468451	2528.443644
984.765279	2524.481297
985.062070	2527.148067
985.358824	2528.219312
985.655543	2526.273427
985.952224	2522.860566
986.248869	2526.245701
986.545478	2523.208405
986.842050	2523.805782
987.138586	2523.735206
987.435086	2524.438447
987.731549	2522.744619
988.027975	2524.340144
988.324366	2526.096987
988.620719	2525.842408
988.917037	2525.429034
989.213318	2527.868952
989.509563	2528.194107
989.805772	2524.408200
990.101944	2526.719569
990.398080	2526.643952
990.694180	2525.708818
990.990244	2528.181504
991.286271	2526.712007
991.582262	2525.590351
991.878217	2524.466173
992.174136	2525.560104
992.470019	2525.242511
992.765865	2524.224198
993.061676	2524.277130
993.357450	2526.094466
993.653188	2524.720752
993.948890	2527.029600
994.244556	2526.820392
994.540186	2525.764270
994.835780	2525.749147
995.131337	2527.460619
995.426859	2525.386184
995.722345	2526.149919
996.017795	2523.795700
996.313208	2528.156298
996.608586	2521.973323
996.903928	2526.744775
997.199234	2523.888961
997.494504	2525.340813
997.789738	2525.187058
998.084936	2525.877696
998.380099	2525.734023
998.675225	2523.498272
998.970316	2527.019518
999.265371	2527.190917
999.560390	2528.201668
999.855373	2526.394415
1000.150320	2526.487676
1000.445232	2525.562624
1000.740108	2525.789476
1001.034948	2526.565814
1001.329752	2523.803262
1001.624521	2525.209743
1001.919254	2518.888137
1002.213951	2525.045906
1002.508613	2523.924249
1002.803239	2523.251255
1003.097829	2523.331914
1003.392384	2523.888961
1003.686903	2524.798889
1003.981386	2526.565814
1004.275834	2525.270237
1004.570246	2525.902902
1004.864623	2524.927439
1005.158964	2525.461801
1005.453270	2523.730165
1005.747540	2528.536905
1006.041775	2527.044723
1006.335974	2525.461801
1006.630138	2525.681091
1006.924266	2526.457429
1007.218359	2525.653365
1007.512416	2526.376771
1007.806438	2526.258303
1008.100425	2524.332583
1008.394376	2523.410052
1008.688292	2524.612367
1008.982172	2525.935670
1009.276017	2526.896009
1009.569827	2523.652027
1009.863602	2526.283509
1010.157341	2525.794517
1010.451045	2525.378622
1010.744714	2525.834847
1011.038347	2527.059847
1011.331945	2525.013138
1011.625508	2527.468180
1011.919036	2524.675381
1012.212528	2526.041534
1012.505986	2523.445340
1012.799408	2527.127903
1013.092795	2523.352078
1013.386147	2526.175124
1013.679464	2526.454908
1013.972745	2525.552542
1014.265992	2525.202182
1014.559204	2524.282171
1014.852380	2523.175638
1015.145521	2527.117820
1015.438628	2525.360978
1015.731699	2526.457429
1016.024736	2523.861235
1016.317737	2525.865093
1016.610703	2527.586648
1016.903635	2524.188910
1017.196531	2523.969620
1017.489393	2523.672192
1017.782219	2518.623476
1018.075011	2523.883920
1018.367768	2525.421472
1018.660490	2525.108920
1018.953177	2525.108920
1019.245829	2525.108920
