Dividing Wavelength (nm)	Counts (n)	Blue Motor Position (mm): 0.000000	Red Motor Position (mm): 21.300000	
326.493990	2127.878600
326.888308	2127.878600
327.282561	2127.878600
327.676750	2094.249063
328.070874	2095.295102
328.464933	2098.274424
328.858929	2103.476895
329.252859	2116.208329
329.646726	2125.652931
330.040528	2136.123407
330.434265	2154.513537
330.827938	2171.008192
331.221547	2191.137519
331.615091	2210.001517
332.008571	2228.018601
332.401986	2247.434605
332.795338	2268.889756
333.188625	2285.601181
333.581847	2305.165899
333.975006	2323.006542
334.368100	2342.687207
334.761129	2361.231091
335.154095	2377.181302
335.546996	2394.429610
335.939833	2408.345715
336.332606	2426.700556
336.725315	2436.868563
337.117960	2444.359718
337.510540	2453.285081
337.903056	2465.378809
338.295508	2472.307875
338.687896	2480.499750
339.080220	2491.996101
339.472480	2498.012718
339.864676	2503.124448
340.256807	2506.713750
340.648875	2507.747187
341.040879	2512.100223
341.432818	2511.762466
341.824694	2514.686335
342.216506	2512.364883
342.608253	2514.517456
342.999937	2515.399658
343.391557	2516.027282
343.783113	2514.146931
344.174605	2512.067455
344.566033	2508.861282
344.957397	2511.507887
345.348697	2506.575118
345.739934	2505.982783
346.131106	2503.222751
346.522215	2503.429438
346.913260	2496.586072
347.304241	2500.409787
347.695159	2499.792246
348.086012	2496.742348
348.476802	2493.213540
348.867528	2494.481390
349.258191	2489.387304
349.648789	2491.799496
350.039324	2490.584578
350.429796	2490.846718
350.820203	2486.395379
351.210548	2485.372025
351.600828	2484.207519
351.991045	2482.463279
352.381198	2482.826242
352.771288	2483.181644
353.161314	2482.508650
353.551276	2483.728609
353.941175	2484.389000
354.331010	2485.243476
354.720782	2482.846407
355.110490	2483.534525
355.500135	2483.655512
355.889717	2482.178454
356.279235	2485.785400
356.668689	2484.835142
357.058080	2483.345481
357.447408	2478.994966
357.836672	2479.788947
358.225873	2483.567292
358.615010	2484.769607
359.004084	2485.054432
359.393095	2487.143991
359.782043	2486.302118
360.170927	2487.764053
360.559748	2487.920328
360.948505	2489.044506
361.337199	2491.975937
361.725830	2489.669609
362.114398	2492.195227
362.502903	2491.431492
362.891344	2494.249497
363.279722	2494.267141
363.668037	2494.894765
364.056289	2494.569610
364.444478	2494.557008
364.832603	2494.531802
365.220665	2498.829385
365.608665	2496.800321
365.996601	2498.516834
366.384474	2499.262925
366.772284	2502.302740
367.160031	2502.627895
367.547715	2504.931702
367.935336	2507.169974
368.322893	2507.409429
368.710388	2512.014523
369.097820	2518.247910
369.485189	2520.279495
369.872495	2527.339631
370.259738	2534.364479
370.646918	2541.391847
371.034035	2546.533824
371.421090	2558.156204
371.808081	2573.009964
372.195010	2579.971798
372.581875	2592.990577
372.968678	2602.861157
373.355418	2616.051336
373.742096	2633.418111
374.128710	2646.847745
374.515262	2663.687719
374.901751	2676.580470
375.288177	2689.513550
375.674540	2712.324771
376.060841	2731.667679
376.447079	2751.131574
376.833254	2774.083947
377.219367	2784.304887
377.605417	2822.347954
377.991404	2831.958914
378.377329	2851.241327
378.763191	2868.950901
379.148991	2908.801222
379.534727	2932.235026
379.920402	2963.076805
380.306013	2974.936119
380.691563	3023.381608
381.077049	3042.648898
381.462474	3062.311918
381.847835	3100.959924
382.233134	3123.037657
382.618371	3122.956999
383.003545	3190.891588
383.388657	3195.673123
383.773706	3228.523802
384.158693	3244.763879
384.543618	3270.249432
384.928480	3310.858447
385.313280	3354.277905
385.698017	3350.373531
386.082692	3404.860843
386.467305	3412.541041
386.851856	3443.188735
387.236344	3464.943835
387.620770	3494.391735
388.005133	3521.440046
388.389435	3550.804767
388.773674	3563.279102
389.157851	3606.806945
389.541965	3616.637195
389.926018	3585.538317
390.310008	3659.681087
390.693936	3673.813962
391.077802	3714.952298
391.461606	3700.516954
391.845348	3765.694032
392.229027	3764.209412
392.612645	3779.955456
392.996200	3854.655274
393.379694	3895.281933
393.763125	3959.876758
394.146494	3926.549690
394.529801	3991.545286
394.913047	4038.818706
395.296230	4002.713962
395.679351	4059.336202
396.062410	4086.321499
396.445408	4063.525401
396.828343	4094.717541
397.211217	4117.806025
397.594028	4038.639745
397.976778	4105.626598
398.359466	4131.081904
398.742092	4162.231194
399.124656	4081.867640
399.507158	4162.286646
399.889598	4187.910831
400.271977	4250.504318
400.654294	4219.672621
401.036549	4230.369950
401.418742	4199.765105
401.800874	4305.001712
402.182944	4318.854803
402.564952	4384.732601
402.946898	4375.018297
403.328783	4365.218294
403.710606	4282.412301
404.092367	4477.182321
404.474067	4437.284109
404.855705	4444.901293
405.237282	4377.342269
405.618797	4479.642404
406.000250	4518.232437
406.381642	4598.802678
406.762972	4561.767842
407.144240	4569.208585
407.525447	4567.088780
407.906593	4628.318634
408.287677	4671.496117
408.668700	4598.439715
409.049661	4651.626409
409.430560	4694.728274
409.811399	4618.443014
410.192176	4778.643321
410.572891	4718.940936
410.953545	4821.437676
411.334138	4702.040468
411.714669	4767.847690
412.095139	4667.190972
412.475547	4805.389163
412.855894	4783.649187
413.236180	4792.551865
413.616405	4747.486470
413.996568	4834.811857
414.376670	4770.678298
414.756711	4723.785485
415.136691	4756.439559
415.516609	4829.984953
415.896466	4863.115416
416.276262	4896.898708
416.655997	4871.743351
417.035670	5048.433272
417.415283	5132.809585
417.794834	5073.570986
418.174324	5019.391185
418.553753	4920.337553
418.933121	5090.617648
419.312428	5148.830372
419.691674	5080.820165
420.070859	5192.370818
420.449983	5097.360191
420.829045	5194.268812
421.208047	5089.813584
421.586988	5145.367099
421.965867	5143.146471
422.344686	5248.083129
422.723444	5095.759625
423.102141	4912.833796
423.480777	5170.063712
423.859352	4936.184420
424.237866	5148.507738
424.616319	5122.767606
424.994712	5194.871230
425.373044	5064.050767
425.751314	5162.045757
426.129524	4964.921518
426.507673	5104.107775
426.885762	5144.026152
427.263789	5055.130445
427.641756	4932.579995
428.019662	4998.326724
428.397508	4967.802537
428.775292	4884.817583
429.153016	4928.259726
429.530679	4831.789686
429.908282	4863.039798
430.285824	4730.220518
430.663305	4888.439652
431.040726	4649.509124
431.418086	4615.622488
431.795385	4644.160460
432.172624	4608.368268
432.549802	4560.878078
432.926920	4522.202346
433.303977	4481.610975
433.680974	4459.528201
434.057910	4417.631171
434.434786	4374.937639
434.811601	4307.030776
435.188355	4390.005648
435.565050	4274.442237
435.941683	4212.390674
436.318257	4267.240949
436.694770	4204.619736
437.071222	4168.018438
437.447614	4082.664142
437.823946	3997.526615
438.200218	4011.387268
438.576429	3905.475146
438.952580	3890.543248
439.328670	3858.899926
439.704700	3782.909573
440.080670	3728.533167
440.456580	3766.407355
440.832429	3681.002648
441.208218	3580.935744
441.583947	3590.539142
441.959616	3542.068447
442.335224	3478.307934
442.710773	3470.973055
443.086261	3430.422013
443.461689	3344.014116
443.837057	3336.028928
444.212365	3327.295129
444.587612	3267.789349
444.962800	3257.923811
445.337927	3214.174157
445.712995	3112.831842
446.088002	3171.599092
446.462949	3112.889815
446.837837	3068.003381
447.212664	3063.020200
447.587431	3044.062941
447.962139	3083.386462
448.336786	3159.918739
448.711374	3098.668720
449.085901	2965.272227
449.460369	2921.462080
449.834776	2891.719272
450.209124	2898.350910
450.583412	2884.694424
450.957640	2879.350801
451.331808	2835.462516
451.705917	2783.752880
452.079965	2763.684047
452.453954	2754.073087
452.827883	2735.085581
453.201752	2721.756770
453.575562	2701.088039
453.949311	2692.865917
454.323001	2680.250430
454.696632	2672.892866
455.070202	2664.065806
455.443713	2663.087822
455.817164	2651.263795
456.190556	2640.936992
456.563888	2638.048411
456.937160	2628.639097
457.310373	2620.568210
457.683526	2613.001438
458.056619	2605.187649
458.429653	2599.607092
458.802628	2595.455702
459.175542	2593.000660
459.548398	2596.345465
459.921194	2591.074939
460.293930	2592.148705
460.666607	2594.873448
461.039224	2595.291864
461.411782	2593.542584
461.784280	2591.584096
462.156719	2587.286512
462.529099	2582.792323
462.901419	2576.669842
463.273680	2577.809143
463.645882	2574.918041
464.018024	2571.797567
464.390106	2572.092474
464.762130	2577.834348
465.134094	2576.553895
465.505999	2587.157963
465.877845	2593.383787
466.249631	2597.837647
466.621358	2592.947728
466.993026	2590.475042
467.364634	2587.803230
467.736184	2581.287539
468.107674	2579.311407
468.479105	2578.832497
468.850477	2577.819225
469.221790	2576.143041
469.593043	2572.367217
469.964238	2573.682958
470.335373	2569.460992
470.706449	2572.004254
471.077467	2572.871332
471.448425	2580.400296
471.819324	2586.122005
472.190164	2588.715679
472.560945	2577.269739
472.931667	2573.698082
473.302330	2571.762279
473.672934	2570.985941
474.043479	2572.684810
474.413965	2571.900910
474.784393	2566.872359
475.154761	2571.386713
475.525070	2569.912175
475.895321	2568.750189
476.265513	2566.695919
476.635645	2576.440469
477.005719	2574.381158
477.375734	2573.748493
477.745691	2575.911148
478.115588	2579.515573
478.485427	2579.848289
478.855207	2581.509350
479.224928	2586.842890
479.594591	2589.086204
479.964194	2590.742223
480.333739	2588.551842
480.703226	2590.512850
481.072653	2590.732141
481.442022	2590.669126
481.811333	2592.345310
482.180584	2589.716348
482.549777	2590.197778
482.918912	2588.420772
483.287988	2588.292222
483.657005	2589.416399
484.025964	2585.227201
484.394864	2587.052098
484.763706	2585.945565
485.132489	2587.820874
485.501213	2585.214598
485.869879	2585.829618
486.238487	2585.368353
486.607036	2585.128898
486.975527	2582.862899
487.343959	2586.260637
487.712333	2584.269381
488.080648	2581.642940
488.448905	2586.863055
488.817104	2580.128073
489.185244	2586.737026
489.553326	2585.461614
489.921350	2590.147367
490.289315	2597.194900
490.657222	2596.353027
491.025070	2594.583582
491.392861	2595.395208
491.760593	2589.897830
492.128267	2588.231728
492.495883	2590.437233
492.863440	2584.244176
493.230939	2584.360122
493.598380	2585.832139
493.965763	2577.940213
494.333088	2578.996334
494.700354	2580.183526
495.067563	2579.515573
495.434713	2575.953998
495.801805	2578.850141
496.168839	2579.502970
496.535815	2579.802919
496.902733	2580.604462
497.269593	2582.731829
497.636395	2580.682600
498.003139	2578.300655
498.369825	2577.685634
498.736453	2580.170923
499.103023	2576.891653
499.469535	2577.854513
499.835989	2578.663618
500.202385	2580.521283
500.568723	2578.855182
500.935003	2578.114132
501.301226	2577.083217
501.667390	2581.436253
502.033497	2578.114132
502.399546	2579.986921
502.765537	2579.641602
503.131470	2577.317630
503.497345	2579.076993
503.863163	2575.583473
504.228923	2578.300655
504.594625	2581.335430
504.960269	2577.647826
505.325856	2580.559092
505.691385	2577.342836
506.056856	2578.535069
506.422270	2576.054821
506.787625	2579.414750
507.152924	2578.068762
507.518164	2580.044894
507.883347	2575.424677
508.248472	2580.480954
508.613540	2578.255285
508.978550	2577.224369
509.343503	2578.439287
509.708398	2581.201839
510.073236	2580.027250
510.438016	2578.817373
510.802738	2579.069431
511.167403	2579.810481
511.532010	2580.105388
511.896561	2584.448342
512.261053	2583.485482
512.625488	2579.306365
512.989866	2576.500963
513.354186	2580.496078
513.718449	2576.120356
514.082655	2581.852148
514.446803	2581.627817
514.810894	2582.845255
515.174927	2581.441294
515.538904	2580.982549
515.902822	2581.164031
516.266684	2580.669997
516.630488	2583.228383
516.994235	2584.125708
517.357925	2583.051943
517.721558	2583.533373
518.085133	2583.142683
518.448651	2581.554720
518.812112	2583.117478
519.175516	2584.796182
519.538863	2585.449011
519.902152	2583.636717
520.265385	2583.177972
520.628560	2583.276274
520.991678	2582.449525
521.354739	2582.073959
521.717743	2585.179310
522.080690	2585.075966
522.443580	2585.237283
522.806413	2584.231573
523.169189	2584.400451
523.531908	2585.446491
523.894569	2583.230904
524.257174	2584.549165
524.619722	2585.822057
524.982213	2586.800041
525.344647	2587.838518
525.707025	2584.481110
526.069345	2584.307190
526.431608	2583.576223
526.793815	2587.843559
527.155964	2585.965730
527.518057	2583.049422
527.880093	2586.535380
528.242072	2582.784762
528.603995	2585.154104
528.965860	2581.723599
529.327669	2584.917170
529.689421	2581.547158
530.051117	2584.947417
530.412755	2583.367015
530.774337	2585.748960
531.135862	2583.833322
531.497331	2582.565471
531.858743	2579.505491
532.220098	2583.916501
532.581396	2582.142014
532.942638	2582.300811
533.303824	2582.293249
533.664953	2582.099165
534.026025	2582.832652
534.387040	2582.469689
534.747999	2583.041860
535.108902	2582.875502
535.469748	2581.622776
535.830537	2585.842221
536.191270	2585.229721
536.551947	2585.569999
536.912567	2582.126891
537.273131	2583.248548
537.633638	2585.161666
537.994089	2582.489854
538.354483	2583.382138
538.714821	2582.459607
539.075103	2583.626634
539.435328	2584.760894
539.795497	2583.780389
540.155609	2585.690987
540.515665	2583.732498
540.875665	2582.978846
541.235609	2584.493713
541.595496	2585.106213
541.955328	2583.356932
542.315102	2582.315934
542.674821	2585.542273
543.034483	2584.420616
543.394090	2582.164700
543.753640	2583.361974
544.113134	2583.596387
544.472571	2583.021696
544.831953	2585.038157
545.191278	2582.729309
545.550548	2586.409351
545.909761	2584.619742
546.268918	2584.501274
546.628019	2584.488672
546.987064	2583.689649
547.346053	2582.676377
547.704986	2584.468507
548.063863	2585.408682
548.422684	2582.759556
548.781449	2586.419433
549.140158	2581.955492
549.498811	2584.707962
549.857408	2586.540421
550.215949	2583.409865
550.574434	2580.367528
550.932864	2579.855851
551.291237	2580.405337
551.649555	2582.862899
552.007817	2584.319793
552.366022	2583.611511
552.724173	2584.521439
553.082267	2584.488672
553.440305	2587.553693
553.798288	2584.715523
554.156215	2584.390369
554.514086	2583.732498
554.871902	2581.663105
555.229661	2586.414392
555.587365	2584.216449
555.945014	2582.668815
556.302606	2584.556727
556.660143	2584.972622
557.017625	2586.237952
557.375050	2585.222159
557.732421	2583.742581
558.089735	2585.171748
558.446994	2585.506985
558.804197	2584.176120
559.161345	2586.066553
559.518437	2584.271902
559.875474	2585.620411
560.232455	2584.150914
560.589381	2587.483117
560.946251	2586.416913
561.303065	2585.118816
561.659825	2583.392221
562.016528	2585.317941
562.373177	2584.881882
562.729770	2580.362487
563.086307	2584.450863
563.442789	2583.828280
563.799216	2584.632344
564.155587	2582.192426
564.511904	2583.772828
564.868164	2584.014803
565.224370	2583.727457
565.580520	2583.369535
565.936615	2583.467838
566.292654	2582.782241
566.648638	2581.176633
567.004567	2582.323496
567.360441	2584.488672
567.716260	2578.315779
568.072023	2581.544638
568.427732	2578.489698
568.783385	2580.980028
569.138982	2579.271077
569.494525	2579.061869
569.850013	2577.405850
570.205445	2582.079000
570.560823	2581.312745
570.916145	2581.413568
571.271412	2582.341140
571.626625	2582.507498
571.981782	2582.658733
572.336884	2580.475913
572.691931	2583.866089
573.046923	2579.283680
573.401860	2584.579412
573.756743	2580.352405
574.111570	2579.137487
574.466342	2580.430543
574.821059	2579.654205
575.175722	2582.918352
575.530330	2577.544482
575.884882	2579.177816
576.239380	2580.687642
576.593823	2580.760738
576.948211	2581.539597
577.302544	2578.456931
577.656823	2580.919535
578.011047	2579.729822
578.365216	2580.301993
578.719330	2578.439287
579.073389	2577.178998
579.427394	2578.535069
579.781344	2577.032805
580.135239	2579.145048
580.489080	2576.959708
580.842866	2578.532548
581.196597	2581.095975
581.550273	2578.277970
581.903895	2578.671180
582.257463	2578.585480
582.610975	2575.265881
582.964434	2576.624472
583.317837	2575.512897
583.671186	2576.717733
584.024481	2575.654049
584.377721	2579.628999
584.730906	2575.427197
585.084037	2577.655387
585.437113	2572.473081
585.790135	2576.891653
586.143103	2576.730336
586.496016	2575.953998
586.848874	2569.899572
587.201679	2575.195304
587.554428	2570.197000
587.907124	2574.159347
588.259765	2571.510221
588.612352	2574.827300
588.964884	2574.925603
589.317362	2570.975859
589.669786	2575.543144
590.022155	2576.493402
590.374470	2574.771847
590.726731	2575.545665
591.078937	2573.904769
591.431090	2574.865109
591.783188	2575.391909
592.135232	2572.725139
592.487222	2572.969635
592.839157	2574.567681
593.191038	2575.659091
593.542866	2573.103226
593.894639	2573.940057
594.246358	2575.961560
594.598022	2573.539285
594.949633	2572.941909
595.301190	2570.736404
595.652692	2571.578277
596.004141	2572.838565
596.355535	2572.432752
596.706876	2573.130952
597.058162	2572.263873
597.409395	2573.035170
597.760573	2571.462330
598.111698	2573.100705
598.462768	2571.525344
598.813785	2572.901579
599.164748	2571.948801
599.515657	2570.144068
599.866511	2571.285890
600.217312	2571.159861
600.568060	2570.426373
600.918753	2572.203380
601.269392	2571.479974
601.619978	2570.265056
601.970510	2570.827145
602.320988	2569.836558
602.671412	2570.413770
603.021783	2571.273287
603.372100	2571.764799
603.722363	2568.147771
604.072572	2573.375448
604.422728	2572.949470
604.772830	2567.439489
605.122878	2564.613922
605.472872	2566.738769
605.822813	2565.160888
606.172701	2569.105591
606.522534	2569.140879
606.872314	2570.169274
607.222041	2573.705643
607.571714	2568.772874
607.921333	2568.873697
608.270899	2569.990313
608.620411	2569.249263
608.969870	2573.733370
609.319276	2572.586507
609.668627	2576.871488
610.017926	2575.722105
610.367171	2576.813515
610.716362	2576.511046
611.065500	2574.484502
611.414585	2575.376786
611.763616	2572.394943
612.112594	2571.376630
612.461518	2574.030798
612.810389	2572.026939
613.159207	2572.137845
613.507971	2572.107598
613.856682	2572.687330
614.205340	2571.535427
614.553945	2573.037691
614.902496	2569.181208
615.250994	2567.807493
615.599439	2570.272618
615.947830	2570.136507
616.296169	2570.270097
616.644454	2572.137845
616.992686	2569.274469
617.340864	2569.697926
617.688990	2569.035014
618.037063	2570.653225
618.385082	2567.416804
618.733048	2569.196331
619.080961	2570.317988
619.428821	2573.365366
619.776628	2571.747155
620.124382	2570.580128
620.472083	2569.526527
620.819731	2569.536609
621.167326	2567.638615
621.514868	2572.193297
621.862357	2568.157854
622.209793	2568.656928
622.557176	2569.161043
622.904506	2565.143244
623.251783	2566.554767
623.599007	2565.027297
623.946179	2566.474108
624.293297	2562.146278
624.640363	2566.153995
624.987376	2568.309088
625.334336	2567.346228
625.681243	2567.013512
626.028097	2563.973696
626.374899	2566.970662
626.721647	2563.167111
627.068343	2566.390929
627.414987	2567.429407
627.761577	2564.722307
628.108115	2567.361351
628.454600	2561.856411
628.801032	2565.874211
629.147412	2564.505538
629.493739	2567.109294
629.840014	2566.758933
630.186236	2566.534602
630.532405	2564.868501
630.878521	2561.838767
631.224585	2564.591237
631.570597	2565.785991
631.916556	2564.165260
632.262462	2564.981927
632.608316	2562.484035
632.954117	2564.014025
633.299866	2564.931515
633.645562	2559.272820
633.991206	2563.479663
634.336797	2562.549570
634.682336	2561.826164
635.027823	2561.601833
635.373257	2560.742316
635.718639	2559.996226
636.063968	2562.446226
636.409245	2560.192831
636.754470	2559.663509
637.099642	2560.170145
637.444762	2562.733572
637.789829	2556.442212
638.134845	2559.920608
638.479808	2560.870866
638.824719	2558.534291
639.169577	2556.686708
639.514383	2557.541184
639.859137	2558.060422
640.203839	2560.825495
640.548489	2560.129816
640.893086	2556.893395
641.237632	2552.467262
641.582125	2556.948848
641.926566	2553.840977
642.270955	2559.829867
642.615292	2556.260731
642.959576	2558.226781
643.303809	2558.536812
643.647990	2558.675443
643.992118	2557.382387
644.336195	2556.112017
644.680219	2557.319373
645.024192	2558.506565
645.368112	2557.916750
645.711981	2557.984805
646.055797	2561.271637
646.399562	2559.751730
646.743274	2559.517316
647.086935	2561.831206
647.430544	2562.110990
647.774101	2561.274158
648.117606	2559.718962
648.461059	2556.785011
648.804460	2564.107287
649.147810	2558.229301
649.491108	2560.444888
649.834354	2559.991184
650.177548	2558.806513
650.520690	2559.030845
650.863781	2560.097049
651.206820	2559.106462
651.549807	2559.028324
651.892742	2558.400700
652.235626	2555.522202
652.578458	2557.069836
652.921238	2557.135371
653.263967	2557.740309
653.606644	2559.466904
653.949269	2557.437840
654.291843	2555.587737
654.634365	2558.738458
654.976836	2558.476318
655.319255	2558.342727
655.661622	2558.163766
656.003938	2554.445915
656.346203	2557.735268
656.688416	2555.973385
657.030577	2556.364074
657.372687	2558.524209
657.714746	2555.958261
658.056753	2555.625545
658.398708	2550.193702
658.740612	2551.905174
659.082465	2555.499516
659.424266	2553.367108
659.766016	2554.075390
660.107715	2556.104455
660.449362	2556.636297
660.790958	2557.362223
661.132503	2556.739640
661.473996	2556.878272
661.815438	2553.702345
662.156829	2555.413817
662.498168	2555.340720
662.839456	2555.328117
663.180693	2553.460370
663.521879	2555.383570
663.863013	2558.251986
664.204097	2555.035730
664.545129	2554.637479
664.886110	2552.832746
665.227040	2556.601008
665.567918	2556.346430
665.908746	2556.517829
666.249522	2555.784342
666.590248	2554.922304
666.930922	2557.914229
667.271545	2553.936759
667.612118	2558.844322
667.952639	2553.578837
668.293109	2554.997922
668.633528	2554.962633
668.973896	2554.897098
669.314213	2557.533622
669.654480	2556.243087
669.994695	2554.992880
670.334859	2555.771739
670.674973	2552.590771
671.015035	2554.294681
671.355047	2555.421378
671.695008	2556.895916
672.034918	2557.619322
672.374777	2554.171172
672.714585	2555.469269
673.054342	2554.992880
673.394049	2555.219732
673.733705	2555.744012
674.073310	2555.796944
674.412864	2554.236707
674.752368	2555.454146
675.091820	2556.192675
675.431223	2554.791234
675.770574	2555.711245
676.109875	2549.079607
676.449125	2549.228321
676.788324	2552.376522
677.127473	2549.901315
677.466571	2552.386604
677.805619	2551.940462
678.144616	2552.384083
678.483562	2555.978426
678.822458	2552.132026
679.161303	2554.236707
679.500098	2551.511964
679.838842	2552.860472
680.177535	2552.850390
680.516179	2554.130843
680.854771	2555.557490
681.193314	2552.827705
681.531805	2554.027499
681.870247	2557.337017
682.208638	2557.616801
682.546978	2554.198899
682.885268	2558.647717
683.223508	2555.421378
683.561697	2554.488765
683.899836	2558.357851
684.237925	2554.148487
684.575963	2554.715617
684.913951	2556.326266
685.251889	2556.154866
685.589776	2556.981616
685.927614	2555.489434
686.265401	2554.433312
686.603137	2555.645710
686.940824	2553.500699
687.278460	2554.829043
687.616046	2555.184444
687.953582	2555.131512
688.291068	2555.537325
688.628504	2555.796944
688.965889	2555.363405
689.303224	2554.735782
689.640510	2554.952551
689.977745	2556.132181
690.314930	2552.482386
690.652065	2556.845504
690.989150	2553.876265
691.326185	2552.812581
691.663170	2550.201264
692.000105	2551.186809
692.336990	2549.855945
692.673825	2550.828887
693.010610	2553.634289
693.347345	2551.045657
693.684030	2546.864020
694.020665	2547.592467
694.357251	2543.325130
694.693786	2548.794782
695.030272	2549.253527
695.366707	2550.937272
695.703093	2547.872251
696.039429	2553.044474
696.375716	2548.620862
696.711952	2549.064483
697.048139	2551.416182
697.384276	2549.384597
697.720363	2549.987015
698.056400	2548.825029
698.392388	2548.280584
698.728326	2548.300749
699.064214	2550.586912
699.400053	2549.883671
699.735842	2548.114226
700.071581	2548.522559
700.407270	2545.749925
700.742910	2547.118598
701.078501	2545.412168
701.414042	2546.818649
701.749533	2546.919473
702.084974	2549.664381
702.420366	2546.314534
702.755709	2547.698331
703.091002	2545.550799
703.426246	2545.656663
703.761440	2544.792106
704.096584	2547.751263
704.431679	2548.399051
704.766725	2546.657333
705.101721	2547.925183
705.436668	2547.663043
705.771565	2545.495347
706.106413	2544.126673
706.441212	2542.609286
706.775961	2548.313352
707.110661	2547.058104
707.445311	2545.013916
707.779913	2549.729916
708.114465	2550.292004
708.448967	2547.829401
708.783421	2548.414175
709.117825	2548.174720
709.452180	2547.196736
709.786485	2549.180430
710.120742	2548.457024
710.454949	2549.750080
710.789107	2548.981304
711.123216	2545.633978
711.457275	2547.836962
711.791286	2547.083310
712.125247	2548.126829
712.459159	2548.850234
712.793023	2552.880637
713.126837	2549.016592
713.460602	2548.507436
713.794318	2550.135729
714.127985	2550.571788
714.461602	2549.182951
714.795171	2549.679504
715.128691	2550.299566
715.462162	2547.221942
715.795584	2551.073383
716.128957	2546.745553
716.462281	2545.192877
716.795556	2547.327806
717.128782	2547.138763
717.461960	2546.468289
717.795088	2546.269164
718.128167	2545.452497
718.461198	2544.839997
718.794180	2546.506098
719.127113	2545.220604
719.459997	2548.421736
719.792833	2543.206663
720.125619	2545.419729
720.458357	2545.039122
720.791046	2543.010058
721.123686	2544.484595
721.456278	2548.527601
721.788821	2544.920655
722.121315	2544.484595
722.453761	2544.466951
722.786158	2542.667259
723.118506	2544.776982
723.450805	2545.429812
723.783056	2542.085006
724.115259	2545.364277
724.447412	2544.900490
724.779518	2545.172713
725.111574	2542.687424
725.443582	2544.237579
725.775542	2542.183308
726.107453	2545.565923
726.439315	2545.414688
726.771129	2547.337888
727.102895	2544.676159
727.434612	2546.354863
727.766281	2548.172199
728.097901	2543.746066
728.429473	2542.281611
728.760996	2543.509132
729.092471	2540.187012
729.423897	2545.797816
729.755276	2544.998793
730.086606	2543.841848
730.417887	2546.604400
730.749120	2545.328988
731.080305	2546.536345
731.411442	2546.773279
731.742530	2547.345450
732.073570	2547.650440
732.404562	2548.071376
732.735506	2547.579864
733.066401	2547.214380
733.397249	2546.301931
733.728048	2546.117929
734.058798	2545.442414
734.389501	2545.129863
734.720156	2544.308155
735.050762	2542.059800
735.381320	2545.780172
735.711831	2545.570964
736.042293	2543.680531
736.372707	2542.279090
736.703073	2544.509801
737.033391	2545.265974
737.363661	2542.274049
737.693883	2542.999975
738.024056	2545.966694
738.354182	2546.435522
738.684260	2546.939637
739.014290	2544.991231
739.344272	2546.362425
739.674207	2543.042825
740.004093	2546.117929
740.333931	2544.605583
740.663722	2546.856458
740.993464	2543.746066
741.323159	2545.891077
741.652806	2545.518032
741.982405	2545.359235
742.311956	2544.648433
742.641460	2545.031560
742.970915	2545.160110
743.300323	2543.854451
743.629683	2541.288504
743.958996	2542.014430
744.288260	2542.795809
744.617477	2542.309337
744.946647	2536.968235
745.275768	2542.732794
745.604842	2538.586445
745.933869	2539.942516
746.262847	2536.086033
746.591778	2544.378731
746.920662	2541.754810
747.249498	2542.291693
747.578286	2543.562064
747.907027	2541.444779
748.235720	2541.212886
748.564365	2545.838145
748.892963	2544.645912
749.221514	2542.853782
749.550017	2543.990562
749.878473	2541.565767
750.206881	2543.163813
750.535242	2543.103319
750.863555	2541.177598
751.191821	2544.058618
751.520039	2541.013761
751.848210	2541.631302
752.176334	2543.398227
752.504411	2544.590459
752.832440	2541.656508
753.160421	2541.921168
753.488356	2540.028215
753.816243	2542.521066
754.144082	2541.666590
754.471875	2543.186498
754.799620	2541.563247
755.127318	2541.500232
755.454969	2541.018802
755.782572	2541.938812
756.110129	2543.428473
756.437638	2541.464944
756.765100	2539.871939
757.092515	2540.282793
757.419882	2539.408153
757.747203	2541.588452
758.074477	2540.676003
758.401703	2540.905376
758.728882	2539.937474
759.056014	2541.951415
759.383099	2540.595345
759.710138	2543.602393
760.037129	2543.685572
760.364073	2543.015099
760.690970	2543.972918
761.017820	2542.589121
761.344623	2540.229861
761.671379	2541.596014
761.998088	2538.271373
762.324751	2538.518390
762.651366	2543.403268
762.977935	2548.210008
763.304456	2549.908877
763.630931	2552.797458
763.957359	2552.825184
764.283740	2549.992056
764.610074	2550.153373
764.936362	2549.752601
765.262602	2543.947712
765.588796	2543.433515
765.914943	2539.277083
766.241044	2543.040305
766.567097	2541.323792
766.893104	2543.473844
767.219064	2539.380427
767.544978	2542.389996
767.870845	2540.028215
768.196665	2541.389327
768.522438	2541.691796
768.848165	2540.048380
769.173846	2538.178112
769.499479	2540.497042
769.825066	2541.162475
770.150607	2539.539223
770.476101	2538.384799
770.801548	2541.348997
771.126949	2539.690458
771.452303	2540.396219
771.777611	2538.228523
772.102872	2537.739531
772.428087	2538.659542
772.753256	2541.270860
773.078378	2538.785571
773.403453	2539.375386
773.728482	2536.943029
774.053465	2539.468647
774.378401	2540.343287
774.703291	2539.761034
775.028135	2537.875643
775.352932	2540.587783
775.677683	2536.413708
776.002388	2540.136600
776.327046	2538.704912
776.651658	2539.758513
776.976224	2537.968904
777.300743	2541.059131
777.625216	2537.066537
777.949643	2538.649460
778.274024	2535.730632
778.598359	2534.132586
778.922647	2534.631660
779.246889	2538.886394
779.571086	2534.729963
779.895236	2536.973276
780.219339	2535.672658
780.543397	2536.189377
780.867409	2538.465457
781.191374	2538.062165
781.515294	2537.958822
781.839167	2534.122503
782.162995	2539.844213
782.486776	2537.875642
782.810511	2539.294727
783.134201	2538.778009
783.457844	2536.464119
783.781441	2538.162988
784.104993	2537.565612
784.428498	2539.143493
784.751958	2539.012423
785.075372	2537.863040
785.398739	2536.073430
785.722061	2538.180632
786.045337	2537.464788
786.368568	2539.788760
786.691752	2537.351362
787.014891	2536.544778
787.337983	2535.687782
787.661030	2538.646939
787.984031	2537.757175
788.306987	2541.729605
788.629897	2540.897814
788.952760	2538.823379
789.275579	2536.469161
789.598351	2539.539223
789.921078	2539.088040
790.243759	2537.704243
790.566395	2538.725077
790.888984	2536.852288
791.211529	2537.321116
791.534027	2537.058976
791.856480	2536.428831
792.178888	2539.360262
792.501249	2534.823224
792.823566	2536.209541
793.145836	2537.646270
793.468062	2538.881353
793.790241	2537.164840
794.112375	2538.979655
794.434464	2534.704757
794.756507	2537.510159
795.078505	2538.657021
795.400457	2536.418749
795.722364	2531.861546
796.044226	2535.828934
796.366042	2534.472864
796.687812	2536.746424
797.009538	2537.744573
797.331218	2539.400592
797.652852	2537.230375
797.974442	2539.443441
798.295986	2536.910262
798.617484	2537.401774
798.938938	2535.997813
799.260346	2539.720705
799.581709	2535.491177
799.903026	2536.413708
800.224299	2536.880015
800.545526	2537.515200
800.866708	2537.941178
801.187845	2539.231713
801.508936	2536.383461
801.829983	2534.866074
802.150984	2536.043183
802.471940	2535.544109
802.792851	2536.675848
803.113717	2536.985879
803.434538	2536.103677
803.755314	2538.215920
804.076045	2534.908923
804.396731	2534.346835
804.717372	2534.853471
805.037967	2534.470343
805.358518	2536.839685
805.679024	2535.231557
805.999485	2535.208872
806.319901	2540.088709
806.640272	2535.297092
806.960598	2536.882535
807.280879	2537.537885
807.601115	2536.116280
807.921306	2537.399253
808.241453	2534.669469
808.561554	2536.675848
808.881611	2537.661393
809.201623	2536.791794
809.521590	2537.114428
809.841513	2539.153575
810.161390	2535.781043
810.481223	2538.674665
810.801011	2535.445806
811.120755	2538.236085
811.440453	2538.853626
811.760107	2535.846578
812.079716	2535.276928
812.399281	2535.042514
812.718801	2532.877338
813.038276	2531.458254
813.357707	2538.485622
813.677093	2534.989582
813.996434	2536.920344
814.315731	2535.065199
814.634983	2538.369676
814.954191	2534.608975
815.273354	2538.094933
815.592473	2536.617875
815.911547	2536.890097
816.230577	2538.457896
816.549562	2537.621064
816.868502	2535.670138
817.187399	2539.740869
817.506250	2537.270704
817.825058	2538.107536
818.143821	2537.651311
818.462539	2537.729449
818.781213	2537.638708
819.099843	2538.815818
819.418429	2539.198945
819.736970	2540.469316
820.055466	2541.656508
820.373919	2543.801519
820.692327	2546.342260
821.010691	2548.865358
821.329011	2557.394990
821.647286	2573.526683
821.965517	2593.343458
822.283704	2605.958946
822.601847	2607.478854
822.919945	2601.051382
823.237999	2586.626121
823.556010	2577.612538
823.873976	2569.788667
824.191897	2562.189127
824.509775	2559.522357
824.827609	2553.780483
825.145398	2549.001469
825.463144	2549.755122
825.780845	2551.474155
826.098502	2553.974567
826.416116	2558.630073
826.733685	2561.044786
827.051210	2565.894376
827.368692	2564.001422
827.686129	2558.743499
828.003522	2553.213353
828.320872	2542.584080
828.638177	2543.249512
828.955439	2540.116435
829.272656	2540.471837
829.589830	2536.194418
829.906960	2539.128369
830.224046	2539.193904
830.541088	2538.999820
830.858086	2537.129552
831.175041	2537.885725
831.491952	2537.124511
831.808819	2536.388502
832.125642	2536.627957
832.442421	2539.045190
832.759157	2541.863195
833.075849	2546.304452
833.392497	2546.208670
833.709101	2552.106820
834.025662	2551.033054
834.342179	2548.451983
834.658653	2547.766386
834.975083	2542.513504
835.291469	2546.475851
835.607811	2538.853626
835.924110	2540.570139
836.240366	2535.428162
836.556578	2537.729449
836.872746	2538.946888
837.188871	2537.023688
837.504952	2533.515044
837.820990	2535.365148
838.136984	2533.000847
838.452935	2535.584438
838.768842	2535.624767
839.084706	2537.618544
839.400526	2536.058307
839.716303	2539.889583
840.032037	2543.471323
840.347727	2539.808925
840.663373	2538.558719
840.978977	2536.839685
841.294537	2536.199459
841.610054	2536.184335
841.925527	2533.986392
842.240957	2534.278779
842.556344	2538.346990
842.871687	2533.625950
843.186987	2533.787267
843.502244	2532.988244
843.817458	2538.619213
844.132629	2532.108562
844.447756	2534.228368
844.762840	2529.416586
845.077881	2530.936494
845.392879	2528.403314
845.707833	2533.666279
846.022745	2530.795342
846.337613	2535.075282
846.652438	2532.650487
846.967221	2533.976310
847.281960	2534.021680
847.596656	2536.149047
847.911309	2532.763913
848.225919	2533.694005
848.540485	2531.082688
848.855009	2535.155940
849.169490	2532.685775
849.483928	2532.801721
849.798323	2531.599406
850.112675	2533.005888
850.426984	2532.952956
850.741251	2532.254756
851.055474	2532.902544
851.369654	2532.685775
851.683792	2532.466484
851.997887	2534.296423
852.311938	2531.322142
852.625947	2534.132586
852.939914	2531.264169
853.253837	2533.504962
853.567718	2532.995806
853.881555	2533.406660
854.195350	2533.376413
854.509103	2532.983203
854.822812	2533.429345
855.136479	2533.467153
855.450103	2533.981351
855.763685	2531.634694
856.077224	2532.842050
856.390720	2531.904396
856.704173	2531.448171
857.017584	2534.825744
857.330953	2530.951618
857.644278	2532.957997
857.957561	2533.817514
858.270802	2536.209541
858.584000	2532.957997
858.897155	2533.878008
859.210268	2531.266690
859.523339	2532.995806
859.836367	2532.305168
860.149352	2533.860363
860.462295	2532.597554
860.775195	2531.319622
861.088054	2529.376257
861.400869	2530.762574
861.713642	2527.415248
862.026373	2532.146371
862.339062	2532.433717
862.651708	2533.699047
862.964312	2532.101001
863.276873	2533.174767
863.589392	2531.808614
863.901869	2533.328522
864.214303	2533.593182
864.526696	2534.608975
864.839045	2533.562935
865.151353	2531.833820
865.463619	2533.255425
865.775842	2537.414377
866.088023	2533.152081
866.400162	2534.230888
866.712258	2532.292565
867.024313	2535.234078
867.336325	2533.144520
867.648296	2534.614016
867.960224	2534.462781
868.272110	2533.638553
868.583954	2531.831299
868.895755	2533.772143
869.207515	2535.551671
869.519233	2533.252904
869.830909	2535.009747
870.142542	2529.963552
870.454134	2536.854809
870.765684	2533.605785
871.077191	2534.152750
871.388657	2533.217616
871.700081	2533.232740
872.011463	2531.899355
872.322803	2535.934798
872.634101	2532.438758
872.945357	2537.391692
873.256571	2533.575538
873.567744	2534.445137
873.878874	2534.278779
874.189963	2533.716691
874.501010	2535.198790
874.812015	2533.598223
875.122979	2534.525796
875.433900	2531.919519
875.744780	2537.111908
876.055618	2533.439427
876.366415	2535.720549
876.677169	2534.775333
876.987882	2532.884900
877.298554	2531.760723
877.609183	2532.002698
877.919771	2533.038655
878.230317	2532.501772
878.540822	2535.150899
878.851285	2533.623429
879.161707	2536.229706
879.472087	2539.327495
879.782425	2538.939326
880.092722	2543.801519
880.402977	2548.439380
880.713191	2556.205278
881.023363	2566.436300
881.333494	2573.274625
881.643583	2574.688668
881.953631	2574.766806
882.263637	2572.831003
882.573602	2573.060376
882.883526	2563.847667
883.193408	2558.677964
883.503248	2553.719989
883.813048	2549.230842
884.122806	2548.225131
884.432522	2546.740512
884.742197	2544.696324
885.051831	2543.136087
885.361424	2537.563091
885.670975	2540.287835
885.980485	2536.958153
886.289954	2538.001671
886.599382	2539.302289
886.908768	2539.133410
887.218113	2535.375230
887.527417	2536.733821
887.836680	2534.218285
888.145901	2533.449509
888.455082	2536.590148
888.764221	2533.595703
889.073319	2534.702236
889.382376	2534.737524
889.691392	2533.593182
890.000366	2534.316588
890.309300	2533.787267
890.618193	2534.805580
890.927044	2533.943542
891.235855	2533.177287
891.544625	2535.471012
891.853353	2532.824406
892.162041	2534.724921
892.470687	2535.622247
892.779293	2536.368338
893.087858	2536.451517
893.396381	2533.474715
893.704864	2537.185004
894.013306	2535.463450
894.321707	2544.933258
894.630068	2546.448125
894.938387	2551.524567
895.246665	2549.631613
895.554903	2548.235214
895.863100	2543.062990
896.171256	2543.325130
896.479371	2539.433359
896.787446	2540.471837
897.095480	2537.749614
897.403473	2541.041487
897.711425	2538.604089
898.019336	2534.858512
898.327207	2535.100487
898.635038	2537.646270
898.942827	2531.833820
899.250576	2536.043183
899.558284	2532.267359
899.865952	2536.539737
900.173579	2533.154602
900.481165	2533.840199
900.788711	2533.875487
901.096216	2535.418080
901.403681	2535.370189
901.711105	2533.038655
902.018489	2531.289375
902.325832	2539.045190
902.633135	2536.620395
902.940397	2535.574356
903.247619	2537.273225
903.554800	2539.390509
903.861941	2543.730943
904.169041	2549.528270
904.476101	2554.592109
904.783121	2552.258054
905.090100	2549.535831
905.397039	2546.836293
905.703938	2541.769934
906.010796	2541.074255
906.317614	2540.197094
906.624391	2537.164840
906.931129	2536.209541
907.237826	2534.419932
907.544483	2537.079140
907.851099	2535.256763
908.157675	2533.504962
908.464211	2532.000178
908.770707	2529.419107
909.077163	2529.262831
909.383578	2531.110414
909.689954	2527.876514
909.996289	2527.753006
910.302584	2533.207534
910.608839	2532.695857
910.915054	2530.427338
911.221229	2527.712676
911.527363	2532.713501
911.833458	2531.992616
912.139513	2535.647452
912.445527	2530.656710
912.751502	2533.963707
913.057436	2532.932791
913.363331	2533.898172
913.669186	2533.522606
913.975000	2532.685775
914.280775	2537.182484
914.586510	2534.929088
914.892205	2537.749614
915.197859	2542.090047
915.503475	2543.937630
915.809050	2550.458363
916.114585	2550.942313
916.420081	2553.541028
916.725536	2551.567416
917.030952	2550.445760
917.336328	2544.789585
917.641665	2546.440563
917.946961	2543.231868
918.252218	2539.181301
918.557435	2538.772968
918.862612	2537.550488
919.167750	2538.336908
919.472848	2537.116949
919.777906	2535.551671
920.082925	2535.302133
920.387904	2534.861032
920.692843	2533.431865
920.997743	2533.257946
921.302603	2533.925898
921.607423	2531.730476
921.912204	2532.138809
922.216946	2531.601927
922.521647	2533.794828
922.826310	2532.963038
923.130932	2533.709129
923.435516	2534.823224
923.740059	2531.554036
924.044564	2530.286185
924.349028	2531.541433
924.653454	2529.640918
924.957840	2527.052285
925.262186	2527.251411
925.566493	2528.637728
925.870761	2526.880886
926.174989	2528.680578
926.479178	2532.360620
926.783328	2531.606968
927.087438	2530.636546
927.391509	2531.382636
927.695541	2530.298788
927.999533	2530.051772
928.303486	2528.756195
928.607400	2529.182173
928.911275	2530.336597
929.215110	2529.058664
929.518906	2529.855167
929.822663	2530.351720
930.126381	2528.436082
930.430060	2534.805580
930.733699	2530.336597
931.037299	2530.165198
931.340861	2527.833664
931.644383	2528.670496
931.947866	2529.046062
932.251309	2528.622605
932.554714	2531.748120
932.858080	2535.309695
933.161407	2528.751154
933.464694	2533.162164
933.767943	2531.985054
934.071153	2531.309540
934.374323	2530.818027
934.677455	2530.810465
934.980548	2531.143182
935.283602	2530.334076
935.586617	2528.322656
935.889593	2528.930115
936.192530	2526.976668
936.495428	2530.381967
936.798287	2529.915661
937.101108	2529.046062
937.403890	2531.793490
937.706632	2531.072605
938.009336	2531.914478
938.312002	2531.387677
938.614628	2529.514889
938.917216	2530.893644
939.219765	2528.791483
939.522275	2530.384488
939.824747	2531.382636
940.127179	2530.253418
940.429573	2525.655886
940.731929	2526.447347
941.034246	2527.816020
941.336524	2528.335259
941.638763	2530.422297
941.940964	2530.704601
942.243126	2531.664941
942.545250	2529.877852
942.847335	2530.850795
943.149381	2530.308871
943.451389	2531.256608
943.753359	2531.060003
944.055290	2528.405835
944.357182	2529.320804
944.659036	2530.487832
944.960851	2527.899199
945.262628	2527.241328
945.564367	2527.077491
945.866067	2529.464477
946.167729	2528.781401
946.469352	2530.482790
946.770937	2531.929602
947.072484	2530.664272
947.373992	2531.158305
947.675462	2532.214427
947.976893	2529.083870
948.278286	2529.199817
948.579641	2527.614374
948.880958	2530.238294
949.182236	2529.958510
949.483476	2530.598737
949.784678	2530.613860
950.085841	2530.444982
950.386967	2528.857018
950.688054	2529.845084
950.989103	2532.267359
951.290114	2529.436751
951.591087	2527.561442
951.892021	2533.938501
952.192917	2529.250228
952.493776	2531.740558
952.794596	2534.508152
953.095378	2529.915661
953.396122	2529.656041
953.696828	2531.463295
953.997496	2530.124868
954.298126	2527.647141
954.598718	2530.621422
954.899272	2531.095291
955.199788	2529.088911
955.500266	2530.981865
955.800706	2529.653521
956.101108	2525.839888
956.401472	2526.855680
956.701798	2523.629342
957.002087	2524.798889
957.302337	2527.223684
957.602550	2529.492204
957.902724	2527.684950
958.202861	2529.716535
958.502960	2528.574714
958.803022	2528.310053
959.103045	2528.758716
959.403031	2527.095135
959.702979	2530.558408
960.002889	2529.719056
960.302762	2528.219312
960.602596	2528.967924
960.902393	2529.401463
961.202153	2530.029087
961.501875	2528.579755
961.801559	2528.693181
962.101205	2529.885414
962.400814	2528.657893
962.700385	2527.415248
962.999918	2531.574200
963.299414	2525.426513
963.598873	2529.008253
963.898293	2530.099663
964.197677	2525.638242
964.497022	2528.241998
964.796331	2531.559077
965.095601	2530.598737
965.394835	2529.288037
965.694030	2527.987419
965.993189	2529.018335
966.292309	2526.989271
966.591393	2527.793335
966.890439	2525.648324
967.189447	2527.994981
967.488419	2529.015815
967.787353	2528.113448
968.086249	2529.323325
968.385108	2528.252080
968.683930	2528.241997
968.982714	2525.756709
969.281462	2526.437264
969.580172	2530.598737
969.878844	2527.972296
970.177480	2528.002543
970.476078	2528.715866
970.774639	2528.299971
971.073162	2528.441123
971.371649	2526.346524
971.670098	2523.228570
971.968510	2528.957841
972.266885	2522.439629
972.565223	2528.257121
972.863524	2526.338962
973.161788	2528.993129
973.460014	2525.610515
973.758204	2528.332738
974.056356	2526.558252
974.354471	2527.558921
974.652550	2527.934487
974.950591	2529.068747
975.248595	2529.633356
975.546563	2529.976154
975.844493	2523.727644
976.142386	2528.146216
976.440243	2526.432223
976.738062	2527.536236
977.035845	2528.327697
977.333590	2526.570855
977.631299	2528.511699
977.928971	2527.120341
978.226606	2526.822913
978.524204	2528.307532
978.821765	2525.991122
979.119290	2529.003212
979.416777	2525.807120
979.714228	2525.260155
980.011642	2528.557070
980.309020	2528.882224
980.606360	2530.583613
980.903664	2525.756709
981.200931	2529.777029
981.498162	2526.817872
981.795356	2528.635208
982.092513	2529.651000
982.389633	2528.307533
982.686717	2527.231246
982.983764	2528.536905
983.280775	2531.942204
983.577749	2529.388860
983.874686	2530.414735
984.171587	2526.487676
984.468451	2527.379960
984.765279	2526.349044
985.062070	2527.349713
985.358824	2525.189579
985.655543	2526.260824
985.952224	2528.178983
986.248869	2526.283509
986.545478	2524.904754
986.842050	2527.115300
987.138586	2523.894002
987.435086	2523.281502
987.731549	2523.483148
988.027975	2525.063550
988.324366	2527.700073
988.620719	2525.401307
988.917037	2528.786442
989.213318	2524.632531
989.509563	2527.785773
989.805772	2525.597912
990.101944	2525.532377
990.398080	2526.144877
990.694180	2524.609846
990.990244	2525.000536
991.286271	2526.714528
991.582262	2527.211082
991.878217	2528.504138
992.174136	2526.376771
992.470019	2528.695701
992.765865	2527.044723
993.061676	2527.175793
993.357450	2523.888961
993.653188	2528.320135
993.948890	2527.836185
994.244556	2525.524816
994.540186	2528.673016
994.835780	2528.554549
995.131337	2528.156298
995.426859	2527.258973
995.722345	2525.847449
996.017795	2526.147398
996.313208	2527.818541
996.608586	2528.100845
996.903928	2529.189734
997.199234	2528.148736
997.494504	2528.166380
997.789738	2527.644621
998.084936	2526.197810
998.380099	2530.926412
998.675225	2527.992460
998.970316	2526.235618
999.265371	2527.652182
999.560390	2527.324507
999.855373	2525.963396
1000.150320	2527.937008
1000.445232	2528.451205
1000.740108	2525.222346
1001.034948	2529.530012
1001.329752	2526.679240
1001.624521	2527.090094
1001.919254	2522.464835
1002.213951	2526.056657
1002.508613	2521.375946
1002.803239	2526.031452
1003.097829	2521.635565
1003.392384	2526.139836
1003.686903	2525.000536
1003.981386	2529.363654
1004.275834	2526.996833
1004.570246	2526.505320
1004.864623	2528.095804
1005.158964	2525.018180
1005.453270	2524.037675
1005.747540	2526.648993
1006.041775	2525.192099
1006.335974	2528.864580
1006.630138	2525.741585
1006.924266	2524.597243
1007.218359	2526.999353
1007.512416	2527.876514
1007.806438	2527.591689
1008.100425	2526.311236
1008.394376	2526.280989
1008.688292	2526.180166
1008.982172	2523.972140
1009.276017	2525.706297
1009.569827	2529.207378
1009.863602	2526.525485
1010.157341	2529.562780
1010.451045	2525.567665
1010.744714	2528.340300
1011.038347	2526.538088
1011.331945	2527.450536
1011.625508	2525.570186
1011.919036	2527.208561
1012.212528	2527.100176
1012.505986	2526.326359
1012.799408	2525.368540
1013.092795	2523.808303
1013.386147	2528.516740
1013.679464	2525.108920
1013.972745	2526.875845
1014.265992	2525.265196
1014.559204	2529.643438
1014.852380	2526.467511
1015.145521	2529.948428
1015.438628	2524.942562
1015.731699	2527.246370
1016.024736	2528.463808
1016.317737	2528.473891
1016.610703	2525.991122
1016.903635	2525.481966
1017.196531	2521.383508
1017.489393	2524.246883
1017.782219	2522.469876
1018.075011	2524.319980
1018.367768	2522.744619
1018.660490	2524.950124
1018.953177	2524.950124
1019.245829	2524.950124
