Dividing Wavelength (nm)	Counts (n)	Blue Motor Position (mm): 0.000000	Red Motor Position (mm): 49.000000	
326.493990	2128.211316
326.888308	2128.211316
327.282561	2128.211316
327.676750	2096.071440
328.070874	2094.468353
328.464933	2098.397933
328.858929	2105.009406
329.252859	2113.113061
329.646726	2126.603188
330.040528	2140.052987
330.434265	2156.378763
330.827938	2173.362411
331.221547	2191.283713
331.615091	2213.580736
332.008571	2227.791749
332.401986	2251.102044
332.795338	2269.555188
333.188625	2288.824998
333.581847	2306.786630
333.975006	2324.627273
334.368100	2343.554285
334.761129	2361.815865
335.154095	2373.874305
335.546996	2396.856925
335.939833	2427.030752
336.332606	2436.790426
336.725315	2454.845318
337.117960	2458.185082
337.510540	2471.057669
337.903056	2480.633341
338.295508	2489.916625
338.687896	2494.733448
339.080220	2506.378513
339.472480	2509.670387
339.864676	2516.607014
340.256807	2518.565503
340.648875	2521.716224
341.040879	2528.400794
341.432818	2527.974816
341.824694	2528.461288
342.216506	2530.795342
342.608253	2530.026566
342.999937	2531.407842
343.391557	2528.562111
343.783113	2529.242667
344.174605	2527.843746
344.566033	2523.573889
344.957397	2524.007428
345.348697	2522.159845
345.739934	2519.498116
346.131106	2519.480472
346.522215	2519.414937
346.913260	2516.390245
347.304241	2514.666170
347.695159	2514.209946
348.086012	2512.926972
348.476802	2509.496467
348.867528	2505.773575
349.258191	2506.161744
349.648789	2509.075531
350.039324	2502.390961
350.429796	2501.531444
350.820203	2502.222082
351.210548	2501.803666
351.600828	2499.336021
351.991045	2501.118069
352.381198	2498.337873
352.771288	2499.913233
353.161314	2495.822337
353.551276	2500.157729
353.941175	2499.154540
354.331010	2496.104642
354.720782	2495.739158
355.110490	2496.235712
355.500135	2499.517503
355.889717	2498.032883
356.279235	2498.715959
356.668689	2499.504900
357.058080	2497.511124
357.447408	2496.815444
357.836672	2492.538025
358.225873	2496.906185
358.615010	2494.645228
359.004084	2501.171001
359.393095	2501.972545
359.782043	2502.925323
360.170927	2502.794253
360.559748	2505.569408
360.948505	2504.291476
361.337199	2503.222751
361.725830	2506.081085
362.114398	2507.570746
362.502903	2507.759789
362.891344	2507.883298
363.279722	2509.393123
363.668037	2508.568895
364.056289	2507.873215
364.444478	2511.946468
364.832603	2509.884636
365.220665	2507.961436
365.608665	2511.918741
365.996601	2513.292456
366.384474	2513.110974
366.772284	2514.709020
367.160031	2517.645492
367.547715	2520.256810
367.935336	2520.768487
368.322893	2526.729651
368.710388	2526.424662
369.097820	2535.213913
369.485189	2535.760878
369.872495	2545.530635
370.259738	2550.468445
370.646918	2556.769887
371.034035	2564.888665
371.421090	2575.165057
371.808081	2585.610328
372.195010	2592.557038
372.581875	2606.079933
372.968678	2619.960751
373.355418	2629.470887
373.742096	2648.286994
374.128710	2662.377019
374.515262	2676.716581
374.901751	2693.067564
375.288177	2705.277238
375.674540	2728.239694
376.060841	2746.236613
376.447079	2763.868049
376.833254	2786.049126
377.219367	2799.637556
377.605417	2836.508555
377.991404	2847.024402
378.377329	2866.949563
378.763191	2883.257695
379.148991	2921.411668
379.534727	2947.965946
379.920402	2976.544247
380.306013	2987.140753
380.691563	3039.495656
381.077049	3058.510888
381.462474	3077.266501
381.847835	3114.573560
382.233134	3137.798156
382.618371	3136.817652
383.003545	3206.758620
383.388657	3211.482181
383.773706	3243.644743
384.158693	3261.709717
384.543618	3289.191568
384.928480	3324.925787
385.313280	3370.966645
385.698017	3371.246429
386.082692	3421.383224
386.467305	3426.036209
386.851856	3457.734985
387.236344	3486.081393
387.620770	3515.393182
388.005133	3537.029814
388.389435	3566.984350
388.773674	3577.971545
389.157851	3620.155921
389.541965	3638.551091
389.926018	3598.289916
390.310008	3672.147861
390.693936	3687.977084
391.077802	3729.259093
391.461606	3722.970253
391.845348	3784.996610
392.229027	3783.557361
392.612645	3796.495482
392.996200	3871.717059
393.379694	3912.396650
393.763125	3976.018532
394.146494	3942.913275
394.529801	4006.255373
394.913047	4055.714133
395.296230	4022.838249
395.679351	4076.730704
396.062410	4096.953293
396.445408	4079.914192
396.828343	4113.579018
397.211217	4138.129437
397.594028	4056.896284
397.976778	4121.518835
398.359466	4153.056294
398.742092	4179.179553
399.124656	4101.016463
399.507158	4178.617464
399.889598	4203.316598
400.271977	4267.067029
400.654294	4239.383533
401.036549	4244.989296
401.418742	4217.688927
401.800874	4322.580215
402.182944	4345.537630
402.564952	4402.550559
402.946898	4391.724681
403.328783	4389.564547
403.710606	4303.983399
404.092367	4491.869723
404.474067	4463.823264
404.855705	4467.203357
405.237282	4394.910691
405.618797	4504.326414
406.000250	4538.147515
406.381642	4618.896718
406.762972	4583.154937
407.144240	4592.450825
407.525447	4593.096092
407.906593	4649.529289
408.287677	4693.420095
408.668700	4624.220176
409.049661	4673.154657
409.430560	4712.458012
409.811399	4644.783043
410.192176	4806.087363
410.572891	4744.227364
410.953545	4846.683775
411.334138	4725.355805
411.714669	4792.985404
412.095139	4688.124363
412.475547	4832.820602
412.855894	4815.594979
413.236180	4819.708561
413.616405	4774.988485
413.996568	4861.081310
414.376670	4800.378256
414.756711	4755.741359
415.136691	4789.212100
415.516609	4868.000294
415.896466	4903.908433
416.276262	4942.511068
416.655997	4919.853602
417.035670	5101.178865
417.415283	5194.094892
417.794834	5141.893744
418.174324	5089.337195
418.553753	4999.067773
418.933121	5184.882183
419.312428	5251.090178
419.691674	5190.737484
420.070859	5314.192821
420.449983	5230.237445
420.829045	5343.176935
421.208047	5247.926853
421.586988	5320.398481
421.965867	5329.759904
422.344686	5464.807374
422.723444	5316.715918
423.102141	5139.360564
423.480777	5436.231594
423.859352	5203.705852
424.237866	5463.841993
424.616319	5456.275221
424.994712	5561.768927
425.373044	5443.236277
425.751314	5583.163584
426.129524	5387.871805
426.507673	5585.911013
426.885762	5668.681718
427.263789	5593.828145
427.641756	5480.135002
428.019662	5598.145893
428.397508	5608.001349
428.775292	5551.371547
429.153016	5651.778729
429.530679	5576.055557
429.908282	5665.142828
430.285824	5536.873189
430.663305	5814.250077
431.040726	5541.410228
431.418086	5542.471390
431.795385	5655.899872
432.172624	5663.073434
432.549802	5652.512217
432.926920	5670.355381
433.303977	5676.182955
433.680974	5716.696188
434.057910	5732.343929
434.434786	5741.997739
434.811601	5709.343665
435.188355	5941.075425
435.565050	5814.849974
435.941683	5797.389938
436.318257	6013.683164
436.694770	5994.851934
437.071222	6028.574732
437.447614	5961.875226
437.823946	5874.577565
438.200218	6031.334764
438.576429	5893.378548
438.952580	5993.659701
439.328670	6036.350712
439.704700	5944.304284
440.080670	5933.349857
440.456580	6204.813471
440.832429	6082.351241
441.208218	5932.094609
441.583947	6091.158137
441.959616	6089.643270
442.335224	6015.066961
442.710773	6150.270707
443.086261	6181.788001
443.461689	5976.991126
443.837057	6126.869671
444.212365	6278.840294
444.587612	6172.131670
444.962800	6322.153888
445.337927	6306.213760
445.712995	5917.286220
446.088002	6496.073696
446.462949	6324.412325
446.837837	6255.867756
447.212664	6426.830927
447.587431	6567.620272
447.962139	7110.648323
448.336786	8037.910600
448.711374	7779.561548
449.085901	6851.659044
449.460369	6774.564678
449.834776	6709.279216
450.209124	7097.160716
450.583412	7248.160918
450.957640	7399.803867
451.331808	7164.913824
451.705917	6718.335648
452.079965	6637.379759
452.453954	6853.478901
452.827883	6725.234468
453.201752	6822.818603
453.575562	6615.975020
453.949311	6819.950187
454.323001	6707.824843
454.696632	6786.471884
455.070202	6924.244098
455.443713	7078.170689
455.817164	7178.771956
456.190556	7263.357476
456.563888	7333.167374
456.937160	7380.362657
457.310373	7040.485544
457.683526	7063.168216
458.056619	6952.910619
458.429653	6932.617454
458.802628	6872.720985
459.175542	6981.632593
459.548398	7343.060639
459.921194	7503.752459
460.293930	7508.687748
460.666607	8033.555043
461.039224	8343.560799
461.411782	8468.891445
461.784280	8487.649578
462.156719	8378.143114
462.529099	8259.355885
462.901419	7845.063780
463.273680	7739.242399
463.645882	7750.025427
464.018024	7616.959130
464.390106	7781.867875
464.762130	8169.114190
465.134094	8640.361252
465.505999	9659.231376
465.877845	10883.861236
466.249631	11527.583815
466.621358	11145.555094
466.993026	10514.468167
467.364634	10263.625393
467.736184	9899.114682
468.107674	9569.788704
468.479105	9603.375392
468.850477	9365.397642
469.221790	9135.223599
469.593043	8810.626223
469.964238	8665.912340
470.335373	8682.308693
470.706449	8740.327333
471.077467	8723.479797
471.448425	10031.588643
471.819324	11105.830802
472.190164	11132.256530
472.560945	9886.784020
472.931667	9092.530067
473.302330	8957.154921
473.672934	8604.339687
474.043479	8955.821536
474.413965	8903.597703
474.784393	8780.888457
475.154761	8939.510883
475.525070	9027.617649
475.895321	8856.803192
476.265513	9026.722844
476.635645	9201.255152
477.005719	9193.854738
477.375734	9305.483529
477.745691	9545.266011
478.115588	9675.335342
478.485427	9928.040823
478.855207	10457.944230
479.224928	11274.180134
479.594591	11909.846949
479.964194	11718.799821
480.333739	11657.857313
480.703226	11575.121896
481.072653	11663.122798
481.442022	11898.413612
481.811333	12082.526633
482.180584	11894.322716
482.549777	11609.202616
482.918912	11434.050246
483.287988	11450.832248
483.657005	11465.123919
484.025964	11142.674075
484.394864	11276.778849
484.763706	11249.354972
485.132489	11006.230205
485.501213	10967.856942
485.869879	11042.655062
486.238487	10881.113807
486.607036	10989.453245
486.975527	10773.885944
487.343959	10955.120466
487.712333	11010.956286
488.080648	10943.268714
488.448905	10983.096350
488.817104	10917.715105
489.185244	11188.752741
489.553326	11345.280568
489.921350	11887.295347
490.289315	12936.828290
490.657222	13286.913740
491.025070	13201.786295
491.392861	13070.113877
491.760593	12699.652084
492.128267	12338.942403
492.495883	12014.271931
492.863440	11673.192503
493.230939	11341.305618
493.598380	11273.814651
493.965763	11145.262707
494.333088	11036.714062
494.700354	10964.706220
495.067563	11023.138235
495.434713	10847.592655
495.801805	10981.919240
496.168839	10899.922352
496.535815	10839.945224
496.902733	10846.264311
497.269593	10773.570872
497.636395	10873.978054
498.003139	10858.811743
498.369825	10728.870961
498.736453	10882.653880
499.103023	10807.371809
499.469535	10840.711480
499.835989	10826.248409
500.202385	10791.708944
500.568723	10648.290637
500.935003	10863.691580
501.301226	10672.276448
501.667390	10934.436612
502.033497	11025.684017
502.399546	10884.778726
502.765537	10791.144335
503.131470	10859.908194
503.497345	11040.779753
503.863163	10657.566361
504.228923	10971.143774
504.594625	11035.383197
504.960269	10776.391398
505.325856	10999.717034
505.691385	10790.715837
506.056856	10950.157450
506.422270	10976.880607
506.787625	10857.904335
507.152924	10980.933695
507.518164	10954.354211
507.883347	10876.546522
508.248472	10797.914604
508.613540	11031.975377
508.978550	10912.648745
509.343503	10894.798019
509.708398	11006.467139
510.073236	11115.769437
510.438016	11124.740170
510.802738	11076.093035
511.167403	11123.555499
511.532010	11019.324602
511.896561	11252.135169
512.261053	11332.702889
512.625488	11192.926817
512.989866	11175.396204
513.354186	11169.336737
513.718449	11065.952754
514.082655	11260.347208
514.446803	11161.311220
514.810894	11279.586772
515.174927	11145.693726
515.538904	11175.534836
515.902822	11319.159830
516.266684	11209.025742
516.630488	11152.874849
516.994235	11213.721576
517.357925	11265.574885
517.721558	11358.047290
518.085133	11379.908254
518.448651	11384.599048
518.812112	11266.517581
519.175516	11282.785384
519.538863	11403.432798
519.902152	11321.665283
520.265385	11478.298974
520.628560	11393.421067
520.991678	11366.080369
521.354739	11432.114443
521.717743	11367.123888
522.080690	11341.771925
522.443580	11476.343007
522.806413	11437.490834
523.169189	11465.592746
523.531908	11519.084429
523.894569	11339.773108
524.257174	11349.028666
524.619722	11460.770882
524.982213	11408.597461
525.344647	11466.142232
525.707025	11416.859912
526.069345	11509.312153
526.431608	11422.173288
526.793815	11535.715196
527.155964	11321.781230
527.518057	11378.116124
527.880093	11325.000006
528.242072	11395.535831
528.603995	11303.461677
528.965860	11227.161292
529.327669	11270.706779
529.689421	11222.528472
530.051117	11190.973370
530.412755	11294.122939
530.774337	11190.779285
531.135862	11173.329331
531.497331	11196.692559
531.858743	11036.678774
532.220098	11209.849970
532.581396	11084.042935
532.942638	11069.403424
533.303824	11023.488595
533.664953	11038.919567
534.026025	10950.835486
534.387040	11049.468181
534.747999	11062.580222
535.108902	11115.497214
535.469748	10872.642148
535.830537	10973.432458
536.191270	10954.177771
536.551947	10979.890176
536.912567	10974.481018
537.273131	10903.935111
537.633638	10876.377643
537.994089	10867.364060
538.354483	10815.982100
538.714821	10963.965171
539.075103	10973.815585
539.435328	10934.489544
539.795497	10761.504871
540.155609	10922.781464
540.515665	11008.347489
540.875665	10745.484084
541.235609	10816.395474
541.595496	10806.136726
541.955328	10966.954575
542.315102	10846.458395
542.674821	10799.081631
543.034483	10800.785541
543.394090	10801.425768
543.753640	10728.462628
544.113134	10960.070879
544.472571	10803.991715
544.831953	10946.235433
545.191278	10760.385734
545.550548	10790.647781
545.909761	10921.385065
546.268918	10901.333875
546.628019	10979.418828
546.987064	10842.697694
547.346053	10766.291446
547.704986	10866.098731
548.063863	10854.796464
548.422684	10844.333549
548.781449	10757.666032
549.140158	10866.693587
549.498811	10741.015101
549.857408	10599.638462
550.215949	10819.226082
550.574434	10678.018322
550.932864	10776.093970
551.291237	10838.994967
551.649555	10783.575042
552.007817	10792.938985
552.366022	10760.423543
552.724173	10748.924671
553.082267	10738.907898
553.440305	10864.215860
553.798288	10676.853815
554.156215	10827.664974
554.514086	10802.043309
554.871902	10651.706019
555.229661	10695.533811
555.587365	10666.390900
555.945014	10559.866278
556.302606	10691.778151
556.660143	10582.090205
557.017625	10735.384132
557.375050	10628.597370
557.732421	10768.441498
558.089735	10683.510659
558.446994	10686.351349
558.804197	10722.146062
559.161345	10721.110105
559.518437	10569.081508
559.875474	10657.158027
560.232455	10686.792450
560.589381	10636.897630
560.946251	10628.325148
561.303065	10746.026008
561.659825	10677.000009
562.016528	10603.681467
562.373177	10483.981790
562.729770	10599.583009
563.086307	10515.940184
563.442789	10608.528537
563.799216	10484.485905
564.155587	10535.018431
564.511904	10485.249640
564.868164	10480.508435
565.224370	10489.295166
565.580520	10419.288662
565.936615	10426.235372
566.292654	10296.579416
566.648638	10429.010527
567.004567	10379.042611
567.360441	10364.937462
567.716260	10277.518813
568.072023	10371.929542
568.427732	10324.366256
568.783385	10232.687832
569.138982	10297.721237
569.494525	10311.463423
569.850013	10190.397593
570.205445	10273.503534
570.560823	10171.001753
570.916145	10092.263971
571.271412	10158.282922
571.626625	10106.411969
571.981782	10077.904244
572.336884	10053.313496
572.691931	10061.018900
573.046923	10006.317339
573.401860	9959.139701
573.756743	9895.321214
574.111570	9941.581362
574.466342	9925.515205
574.821059	9953.891860
575.175722	9848.342701
575.530330	9855.062559
575.884882	9847.934368
576.239380	9769.967882
576.593823	9756.069421
576.948211	9769.849415
577.302544	9650.772320
577.656823	9668.675978
578.011047	9670.757975
578.365216	9635.081729
578.719330	9560.560872
579.073389	9570.817100
579.427394	9517.514459
579.781344	9496.775152
580.135239	9444.936968
580.489080	9454.247979
580.842866	9352.875416
581.196597	9359.562507
581.550273	9404.141430
581.903895	9366.264721
582.257463	9433.410369
582.610975	9317.511722
582.964434	9337.000823
583.317837	9263.228577
583.671186	9242.060772
584.024481	9239.658662
584.377721	9159.403493
584.730906	9133.761664
585.084037	9171.650976
585.437113	9098.733207
585.790135	9122.474521
586.143103	9023.793934
586.496016	8996.370057
586.848874	9051.300990
587.201679	9036.941263
587.554428	8924.042102
587.907124	8971.794432
588.259765	8947.493550
588.612352	8948.884908
588.964884	8821.855393
589.317362	8839.282662
589.669786	8845.223662
590.022155	8887.166062
590.374470	8906.067868
590.726731	8839.179318
591.078937	8686.081997
591.431090	8807.183115
591.783188	8677.678393
592.135232	8667.409563
592.487222	8669.700767
592.839157	8715.376142
593.191038	8659.694077
593.542866	8600.818441
593.894639	8499.092998
594.246358	8552.975371
594.598022	8571.904903
594.949633	8468.936815
595.301190	8442.251468
595.652692	8468.344480
596.004141	8577.772806
596.355535	8358.459929
596.706876	8339.217845
597.058162	8266.300075
597.409395	8350.953651
597.760573	8408.793329
598.111698	8315.816808
598.462768	8307.599728
598.813785	8267.121783
599.164748	8237.212617
599.515657	8224.019918
599.866511	8139.174778
600.217312	8261.422758
600.568060	8119.413455
600.918753	8228.642656
601.269392	8196.170063
601.619978	8106.712267
601.970510	8171.571753
602.320988	8170.613934
602.671412	8229.991164
603.021783	8161.829723
603.372100	8136.059345
603.722363	8141.390365
604.072572	8118.443032
604.422728	8126.181204
604.772830	8055.985657
605.122878	8062.236688
605.472872	8059.658137
605.822813	8084.637055
606.172701	8030.023715
606.522534	8105.535158
606.872314	8105.512473
607.222041	8069.957215
607.571714	8130.279662
607.921333	8086.461952
608.270899	8094.547963
608.620411	8179.672887
608.969870	8087.230728
609.319276	8081.249399
609.668627	8100.468798
610.017926	8136.076989
610.367171	8180.071138
610.716362	8157.703539
611.065500	8149.299935
611.414585	8177.812701
611.763616	8164.337697
612.112594	8151.669277
612.461518	8158.459712
612.810389	8219.200574
613.159207	8156.738158
613.507971	8108.885005
613.856682	8229.597954
614.205340	8185.258486
614.553945	8254.763394
614.902496	8162.270824
615.250994	8217.799134
615.599439	8195.928088
615.947830	8204.971918
616.296169	8175.859254
616.644454	8196.464971
616.992686	8191.557407
617.340864	8253.203157
617.688990	8154.925863
618.037063	8246.072445
618.385082	8195.451699
618.733048	8280.180892
619.080961	8217.000111
619.428821	8236.610199
619.776628	8243.330057
620.124382	8193.483128
620.472083	8173.953698
620.819731	8204.177936
621.167326	8094.595854
621.514868	8102.749921
621.862357	7991.037951
622.209793	8010.799274
622.557176	7945.264274
622.904506	7914.621621
623.251783	7845.300714
623.599007	7796.746841
623.946179	7808.028943
624.293297	7763.969259
624.640363	7679.870210
624.987376	7661.991758
625.334336	7611.260106
625.681243	7558.091056
626.028097	7548.044037
626.374899	7528.038218
626.721647	7513.920466
627.068343	7447.500744
627.414987	7418.012514
627.761577	7377.461473
628.108115	7411.791730
628.454600	7304.342057
628.801032	7357.564038
629.147412	7319.757905
629.493739	7305.947664
629.840014	7244.064980
630.186236	7298.159082
630.532405	7181.010228
630.878521	7231.754482
631.224585	7186.008532
631.570597	7116.775846
631.916556	7147.783983
632.262462	7147.582337
632.608316	7103.918383
632.954117	7083.111020
633.299866	7069.255409
633.645562	7060.380457
633.991206	6979.994218
634.336797	6917.909888
634.682336	6880.713734
635.027823	6843.358784
635.373257	6840.997004
635.718639	6769.904132
636.063968	6784.296626
636.409245	6679.634710
636.754470	6674.500295
637.099642	6634.039994
637.444762	6580.064360
637.789829	6589.934939
638.134845	6529.607451
638.479808	6512.465008
638.824719	6521.060175
639.169577	6448.986798
639.514383	6468.803574
639.859137	6396.475619
640.203839	6403.140025
640.548489	6387.278034
640.893086	6369.379417
641.237632	6335.926321
641.582125	6356.547160
641.926566	6329.360218
642.270955	6343.233473
642.615292	6338.691393
642.959576	6352.625143
643.303809	6344.181210
643.647990	6351.500965
643.992118	6337.915056
644.336195	6285.174504
644.680219	6316.439740
645.024192	6301.107071
645.368112	6401.297483
645.711981	6421.285658
646.055797	6488.673282
646.399562	6451.262879
646.743274	6580.462611
647.086935	6637.294059
647.430544	6629.008923
647.774101	6651.981461
648.117606	6653.208982
648.461059	6645.385111
648.804460	6609.996211
649.147810	6514.365523
649.491108	6489.701677
649.834354	6466.174612
650.177548	6377.175562
650.520690	6291.188601
650.863781	6270.156907
651.206820	6290.392098
651.549807	6212.793617
651.892742	6154.013763
652.235626	6154.059134
652.578458	6145.204347
652.921238	6053.689761
653.263967	6092.980514
653.606644	6029.653539
653.949269	6032.529518
654.291843	5971.370239
654.634365	6019.462847
654.976836	5977.548173
655.319255	5976.020703
655.661622	5955.800635
656.003938	5948.821158
656.346203	5911.839253
656.688416	5944.866373
657.030577	5894.411984
657.372687	5861.684814
657.714746	5846.034552
658.056753	5896.342746
658.398708	5837.885526
658.740612	5831.465617
659.082465	5881.040324
659.424266	5867.530032
659.766016	5870.232090
660.107715	5838.193037
660.449362	5856.666345
660.790958	5853.606365
661.132503	5842.936763
661.473996	5878.673502
661.815438	5862.259505
662.156829	5858.176171
662.498168	5854.390264
662.839456	5828.050235
663.180693	5863.529876
663.521879	5865.616914
663.863013	5850.866498
664.204097	5877.229212
664.545129	5911.110807
664.886110	5910.561321
665.227040	5945.123472
665.567918	5909.099386
665.908746	5933.564106
666.249522	5941.196413
666.590248	5924.139669
666.930922	5959.089988
667.271545	5967.884281
667.612118	5972.912832
667.952639	5945.965344
668.293109	5968.060722
668.633528	5925.563795
668.973896	5924.109422
669.314213	5917.989461
669.654480	5904.476648
669.994695	5893.093723
670.334859	5885.390840
670.674973	5875.232915
671.015035	5876.704932
671.355047	5872.848449
671.695008	5865.294280
672.034918	5837.729251
672.374777	5845.860632
672.714585	5828.511501
673.054342	5833.855124
673.394049	5828.824052
673.733705	5864.187747
674.073310	5845.719479
674.412864	5803.862779
674.752368	5796.737108
675.091820	5804.974353
675.431223	5736.684363
675.770574	5737.856431
676.109875	5690.371282
676.449125	5695.321696
676.788324	5660.573022
677.127473	5608.334065
677.466571	5599.459114
677.805619	5584.355817
678.144616	5570.545576
678.483562	5549.786105
678.822458	5522.468092
679.161303	5513.038614
679.500098	5505.250031
679.838842	5487.293441
680.177535	5492.798381
680.516179	5509.071226
680.854771	5522.515983
681.193314	5600.671512
681.531805	5709.694025
681.870247	5856.497466
682.208638	5960.020081
682.546978	5980.625798
682.885268	5956.844154
683.223508	5868.376945
683.561697	5812.563811
683.899836	5780.272700
684.237925	5741.176031
684.575963	5705.988777
684.913951	5663.282642
685.251889	5724.215069
685.589776	5691.755079
685.927614	5663.471686
686.265401	5736.739816
686.603137	5722.145675
686.940824	5793.881294
687.278460	5818.789636
687.616046	5829.449155
687.953582	5899.228807
688.291068	5877.319952
688.628504	5942.630621
688.965889	5907.632410
689.303224	5851.146282
689.640510	5800.744825
689.977745	5721.205500
690.314930	5624.927023
690.652065	5570.490123
690.989150	5473.478159
691.326185	5402.801182
691.663170	5348.691957
692.000105	5268.958547
692.336990	5192.388462
692.673825	5168.979864
693.010610	5100.329431
693.347345	5027.661198
693.684030	5012.789794
694.020665	4973.630111
694.357251	4880.734248
694.693786	4890.846803
695.030272	4861.212380
695.366707	4820.883149
695.703093	4790.243016
696.039429	4812.474505
696.375716	4796.572185
696.711952	4771.285757
697.048139	4756.240434
697.384276	4738.891303
697.720363	4750.836317
698.056400	4757.513325
698.392388	4704.666909
698.728326	4684.666131
699.064214	4665.585364
699.400053	4660.244262
699.735842	4628.389210
700.071581	4603.354840
700.407270	4576.639246
700.742910	4558.516297
701.078501	4498.398017
701.414042	4500.706866
701.749533	4471.974809
702.084974	4407.120365
702.420366	4466.089262
702.755709	4408.279831
703.091002	4350.614072
703.426246	4393.864651
703.761440	4352.635574
704.096584	4316.974452
704.431679	4336.677802
704.766725	4322.839835
705.101721	4308.686795
705.436668	4336.700487
705.771565	4284.552271
706.106413	4316.089730
706.441212	4348.421170
706.775961	4356.792006
707.110661	4332.758305
707.445311	4365.218294
707.779913	4387.500194
708.114465	4399.508223
708.448967	4421.843055
708.783421	4485.293538
709.117825	4527.530845
709.452180	4527.311555
709.786485	4572.558432
710.120742	4661.625538
710.454949	4644.253722
710.789107	4714.078743
711.123216	4785.315288
711.457275	4780.047283
711.791286	4850.542778
712.125247	4870.649420
712.459159	4769.183596
712.793023	4847.097149
713.126837	4801.865397
713.460602	4802.422444
713.794318	4718.731728
714.127985	4724.024940
714.461602	4638.751302
714.795171	4607.327270
715.128691	4547.113207
715.462162	4492.046163
715.795584	4436.585909
716.128957	4424.489661
716.462281	4373.047206
716.795556	4341.953369
717.128782	4302.743275
717.461960	4232.648551
717.795088	4246.529368
718.128167	4207.427658
718.461198	4145.073627
718.794180	4141.060868
719.127113	4122.292652
719.459997	4099.539404
719.792833	4056.485430
720.125619	4047.469326
720.458357	4010.799973
720.791046	4016.688041
721.123686	3989.198629
721.456278	3947.036939
721.788821	3960.577478
722.121315	3938.482101
722.453761	3913.117535
722.786158	3922.690686
723.118506	3951.828556
723.450805	3900.101276
723.783056	3919.580294
724.115259	3939.112245
724.447412	3945.058286
724.779518	3935.354065
725.111574	3941.642904
725.443582	3967.904795
725.775542	3952.884677
726.107453	4004.306967
726.439315	4005.181607
726.771129	4019.122918
727.102895	4055.492323
727.434612	4104.444447
727.766281	4117.160758
728.097901	4121.332313
728.429473	4124.188126
728.760996	4132.337151
729.092471	4125.108137
729.423897	4110.876959
729.755276	4114.793936
730.086606	4116.543216
730.417887	4153.449504
730.749120	4217.172209
731.080305	4279.299389
731.411442	4309.352227
731.742530	4281.220068
732.073570	4282.177888
732.404562	4333.814427
732.735506	4330.451977
733.066401	4291.067963
733.397249	4228.522367
733.728048	4148.463803
734.058798	4068.616967
734.389501	3994.300277
734.720156	3936.866411
735.050762	3887.599214
735.381320	3882.124521
735.711831	3830.593847
736.042293	3801.612253
736.372707	3822.626303
736.703073	3792.744864
737.033391	3786.239255
737.363661	3805.153664
737.693883	3829.220132
738.024056	3834.157943
738.354182	3831.455884
738.684260	3899.987850
739.014290	3919.764297
739.344272	3915.247423
739.674207	3953.829894
740.004093	3959.201243
740.333931	3953.734112
740.663722	3957.000779
740.993464	3951.687403
741.323159	3926.937858
741.652806	3900.597830
741.982405	3870.678582
742.311956	3838.848736
742.641460	3828.947910
742.970915	3805.909837
743.300323	3768.428858
743.629683	3731.000811
743.958996	3720.280798
744.288260	3696.796583
744.617477	3659.499606
744.946647	3651.532062
745.275768	3621.905201
745.604842	3624.158597
745.933869	3573.164805
746.262847	3564.909916
746.591778	3602.895010
746.920662	3573.217737
747.249498	3541.975186
747.578286	3588.709203
747.907027	3608.457923
748.235720	3604.800566
748.564365	3628.438536
748.892963	3628.781335
749.221514	3609.695526
749.550017	3590.400510
749.878473	3590.702979
750.206881	3556.544121
750.535242	3552.445663
750.863555	3554.187381
751.191821	3548.231258
751.520039	3529.682332
751.848210	3507.687778
752.176334	3543.283366
752.504411	3545.493912
752.832440	3509.547964
753.160421	3491.455263
753.488356	3499.795852
753.816243	3512.615506
754.144082	3471.376347
754.471875	3452.840024
754.799620	3473.637305
755.127318	3467.076243
755.454969	3466.657827
755.782572	3470.103456
756.110129	3446.941874
756.437638	3438.782767
756.765100	3452.265333
757.092515	3463.713793
757.419882	3467.812251
757.747203	3443.516410
758.074477	3442.218313
758.401703	3456.941003
758.728882	3480.188284
759.056014	3490.192454
759.383099	3490.053822
759.710138	3488.511229
760.037129	3506.540916
760.364073	3535.749361
760.690970	3523.080942
761.017820	3497.081191
761.344623	3515.902338
761.671379	3564.788928
761.998088	3609.330043
762.324751	3738.121441
762.651366	3984.800222
762.977935	4462.469714
763.304456	4910.013270
763.630931	5001.648844
763.957359	4646.494514
764.283740	4300.260507
764.610074	4107.559880
764.936362	3905.883479
765.262602	3748.445724
765.588796	3637.442037
765.914943	3547.366700
766.241044	3458.138277
766.567097	3432.776232
766.893104	3380.859909
767.219064	3352.931917
767.544978	3323.463852
767.870845	3269.805811
768.196665	3248.390989
768.522438	3254.871392
768.848165	3251.612286
769.173846	3219.389231
769.499479	3198.113041
769.825066	3181.661236
770.150607	3167.170439
770.476101	3181.411698
770.801548	3178.218127
771.126949	3132.278093
771.452303	3113.114146
771.777611	3121.064046
772.102872	3125.732154
772.428087	3100.042434
772.753256	3089.531628
773.078378	3080.704568
773.403453	3050.203067
773.728482	3038.999102
774.053465	3057.290929
774.378401	3046.684341
774.703291	3015.860206
775.028135	3016.069414
775.352932	3011.436594
775.677683	2998.495952
776.002388	2995.120899
776.327046	2999.385715
776.651658	2987.448263
776.976224	2974.094247
777.300743	2974.767241
777.625216	2964.793318
777.949643	2960.079839
778.274024	2963.611167
778.598359	2953.178499
778.922647	2954.854683
779.246889	2955.716720
779.571086	2940.918413
779.895236	2932.918102
780.219339	2947.678600
780.543397	2958.252421
780.867409	2962.469346
781.191374	2955.389045
781.515294	2950.400823
781.839167	2950.073148
782.162995	2944.976542
782.486776	2953.002059
782.810511	2948.649023
783.134201	2936.031014
783.457844	2941.984617
783.781441	2934.740479
784.104993	2915.677356
784.428498	2914.333888
784.751958	2927.166145
785.075372	2920.894950
785.398739	2905.942888
785.722061	2924.559869
786.045337	2934.357351
786.368568	2919.806061
786.691752	2908.629823
787.014891	2956.175465
787.337983	2989.885661
787.661030	3016.926410
787.984031	3083.850248
788.306987	3132.757002
788.629897	3125.744757
788.952760	3108.168774
789.275579	3090.804520
789.598351	3031.472660
789.921078	2987.410454
790.243759	2980.282263
790.566395	2964.357258
790.888984	2937.757610
791.211529	2922.485434
791.534027	2909.214597
791.856480	2901.080695
792.178888	2886.277347
792.501249	2877.921634
792.823566	2875.524565
793.145836	2874.115563
793.468062	2869.636498
793.790241	2867.751106
794.112375	2873.235882
794.434464	2884.878426
794.756507	2887.817419
795.078505	2892.087276
795.400457	2905.625295
795.722364	2947.461831
796.044226	2972.375213
796.366042	2973.096098
796.687812	2962.572689
797.009538	2979.435349
797.331218	2966.638380
797.652852	2954.542131
797.974442	2938.486056
798.295986	2934.400201
798.617484	2929.694284
798.938938	2911.011768
799.260346	2896.498286
799.581709	2892.167935
799.903026	2884.454969
800.224299	2878.647560
800.545526	2870.561549
800.866708	2852.063035
801.187845	2845.980883
801.508936	2844.161027
801.829983	2852.156297
802.150984	2835.858246
802.471940	2825.690239
802.792851	2825.478511
803.113717	2825.297029
803.434538	2832.639470
803.755314	2823.623366
804.076045	2817.684887
804.396731	2815.030719
804.717372	2818.947696
805.037967	2812.918476
805.358518	2820.157573
805.679024	2833.234326
805.999485	2829.468584
806.319901	2830.822134
806.640272	2823.404076
806.960598	2829.529078
807.280879	2838.048628
807.601115	2844.924762
807.921306	2832.475632
808.241453	2827.270641
808.561554	2835.346569
808.881611	2838.393947
809.201623	2833.274655
809.521590	2830.759119
809.841513	2826.272492
810.161390	2832.321877
810.481223	2823.325938
810.801011	2815.731440
811.120755	2807.892445
811.440453	2814.844197
811.760107	2813.465441
812.079716	2809.256077
812.399281	2801.475057
812.718801	2796.509520
813.038276	2790.586164
813.357707	2796.748975
813.677093	2802.977320
813.996434	2796.932977
814.315731	2793.744447
814.634983	2786.674229
814.954191	2790.084569
815.273354	2803.355407
815.592473	2813.014258
815.911547	2815.434012
816.230577	2823.535146
816.549562	2832.125272
816.868502	2829.627380
817.187399	2840.044925
817.506250	2855.443129
817.825058	2848.750997
818.143821	2863.259438
818.462539	2877.684700
818.781213	2907.321643
819.099843	2946.274639
819.418429	2999.017711
819.736970	3061.838050
820.055466	3138.655152
820.373919	3239.604258
820.692327	3382.241185
821.010691	3553.000190
821.329011	3998.376050
821.647286	4900.293925
821.965517	6299.267050
822.283704	7059.039511
822.601847	7052.327214
822.919945	6405.554737
823.237999	5887.276231
823.556010	5302.769566
823.873976	4741.626129
824.191897	4326.035926
824.509775	4031.282181
824.827609	3755.909153
825.145398	3628.042806
825.463144	3614.658542
825.780845	3709.480126
826.098502	3813.010302
826.416116	4099.236935
826.733685	4419.004885
827.051210	4486.531141
827.368692	4370.965210
827.686129	4102.569138
828.003522	3769.172428
828.320872	3510.954446
828.638177	3314.397337
828.955439	3177.950946
829.272656	3090.895261
829.589830	3021.849097
829.906960	2973.993423
830.224046	2926.896444
830.541088	2893.763460
830.858086	2878.665204
831.175041	2859.085363
831.491952	2861.593337
831.808819	2871.864688
832.125642	2898.245046
832.442421	2941.510749
832.759157	3024.878830
833.075849	3201.160419
833.392497	3487.533245
833.709101	3694.770039
834.025662	3644.610558
834.342179	3483.674242
834.658653	3303.374854
834.975083	3156.379849
835.291469	3056.370918
835.607811	2969.791622
835.924110	2910.515214
836.240366	2858.949252
836.556578	2818.181440
836.872746	2793.643624
837.188871	2770.471960
837.504952	2755.056112
837.820990	2744.116808
838.136984	2732.756568
838.452935	2724.332800
838.768842	2722.565875
839.084706	2737.291086
839.400526	2820.213025
839.716303	2953.783438
840.032037	3034.489790
840.347727	3021.188706
840.663373	2960.919191
840.978977	2885.596791
841.294537	2811.519556
841.610054	2763.691608
841.925527	2740.088926
842.240957	2719.531101
842.556344	2695.298274
842.871687	2680.333609
843.186987	2671.120900
843.502244	2666.863646
843.817458	2661.378871
844.132629	2649.464103
844.447756	2640.803401
844.762840	2632.936681
845.077881	2636.238636
845.392879	2634.040693
845.707833	2631.366361
846.022745	2622.234311
846.337613	2625.465691
846.652438	2624.071812
846.967221	2623.151801
847.281960	2622.020062
847.596656	2620.222891
847.911309	2620.999228
848.225919	2619.643158
848.540485	2616.129474
848.855009	2615.582508
849.169490	2614.158382
849.483928	2616.706686
849.798323	2616.547889
850.112675	2612.446911
850.426984	2613.790378
850.741251	2609.815428
851.055474	2609.094543
851.369654	2614.904473
851.683792	2614.448249
851.997887	2612.393979
852.311938	2611.204266
852.625947	2611.199225
852.939914	2614.009668
853.253837	2615.829525
853.567718	2611.549585
853.881555	2610.153186
854.195350	2614.299535
854.509103	2614.022271
854.822812	2612.003289
855.136479	2610.054883
855.450103	2613.540841
855.763685	2613.286263
856.077224	2614.276850
856.390720	2608.744183
856.704173	2612.479678
857.017584	2615.947992
857.330953	2618.428240
857.644278	2619.406224
857.957561	2619.121398
858.270802	2614.090327
858.584000	2616.721809
858.897155	2619.144084
859.210268	2618.153497
859.523339	2612.429267
859.836367	2610.982456
860.149352	2611.310131
860.462295	2609.581015
860.775195	2608.111518
861.088054	2609.369286
861.400869	2610.004472
861.713642	2602.147833
862.026373	2607.778802
862.339062	2610.135542
862.651708	2615.811881
862.964312	2614.793568
863.276873	2614.228959
863.589392	2618.203908
863.901869	2622.743467
864.214303	2625.952162
864.526696	2629.586834
864.839045	2630.799231
865.151353	2633.934829
865.463619	2631.898203
865.775842	2631.116824
866.088023	2629.395270
866.400162	2632.553553
866.712258	2629.662451
867.024313	2633.425672
867.336325	2630.090949
867.648296	2627.663634
867.960224	2635.716877
868.272110	2634.224695
868.583954	2626.804117
868.895755	2627.497276
869.207515	2634.365848
869.519233	2640.095119
869.830909	2636.576394
870.142542	2633.251753
870.454134	2633.365179
870.765684	2639.139820
871.077191	2638.582773
871.388657	2642.910603
871.700081	2642.678710
872.011463	2643.205511
872.322803	2647.036788
872.634101	2645.980666
872.945357	2653.348312
873.256571	2661.784683
873.567744	2656.292346
873.878874	2656.872079
874.189963	2659.876607
874.501010	2663.405414
874.812015	2668.517144
875.122979	2664.910199
875.433900	2659.397697
875.744780	2658.364261
876.055618	2663.594458
876.366415	2667.075374
876.677169	2666.493121
876.987882	2663.735610
877.298554	2661.023469
877.609183	2670.246260
877.919771	2678.982580
878.230317	2688.908612
878.540822	2697.344983
878.851285	2709.791592
879.161707	2732.343193
879.472087	2774.746859
879.782425	2824.331648
880.092722	2936.429266
880.402977	3131.658031
880.713191	3395.333062
881.023363	3699.165925
881.333494	3895.254207
881.643583	4069.849529
881.953631	4068.778284
882.263637	3890.812950
882.573602	3665.110410
882.883526	3532.316335
883.193408	3416.158068
883.503248	3308.456337
883.813048	3191.786393
884.122806	3075.983527
884.432522	2990.425064
884.742197	2919.934610
885.051831	2883.396327
885.361424	2846.162365
885.670975	2808.888073
885.980485	2775.734925
886.289954	2757.097779
886.599382	2745.563619
886.908768	2733.348903
887.218113	2716.151007
887.527417	2700.883873
887.836680	2690.771318
888.145901	2685.636903
888.455082	2680.225224
888.764221	2666.810714
889.073319	2659.687563
889.382376	2658.644045
889.691392	2661.313336
890.000366	2660.776453
890.309300	2658.197902
890.618193	2659.581699
890.927044	2664.111176
891.235855	2660.907523
891.544625	2660.375681
891.853353	2661.935918
892.162041	2669.275838
892.470687	2690.584795
892.779293	2703.250694
893.087858	2713.973229
893.396381	2733.452247
893.704864	2775.729884
894.013306	2848.622448
894.321707	2944.311110
894.630068	2998.765653
894.938387	3018.098478
895.246665	3012.049094
895.554903	2968.110397
895.863100	2921.341092
896.171256	2863.561907
896.479371	2800.176959
896.787446	2760.934097
897.095480	2739.849471
897.403473	2733.114490
897.711425	2718.081769
898.019336	2699.358924
898.327207	2684.492561
898.635038	2683.716223
898.942827	2679.398475
899.250576	2670.306754
899.558284	2660.365599
899.865952	2655.294198
900.173579	2652.924856
900.481165	2648.619710
900.788711	2642.572846
901.096216	2636.319295
901.403681	2634.759058
901.711105	2632.452730
902.018489	2628.981895
902.325832	2633.110600
902.633135	2634.519603
902.940397	2654.374187
903.247619	2690.027748
903.554800	2760.770260
903.861941	2886.668036
904.169041	3021.103006
904.476101	3087.522729
904.783121	3081.622058
905.090100	3020.886237
905.397039	2944.961418
905.703938	2868.348483
906.010796	2802.528658
906.317614	2750.014958
906.624391	2712.370142
906.931129	2685.473065
907.237826	2660.736123
907.544483	2646.189874
907.851099	2628.437451
908.157675	2618.357664
908.464211	2611.410954
908.770707	2600.068357
909.077163	2595.271700
909.383578	2591.269023
909.689954	2590.376739
909.996289	2590.948910
910.302584	2589.509661
910.608839	2585.680904
910.915054	2589.557552
911.221229	2587.180648
911.527363	2591.226174
911.833458	2590.442274
912.139513	2594.039137
912.445527	2595.380084
912.751502	2598.266145
913.057436	2605.636312
913.363331	2611.635285
913.669186	2623.391256
913.975000	2636.432721
914.280775	2651.641882
914.586510	2670.768020
914.892205	2712.642364
915.197859	2777.453958
915.503475	2862.994777
915.809050	2933.928853
916.114585	2951.214970
916.420081	2966.177114
916.725536	2978.618682
917.030952	2948.772531
917.336328	2900.576579
917.641665	2847.828466
917.946961	2798.087401
918.252218	2764.115065
918.557435	2735.030128
918.862612	2713.887529
919.167750	2692.712162
919.472848	2677.099709
919.777906	2659.685043
920.082925	2648.140801
920.387904	2633.962555
920.692843	2631.068933
920.997743	2625.785804
921.302603	2617.730040
921.607423	2611.395830
921.912204	2604.703698
922.216946	2602.069696
922.521647	2602.268821
922.826310	2598.591299
923.130932	2590.754826
923.435516	2586.313569
923.740059	2585.151583
924.044564	2584.428178
924.349028	2581.239648
924.653454	2572.551219
924.957840	2571.258163
925.262186	2571.036352
925.566493	2568.268759
925.870761	2566.990827
926.174989	2564.981927
926.479178	2563.280537
926.783328	2563.535116
927.087438	2562.720969
927.391509	2560.192831
927.695541	2560.046637
927.999533	2556.061605
928.303486	2558.720814
928.607400	2556.076728
928.911275	2555.151677
929.215110	2553.225956
929.518906	2555.595298
929.822663	2550.236552
930.126381	2557.367264
930.430060	2555.935576
930.733699	2555.456667
931.037299	2557.526060
931.340861	2557.379867
931.644383	2556.805175
931.947866	2553.656975
932.251309	2557.556307
932.554714	2556.467418
932.858080	2559.207285
933.161407	2553.961964
933.464694	2555.650751
933.767943	2554.062788
934.071153	2552.696635
934.374323	2551.776624
934.677455	2551.388455
934.980548	2553.500699
935.283602	2551.239741
935.586617	2552.222766
935.889593	2551.726213
936.192530	2550.271840
936.495428	2552.784855
936.798287	2552.147149
937.101108	2554.960113
937.403890	2560.586041
937.706632	2564.014025
938.009336	2563.504869
938.312002	2571.767320
938.614628	2572.029460
938.917216	2576.604307
939.219765	2577.330233
939.522275	2576.135480
939.824747	2576.453072
940.127179	2572.037022
940.429573	2568.505693
940.731929	2571.346383
941.034246	2565.788511
941.336524	2571.016188
941.638763	2567.991496
941.940964	2565.087791
942.243126	2564.366906
942.545250	2564.253480
942.847335	2562.796587
943.149381	2560.853222
943.451389	2558.438509
943.753359	2558.335165
944.055290	2557.440361
944.357182	2556.222922
944.659036	2556.207798
944.960851	2554.786193
945.262628	2554.171172
945.564367	2558.221739
945.866067	2557.178221
946.167729	2557.158056
946.469352	2555.935576
946.770937	2552.936090
947.072484	2554.062787
947.373992	2554.226625
947.675462	2555.847356
947.976893	2555.844835
948.278286	2552.797458
948.579641	2552.734443
948.880958	2551.973229
949.182236	2551.234700
949.483476	2551.496840
949.784678	2549.427447
950.085841	2551.310317
950.386967	2552.310987
950.688054	2553.853580
950.989103	2554.713096
951.290114	2553.001625
951.591087	2556.664023
951.892021	2556.328786
952.192917	2559.033365
952.493776	2558.509085
952.794596	2560.843139
953.095378	2562.622667
953.396122	2560.807851
953.696828	2558.395659
953.997496	2557.221070
954.298126	2558.383056
954.598718	2553.392314
954.899272	2552.036244
955.199788	2552.404248
955.500266	2552.033723
955.800706	2547.002652
956.101108	2544.590459
956.401472	2546.654812
956.701798	2544.330840
957.002087	2543.567105
957.302337	2541.522917
957.602550	2543.458720
957.902724	2540.943185
958.202861	2540.073586
958.502960	2541.459903
958.803022	2540.048380
959.103045	2541.588452
959.403031	2540.335726
959.702979	2539.168698
960.002889	2538.014274
960.302762	2539.357742
960.602596	2538.354552
960.902393	2541.497712
961.202153	2539.992927
961.501875	2536.973276
961.801559	2537.898328
962.101205	2538.898997
962.400814	2539.796322
962.700385	2537.106867
962.999918	2539.551826
963.299414	2534.384643
963.598873	2535.917154
963.898293	2539.304810
964.197677	2537.152237
964.497022	2536.600231
964.796331	2536.670807
965.095601	2535.339942
965.394835	2535.652494
965.694030	2535.743234
965.993189	2537.525282
966.292309	2533.923378
966.591393	2534.198121
966.890439	2533.900693
967.189447	2536.075951
967.488419	2533.205013
967.787353	2534.364479
968.086249	2535.917154
968.385108	2536.774150
968.683930	2537.369007
968.982714	2537.832793
969.281462	2534.863553
969.580172	2537.351362
969.878844	2537.931095
970.177480	2539.395550
970.476078	2535.947401
970.774639	2537.021167
971.073162	2537.048893
971.371649	2531.816176
971.670098	2532.516896
971.968510	2536.138965
972.266885	2531.581762
972.565223	2537.855478
972.863524	2538.740200
973.161788	2536.897659
973.460014	2534.561084
973.758204	2537.616023
974.056356	2534.898841
974.354471	2537.787422
974.652550	2537.003523
974.950591	2535.075282
975.248595	2536.713657
975.546563	2538.054603
975.844493	2536.441434
976.142386	2537.280786
976.440243	2535.874304
976.738062	2538.483102
977.035845	2537.195087
977.333590	2534.790456
977.631299	2533.605785
977.928971	2535.839016
978.226606	2537.482433
978.524204	2538.848585
978.821765	2534.135106
979.119290	2536.819521
979.416777	2534.445137
979.714228	2536.080992
980.011642	2536.358255
980.309020	2538.538554
980.606360	2533.162164
980.903664	2536.461599
981.200931	2538.808256
981.498162	2534.455220
981.795356	2538.125180
982.092513	2542.372352
982.389633	2546.664894
982.686717	2549.490461
982.983764	2550.977601
983.280775	2552.805020
983.577749	2551.736295
983.874686	2551.655637
984.171587	2546.843855
984.468451	2545.313865
984.765279	2543.252033
985.062070	2542.405119
985.358824	2535.896990
985.655543	2537.931095
985.952224	2536.534696
986.248869	2536.728780
986.545478	2532.360620
986.842050	2533.315919
987.138586	2529.721576
987.435086	2530.152595
987.731549	2529.441792
988.027975	2535.360107
988.324366	2532.166536
988.620719	2534.712318
988.917037	2533.431865
989.213318	2530.959179
989.509563	2535.715508
989.805772	2533.668800
990.101944	2531.538912
990.398080	2531.811134
990.694180	2531.095291
990.990244	2530.659231
991.286271	2532.983203
991.582262	2532.683254
991.878217	2533.396577
992.174136	2531.705270
992.470019	2531.387677
992.765865	2530.694519
993.061676	2533.820034
993.357450	2529.794673
993.653188	2533.078985
993.948890	2535.337422
994.244556	2532.970600
994.540186	2531.216278
994.835780	2534.422452
995.131337	2535.365148
995.426859	2536.660724
995.722345	2534.639222
996.017795	2537.071578
996.313208	2533.129396
996.608586	2537.237937
996.903928	2537.573173
997.199234	2537.472350
997.494504	2536.988399
997.789738	2536.685930
998.084936	2536.643080
998.380099	2534.621578
998.675225	2535.138296
998.970316	2533.099149
999.265371	2535.367668
999.560390	2532.960517
999.855373	2533.366330
1000.150320	2534.213244
1000.445232	2533.225178
1000.740108	2530.755013
1001.034948	2529.719056
1001.329752	2533.993954
1001.624521	2531.339787
1001.919254	2526.288550
1002.213951	2528.516740
1002.508613	2526.331400
1002.803239	2528.846936
1003.097829	2526.054137
1003.392384	2529.512368
1003.686903	2529.814838
1003.981386	2530.117307
1004.275834	2533.235260
1004.570246	2531.498583
1004.864623	2529.351051
1005.158964	2530.281144
1005.453270	2527.190917
1005.747540	2533.320960
1006.041775	2530.230733
1006.335974	2531.435568
1006.630138	2532.166536
1006.924266	2530.702081
1007.218359	2530.165198
1007.512416	2530.888603
1007.806438	2530.873480
1008.100425	2529.635877
1008.394376	2530.132430
1008.688292	2529.300640
1008.982172	2530.878521
1009.276017	2532.779036
1009.569827	2529.174611
1009.863602	2528.667975
1010.157341	2527.442975
1010.451045	2528.511699
1010.744714	2529.330887
1011.038347	2530.003881
1011.331945	2531.208717
1011.625508	2528.985568
1011.919036	2531.801052
1012.212528	2529.194776
1012.505986	2530.049251
1012.799408	2532.821886
1013.092795	2530.916330
1013.386147	2529.940866
1013.679464	2526.873324
1013.972745	2531.569159
1014.265992	2530.427338
1014.559204	2529.207378
1014.852380	2529.398942
1015.145521	2529.303160
1015.438628	2528.156298
1015.731699	2527.372398
1016.024736	2529.560259
1016.317737	2530.601257
1016.610703	2528.589837
1016.903635	2528.267203
1017.196531	2528.231915
1017.489393	2525.310567
1017.782219	2523.072294
1018.075011	2527.687471
1018.367768	2529.734179
1018.660490	2530.117307
1018.953177	2530.117307
1019.245829	2530.117307
