Dividing Wavelength (nm)	Counts (n)	Blue Motor Position (mm): 0.000000	Red Motor Position (mm): 31.300000	
326.493990	2127.256018
326.888308	2127.256018
327.282561	2127.256018
327.676750	2095.007757
328.070874	2095.106059
328.464933	2095.446337
328.858929	2102.423294
329.252859	2113.092896
329.646726	2127.331635
330.040528	2140.196660
330.434265	2155.415903
330.827938	2170.173881
331.221547	2192.034845
331.615091	2210.122505
332.008571	2229.984651
332.401986	2250.182034
332.795338	2267.682399
333.188625	2285.578495
333.581847	2305.627164
333.975006	2325.867397
334.368100	2340.302741
334.761129	2359.864938
335.154095	2374.867412
335.546996	2392.992881
335.939833	2413.737229
336.332606	2428.711977
336.725315	2440.223451
337.117960	2447.197888
337.510540	2459.871348
337.903056	2469.152113
338.295508	2476.703761
338.687896	2484.462097
339.080220	2494.355361
339.472480	2500.152688
339.864676	2503.754593
340.256807	2508.326919
340.648875	2510.829852
341.040879	2512.795902
341.432818	2517.930317
341.824694	2517.416120
342.216506	2517.590039
342.608253	2520.632376
342.999937	2518.875534
343.391557	2516.498630
343.783113	2515.369411
344.174605	2516.624658
344.566033	2512.291787
344.957397	2512.127949
345.348697	2511.714575
345.739934	2509.463699
346.131106	2509.859430
346.522215	2506.670900
346.913260	2505.070334
347.304241	2503.164778
347.695159	2500.182935
348.086012	2499.376351
348.476802	2496.959117
348.867528	2494.420896
349.258191	2494.367964
349.648789	2493.155567
350.039324	2490.894609
350.429796	2492.061636
350.820203	2489.301605
351.210548	2491.010556
351.600828	2483.789103
351.991045	2488.779845
352.381198	2487.824547
352.771288	2485.145173
353.161314	2484.933445
353.551276	2488.923518
353.941175	2484.688949
354.331010	2486.176089
354.720782	2484.693990
355.110490	2482.362456
355.500135	2483.965543
355.889717	2486.660040
356.279235	2487.794300
356.668689	2485.871099
357.058080	2487.713641
357.447408	2486.196254
357.836672	2484.772128
358.225873	2484.147025
358.615010	2485.845894
359.004084	2488.805051
359.393095	2490.564414
359.782043	2491.282778
360.170927	2492.734630
360.559748	2489.818323
360.948505	2494.544405
361.337199	2493.016935
361.725830	2495.663541
362.114398	2496.167656
362.502903	2495.010711
362.891344	2498.055568
363.279722	2497.196052
363.668037	2496.659169
364.056289	2498.045486
364.444478	2498.012718
364.832603	2497.974910
365.220665	2497.785867
365.608665	2499.177225
365.996601	2499.590600
366.384474	2501.284427
366.772284	2502.895076
367.160031	2502.945488
367.547715	2505.292145
367.935336	2510.222393
368.322893	2512.095182
368.710388	2513.673063
369.097820	2523.394928
369.485189	2521.650689
369.872495	2530.891124
370.259738	2537.084181
370.646918	2543.196580
371.034035	2551.426264
371.421090	2564.205589
371.808081	2572.979717
372.195010	2581.196798
372.581875	2593.502255
372.968678	2609.124790
373.355418	2619.842283
373.742096	2635.059006
374.128710	2651.687252
374.515262	2667.619819
374.901751	2681.586336
375.288177	2693.576720
375.674540	2718.258209
376.060841	2736.711353
376.447079	2753.616862
376.833254	2776.591921
377.219367	2789.706483
377.605417	2824.820640
377.991404	2834.976044
378.377329	2858.674509
378.763191	2875.017929
379.148991	2912.345153
379.534727	2935.264759
379.920402	2966.330870
380.306013	2980.451142
380.691563	3025.143491
381.077049	3046.104609
381.462474	3063.736044
381.847835	3103.218361
382.233134	3128.194758
382.618371	3126.276599
383.003545	3194.319573
383.388657	3202.980275
383.773706	3233.791807
384.158693	3254.533635
384.543618	3277.627161
384.928480	3312.552275
385.313280	3359.785366
385.698017	3357.572299
386.082692	3414.607914
386.467305	3418.116557
386.851856	3448.098819
387.236344	3473.952377
387.620770	3503.256604
388.005133	3530.441026
388.389435	3555.523287
388.773674	3565.935790
389.157851	3607.222840
389.541965	3625.877630
389.926018	3586.836414
390.310008	3662.022703
390.693936	3678.146834
391.077802	3723.033268
391.461606	3706.097511
391.845348	3772.174435
392.229027	3772.670989
392.612645	3785.793113
392.996200	3864.596429
393.379694	3903.418355
393.763125	3969.724652
394.146494	3933.740896
394.529801	3995.580730
394.913047	4045.435221
395.296230	4009.398532
395.679351	4065.700659
396.062410	4088.718568
396.445408	4070.005805
396.828343	4104.305815
397.211217	4125.400524
397.594028	4047.789440
397.976778	4114.231847
398.359466	4141.449037
398.742092	4167.080784
399.124656	4091.987756
399.507158	4172.542874
399.889598	4194.804609
400.271977	4263.450001
400.654294	4229.646544
401.036549	4236.590733
401.418742	4204.355075
401.800874	4310.393226
402.182944	4333.527081
402.564952	4395.901277
402.946898	4381.675141
403.328783	4376.273545
403.710606	4292.633241
404.092367	4483.796315
404.474067	4450.214669
404.855705	4459.311431
405.237282	4386.731418
405.618797	4495.456504
406.000250	4529.733830
406.381642	4606.364409
406.762972	4573.221343
407.144240	4580.258794
407.525447	4584.251388
407.906593	4640.679543
408.287677	4681.555739
408.668700	4612.980924
409.049661	4667.591743
409.430560	4708.311663
409.811399	4630.735867
410.192176	4793.963388
410.572891	4729.590374
410.953545	4836.697249
411.334138	4716.790884
411.714669	4783.376965
412.095139	4678.296633
412.475547	4822.279549
412.855894	4800.658040
413.236180	4808.739010
413.616405	4762.743522
413.996568	4847.757541
414.376670	4791.856186
414.756711	4750.682562
415.136691	4779.306233
415.516609	4854.537892
415.896466	4891.892843
416.276262	4930.271147
416.655997	4909.594854
417.035670	5095.321044
417.415283	5183.281617
417.794834	5124.380776
418.174324	5080.374023
418.553753	4987.273994
418.933121	5172.727962
419.312428	5238.222632
419.691674	5176.400442
420.070859	5301.894926
420.449983	5218.741093
420.829045	5330.387527
421.208047	5237.118620
421.586988	5310.051513
421.965867	5320.998378
422.344686	5455.738338
422.723444	5305.774094
423.102141	5127.299604
423.480777	5423.437145
423.859352	5193.169840
424.237866	5452.968224
424.616319	5445.235094
424.994712	5553.478750
425.373044	5425.695582
425.751314	5573.968520
426.129524	5373.297829
426.507673	5573.293005
426.885762	5656.469523
427.263789	5587.325057
427.641756	5470.861800
428.019662	5586.558801
428.397508	5594.513742
428.775292	5545.881731
429.153016	5641.550228
429.530679	5567.916614
429.908282	5653.729656
430.285824	5525.863309
430.663305	5798.244413
431.040726	5532.280698
431.418086	5533.319176
431.795385	5640.912522
432.172624	5654.793339
432.549802	5646.793028
432.926920	5659.416077
433.303977	5666.486296
433.680974	5707.170928
434.057910	5721.238267
434.434786	5728.374021
434.811601	5696.677766
435.188355	5930.214259
435.565050	5806.955527
435.941683	5788.212517
436.318257	5998.010217
436.694770	5983.975644
437.071222	6018.076529
437.447614	5950.691426
437.823946	5861.188260
438.200218	6018.646180
438.576429	5884.571652
438.952580	5983.332897
439.328670	6026.959042
439.704700	5931.961019
440.080670	5921.160347
440.456580	6192.071954
440.832429	6071.840435
441.208218	5918.644811
441.583947	6075.218008
441.959616	6079.530715
442.335224	6005.503892
442.710773	6143.470190
443.086261	6173.132339
443.461689	5968.191792
443.837057	6115.055727
444.212365	6268.112719
444.587612	6160.594990
444.962800	6313.657023
445.337927	6295.249250
445.712995	5909.822792
446.088002	6480.509133
446.462949	6312.774822
446.837837	6239.955354
447.212664	6409.597743
447.587431	6557.890845
447.962139	7102.877384
448.336786	8030.023715
448.711374	7768.594517
449.085901	6843.686459
449.460369	6764.578153
449.834776	6697.248502
450.209124	7091.938081
450.583412	7240.337047
450.957640	7383.702421
451.331808	7155.234808
451.705917	6704.963988
452.079965	6627.133614
452.453954	6839.071283
452.827883	6717.899589
453.201752	6804.836807
453.575562	6601.673266
453.949311	6809.242776
454.323001	6701.059614
454.696632	6778.640451
455.070202	6912.488127
455.443713	7067.004534
455.817164	7164.528175
456.190556	7245.108499
456.563888	7321.119017
456.937160	7365.050152
457.310373	7022.165991
457.683526	7047.749847
458.056619	6940.857220
458.429653	6923.908861
458.802628	6861.035590
459.175542	6969.576674
459.548398	7323.737896
459.921194	7487.048596
460.293930	7488.651683
460.666607	8018.673557
461.039224	8319.401069
461.411782	8451.275133
461.784280	8472.400088
462.156719	8359.631997
462.529099	8237.497442
462.901419	7827.170204
463.273680	7720.761529
463.645882	7732.083961
464.018024	7601.412212
464.390106	7764.183508
464.762130	8156.728075
465.134094	8618.885937
465.505999	9636.152974
465.877845	10858.698317
466.249631	11510.637976
466.621358	11129.909873
466.993026	10500.294963
467.364634	10240.599923
467.736184	9877.883863
468.107674	9542.695023
468.479105	9581.375796
468.850477	9342.168005
469.221790	9108.399619
469.593043	8791.676526
469.964238	8641.079616
470.335373	8653.949682
470.706449	8712.341367
471.077467	8692.706073
471.448425	9984.988217
471.819324	11057.949922
472.190164	11079.145454
472.560945	9834.305608
472.931667	9046.821925
473.302330	8902.443279
473.672934	8549.965802
474.043479	8903.617867
474.413965	8839.607817
474.784393	8718.380669
475.154761	8869.675779
475.525070	8947.246533
475.895321	8772.878063
476.265513	8937.585162
476.635645	9105.092622
477.005719	9096.265562
477.375734	9197.978402
477.745691	9426.314945
478.115588	9551.459069
478.485427	9787.899267
478.855207	10291.901225
479.224928	11075.989692
479.594591	11678.435303
479.964194	11487.403298
480.333739	11411.128120
480.703226	11323.094450
481.072653	11392.226313
481.442022	11594.979001
481.811333	11762.932603
482.180584	11565.077397
482.549777	11257.211611
482.918912	11074.542880
483.287988	11065.599873
483.657005	11063.870758
484.025964	10733.022351
484.394864	10838.067395
484.763706	10788.470003
485.132489	10539.966324
485.501213	10476.306633
485.869879	10528.923676
486.238487	10343.890645
486.607036	10429.628069
486.975527	10194.901863
487.343959	10342.027938
487.712333	10357.728612
488.080648	10256.083827
488.448905	10265.364591
488.817104	10174.853195
489.185244	10387.519311
489.553326	10481.466254
489.921350	10919.131669
490.289315	11784.044955
490.657222	12042.419213
491.025070	11914.005901
491.392861	11753.470357
491.760593	11399.120091
492.128267	11065.047867
492.495883	10729.203677
492.863440	10399.121526
493.230939	10053.845338
493.598380	9946.904821
493.965763	9777.960632
494.333088	9653.108895
494.700354	9525.383701
495.067563	9540.025732
495.434713	9338.578704
495.801805	9392.226663
496.168839	9276.874981
496.535815	9159.118668
496.902733	9113.324826
497.269593	8997.448864
497.636395	9027.307618
498.003139	8945.373745
498.369825	8790.340620
498.736453	8839.461623
499.103023	8735.404646
499.469535	8686.134929
499.835989	8620.027758
500.202385	8528.631639
500.568723	8354.416923
500.935003	8464.651835
501.301226	8235.861588
501.667390	8364.531999
502.033497	8357.885237
502.399546	8201.296917
502.765537	8066.219199
503.131470	8041.913276
503.497345	8089.511851
503.863163	7774.371680
504.228923	7895.407263
504.594625	7871.106381
504.960269	7638.527707
505.325856	7708.816515
505.691385	7503.666759
506.056856	7531.680451
506.422270	7464.993547
506.787625	7335.153589
507.152924	7324.443658
507.518164	7249.375836
507.883347	7133.794781
508.248472	7014.488313
508.613540	7067.445635
508.978550	6929.139058
509.343503	6844.631676
509.708398	6832.071641
510.073236	6815.211502
510.438016	6750.364619
510.802738	6645.629607
511.167403	6603.843483
511.532010	6474.553010
511.896561	6524.321802
512.261053	6481.381253
512.625488	6346.205233
512.989866	6262.877481
513.354186	6186.007446
513.718449	6071.182565
514.082655	6091.039670
514.446803	5973.512729
514.810894	5953.615295
515.174927	5821.448844
515.538904	5776.050733
515.902822	5754.189770
516.266684	5651.728318
516.630488	5558.925717
516.994235	5521.510273
517.357925	5467.585050
517.721558	5430.288073
518.085133	5368.155852
518.448651	5311.825999
518.812112	5210.345052
519.175516	5142.433148
519.538863	5116.115804
519.902152	5035.384246
520.265385	5004.668495
520.628560	4935.632414
520.991678	4857.398747
521.354739	4820.978931
521.717743	4750.085185
522.080690	4691.459086
522.443580	4654.925844
522.806413	4593.718675
523.169189	4548.103794
523.531908	4502.214171
523.894569	4416.985903
524.257174	4361.117316
524.619722	4326.910566
524.982213	4278.931385
525.344647	4229.195361
525.707025	4176.306095
526.069345	4145.464316
526.431608	4080.398143
526.793815	4054.516859
527.155964	3975.907627
527.518057	3942.794808
527.880093	3888.945202
528.242072	3860.475286
528.603995	3799.754588
528.965860	3750.600818
529.327669	3719.282649
529.689421	3681.824356
530.051117	3638.614105
530.412755	3613.340281
530.774337	3571.949887
531.135862	3526.564379
531.497331	3499.276613
531.858743	3449.717030
532.220098	3437.971141
532.581396	3394.387846
532.942638	3366.348948
533.303824	3339.587983
533.664953	3312.179229
534.026025	3276.757562
534.387040	3261.281219
534.747999	3235.936818
535.108902	3215.820094
535.469748	3175.876512
535.830537	3155.238028
536.191270	3133.550984
536.551947	3117.683952
536.912567	3092.667226
537.273131	3073.883887
537.633638	3048.993190
537.994089	3028.596681
538.354483	3009.152951
538.714821	3003.511900
539.075103	2983.803509
539.435328	2967.024028
539.795497	2942.929833
540.155609	2934.743000
540.515665	2929.139757
540.875665	2898.459295
541.235609	2891.323542
541.595496	2879.459186
541.955328	2872.388968
542.315102	2854.762573
542.674821	2842.126921
543.034483	2832.639470
543.394090	2822.554641
543.753640	2806.400264
544.113134	2808.227682
544.472571	2791.758232
544.831953	2787.052315
545.191278	2771.409615
545.550548	2768.127824
545.909761	2763.694129
546.268918	2756.460073
546.628019	2748.361460
546.987064	2739.829307
547.346053	2732.012998
547.704986	2726.697101
548.063863	2724.184086
548.422684	2718.038919
548.781449	2712.047508
549.140158	2709.947867
549.498811	2706.434183
549.857408	2694.136288
550.215949	2695.764581
550.574434	2684.477437
550.932864	2687.146728
551.291237	2682.221521
551.649555	2682.488702
552.007817	2677.318999
552.366022	2674.564008
552.724173	2672.628205
553.082267	2670.044614
553.440305	2668.789367
553.798288	2663.733089
554.156215	2664.191834
554.514086	2659.828716
554.871902	2659.647234
555.229661	2657.441729
555.587365	2654.366626
555.945014	2650.691624
556.302606	2653.406286
556.660143	2651.309166
557.017625	2650.663898
557.375050	2648.002169
557.732421	2648.465955
558.089735	2646.774648
558.446994	2645.368166
558.804197	2643.502939
559.161345	2640.856333
559.518437	2641.925058
559.875474	2637.614871
560.232455	2640.390027
560.589381	2639.175108
560.946251	2638.363483
561.303065	2635.356434
561.659825	2635.865591
562.016528	2633.034983
562.373177	2632.084726
562.729770	2631.000877
563.086307	2630.650517
563.442789	2629.140692
563.799216	2630.925260
564.155587	2625.616925
564.511904	2630.153964
564.868164	2627.093983
565.224370	2626.073150
565.580520	2626.854528
565.936615	2627.361164
566.292654	2622.582151
566.648638	2624.190279
567.004567	2621.470576
567.360441	2624.636421
567.716260	2619.897736
568.072023	2623.736575
568.427732	2616.220214
568.783385	2620.616101
569.138982	2617.016717
569.494525	2619.532252
569.850013	2615.769031
570.205445	2619.897736
570.560823	2618.627365
570.916145	2618.234155
571.271412	2618.556789
571.626625	2617.896398
571.981782	2613.891201
572.336884	2618.032509
572.691931	2617.422530
573.046923	2614.067642
573.401860	2612.681324
573.756743	2614.135697
574.111570	2612.187291
574.466342	2612.595625
574.821059	2616.467231
575.175722	2613.145111
575.530330	2611.703341
575.884882	2613.356839
576.239380	2609.414657
576.593823	2610.175871
576.948211	2609.724688
577.302544	2610.112857
577.656823	2609.213011
578.011047	2610.256529
578.365216	2607.398195
578.719330	2611.680655
579.073389	2609.165120
579.427394	2606.589090
579.781344	2607.393154
580.135239	2607.617485
580.489080	2607.153699
580.842866	2605.409460
581.196597	2606.813421
581.550273	2606.644543
581.903895	2606.699995
582.257463	2606.331991
582.610975	2605.285952
582.964434	2605.787547
583.317837	2606.342073
583.671186	2607.183946
584.024481	2602.934253
584.377721	2605.127155
584.730906	2602.704881
585.084037	2605.280911
585.437113	2601.346290
585.790135	2604.398709
586.143103	2601.878132
586.496016	2604.010540
586.848874	2600.733790
587.201679	2601.540374
587.554428	2598.077102
587.907124	2600.559870
588.259765	2598.492997
588.612352	2599.428131
588.964884	2600.849736
589.317362	2602.994747
589.669786	2600.685899
590.022155	2603.002309
590.374470	2598.006526
590.726731	2599.869232
591.078937	2598.225816
591.431090	2599.947370
591.783188	2598.931577
592.135232	2597.419231
592.487222	2598.651793
592.839157	2597.633480
593.191038	2595.997626
593.542866	2596.889910
593.894639	2596.531988
594.246358	2597.754468
594.598022	2596.249683
594.949633	2596.078284
595.301190	2596.642893
595.652692	2599.261773
596.004141	2598.067019
596.355535	2596.068202
596.706876	2595.828747
597.058162	2595.216247
597.409395	2592.506627
597.760573	2595.861515
598.111698	2593.882862
598.462768	2595.972420
598.813785	2596.680702
599.164748	2593.194744
599.515657	2593.189703
599.866511	2592.534353
600.217312	2591.999991
600.568060	2595.556525
600.918753	2597.333532
601.269392	2593.252717
601.619978	2592.622573
601.970510	2591.584096
602.320988	2594.182810
602.671412	2594.036617
603.021783	2594.472677
603.372100	2594.633994
603.722363	2591.412696
604.072572	2592.458736
604.422728	2594.051740
604.772830	2590.732141
605.122878	2588.604774
605.472872	2587.258786
605.822813	2587.137798
606.172701	2591.886565
606.522534	2594.281113
606.872314	2595.390167
607.222041	2593.149374
607.571714	2592.219281
607.921333	2592.448653
608.270899	2592.138622
608.620411	2592.403283
608.969870	2594.129878
609.319276	2594.974272
609.668627	2598.162801
610.017926	2598.056937
610.367171	2599.760847
610.716362	2602.520879
611.065500	2598.616505
611.414585	2596.887389
611.763616	2599.458378
612.112594	2595.894282
612.461518	2597.414190
612.810389	2595.354879
613.159207	2595.506113
613.507971	2596.763881
613.856682	2593.819847
614.205340	2593.532502
614.553945	2592.373036
614.902496	2592.920001
615.250994	2592.983016
615.599439	2595.077615
615.947830	2592.420927
616.296169	2592.652820
616.644454	2594.583582
616.992686	2592.799014
617.340864	2595.964858
617.688990	2591.863880
618.037063	2593.288006
618.385082	2593.061154
618.733048	2593.809765
619.080961	2593.335897
619.428821	2593.993767
619.776628	2591.793303
620.124382	2596.237081
620.472083	2591.395052
620.819731	2593.502255
621.167326	2591.964703
621.514868	2593.116606
621.862357	2591.639548
622.209793	2592.902357
622.557176	2591.821030
622.904506	2587.558734
623.251783	2584.314752
623.599007	2587.992273
623.946179	2584.526480
624.293297	2587.659557
624.640363	2586.812643
624.987376	2586.474886
625.334336	2586.588312
625.681243	2587.251224
626.028097	2586.782397
626.374899	2587.553693
626.721647	2586.820205
627.068343	2589.111410
627.414987	2584.962540
627.761577	2584.279464
628.108115	2582.378949
628.454600	2584.337437
628.801032	2583.246027
629.147412	2586.568147
629.493739	2586.089238
629.840014	2584.776017
630.186236	2585.028075
630.532405	2586.532859
630.878521	2583.467838
631.224585	2584.057653
631.570597	2580.881726
631.916556	2585.156624
632.262462	2584.377766
632.608316	2580.649833
632.954117	2582.298290
633.299866	2582.724268
633.645562	2585.713672
633.991206	2580.433063
634.336797	2580.755697
634.682336	2582.336099
635.027823	2579.876016
635.373257	2583.208218
635.718639	2579.369380
636.063968	2580.208732
636.409245	2580.642271
636.754470	2578.812332
637.099642	2577.826787
637.444762	2580.796026
637.789829	2578.623289
638.134845	2579.281160
638.479808	2577.105902
638.824719	2576.808474
639.169577	2577.506673
639.514383	2577.536920
639.859137	2574.822259
640.203839	2576.810994
640.548489	2573.635067
640.893086	2574.628175
641.237632	2573.299831
641.582125	2575.833010
641.926566	2573.612382
642.270955	2575.883422
642.615292	2578.073803
642.959576	2577.045408
643.303809	2575.906107
643.647990	2574.703792
643.992118	2576.952147
644.336195	2575.386868
644.680219	2576.344687
645.024192	2575.185222
645.368112	2576.732856
645.711981	2578.638412
646.055797	2578.403999
646.399562	2579.553382
646.743274	2579.119843
647.086935	2579.208063
647.430544	2577.894842
647.774101	2577.385686
648.117606	2578.242682
648.461059	2576.773186
648.804460	2581.194277
649.147810	2578.938361
649.491108	2578.537589
649.834354	2577.544482
650.177548	2577.998186
650.520690	2578.025912
650.863781	2575.195304
651.206820	2578.008268
651.549807	2576.218659
651.892742	2573.015005
652.235626	2572.553740
652.578458	2573.471230
652.921238	2572.425190
653.263967	2573.821590
653.606644	2572.679769
653.949269	2573.052814
654.291843	2572.276476
654.634365	2572.785633
654.976836	2573.272104
655.319255	2573.942578
655.661622	2573.415777
656.003938	2573.078020
656.346203	2571.933678
656.688416	2572.505849
657.030577	2572.702454
657.372687	2570.363358
657.714746	2571.026270
658.056753	2570.567525
658.398708	2565.745662
658.740612	2570.207083
659.082465	2567.678944
659.424266	2569.715570
659.766016	2568.684654
660.107715	2572.536096
660.449362	2570.403688
660.790958	2572.417629
661.132503	2572.561302
661.473996	2571.046435
661.815438	2571.888307
662.156829	2569.662638
662.498168	2571.016188
662.839456	2571.943760
663.180693	2569.219017
663.521879	2573.385530
663.863013	2573.113308
664.204097	2572.145406
664.545129	2575.775037
664.886110	2571.817731
665.227040	2572.926785
665.567918	2574.812177
665.908746	2571.109449
666.249522	2572.987279
666.590248	2571.845458
666.930922	2571.616085
667.271545	2573.342680
667.612118	2572.362176
667.952639	2573.909810
668.293109	2572.074830
668.633528	2571.865622
668.973896	2568.798080
669.314213	2571.401836
669.654480	2571.084243
669.994695	2573.776220
670.334859	2571.613565
670.674973	2574.754203
671.015035	2569.713050
671.355047	2572.354614
671.695008	2570.804459
672.034918	2571.210272
672.374777	2571.759758
672.714585	2569.319840
673.054342	2570.202042
673.394049	2572.876374
673.733705	2573.332598
674.073310	2571.757237
674.412864	2573.748493
674.752368	2571.878225
675.091820	2570.194480
675.431223	2570.338153
675.770574	2572.331929
676.109875	2565.511248
676.449125	2569.254305
676.788324	2568.873697
677.127473	2567.893193
677.466571	2564.739951
677.805619	2568.876218
678.144616	2568.699778
678.483562	2569.219017
678.822458	2565.760785
679.161303	2569.781105
679.500098	2567.525189
679.838842	2569.561815
680.177535	2566.731207
680.516179	2568.089798
680.854771	2569.508883
681.193314	2570.005437
681.531805	2568.717422
681.870247	2572.399985
682.208638	2573.284707
682.546978	2573.720767
682.885268	2573.229254
683.223508	2573.776220
683.561697	2569.118193
683.899836	2571.598441
684.237925	2572.722618
684.575963	2572.165571
684.913951	2572.765468
685.251889	2573.778740
685.589776	2567.096691
685.927614	2570.406208
686.265401	2571.225396
686.603137	2572.110118
686.940824	2571.487536
687.278460	2570.146589
687.616046	2571.653894
687.953582	2577.118505
688.291068	2570.769171
688.628504	2573.728329
688.965889	2571.984089
689.303224	2572.498287
689.640510	2572.064748
689.977745	2571.570715
690.314930	2569.287072
690.652065	2570.048286
690.989150	2567.862946
691.326185	2570.849830
691.663170	2568.039387
692.000105	2568.112483
692.336990	2563.691391
692.673825	2567.971331
693.010610	2565.244067
693.347345	2561.470763
693.684030	2559.613098
694.020665	2561.392625
694.357251	2560.843139
694.693786	2561.611915
695.030272	2566.358162
695.366707	2563.240208
695.703093	2562.244580
696.039429	2562.138716
696.375716	2560.470094
696.711952	2563.557801
697.048139	2564.878583
697.384276	2562.383212
697.720363	2562.741134
698.056400	2563.270455
698.392388	2560.434806
698.728326	2560.981771
699.064214	2561.574107
699.400053	2562.335321
699.735842	2560.628890
700.071581	2556.951369
700.407270	2561.218705
700.742910	2559.955896
701.078501	2557.533622
701.414042	2559.676112
701.749533	2562.526885
702.084974	2556.487582
702.420366	2558.138560
702.755709	2561.054868
703.091002	2559.366081
703.426246	2558.229301
703.761440	2557.536142
704.096584	2558.851884
704.431679	2557.208467
704.766725	2557.894064
705.101721	2555.496996
705.436668	2557.392470
705.771565	2557.556307
706.106413	2558.486400
706.441212	2559.290464
706.775961	2558.511606
707.110661	2556.681667
707.445311	2558.481359
707.779913	2558.912377
708.114465	2561.916905
708.448967	2556.185113
708.783421	2561.722821
709.117825	2560.160063
709.452180	2561.075033
709.786485	2561.566545
710.120742	2560.759960
710.454949	2562.252142
710.789107	2561.168294
711.123216	2559.020762
711.457275	2562.176525
711.791286	2559.497151
712.125247	2560.603685
712.459159	2563.046124
712.793023	2565.995199
713.126837	2561.788356
713.460602	2562.973027
713.794318	2563.323387
714.127985	2565.788511
714.461602	2556.711914
714.795171	2561.866494
715.128691	2560.081925
715.462162	2559.668551
715.795584	2560.964127
716.128957	2561.427913
716.462281	2555.020607
716.795556	2559.035886
717.128782	2554.665205
717.461960	2556.172510
717.795088	2558.362892
718.128167	2555.955741
718.461198	2555.446584
718.794180	2558.430947
719.127113	2557.667213
719.459997	2556.842984
719.792833	2553.447767
720.125619	2557.024465
720.458357	2554.655123
720.791046	2556.890875
721.123686	2555.965823
721.456278	2554.521532
721.788821	2553.162942
722.121315	2553.712427
722.453761	2554.796275
722.786158	2553.039433
723.118506	2554.423230
723.450805	2556.873231
723.783056	2554.584547
724.115259	2554.849207
724.447412	2553.357026
724.779518	2555.852397
725.111574	2553.719989
725.443582	2555.567572
725.775542	2553.944320
726.107453	2556.290977
726.439315	2553.009186
726.771129	2558.062943
727.102895	2555.625545
727.434612	2557.672254
727.766281	2558.239383
728.097901	2556.525391
728.429473	2554.766028
728.760996	2553.654454
729.092471	2552.656306
729.423897	2556.051523
729.755276	2555.726368
730.086606	2556.341389
730.417887	2560.356668
730.749120	2556.419527
731.080305	2557.304249
731.411442	2557.455484
731.742530	2561.821123
732.073570	2558.917419
732.404562	2560.422203
732.735506	2560.097049
733.066401	2562.098387
733.397249	2558.204095
733.728048	2557.021945
734.058798	2555.204609
734.389501	2554.382901
734.720156	2556.711914
735.050762	2551.857283
735.381320	2552.227808
735.711831	2551.930379
736.042293	2552.278219
736.372707	2552.958775
736.703073	2553.530946
737.033391	2552.890719
737.363661	2555.663354
737.693883	2553.783003
738.024056	2555.242417
738.354182	2555.819630
738.684260	2557.349620
739.014290	2554.455997
739.344272	2552.411810
739.674207	2558.483879
740.004093	2556.338868
740.333931	2553.420040
740.663722	2558.062943
740.993464	2555.456667
741.323159	2555.065977
741.652806	2554.735782
741.982405	2553.160421
742.311956	2553.631769
742.641460	2552.989022
742.970915	2553.755277
743.300323	2551.698486
743.629683	2553.752757
743.958996	2551.496840
744.288260	2552.288301
744.617477	2552.157231
744.946647	2549.099772
745.275768	2547.121119
745.604842	2548.923331
745.933869	2548.890564
746.262847	2544.477033
746.591778	2552.532797
746.920662	2550.002138
747.249498	2551.718651
747.578286	2551.453990
747.907027	2553.019269
748.235720	2550.818805
748.564365	2549.288815
748.892963	2551.252344
749.221514	2549.908877
749.550017	2552.066491
749.878473	2550.891902
750.206881	2552.638662
750.535242	2549.324103
750.863555	2552.963816
751.191821	2549.235883
751.520039	2548.404092
751.848210	2550.574309
752.176334	2551.542211
752.504411	2548.691438
752.832440	2549.616490
753.160421	2550.932231
753.488356	2550.337375
753.816243	2551.751418
754.144082	2549.142621
754.471875	2548.028526
754.799620	2549.220759
755.127318	2549.747560
755.454969	2550.029864
755.782572	2550.251675
756.110129	2550.029864
756.437638	2550.246634
756.765100	2549.165307
757.092515	2550.594474
757.419882	2549.913918
757.747203	2551.101110
758.074477	2551.227138
758.401703	2548.041129
758.728882	2550.715461
759.056014	2550.188661
759.383099	2549.223280
759.710138	2552.058929
760.037129	2549.679504
760.364073	2551.212015
760.690970	2550.125646
761.017820	2553.921635
761.344623	2551.862324
761.671379	2551.096068
761.998088	2549.523228
762.324751	2553.581357
762.651366	2558.254507
762.977935	2565.551577
763.304456	2569.929819
763.630931	2573.791343
763.957359	2569.241702
764.283740	2565.473439
764.610074	2560.749878
764.936362	2557.952038
765.262602	2552.298384
765.588796	2550.080276
765.914943	2550.181099
766.241044	2550.062632
766.567097	2549.268650
766.893104	2550.468445
767.219064	2548.217570
767.544978	2547.741181
767.870845	2548.018444
768.196665	2548.865358
768.522438	2545.974256
768.848165	2547.600028
769.173846	2546.057435
769.499479	2548.429298
769.825066	2543.887218
770.150607	2549.974412
770.476101	2546.513660
770.801548	2546.614483
771.126949	2544.391334
771.452303	2545.439894
771.777611	2545.409647
772.102872	2543.118442
772.428087	2546.964843
772.753256	2544.424101
773.078378	2545.760007
773.403453	2544.151879
773.728482	2543.277239
774.053465	2541.820345
774.378401	2540.519728
774.703291	2542.642053
775.028135	2541.462423
775.352932	2541.096940
775.677683	2542.775644
776.002388	2542.586601
776.327046	2543.272198
776.651658	2542.334543
776.976224	2541.807743
777.300743	2542.369831
777.625216	2545.510470
777.949643	2540.827238
778.274024	2541.651467
778.598359	2539.471168
778.922647	2540.403781
779.246889	2542.100129
779.571086	2535.854140
779.895236	2542.896632
780.219339	2540.726415
780.543397	2542.001827
780.867409	2540.224820
781.191374	2543.446118
781.515294	2541.096940
781.839167	2541.774975
782.162995	2542.057280
782.486776	2541.964018
782.810511	2542.226158
783.134201	2541.951415
783.457844	2539.690458
783.781441	2541.883360
784.104993	2540.607948
784.428498	2543.766231
784.751958	2541.447300
785.075372	2540.587783
785.398739	2540.577701
785.722061	2539.612320
786.045337	2541.709440
786.368568	2541.568288
786.691752	2542.226158
787.014891	2541.379244
787.337983	2543.632640
787.661030	2544.948381
787.984031	2545.762528
788.306987	2547.080789
788.629897	2547.191695
788.952760	2546.536345
789.275579	2546.702703
789.598351	2544.189688
789.921078	2544.570295
790.243759	2540.716333
790.566395	2541.780016
790.888984	2541.437218
791.211529	2539.786240
791.534027	2544.948381
791.856480	2541.101981
792.178888	2540.287835
792.501249	2538.077289
792.823566	2544.325799
793.145836	2540.537372
793.468062	2541.812784
793.790241	2541.737166
794.112375	2539.433359
794.434464	2542.271529
794.756507	2542.536189
795.078505	2542.251364
795.400457	2543.070552
795.722364	2539.909748
796.044226	2539.508976
796.366042	2539.894625
796.687812	2538.818338
797.009538	2544.018288
797.331218	2542.205994
797.652852	2542.732794
797.974442	2542.851261
798.295986	2540.794471
798.617484	2541.979142
798.938938	2541.112063
799.260346	2544.066179
799.581709	2541.240613
799.903026	2545.260933
800.224299	2542.392516
800.545526	2544.219935
800.866708	2539.030067
801.187845	2539.990407
801.508936	2540.534851
801.829983	2540.411343
802.150984	2538.210879
802.471940	2541.354039
802.792851	2539.798843
803.113717	2539.198945
803.434538	2538.427649
803.755314	2541.212886
804.076045	2539.186342
804.396731	2542.306817
804.717372	2540.189532
805.037967	2541.243133
805.358518	2540.101312
805.679024	2544.494678
805.999485	2540.166847
806.319901	2539.551826
806.640272	2539.574511
806.960598	2541.659028
807.280879	2537.777340
807.601115	2540.459234
807.921306	2541.235572
808.241453	2541.560726
808.561554	2542.783206
808.881611	2539.360262
809.201623	2541.961498
809.521590	2539.564429
809.841513	2540.607948
810.161390	2539.939995
810.481223	2539.211548
810.801011	2538.248688
811.120755	2539.387989
811.440453	2539.655170
811.760107	2542.939482
812.079716	2537.994110
812.399281	2534.911444
812.718801	2540.181970
813.038276	2534.840868
813.357707	2538.800694
813.677093	2537.651311
813.996434	2542.289173
814.315731	2537.394212
814.634983	2538.485622
814.954191	2540.822197
815.273354	2541.182639
815.592473	2540.353370
815.911547	2539.970242
816.230577	2542.377393
816.549562	2542.069883
816.868502	2541.308668
817.187399	2542.616848
817.506250	2541.467465
817.825058	2541.255736
818.143821	2541.938813
818.462539	2542.137938
818.781213	2542.397557
819.099843	2545.084492
819.418429	2546.589277
819.736970	2548.469627
820.055466	2549.152704
820.373919	2551.602704
820.692327	2557.694939
821.010691	2562.703325
821.329011	2579.966757
821.647286	2613.180399
821.965517	2643.697023
822.283704	2664.892555
822.601847	2671.546878
822.919945	2656.612460
823.237999	2636.957001
823.556010	2615.509412
823.873976	2601.439551
824.191897	2587.863724
824.509775	2579.838207
824.827609	2571.590879
825.145398	2567.245405
825.463144	2564.132492
825.780845	2568.233471
826.098502	2572.077351
826.416116	2576.911817
826.733685	2592.975454
827.051210	2595.831268
827.368692	2587.278950
827.686129	2578.892991
828.003522	2571.583318
828.320872	2560.712069
828.638177	2553.780483
828.955439	2549.873589
829.272656	2547.458876
829.589830	2542.198432
829.906960	2544.734132
830.224046	2542.700027
830.541088	2544.572815
830.858086	2540.572660
831.175041	2541.676673
831.491952	2543.171375
831.808819	2543.398227
832.125642	2543.025181
832.442421	2545.931406
832.759157	2551.413661
833.075849	2556.301060
833.392497	2562.806669
833.709101	2568.341856
834.025662	2567.499983
834.342179	2565.223902
834.658653	2559.532439
834.975083	2556.298539
835.291469	2554.433312
835.607811	2546.097764
835.924110	2546.884184
836.240366	2540.681045
836.556578	2544.635830
836.872746	2541.621220
837.188871	2539.007382
837.504952	2540.555016
837.820990	2537.769778
838.136984	2540.030736
838.452935	2537.847916
838.768842	2540.713812
839.084706	2539.251877
839.400526	2542.387475
839.716303	2545.817980
840.032037	2551.194371
840.347727	2549.676984
840.663373	2548.444422
840.978977	2545.618855
841.294537	2540.794471
841.610054	2540.799512
841.925527	2540.217258
842.240957	2538.914120
842.556344	2536.476722
842.871687	2535.874304
843.186987	2536.370858
843.502244	2537.111908
843.817458	2537.303472
844.132629	2534.798018
844.447756	2539.312371
844.762840	2530.276103
845.077881	2532.892462
845.392879	2531.586803
845.707833	2533.159643
846.022745	2529.895496
846.337613	2534.674510
846.652438	2536.791794
846.967221	2535.675179
847.281960	2533.280631
847.596656	2534.046886
847.911309	2535.831455
848.225919	2537.525282
848.540485	2534.639222
848.855009	2535.339942
849.169490	2533.295754
849.483928	2534.084695
849.798323	2535.702905
850.112675	2534.845909
850.426984	2532.731145
850.741251	2536.096115
851.055474	2534.445137
851.369654	2532.905065
851.683792	2537.631147
851.997887	2535.634850
852.311938	2535.097967
852.625947	2534.848430
852.939914	2531.816176
853.253837	2534.377082
853.567718	2536.358255
853.881555	2536.237268
854.195350	2535.687782
854.509103	2533.530168
854.822812	2532.952956
855.136479	2535.377751
855.450103	2536.171733
855.763685	2532.668131
856.077224	2533.673841
856.390720	2534.908923
856.704173	2533.396577
857.017584	2532.910106
857.330953	2534.992102
857.644278	2535.594520
857.957561	2540.003009
858.270802	2535.748276
858.584000	2534.810621
858.897155	2533.613347
859.210268	2532.433717
859.523339	2535.513862
859.836367	2532.436238
860.149352	2537.242978
860.462295	2537.144675
860.775195	2531.869108
861.088054	2529.640918
861.400869	2533.048738
861.713642	2531.236443
862.026373	2532.955476
862.339062	2534.162833
862.651708	2533.842719
862.964312	2533.623429
863.276873	2532.390867
863.589392	2536.660724
863.901869	2531.382636
864.214303	2534.190559
864.526696	2537.106867
864.839045	2534.666948
865.151353	2536.194418
865.463619	2536.015457
865.775842	2532.975641
866.088023	2536.781712
866.400162	2538.561239
866.712258	2537.487474
867.024313	2535.045035
867.336325	2537.694161
867.648296	2535.405477
867.960224	2535.317257
868.272110	2534.921526
868.583954	2537.653832
868.895755	2536.832124
869.207515	2537.041332
869.519233	2535.891948
869.830909	2535.244160
870.142542	2538.389840
870.454134	2535.831455
870.765684	2537.154757
871.077191	2534.772812
871.388657	2536.302802
871.700081	2533.731814
872.011463	2534.951773
872.322803	2538.813297
872.634101	2535.455889
872.945357	2534.487987
873.256571	2536.940508
873.567744	2535.518903
873.878874	2537.673996
874.189963	2536.567463
874.501010	2537.948739
874.812015	2537.353883
875.122979	2539.561908
875.433900	2537.873122
875.744780	2540.093750
876.055618	2537.452186
876.366415	2538.031918
876.677169	2537.363965
876.987882	2538.324305
877.298554	2534.641742
877.609183	2537.641229
877.919771	2534.356917
878.230317	2537.336239
878.540822	2540.716333
878.851285	2541.117104
879.161707	2542.364790
879.472087	2545.969215
879.782425	2546.750594
880.092722	2555.192006
880.402977	2566.101063
880.713191	2579.800398
881.023363	2600.958121
881.333494	2610.939606
881.643583	2616.058898
881.953631	2613.697117
882.263637	2610.576643
882.573602	2602.326794
882.883526	2596.141299
883.193408	2584.642427
883.503248	2574.998699
883.813048	2569.203893
884.122806	2564.467729
884.432522	2560.765002
884.742197	2554.680329
885.051831	2553.357026
885.361424	2547.557178
885.670975	2545.883515
885.980485	2545.180274
886.289954	2544.199770
886.599382	2542.321940
886.908768	2544.035933
887.218113	2542.110212
887.527417	2541.013761
887.836680	2540.078627
888.145901	2537.618544
888.455082	2541.369162
888.764221	2539.178781
889.073319	2536.643080
889.382376	2538.039480
889.691392	2535.914634
890.000366	2537.270704
890.309300	2539.108205
890.618193	2539.075437
890.927044	2536.532175
891.235855	2538.435211
891.544625	2538.659542
891.853353	2536.774150
892.162041	2538.982176
892.470687	2540.917979
892.779293	2537.263142
893.087858	2542.516025
893.396381	2541.409491
893.704864	2544.189688
894.013306	2546.647250
894.321707	2558.655279
894.630068	2560.376833
894.938387	2565.397822
895.246665	2563.751885
895.554903	2561.236349
895.863100	2556.653941
896.171256	2553.054557
896.479371	2551.033054
896.787446	2548.441901
897.095480	2545.586087
897.403473	2541.623740
897.711425	2542.155582
898.019336	2542.770603
898.327207	2538.914120
898.635038	2538.331867
898.942827	2539.861857
899.250576	2538.130221
899.558284	2538.462937
899.865952	2537.676517
900.173579	2537.008564
900.481165	2539.395550
900.788711	2536.191897
901.096216	2536.809438
901.403681	2537.001002
901.711105	2533.762061
902.018489	2539.849254
902.325832	2539.050231
902.633135	2536.837165
902.940397	2540.676003
903.247619	2540.373534
903.554800	2545.570964
903.861941	2556.926163
904.169041	2563.197358
904.476101	2573.987948
904.783121	2574.030798
905.090100	2570.658266
905.397039	2561.407749
905.703938	2556.742161
906.010796	2553.210833
906.317614	2547.804195
906.624391	2546.934596
906.931129	2540.925541
907.237826	2539.889583
907.544483	2537.568132
907.851099	2539.599717
908.157675	2538.236085
908.464211	2535.619726
908.770707	2531.072605
909.077163	2531.528830
909.383578	2530.976823
909.689954	2534.384643
909.996289	2528.857018
910.302584	2534.215765
910.608839	2532.476567
910.915054	2534.014119
911.221229	2531.995137
911.527363	2535.105528
911.833458	2533.774664
912.139513	2536.146527
912.445527	2535.430683
912.751502	2536.587628
913.057436	2535.077802
913.363331	2535.879346
913.669186	2536.330529
913.975000	2540.534851
914.280775	2540.837320
914.586510	2545.172713
914.892205	2547.184133
915.197859	2550.130688
915.503475	2556.911039
915.809050	2565.138202
916.114585	2566.703481
916.420081	2571.689182
916.725536	2570.832186
917.030952	2566.852195
917.336328	2560.313818
917.641665	2554.972716
917.946961	2555.277706
918.252218	2547.761345
918.557435	2547.020296
918.862612	2543.536858
919.167750	2543.113401
919.472848	2541.870757
919.777906	2539.980324
920.082925	2539.869419
920.387904	2539.879501
920.692843	2536.958153
920.997743	2538.268852
921.302603	2536.138965
921.607423	2534.722401
921.912204	2534.911444
922.216946	2532.799201
922.521647	2539.836651
922.826310	2536.937988
923.130932	2537.573173
923.435516	2533.479756
923.740059	2532.678213
924.044564	2533.878008
924.349028	2531.521268
924.653454	2527.115300
924.957840	2532.615198
925.262186	2529.497245
925.566493	2532.302647
925.870761	2527.422810
926.174989	2529.240146
926.479178	2530.429858
926.783328	2530.903727
927.087438	2530.946577
927.391509	2532.612678
927.695541	2533.010929
927.999533	2531.551515
928.303486	2532.053110
928.607400	2529.802235
928.911275	2530.676875
929.215110	2530.323994
929.518906	2533.240302
929.822663	2530.502955
930.126381	2532.403470
930.430060	2530.482790
930.733699	2530.119827
931.037299	2528.912471
931.340861	2530.732327
931.644383	2531.065044
931.947866	2530.520599
932.251309	2528.788963
932.554714	2531.042358
932.858080	2531.178470
933.161407	2532.103521
933.464694	2532.965559
933.767943	2526.417100
934.071153	2529.892975
934.374323	2530.195445
934.677455	2531.732997
934.980548	2528.426000
935.283602	2530.717204
935.586617	2533.610826
935.889593	2532.398429
936.192530	2527.291740
936.495428	2529.829961
936.798287	2529.058664
937.101108	2531.531350
937.403890	2529.943387
937.706632	2532.405991
938.009336	2530.273582
938.312002	2532.365661
938.614628	2531.329704
938.917216	2533.192411
939.219765	2532.779036
939.522275	2532.239633
939.824747	2534.845909
940.127179	2527.954652
940.429573	2529.472039
940.731929	2531.473377
941.034246	2528.811648
941.336524	2531.236443
941.638763	2530.250897
941.940964	2532.295085
942.243126	2531.710311
942.545250	2530.361803
942.847335	2531.967410
943.149381	2531.405322
943.451389	2532.264838
943.753359	2530.034128
944.055290	2534.014119
944.357182	2530.694519
944.659036	2531.609488
944.960851	2530.283665
945.262628	2530.273583
945.564367	2529.681247
945.866067	2528.864580
946.167729	2531.957328
946.469352	2530.452543
946.770937	2533.094108
947.072484	2532.786598
947.373992	2527.871473
947.675462	2528.436082
947.976893	2527.750485
948.278286	2529.451874
948.579641	2531.218799
948.880958	2529.469518
949.182236	2529.656041
949.483476	2529.792152
949.784678	2531.770805
950.085841	2530.490352
950.386967	2530.046731
950.688054	2529.088911
950.989103	2530.026566
951.290114	2532.355579
951.591087	2530.150074
951.892021	2533.439427
952.192917	2531.664941
952.493776	2533.081505
952.794596	2534.450178
953.095378	2529.756864
953.396122	2533.391536
953.696828	2531.705270
953.997496	2531.233922
954.298126	2531.153264
954.598718	2531.788449
954.899272	2529.996319
955.199788	2527.896678
955.500266	2529.837523
955.800706	2526.522964
956.101108	2525.789476
956.401472	2527.062368
956.701798	2525.131606
957.002087	2526.533046
957.302337	2529.706453
957.602550	2527.805938
957.902724	2528.158818
958.202861	2530.641587
958.502960	2526.701925
958.803022	2529.676206
959.103045	2527.511030
959.403031	2527.969775
959.702979	2526.467511
960.002889	2527.964734
960.302762	2526.643952
960.602596	2528.138654
960.902393	2527.992460
961.202153	2526.185207
961.501875	2527.087573
961.801559	2526.258303
962.101205	2526.601102
962.400814	2528.400794
962.700385	2527.790814
962.999918	2530.112266
963.299414	2529.550177
963.598873	2528.967924
963.898293	2526.775022
964.197677	2526.840557
964.497022	2526.795186
964.796331	2524.410721
965.095601	2530.311391
965.394835	2526.616225
965.694030	2527.634538
965.993189	2527.737882
966.292309	2527.687471
966.591393	2525.340813
966.890439	2526.016328
967.189447	2529.497245
967.488419	2525.393746
967.787353	2529.262831
968.086249	2528.161339
968.385108	2524.206554
968.683930	2527.188396
968.982714	2526.896009
969.281462	2527.533715
969.580172	2528.862059
969.878844	2528.249559
970.177480	2527.657224
970.476078	2528.799045
970.774639	2527.143026
971.073162	2526.696884
971.371649	2522.633714
971.670098	2525.388704
971.968510	2523.997346
972.266885	2520.821419
972.565223	2526.346524
972.863524	2530.404653
973.161788	2524.619928
973.460014	2527.889117
973.758204	2527.816020
974.056356	2526.906092
974.354471	2526.948942
974.652550	2527.236287
974.950591	2527.435413
975.248595	2528.085722
975.546563	2527.387522
975.844493	2526.575896
976.142386	2527.901720
976.440243	2526.225536
976.738062	2527.243849
977.035845	2526.200330
977.333590	2526.684281
977.631299	2527.198479
977.928971	2524.398118
978.226606	2527.362316
978.524204	2528.201668
978.821765	2525.136647
979.119290	2524.982892
979.416777	2525.093797
979.714228	2525.040865
980.011642	2527.342152
980.309020	2528.292409
980.606360	2528.267203
980.903664	2526.185207
981.200931	2527.755526
981.498162	2526.898530
981.795356	2525.388704
982.092513	2529.666123
982.389633	2525.943231
982.686717	2528.312574
982.983764	2527.692512
983.280775	2531.120496
983.577749	2527.405166
983.874686	2530.331556
984.171587	2528.315094
984.468451	2526.870804
984.765279	2525.781914
985.062070	2525.865093
985.358824	2529.502286
985.655543	2527.145547
985.952224	2527.858870
986.248869	2525.053468
986.545478	2523.097500
986.842050	2525.736544
987.138586	2521.015503
987.435086	2522.444671
987.731549	2523.634383
988.027975	2528.322656
988.324366	2524.529188
988.620719	2529.585465
988.917037	2526.961544
989.213318	2525.814682
989.509563	2527.279137
989.805772	2526.873324
990.101944	2526.298633
990.398080	2527.344672
990.694180	2529.083870
990.990244	2525.325690
991.286271	2527.642100
991.582262	2528.904909
991.878217	2526.273427
992.174136	2523.770494
992.470019	2525.615556
992.765865	2527.379960
993.061676	2526.671678
993.357450	2530.286185
993.653188	2525.189579
993.948890	2524.531708
994.244556	2526.288550
994.540186	2525.701256
994.835780	2527.415248
995.131337	2528.383150
995.426859	2526.868283
995.722345	2527.619415
996.017795	2525.620597
996.313208	2526.941380
996.608586	2525.935670
996.903928	2525.794517
997.199234	2526.790145
997.494504	2527.523633
997.789738	2526.737213
998.084936	2526.830474
998.380099	2525.562624
998.675225	2529.010773
998.970316	2525.550021
999.265371	2528.085722
999.560390	2527.435413
999.855373	2527.637059
1000.150320	2526.270906
1000.445232	2527.032121
1000.740108	2528.032790
1001.034948	2523.710000
1001.329752	2526.409538
1001.624521	2529.572862
1001.919254	2521.416275
1002.213951	2523.699918
1002.508613	2523.435257
1002.803239	2525.499610
1003.097829	2525.804600
1003.392384	2525.343334
1003.686903	2524.156142
1003.981386	2528.894827
1004.275834	2525.945752
1004.570246	2525.532377
1004.864623	2524.871986
1005.158964	2526.404497
1005.453270	2525.784435
1005.747540	2527.606812
1006.041775	2525.958355
1006.335974	2528.773839
1006.630138	2524.191430
1006.924266	2527.508510
1007.218359	2521.819567
1007.512416	2524.685463
1007.806438	2527.521112
1008.100425	2525.827285
1008.394376	2525.113962
1008.688292	2527.758047
1008.982172	2526.850639
1009.276017	2525.043385
1009.569827	2525.610515
1009.863602	2524.577079
1010.157341	2528.015146
1010.451045	2527.866432
1010.744714	2525.474404
1011.038347	2526.288550
1011.331945	2524.877027
1011.625508	2527.745444
1011.919036	2525.698735
1012.212528	2526.921215
1012.505986	2523.725124
1012.799408	2527.579086
1013.092795	2525.182017
1013.386147	2525.358458
1013.679464	2524.274609
1013.972745	2526.757378
1014.265992	2528.105886
1014.559204	2526.293592
1014.852380	2523.984743
1015.145521	2527.125382
1015.438628	2525.492048
1015.731699	2527.785773
1016.024736	2526.641431
1016.317737	2526.056657
1016.610703	2525.892820
1016.903635	2522.006090
1017.196531	2520.733199
1017.489393	2521.814526
1017.782219	2521.388549
1018.075011	2523.301667
1018.367768	2526.434744
1018.660490	2525.030782
1018.953177	2525.030782
1019.245829	2525.030782
