Dividing Wavelength (nm)	Counts (n)	Blue Motor Position (mm): 0.000000	Red Motor Position (mm): 31.200000	
326.493990	2124.319546
326.888308	2124.319546
327.282561	2124.319546
327.676750	2094.317118
328.070874	2094.755699
328.464933	2096.784763
328.858929	2102.511514
329.252859	2112.024171
329.646726	2122.459360
330.040528	2137.154323
330.434265	2154.107724
330.827938	2168.061638
331.221547	2189.138702
331.615091	2206.132431
332.008571	2227.131358
332.401986	2245.448390
332.795338	2267.745414
333.188625	2284.285439
333.581847	2306.428708
333.975006	2322.928404
334.368100	2341.331136
334.761129	2356.242869
335.154095	2375.595859
335.546996	2393.706204
335.939833	2408.653225
336.332606	2426.551842
336.725315	2437.786053
337.117960	2449.642847
337.510540	2457.141564
337.903056	2468.166567
338.295508	2476.890284
338.687896	2483.897488
339.080220	2492.850577
339.472480	2495.411483
339.864676	2504.546054
340.256807	2508.316837
340.648875	2509.100736
341.040879	2513.035357
341.432818	2513.710872
341.824694	2514.837569
342.216506	2517.171624
342.608253	2513.733557
342.999937	2513.347908
343.391557	2515.079545
343.783113	2516.339833
344.174605	2515.714730
344.566033	2512.387569
344.957397	2512.722805
345.348697	2508.367248
345.739934	2508.705006
346.131106	2507.883298
346.522215	2505.708040
346.913260	2503.799963
347.304241	2503.666372
347.695159	2498.811741
348.086012	2498.421052
348.476802	2495.960969
348.867528	2492.946359
349.258191	2492.419558
349.648789	2493.944507
350.039324	2491.071050
350.429796	2490.335041
350.820203	2488.603405
351.210548	2489.021821
351.600828	2486.939824
351.991045	2487.643065
352.381198	2485.989567
352.771288	2484.489823
353.161314	2486.418065
353.551276	2486.309680
353.941175	2484.096613
354.331010	2488.260606
354.720782	2484.280615
355.110490	2485.916470
355.500135	2486.644917
355.889717	2485.296408
356.279235	2485.561068
356.668689	2485.344299
357.058080	2488.769763
357.447408	2483.592498
357.836672	2485.069556
358.225873	2484.850266
358.615010	2481.513022
359.004084	2489.460401
359.393095	2491.098776
359.782043	2490.549290
360.170927	2490.100628
360.559748	2487.701038
360.948505	2493.019456
361.337199	2491.045844
361.725830	2494.720845
362.114398	2494.526761
362.502903	2493.551297
362.891344	2496.825527
363.279722	2496.170177
363.668037	2494.856956
364.056289	2495.902996
364.444478	2496.447440
364.832603	2496.013901
365.220665	2499.252842
365.608665	2497.417862
365.996601	2501.095384
366.384474	2499.320898
366.772284	2502.411125
367.160031	2506.625530
367.547715	2506.159223
367.935336	2508.762979
368.322893	2510.981087
368.710388	2511.689369
369.097820	2521.882582
369.485189	2523.319311
369.872495	2532.063192
370.259738	2539.095602
370.646918	2545.742363
371.034035	2551.121274
371.421090	2560.031514
371.808081	2573.327557
372.195010	2582.462128
372.581875	2592.559559
372.968678	2609.124790
373.355418	2617.253651
373.742096	2635.981537
374.128710	2651.997283
374.515262	2665.152174
374.901751	2680.192457
375.288177	2692.225691
375.674540	2718.134701
376.060841	2736.320664
376.447079	2753.579054
376.833254	2776.294493
377.219367	2787.253962
377.605417	2826.138902
377.991404	2834.602999
378.377329	2856.703417
378.763191	2875.244781
379.148991	2909.542272
379.534727	2934.327104
379.920402	2965.383133
380.306013	2975.828403
380.691563	3026.562576
381.077049	3048.620144
381.462474	3065.520613
381.847835	3103.241046
382.233134	3127.373050
382.618371	3126.455560
383.003545	3198.357537
383.388657	3203.275183
383.773706	3233.844740
384.158693	3253.958943
384.543618	3278.080865
384.928480	3312.161585
385.313280	3360.261755
385.698017	3359.745036
386.082692	3412.944333
386.467305	3417.506577
386.851856	3448.333233
387.236344	3468.696974
387.620770	3504.532016
388.005133	3532.512940
388.389435	3554.983884
388.773674	3570.835792
389.157851	3606.716204
389.541965	3625.161786
389.926018	3592.537959
390.310008	3662.688136
390.693936	3679.618851
391.077802	3723.151735
391.461606	3711.025239
391.845348	3775.368006
392.229027	3771.914816
392.612645	3785.465438
392.996200	3864.029300
393.379694	3902.541194
393.763125	3969.228098
394.146494	3933.947583
394.529801	3996.909074
394.913047	4043.103687
395.296230	4011.619161
395.679351	4069.564704
396.062410	4091.067745
396.445408	4074.106783
396.828343	4104.061319
397.211217	4125.380359
397.594028	4049.208524
397.976778	4116.086992
398.359466	4143.657062
398.742092	4172.290816
399.124656	4095.274588
399.507158	4172.817617
399.889598	4195.190258
400.271977	4261.304990
400.654294	4229.603694
401.036549	4240.338831
401.418742	4209.618040
401.800874	4310.630160
402.182944	4330.469621
402.564952	4400.319849
402.946898	4385.846696
403.328783	4378.557188
403.710606	4294.294301
404.092367	4486.160616
404.474067	4445.397846
404.855705	4457.113488
405.237282	4389.650247
405.618797	4497.256196
406.000250	4532.466135
406.381642	4611.302219
406.762972	4572.258483
407.144240	4583.883384
407.525447	4583.651491
407.906593	4643.560563
408.287677	4690.050084
408.668700	4614.591572
409.049661	4666.457484
409.430560	4705.660017
409.811399	4631.832318
410.192176	4799.107885
410.572891	4736.411055
410.953545	4839.860573
411.334138	4719.223241
411.714669	4783.132469
412.095139	4681.850647
412.475547	4822.443387
412.855894	4804.905212
413.236180	4813.092046
413.616405	4767.527577
413.996568	4853.789281
414.376670	4795.591681
414.756711	4746.889093
415.136691	4778.252632
415.516609	4859.251371
415.896466	4894.310076
416.276262	4930.903812
416.655997	4911.933950
417.035670	5093.513791
417.415283	5187.231361
417.794834	5131.408144
418.174324	5082.098098
418.553753	4987.957070
418.933121	5177.002860
419.312428	5243.016770
419.691674	5179.294064
420.070859	5308.521523
420.449983	5220.482812
420.829045	5333.588660
421.208047	5240.460905
421.586988	5317.293130
421.965867	5322.951826
422.344686	5454.407474
422.723444	5309.527233
423.102141	5130.256240
423.480777	5427.114667
423.859352	5193.704203
424.237866	5456.476867
424.616319	5448.111073
424.994712	5555.414553
425.373044	5435.112458
425.751314	5577.532615
426.129524	5383.677565
426.507673	5574.036575
426.885762	5656.968597
427.263789	5591.599955
427.641756	5470.251820
428.019662	5592.398978
428.397508	5596.482313
428.775292	5547.250404
429.153016	5644.776567
429.530679	5575.702677
429.908282	5652.464326
430.285824	5528.204925
430.663305	5805.206247
431.040726	5535.436460
431.418086	5538.012490
431.795385	5641.459487
432.172624	5653.706971
432.549802	5644.446371
432.926920	5658.619575
433.303977	5671.804713
433.680974	5710.820723
434.057910	5724.089040
434.434786	5731.610442
434.811601	5702.825453
435.188355	5938.401093
435.565050	5807.358819
435.941683	5791.290141
436.318257	6005.519015
436.694770	5985.833309
437.071222	6024.879567
437.447614	5953.522034
437.823946	5868.034147
438.200218	6021.194483
438.576429	5890.290841
438.952580	5984.585624
439.328670	6025.935688
439.704700	5939.742040
440.080670	5925.296613
440.456580	6196.198139
440.832429	6076.687505
441.208218	5919.000212
441.583947	6077.534418
441.959616	6081.363175
442.335224	6009.115878
442.710773	6143.555890
443.086261	6173.432288
443.461689	5969.126926
443.837057	6117.737620
444.212365	6272.024654
444.587612	6164.983314
444.962800	6313.457898
445.337927	6298.268901
445.712995	5910.185755
446.088002	6484.947869
446.462949	6313.520912
446.837837	6242.884265
447.212664	6418.013949
447.587431	6562.213634
447.962139	7098.940243
448.336786	8027.130092
448.711374	7775.609283
449.085901	6843.348702
449.460369	6766.418174
449.834776	6699.693462
450.209124	7091.771722
450.583412	7240.236224
450.957640	7384.582103
451.331808	7152.280692
451.705917	6705.079934
452.079965	6626.372399
452.453954	6844.563620
452.827883	6720.218519
453.201752	6810.329144
453.575562	6605.665860
453.949311	6809.850235
454.323001	6693.044180
454.696632	6777.112982
455.070202	6912.800679
455.443713	7069.963691
455.817164	7167.469689
456.190556	7252.599654
456.563888	7328.678227
456.937160	7372.405195
457.310373	7028.895931
457.683526	7046.832357
458.056619	6940.471572
458.429653	6927.740138
458.802628	6864.791250
459.175542	6979.822819
459.548398	7325.930798
459.921194	7492.765264
460.293930	7491.683937
460.666607	8022.139350
461.039224	8332.775250
461.411782	8452.764794
461.784280	8470.698699
462.156719	8367.352524
462.529099	8243.377948
462.901419	7832.876791
463.273680	7724.640697
463.645882	7738.576967
464.018024	7600.381296
464.390106	7767.908920
464.762130	8160.415679
465.134094	8626.551011
465.505999	9642.192276
465.877845	10858.085817
466.249631	11514.103769
466.621358	11133.766356
466.993026	10504.176652
467.364634	10240.710828
467.736184	9882.516683
468.107674	9543.884735
468.479105	9579.419829
468.850477	9339.498714
469.221790	9116.319272
469.593043	8782.415926
469.964238	8647.244947
470.335373	8656.165269
470.706449	8711.423877
471.077467	8692.259931
471.448425	9996.103962
471.819324	11052.845754
472.190164	11084.567215
472.560945	9837.443727
472.931667	9042.005102
473.302330	8896.383812
473.672934	8546.885657
474.043479	8892.849963
474.413965	8837.540943
474.784393	8717.226245
475.154761	8858.396197
475.525070	8943.175802
475.895321	8767.292465
476.265513	8932.554091
476.635645	9095.343031
477.005719	9085.621165
477.375734	9191.666878
477.745691	9415.053007
478.115588	9536.428869
478.485427	9762.030586
478.855207	10273.894224
479.224928	11049.848788
479.594591	11649.365489
479.964194	11456.100253
480.333739	11387.288503
480.703226	11286.629264
481.072653	11352.764161
481.442022	11556.446941
481.811333	11725.544885
482.180584	11517.299861
482.549777	11211.488345
482.918912	11027.645026
483.287988	11022.137566
483.657005	11010.164825
484.025964	10685.353201
484.394864	10797.377721
484.763706	10730.216949
485.132489	10489.668211
485.501213	10417.622561
485.869879	10471.227670
486.238487	10284.939392
486.607036	10370.139933
486.975527	10123.917376
487.343959	10273.659810
487.712333	10279.384040
488.080648	10187.425832
488.448905	10182.798053
488.817104	10095.293705
489.185244	10305.603081
489.553326	10397.710003
489.921350	10817.199538
490.289315	11663.674804
490.657222	11920.904720
491.025070	11784.849019
491.392861	11629.200873
491.760593	11276.511668
492.128267	10935.545666
492.495883	10609.365368
492.863440	10274.383216
493.230939	9933.636504
493.598380	9828.208333
493.965763	9657.025872
494.333088	9535.869301
494.700354	9404.811903
495.067563	9404.857274
495.434713	9207.322181
495.801805	9255.674408
496.168839	9138.356676
496.535815	9027.300057
496.902733	8972.369124
497.269593	8850.393365
497.636395	8881.482161
498.003139	8803.429976
498.369825	8647.882653
498.736453	8688.191720
499.103023	8580.492509
499.469535	8531.192545
499.835989	8465.113100
500.202385	8367.846557
500.568723	8203.056279
500.935003	8297.232595
501.301226	8067.832368
501.667390	8192.348868
502.033497	8186.554062
502.399546	8023.923918
502.765537	7892.506079
503.131470	7869.886422
503.497345	7904.272132
503.863163	7594.442817
504.228923	7712.607463
504.594625	7683.678801
504.960269	7454.946528
505.325856	7514.195209
505.691385	7311.641647
506.056856	7331.375244
506.422270	7269.618589
506.787625	7147.249621
507.152924	7124.181301
507.518164	7055.646814
507.883347	6935.082579
508.248472	6831.570046
508.613540	6872.789041
508.978550	6737.224852
509.343503	6654.333159
509.708398	6643.015769
510.073236	6620.391070
510.438016	6552.325411
510.802738	6452.772705
511.167403	6405.761425
511.532010	6280.531602
511.896561	6320.255894
512.261053	6280.027486
512.625488	6144.019676
512.989866	6061.022119
513.354186	5985.460264
513.718449	5873.281988
514.082655	5887.480398
514.446803	5777.142143
514.810894	5748.941928
515.174927	5631.087313
515.538904	5582.548563
515.902822	5559.258433
516.266684	5456.900324
516.630488	5365.874730
516.994235	5328.366025
517.357925	5270.208753
517.721558	5235.996963
518.085133	5172.390204
518.448651	5123.939675
518.812112	5020.722050
519.175516	4954.574549
519.538863	4932.113688
519.902152	4857.126525
520.265385	4825.747863
520.628560	4758.544241
520.991678	4686.022202
521.354739	4645.687930
521.717743	4580.727621
522.080690	4519.722098
522.443580	4490.148169
522.806413	4423.980504
523.169189	4381.695306
523.531908	4345.303216
523.894569	4256.851131
524.257174	4202.452040
524.619722	4172.739479
524.982213	4127.356491
525.344647	4079.566353
525.707025	4031.554404
526.069345	3999.331348
526.431608	3938.870270
526.793815	3912.820107
527.155964	3836.728931
527.518057	3810.991320
527.880093	3763.730503
528.242072	3732.742530
528.603995	3678.663552
528.965860	3635.486069
529.327669	3605.634877
529.689421	3566.898651
530.051117	3525.624204
530.412755	3499.851305
530.774337	3463.562559
531.135862	3425.932866
531.497331	3399.706263
531.858743	3354.368646
532.220098	3342.935309
532.581396	3301.134061
532.942638	3276.611368
533.303824	3251.173706
533.664953	3222.968450
534.026025	3194.851415
534.387040	3177.804753
534.747999	3156.155518
535.108902	3133.918988
535.469748	3098.096549
535.830537	3082.295052
536.191270	3061.480128
536.551947	3042.737118
536.912567	3024.498223
537.273131	3007.592714
537.633638	2988.096051
537.994089	2970.550315
538.354483	2953.828808
538.714821	2942.841613
539.075103	2929.411979
539.435328	2913.769279
539.795497	2894.169273
540.155609	2888.455125
540.515665	2878.289638
540.875665	2855.301977
541.235609	2844.846624
541.595496	2836.614419
541.955328	2828.180569
542.315102	2814.229176
542.674821	2803.216775
543.034483	2793.182358
543.394090	2786.843107
543.753640	2774.673762
544.113134	2771.931374
544.472571	2762.166659
544.831953	2758.065681
545.191278	2744.512539
545.550548	2738.163205
545.909761	2737.933833
546.268918	2726.971844
546.628019	2728.620301
546.987064	2719.599156
547.346053	2711.074565
547.704986	2707.608772
548.063863	2704.697506
548.422684	2699.406815
548.781449	2697.198789
549.140158	2693.390197
549.498811	2687.454239
549.857408	2681.223373
550.215949	2677.394616
550.574434	2670.173163
550.932864	2671.526713
551.291237	2669.429593
551.649555	2668.267607
552.007817	2669.308606
552.366022	2666.982113
552.724173	2664.030517
553.082267	2661.381391
553.440305	2658.702018
553.798288	2657.960968
554.156215	2656.453663
554.514086	2654.772438
554.871902	2649.781696
555.229661	2650.434526
555.587365	2646.474699
555.945014	2644.246509
556.302606	2645.348001
556.660143	2642.658546
557.017625	2644.468320
557.375050	2642.366159
557.732421	2642.764410
558.089735	2639.643936
558.446994	2639.205355
558.804197	2641.320119
559.161345	2638.081178
559.518437	2634.325518
559.875474	2635.303502
560.232455	2638.592855
560.589381	2634.207051
560.946251	2634.509521
561.303065	2632.089767
561.659825	2631.184880
562.016528	2628.409724
562.373177	2628.959210
562.729770	2630.239663
563.086307	2627.560290
563.442789	2626.461318
563.799216	2628.240846
564.155587	2627.156998
564.511904	2626.788993
564.868164	2624.404528
565.224370	2626.126082
565.580520	2622.025103
565.936615	2624.762450
566.292654	2619.822119
566.648638	2621.145422
567.004567	2619.615432
567.360441	2620.981584
567.716260	2618.589557
568.072023	2617.551079
568.427732	2614.097889
568.783385	2614.425564
569.138982	2616.636110
569.494525	2614.627210
569.850013	2612.285594
570.205445	2616.147118
570.560823	2615.842128
570.916145	2614.798609
571.271412	2612.414143
571.626625	2613.992024
571.981782	2613.545882
572.336884	2614.977570
572.691931	2615.027982
573.046923	2614.591922
573.401860	2610.979935
573.756743	2610.521190
574.111570	2611.395830
574.466342	2609.828031
574.821059	2610.430449
575.175722	2609.880963
575.530330	2609.613782
575.884882	2609.651591
576.239380	2608.008175
576.593823	2609.341560
576.948211	2608.875253
577.302544	2609.200408
577.656823	2606.228647
578.011047	2608.469440
578.365216	2606.669748
578.719330	2605.966507
579.073389	2605.512804
579.427394	2607.153699
579.781344	2606.122783
580.135239	2607.892228
580.489080	2603.995416
580.842866	2603.496342
581.196597	2604.053390
581.550273	2603.579521
581.903895	2606.473143
582.257463	2606.647063
582.610975	2602.334356
582.964434	2603.551795
583.317837	2603.889552
583.671186	2601.797473
584.024481	2604.585231
584.377721	2603.292175
584.730906	2601.724377
585.084037	2602.135231
585.437113	2605.820314
585.790135	2602.740169
586.143103	2598.477873
586.496016	2602.510797
586.848874	2598.485435
587.201679	2598.946701
587.554428	2596.859663
587.907124	2602.248657
588.259765	2596.831937
588.612352	2601.079109
588.964884	2596.625249
589.317362	2598.989551
589.669786	2596.700867
590.022155	2598.727411
590.374470	2597.575507
590.726731	2601.540374
591.078937	2599.455857
591.431090	2598.535847
591.783188	2597.898141
592.135232	2600.244798
592.487222	2600.073399
592.839157	2595.831268
593.191038	2599.014756
593.542866	2594.608788
593.894639	2595.183479
594.246358	2599.191197
594.598022	2595.503593
594.949633	2597.898141
595.301190	2595.836309
595.652692	2595.909406
596.004141	2595.561566
596.355535	2597.424272
596.706876	2589.920515
597.058162	2591.127871
597.409395	2593.030907
597.760573	2596.466453
598.111698	2592.647779
598.462768	2594.843202
598.813785	2594.538212
599.164748	2593.852615
599.515657	2592.168869
599.866511	2592.007552
600.217312	2595.412852
600.568060	2592.065526
600.918753	2595.730445
601.269392	2594.429827
601.619978	2594.180290
601.970510	2592.005032
602.320988	2592.451174
602.671412	2591.558890
603.021783	2590.424630
603.372100	2594.487800
603.722363	2594.064343
604.072572	2593.209868
604.422728	2594.752461
604.772830	2586.784917
605.122878	2587.042016
605.472872	2591.221132
605.822813	2587.435226
606.172701	2588.201481
606.522534	2590.066708
606.872314	2589.610484
607.222041	2592.264651
607.571714	2590.573344
607.921333	2591.715166
608.270899	2590.938828
608.620411	2592.385639
608.969870	2592.559559
609.319276	2591.654672
609.668627	2597.822523
610.017926	2597.109200
610.367171	2599.390322
610.716362	2599.382761
611.065500	2598.780343
611.414585	2596.849581
611.763616	2596.474015
612.112594	2595.667430
612.461518	2597.933429
612.810389	2595.914447
613.159207	2592.849425
613.507971	2593.527460
613.856682	2593.351020
614.205340	2593.179621
614.553945	2596.282451
614.902496	2593.981164
615.250994	2593.131730
615.599439	2592.778849
615.947830	2593.426637
616.296169	2593.630804
616.644454	2593.797162
616.992686	2591.994950
617.340864	2594.286154
617.688990	2592.678026
618.037063	2596.579879
618.385082	2592.279775
618.733048	2596.373192
619.080961	2592.998139
619.428821	2594.626432
619.776628	2591.528643
620.124382	2591.082501
620.472083	2593.502255
620.819731	2593.507296
621.167326	2591.344641
621.514868	2591.987388
621.862357	2590.485124
622.209793	2592.037799
622.557176	2592.362954
622.904506	2587.248703
623.251783	2586.540421
623.599007	2583.954309
623.946179	2584.498754
624.293297	2584.649988
624.640363	2590.850608
624.987376	2589.020669
625.334336	2587.130236
625.681243	2586.890781
626.028097	2587.447829
626.374899	2586.812643
626.721647	2583.230904
627.068343	2585.201995
627.414987	2586.399269
627.761577	2583.863568
628.108115	2585.340627
628.454600	2584.526480
628.801032	2585.733837
629.147412	2588.256934
629.493739	2588.347675
629.840014	2585.428847
630.186236	2585.943044
630.532405	2584.392890
630.878521	2584.445822
631.224585	2582.164700
631.570597	2585.635534
631.916556	2583.626634
632.262462	2582.719227
632.608316	2582.139494
632.954117	2578.671180
633.299866	2582.464648
633.645562	2584.539083
633.991206	2584.362643
634.336797	2581.085893
634.682336	2582.429360
635.027823	2580.879205
635.373257	2580.816191
635.718639	2576.258988
636.063968	2578.346026
636.409245	2574.718915
636.754470	2577.867116
637.099642	2577.350398
637.444762	2578.189750
637.789829	2576.634554
638.134845	2576.112794
638.479808	2577.002558
638.824719	2577.942733
639.169577	2576.324523
639.514383	2577.872157
639.859137	2576.765624
640.203839	2576.828638
640.548489	2576.669842
640.893086	2576.077506
641.237632	2570.398647
641.582125	2574.194635
641.926566	2572.014336
642.270955	2572.246229
642.615292	2577.108422
642.959576	2573.793864
643.303809	2577.935172
643.647990	2576.450552
643.992118	2575.563309
644.336195	2577.738567
644.680219	2574.171950
645.024192	2575.613720
645.368112	2577.060531
645.711981	2573.617423
646.055797	2575.896025
646.399562	2578.088927
646.743274	2576.700089
647.086935	2576.148082
647.430544	2578.371231
647.774101	2579.376942
648.117606	2575.497774
648.461059	2578.542631
648.804460	2578.925758
649.147810	2576.654718
649.491108	2576.120356
649.834354	2577.055490
650.177548	2577.335274
650.520690	2570.963256
650.863781	2574.424008
651.206820	2577.519276
651.549807	2574.441652
651.892742	2572.672207
652.235626	2571.769840
652.578458	2571.779923
652.921238	2571.414439
653.263967	2574.078689
653.606644	2571.880746
653.949269	2571.910993
654.291843	2571.883266
654.634365	2574.053483
654.976836	2572.163050
655.319255	2573.292269
655.661622	2572.712536
656.003938	2570.403688
656.346203	2572.926785
656.688416	2569.508883
657.030577	2570.824624
657.372687	2572.263873
657.714746	2570.297823
658.056753	2571.593400
658.398708	2563.920764
658.740612	2567.734397
659.082465	2565.599468
659.424266	2568.062072
659.766016	2566.489232
660.107715	2570.287741
660.449362	2569.594582
660.790958	2571.200190
661.132503	2570.998544
661.473996	2571.550550
661.815438	2570.607854
662.156829	2570.706157
662.498168	2571.729511
662.839456	2571.041394
663.180693	2568.815724
663.521879	2570.312947
663.863013	2573.819069
664.204097	2572.357135
664.545129	2571.742114
664.886110	2574.096333
665.227040	2572.548699
665.567918	2571.227916
665.908746	2571.931157
666.249522	2573.067937
666.590248	2572.158009
666.930922	2570.466702
667.271545	2571.588359
667.612118	2573.458627
667.952639	2572.662125
668.293109	2573.627506
668.633528	2572.233627
668.973896	2569.702967
669.314213	2572.170612
669.654480	2571.880746
669.994695	2569.922257
670.334859	2571.124573
670.674973	2569.975190
671.015035	2570.650704
671.355047	2570.076013
671.695008	2569.952504
672.034918	2570.829665
672.374777	2571.139696
672.714585	2569.884449
673.054342	2573.498956
673.394049	2571.313616
673.733705	2569.581980
674.073310	2572.064748
674.412864	2570.461661
674.752368	2571.303534
675.091820	2573.115828
675.431223	2570.088616
675.770574	2569.458471
676.109875	2562.650393
676.449125	2566.743810
676.788324	2564.238357
677.127473	2565.715415
677.466571	2562.915054
677.805619	2567.018553
678.144616	2568.457802
678.483562	2566.171639
678.822458	2570.600293
679.161303	2567.552915
679.500098	2568.969479
679.838842	2567.278172
680.177535	2568.248594
680.516179	2569.337484
680.854771	2568.193142
681.193314	2568.407391
681.531805	2570.577608
681.870247	2571.331260
682.208638	2573.415777
682.546978	2570.789336
682.885268	2570.237330
683.223508	2570.111301
683.561697	2570.065930
683.899836	2572.437793
684.237925	2572.493246
684.575963	2569.269428
684.913951	2571.666497
685.251889	2570.799418
685.589776	2570.741445
685.927614	2570.544840
686.265401	2570.512073
686.603137	2569.871846
686.940824	2570.554922
687.278460	2572.818400
687.616046	2572.359655
687.953582	2572.193297
688.291068	2573.582135
688.628504	2573.057855
688.965889	2572.455437
689.303224	2574.076168
689.640510	2574.555078
689.977745	2569.501321
690.314930	2570.534758
690.652065	2569.403019
690.989150	2569.211455
691.326185	2568.011660
691.663170	2563.978737
692.000105	2569.516445
692.336990	2564.974365
692.673825	2566.093501
693.010610	2567.873028
693.347345	2563.721638
693.684030	2555.401214
694.020665	2561.301884
694.357251	2557.422717
694.693786	2563.162070
695.030272	2561.125444
695.366707	2561.516133
695.703093	2560.238201
696.039429	2559.890361
696.375716	2561.178376
696.711952	2561.531257
697.048139	2561.148129
697.384276	2561.773232
697.720363	2561.896741
698.056400	2562.080743
698.392388	2560.031514
698.728326	2560.722152
699.064214	2561.521175
699.400053	2558.796431
699.735842	2558.282233
700.071581	2559.794579
700.407270	2558.642676
700.742910	2559.834909
701.078501	2556.832902
701.414042	2555.620504
701.749533	2559.119065
702.084974	2560.384394
702.420366	2560.865825
702.755709	2559.323232
703.091002	2558.108313
703.426246	2554.745864
703.761440	2557.165618
704.096584	2557.042109
704.431679	2557.319373
704.766725	2556.822819
705.101721	2554.592109
705.436668	2557.014383
705.771565	2558.897254
706.106413	2558.047820
706.441212	2556.807696
706.775961	2558.012532
707.110661	2561.299364
707.445311	2555.670916
707.779913	2557.158056
708.114465	2558.214178
708.448967	2558.746019
708.783421	2558.110834
709.117825	2557.664692
709.452180	2560.686864
709.786485	2558.836760
710.120742	2559.718962
710.454949	2561.659806
710.789107	2560.281051
711.123216	2557.135371
711.457275	2557.389949
711.791286	2555.665874
712.125247	2559.605536
712.459159	2561.904302
712.793023	2567.184911
713.126837	2560.938921
713.460602	2562.849519
713.794318	2561.813562
714.127985	2562.073181
714.461602	2560.492779
714.795171	2562.668037
715.128691	2559.461863
715.462162	2560.265927
715.795584	2556.283416
716.128957	2557.871379
716.462281	2556.434650
716.795556	2556.989177
717.128782	2557.110165
717.461960	2556.603529
717.795088	2555.386090
718.128167	2555.081101
718.461198	2554.214022
718.794180	2555.149156
719.127113	2553.130174
719.459997	2555.744012
719.792833	2555.721327
720.125619	2557.115206
720.458357	2553.357026
720.791046	2555.086142
721.123686	2552.948693
721.456278	2553.692263
721.788821	2552.651264
722.121315	2555.509599
722.453761	2553.445246
722.786158	2555.451625
723.118506	2552.777293
723.450805	2553.765359
723.783056	2553.934238
724.115259	2552.558003
724.447412	2554.009855
724.779518	2554.173693
725.111574	2555.139074
725.443582	2555.328117
725.775542	2552.956254
726.107453	2555.234856
726.439315	2552.265616
726.771129	2557.853735
727.102895	2556.164949
727.434612	2556.306101
727.766281	2555.625545
728.097901	2554.282078
728.429473	2551.335523
728.760996	2554.718137
729.092471	2551.176727
729.423897	2556.258210
729.755276	2555.552448
730.086606	2555.439022
730.417887	2558.582182
730.749120	2558.504044
731.080305	2555.305432
731.411442	2556.779969
731.742530	2556.795093
732.073570	2556.326266
732.404562	2557.513457
732.735506	2555.781821
733.066401	2558.544373
733.397249	2559.403890
733.728048	2557.284085
734.058798	2553.886347
734.389501	2554.703014
734.720156	2552.731923
735.050762	2553.954403
735.381320	2551.910215
735.711831	2553.546069
736.042293	2551.247303
736.372707	2551.963147
736.703073	2551.471634
737.033391	2548.764535
737.363661	2554.531615
737.693883	2554.705535
738.024056	2554.980278
738.354182	2553.830894
738.684260	2552.288301
739.014290	2552.351316
739.344272	2554.304763
739.674207	2553.987170
740.004093	2557.740309
740.333931	2553.490617
740.663722	2554.453477
740.993464	2557.120247
741.323159	2555.280226
741.652806	2554.178734
741.982405	2552.447098
742.311956	2551.668239
742.641460	2552.673950
742.970915	2552.903322
743.300323	2553.319217
743.629683	2552.615976
743.958996	2554.324928
744.288260	2551.879968
744.617477	2548.613300
744.946647	2545.144986
745.275768	2544.905532
745.604842	2544.351005
745.933869	2548.240255
746.262847	2543.980480
746.591778	2550.874258
746.920662	2547.365615
747.249498	2552.018600
747.578286	2548.023485
747.907027	2552.086655
748.235720	2549.906356
748.564365	2549.750080
748.892963	2548.744370
749.221514	2549.724875
749.550017	2548.976263
749.878473	2551.068342
750.206881	2552.832746
750.535242	2551.446429
750.863555	2549.742519
751.191821	2549.487940
751.520039	2547.438711
751.848210	2547.728578
752.176334	2551.161603
752.504411	2549.868548
752.832440	2549.873589
753.160421	2549.871068
753.488356	2548.930893
753.816243	2550.551624
754.144082	2548.850234
754.471875	2549.838301
754.799620	2548.734288
755.127318	2548.134391
755.454969	2548.126829
755.782572	2551.007848
756.110129	2551.499361
756.437638	2549.578681
756.765100	2548.199926
757.092515	2550.188661
757.419882	2548.220090
757.747203	2551.005328
758.074477	2550.244113
758.401703	2550.075235
758.728882	2551.186809
759.056014	2548.724206
759.383099	2551.509443
759.710138	2550.929710
760.037129	2551.668239
760.364073	2550.445760
760.690970	2550.274360
761.017820	2550.564227
761.344623	2547.050542
761.671379	2553.248641
761.998088	2547.635316
762.324751	2552.341233
762.651366	2554.743343
762.977935	2566.199365
763.304456	2568.208265
763.630931	2573.080540
763.957359	2571.825293
764.283740	2564.984447
764.610074	2558.574620
764.936362	2559.799621
765.262602	2554.831563
765.588796	2552.169834
765.914943	2549.069525
766.241044	2549.520708
766.567097	2549.308979
766.893104	2547.496685
767.219064	2548.706562
767.544978	2549.019113
767.870845	2546.382590
768.196665	2547.163968
768.522438	2547.403423
768.848165	2544.668597
769.173846	2543.927548
769.499479	2543.864533
769.825066	2544.035932
770.150607	2544.429142
770.476101	2542.921837
770.801548	2545.865871
771.126949	2544.023330
771.452303	2547.554658
771.777611	2545.341591
772.102872	2541.863195
772.428087	2545.979297
772.753256	2545.588608
773.078378	2542.674821
773.403453	2542.261446
773.728482	2542.770603
774.053465	2541.250695
774.378401	2543.022661
774.703291	2544.398896
775.028135	2540.807073
775.352932	2542.768082
775.677683	2543.380582
776.002388	2544.103988
776.327046	2542.087527
776.651658	2544.829914
776.976224	2540.708771
777.300743	2542.584080
777.625216	2540.398740
777.949643	2540.539892
778.274024	2542.952084
778.598359	2539.748431
778.922647	2537.298430
779.246889	2538.036959
779.571086	2537.875643
779.895236	2539.582073
780.219339	2541.296065
780.543397	2542.422763
780.867409	2542.001827
781.191374	2540.471837
781.515294	2538.604089
781.839167	2541.427135
782.162995	2541.613658
782.486776	2541.616179
782.810511	2541.311189
783.134201	2543.478885
783.457844	2539.723225
783.781441	2541.953936
784.104993	2543.093237
784.428498	2542.775644
784.751958	2541.134748
785.075372	2542.493339
785.398739	2542.430325
785.722061	2542.994934
786.045337	2541.623740
786.368568	2541.613658
786.691752	2540.638195
787.014891	2539.919830
787.337983	2542.145500
787.661030	2544.688762
787.984031	2542.843700
788.306987	2546.208670
788.629897	2545.175233
788.952760	2544.668597
789.275579	2544.242620
789.598351	2546.894267
789.921078	2540.771785
790.243759	2541.820345
790.566395	2540.713812
790.888984	2541.661549
791.211529	2539.962680
791.534027	2540.723894
791.856480	2538.213400
792.178888	2540.439069
792.501249	2539.957639
792.823566	2539.093081
793.145836	2538.687268
793.468062	2539.269522
793.790241	2541.127187
794.112375	2542.611807
794.434464	2540.618030
794.756507	2540.129038
795.078505	2541.462423
795.400457	2539.753472
795.722364	2537.275745
796.044226	2543.509132
796.366042	2541.543082
796.687812	2541.084337
797.009538	2544.587939
797.331218	2543.945192
797.652852	2543.317568
797.974442	2540.900335
798.295986	2541.606096
798.617484	2540.060983
798.938938	2540.686086
799.260346	2537.830272
799.581709	2542.037115
799.903026	2542.745397
800.224299	2540.391178
800.545526	2540.693647
800.866708	2540.643236
801.187845	2541.147351
801.508936	2542.760521
801.829983	2541.280942
802.150984	2539.788760
802.471940	2540.244985
802.792851	2540.353370
803.113717	2538.599048
803.434538	2537.575694
803.755314	2539.982845
804.076045	2538.896476
804.396731	2541.323792
804.717372	2537.610982
805.037967	2537.759696
805.358518	2537.792463
805.679024	2539.546785
805.999485	2540.754141
806.319901	2540.050900
806.640272	2539.571991
806.960598	2535.884387
807.280879	2537.984027
807.601115	2538.591486
807.921306	2535.987730
808.241453	2540.645757
808.561554	2538.926723
808.881611	2539.508976
809.201623	2536.680889
809.521590	2541.487629
809.841513	2539.506456
810.161390	2539.798843
810.481223	2541.535520
810.801011	2541.127187
811.120755	2538.714995
811.440453	2538.152906
811.760107	2538.515869
812.079716	2534.679551
812.399281	2535.904551
812.718801	2537.232895
813.038276	2532.332894
813.357707	2539.541744
813.677093	2537.192566
813.996434	2542.077444
814.315731	2537.938657
814.634983	2539.589635
814.954191	2538.621733
815.273354	2538.720036
815.592473	2540.199614
815.911547	2537.336239
816.230577	2541.994265
816.549562	2537.051414
816.868502	2540.870088
817.187399	2541.469985
817.506250	2539.897145
817.825058	2541.570808
818.143821	2542.788247
818.462539	2542.233720
818.781213	2543.115922
819.099843	2543.647764
819.418429	2546.266643
819.736970	2548.038609
820.055466	2548.744370
820.373919	2553.236038
820.692327	2556.747202
821.010691	2562.675599
821.329011	2578.116653
821.647286	2609.938937
821.965517	2643.134935
822.283704	2665.157215
822.601847	2669.971517
822.919945	2657.444250
823.237999	2635.119500
823.556010	2613.250975
823.873976	2601.724377
824.191897	2590.003694
824.509775	2578.351067
824.827609	2571.941240
825.145398	2568.001578
825.463144	2566.781619
825.780845	2567.522668
826.098502	2573.173802
826.416116	2577.637743
826.733685	2587.823395
827.051210	2593.663572
827.368692	2589.305494
827.686129	2578.900553
828.003522	2568.793039
828.320872	2557.994887
828.638177	2552.898281
828.955439	2552.802499
829.272656	2545.782692
829.589830	2540.239944
829.906960	2546.536345
830.224046	2541.858154
830.541088	2542.705068
830.858086	2545.782692
831.175041	2543.935109
831.491952	2542.324461
831.808819	2543.206663
832.125642	2543.859492
832.442421	2544.356046
832.759157	2549.994576
833.075849	2553.319217
833.392497	2563.126782
833.709101	2566.290106
834.025662	2566.438820
834.342179	2564.523182
834.658653	2559.035886
834.975083	2550.574309
835.291469	2552.789896
835.607811	2548.353681
835.924110	2544.295552
836.240366	2540.663401
836.556578	2539.526620
836.872746	2543.141128
837.188871	2537.779861
837.504952	2535.942360
837.820990	2537.784902
838.136984	2538.745242
838.452935	2536.348173
838.768842	2539.279604
839.084706	2539.143493
839.400526	2539.708102
839.716303	2546.793444
840.032037	2547.463917
840.347727	2546.551468
840.663373	2545.240768
840.978977	2544.076262
841.294537	2542.606765
841.610054	2538.709953
841.925527	2538.074768
842.240957	2539.206507
842.556344	2540.630633
842.871687	2536.569984
843.186987	2535.929757
843.502244	2534.924047
843.817458	2538.185673
844.132629	2533.961187
844.447756	2539.072917
844.762840	2531.347348
845.077881	2529.719056
845.392879	2531.377595
845.707833	2534.745086
846.022745	2527.226205
846.337613	2533.661238
846.652438	2535.264325
846.967221	2532.501772
847.281960	2532.436238
847.596656	2535.292051
847.911309	2534.843388
848.225919	2534.200641
848.540485	2534.246012
848.855009	2534.165353
849.169490	2534.387164
849.483928	2532.952956
849.798323	2533.454551
850.112675	2533.416742
850.426984	2531.798532
850.741251	2533.731814
851.055474	2533.288192
851.369654	2534.586290
851.683792	2533.605785
851.997887	2531.876669
852.311938	2534.034283
852.625947	2533.966228
852.939914	2534.266176
853.253837	2538.059645
853.567718	2532.196783
853.881555	2533.227699
854.195350	2530.235774
854.509103	2533.212575
854.822812	2533.983872
855.136479	2534.677030
855.450103	2532.007739
855.763685	2533.510003
856.077224	2534.505631
856.390720	2535.728111
856.704173	2533.366330
857.017584	2533.484797
857.330953	2533.487318
857.644278	2534.661907
857.957561	2538.052083
858.270802	2534.399767
858.584000	2532.806762
858.897155	2532.811803
859.210268	2534.926568
859.523339	2536.106197
859.836367	2534.238450
860.149352	2533.101670
860.462295	2536.915303
860.775195	2531.123017
861.088054	2530.901206
861.400869	2529.840043
861.713642	2527.493386
862.026373	2530.533202
862.339062	2535.735673
862.651708	2535.029911
862.964312	2534.833306
863.276873	2532.771474
863.589392	2533.444468
863.901869	2535.823893
864.214303	2533.575538
864.526696	2535.246681
864.839045	2535.050076
865.151353	2533.915816
865.463619	2532.665610
865.775842	2533.414221
866.088023	2535.788605
866.400162	2536.282638
866.712258	2534.848430
867.024313	2534.379602
867.336325	2534.180477
867.648296	2536.254912
867.960224	2532.068233
868.272110	2532.678213
868.583954	2532.075795
868.895755	2536.673327
869.207515	2535.370189
869.519233	2537.374048
869.830909	2536.290200
870.142542	2533.825075
870.454134	2534.689633
870.765684	2535.087884
871.077191	2531.080167
871.388657	2536.625436
871.700081	2533.928419
872.011463	2535.324819
872.322803	2535.917154
872.634101	2537.961342
872.945357	2535.602082
873.256571	2537.094264
873.567744	2536.302802
873.878874	2538.596527
874.189963	2533.174767
874.501010	2534.888759
874.812015	2537.159799
875.122979	2535.488656
875.433900	2537.101825
875.744780	2539.685417
876.055618	2537.147196
876.366415	2539.335057
876.677169	2537.656352
876.987882	2531.992616
877.298554	2532.673172
877.609183	2533.510003
877.919771	2532.663089
878.230317	2538.210879
878.540822	2540.192053
878.851285	2540.323123
879.161707	2544.640871
879.472087	2545.117260
879.782425	2547.496685
880.092722	2550.644885
880.402977	2565.120558
880.713191	2582.184864
881.023363	2597.855291
881.333494	2612.777106
881.643583	2615.411109
881.953631	2611.993207
882.263637	2606.664707
882.573602	2603.851743
882.883526	2590.558221
883.193408	2581.751325
883.503248	2572.941909
883.813048	2570.199521
884.122806	2565.102914
884.432522	2559.471946
884.742197	2555.870041
885.051831	2551.285112
885.361424	2546.450645
885.670975	2546.904349
885.980485	2543.254554
886.289954	2543.685572
886.599382	2543.246992
886.908768	2541.543082
887.218113	2539.945036
887.527417	2540.620551
887.836680	2536.864891
888.145901	2538.364634
888.455082	2537.863040
888.764221	2536.554860
889.073319	2537.507638
889.382376	2537.479912
889.691392	2536.118800
890.000366	2536.385982
890.309300	2536.353214
890.618193	2538.772968
890.927044	2538.223482
891.235855	2539.067875
891.544625	2538.651980
891.853353	2541.820345
892.162041	2538.956970
892.470687	2538.586445
892.779293	2538.972093
893.087858	2539.725746
893.396381	2542.175747
893.704864	2543.123484
894.013306	2546.967363
894.321707	2555.617983
894.630068	2562.564693
894.938387	2563.242729
895.246665	2561.127965
895.554903	2558.756102
895.863100	2554.186296
896.171256	2548.303269
896.479371	2550.276881
896.787446	2546.944678
897.095480	2543.683052
897.403473	2540.986034
897.711425	2542.236241
898.019336	2541.177598
898.327207	2539.718184
898.635038	2539.065355
898.942827	2537.873122
899.250576	2540.141641
899.558284	2539.153575
899.865952	2534.876156
900.173579	2535.287010
900.481165	2536.736342
900.788711	2539.448483
901.096216	2537.341280
901.403681	2537.825231
901.711105	2537.033770
902.018489	2535.171063
902.325832	2539.992927
902.633135	2537.709284
902.940397	2537.474871
903.247619	2538.220962
903.554800	2548.194884
903.861941	2554.486244
904.169041	2569.455951
904.476101	2570.943091
904.783121	2571.311095
905.090100	2566.297668
905.397039	2560.180228
905.703938	2555.408776
906.010796	2549.089689
906.317614	2544.797147
906.624391	2542.654656
906.931129	2541.815304
907.237826	2539.579553
907.544483	2535.599562
907.851099	2537.361445
908.157675	2536.073430
908.464211	2532.312729
908.770707	2529.860208
909.077163	2532.463964
909.383578	2532.272400
909.689954	2527.679909
909.996289	2530.414735
910.302584	2533.986392
910.608839	2531.639735
910.915054	2533.724252
911.221229	2532.647966
911.527363	2532.663089
911.833458	2535.314736
912.139513	2534.344314
912.445527	2534.114942
912.751502	2536.257432
913.057436	2534.311547
913.363331	2537.595858
913.669186	2536.491846
913.975000	2538.110056
914.280775	2537.724408
914.586510	2542.513504
914.892205	2543.748587
915.197859	2549.397200
915.503475	2554.317366
915.809050	2563.552760
916.114585	2568.044428
916.420081	2570.779254
916.725536	2570.325550
917.030952	2562.826833
917.336328	2557.717624
917.641665	2559.340876
917.946961	2552.011038
918.252218	2549.800492
918.557435	2545.951571
918.862612	2544.429142
919.167750	2543.020140
919.472848	2540.620551
919.777906	2538.994779
920.082925	2539.448483
920.387904	2535.672658
920.692843	2537.648791
920.997743	2537.109387
921.302603	2537.260622
921.607423	2534.770292
921.912204	2537.210210
922.216946	2532.854653
922.521647	2534.220806
922.826310	2533.517565
923.130932	2535.244160
923.435516	2533.439427
923.740059	2533.058820
924.044564	2533.129396
924.349028	2530.346679
924.653454	2530.192924
924.957840	2529.547656
925.262186	2530.185362
925.566493	2529.575383
925.870761	2527.246370
926.174989	2531.443130
926.479178	2530.654190
926.783328	2531.498583
927.087438	2530.132430
927.391509	2531.793490
927.695541	2530.376926
927.999533	2529.726617
928.303486	2528.738551
928.607400	2529.464477
928.911275	2528.405835
929.215110	2530.195445
929.518906	2528.413397
929.822663	2529.867770
930.126381	2529.958510
930.430060	2531.450692
930.733699	2529.179652
931.037299	2533.862884
931.340861	2529.421628
931.644383	2530.374406
931.947866	2531.238963
932.251309	2531.891793
932.554714	2528.196627
932.858080	2531.659900
933.161407	2529.802235
933.464694	2531.322142
933.767943	2528.073119
934.071153	2530.956659
934.374323	2528.216792
934.677455	2529.063706
934.980548	2528.299971
935.283602	2530.134951
935.586617	2528.229395
935.889593	2529.968593
936.192530	2526.840557
936.495428	2530.225692
936.798287	2526.959024
937.101108	2530.913809
937.403890	2529.799714
937.706632	2533.459592
938.009336	2530.606299
938.312002	2534.283820
938.614628	2530.989426
938.917216	2534.798018
939.219765	2532.227030
939.522275	2533.585621
939.824747	2533.933460
940.127179	2527.649662
940.429573	2528.811648
940.731929	2528.279806
941.034246	2527.140505
941.336524	2530.349200
941.638763	2529.600588
941.940964	2532.053110
942.243126	2530.828109
942.545250	2531.647297
942.847335	2531.932122
943.149381	2531.480939
943.451389	2528.622605
943.753359	2531.324663
944.055290	2529.260311
944.357182	2532.017822
944.659036	2529.726617
944.960851	2532.653007
945.262628	2528.839374
945.564367	2528.741072
945.866067	2528.511699
946.167729	2528.395753
946.469352	2529.451874
946.770937	2532.564787
947.072484	2531.773326
947.373992	2531.871628
947.675462	2531.254087
947.976893	2529.303160
948.278286	2529.519930
948.579641	2529.905578
948.880958	2530.341638
949.182236	2529.535053
949.483476	2530.089580
949.784678	2531.024714
950.085841	2529.368695
950.386967	2531.745599
950.688054	2529.542615
950.989103	2530.177801
951.290114	2528.632687
951.591087	2528.017666
951.892021	2530.626463
952.192917	2528.993129
952.493776	2527.742923
952.794596	2532.660569
953.095378	2530.870959
953.396122	2530.064375
953.696828	2530.472708
953.997496	2529.968593
954.298126	2529.509848
954.598718	2531.173428
954.899272	2529.255269
955.199788	2530.636546
955.500266	2528.768798
955.800706	2529.197296
956.101108	2523.452901
956.401472	2525.141688
956.701798	2525.487007
957.002087	2525.166894
957.302337	2526.863242
957.602550	2529.199817
957.902724	2527.863911
958.202861	2528.171421
958.502960	2526.328880
958.803022	2528.378109
959.103045	2526.689322
959.403031	2527.924405
959.702979	2528.030269
960.002889	2525.161853
960.302762	2525.618077
960.602596	2526.293592
960.902393	2527.362316
961.202153	2530.986906
961.501875	2526.714528
961.801559	2527.168232
962.101205	2527.226205
962.400814	2526.417100
962.700385	2525.658406
962.999918	2528.857018
963.299414	2527.488345
963.598873	2528.466329
963.898293	2529.633356
964.197677	2529.371216
964.497022	2526.520443
964.796331	2530.218130
965.095601	2525.383663
965.394835	2527.821061
965.694030	2528.068078
965.993189	2529.340969
966.292309	2526.812830
966.591393	2525.870135
966.890439	2527.722759
967.189447	2528.252080
967.488419	2526.482635
967.787353	2527.044723
968.086249	2524.466173
968.385108	2527.954652
968.683930	2525.728982
968.982714	2524.957686
969.281462	2530.082019
969.580172	2525.933149
969.878844	2526.407018
970.177480	2526.364168
970.476078	2527.261493
970.774639	2526.840557
971.073162	2528.799045
971.371649	2526.908612
971.670098	2522.769825
971.968510	2524.680422
972.266885	2520.942407
972.565223	2525.804600
972.863524	2526.338962
973.161788	2528.879703
973.460014	2525.723941
973.758204	2527.465660
974.056356	2526.744775
974.354471	2526.608664
974.652550	2528.345341
974.950591	2525.648324
975.248595	2526.434744
975.546563	2524.289733
975.844493	2526.984230
976.142386	2529.386339
976.440243	2527.379960
976.738062	2526.946421
977.035845	2525.887779
977.333590	2526.449867
977.631299	2528.264683
977.928971	2523.087418
978.226606	2527.127903
978.524204	2528.108407
978.821765	2525.958355
979.119290	2527.795855
979.416777	2525.970958
979.714228	2527.596730
980.011642	2525.844929
980.309020	2530.389529
980.606360	2525.303005
980.903664	2529.003212
981.200931	2526.124713
981.498162	2529.734179
981.795356	2526.154960
982.092513	2529.643438
982.389633	2526.490197
982.686717	2529.971113
982.983764	2528.093283
983.280775	2527.798376
983.577749	2529.146885
983.874686	2531.105373
984.171587	2525.928108
984.468451	2527.904240
984.765279	2526.190248
985.062070	2526.661596
985.358824	2527.238808
985.655543	2528.206709
985.952224	2527.931967
986.248869	2526.686802
986.545478	2523.031965
986.842050	2523.886441
987.138586	2521.247397
987.435086	2521.426358
987.731549	2519.508198
988.027975	2525.567665
988.324366	2526.737213
988.620719	2527.543798
988.917037	2525.126564
989.213318	2526.273427
989.509563	2525.746626
989.805772	2525.378622
990.101944	2526.346524
990.398080	2525.247552
990.694180	2525.658406
990.990244	2525.923067
991.286271	2525.214785
991.582262	2525.655886
991.878217	2527.901720
992.174136	2527.306863
992.470019	2523.047088
992.765865	2524.990453
993.061676	2527.016997
993.357450	2526.165042
993.653188	2522.870648
993.948890	2528.715866
994.244556	2526.149919
994.540186	2525.199661
994.835780	2526.139836
995.131337	2527.095135
995.426859	2523.604136
995.722345	2526.157480
996.017795	2524.526667
996.313208	2526.661596
996.608586	2525.121523
996.903928	2524.060360
997.199234	2524.249404
997.494504	2525.078673
997.789738	2526.497758
998.084936	2526.845598
998.380099	2524.929959
998.675225	2526.656555
998.970316	2525.635721
999.265371	2525.368540
999.560390	2525.368540
999.855373	2524.864424
1000.150320	2525.797038
1000.445232	2524.650175
1000.740108	2526.701925
1001.034948	2527.140505
1001.329752	2526.157480
1001.624521	2523.397449
1001.919254	2521.597757
1002.213951	2521.058353
1002.508613	2522.485000
1002.803239	2525.988602
1003.097829	2521.103724
1003.392384	2524.708149
1003.686903	2524.239321
1003.981386	2525.998684
1004.275834	2524.355268
1004.570246	2525.250073
1004.864623	2524.219157
1005.158964	2526.865763
1005.453270	2528.037831
1005.747540	2524.897192
1006.041775	2524.521626
1006.335974	2524.680422
1006.630138	2524.382994
1006.924266	2523.614218
1007.218359	2523.215967
1007.512416	2524.642614
1007.806438	2524.937521
1008.100425	2528.095804
1008.394376	2524.032634
1008.688292	2525.943231
1008.982172	2521.731347
1009.276017	2526.464991
1009.569827	2522.588343
1009.863602	2527.584127
1010.157341	2524.952645
1010.451045	2525.507172
1010.744714	2523.924249
1011.038347	2526.175124
1011.331945	2523.253776
1011.625508	2526.112110
1011.919036	2523.919208
1012.212528	2526.185207
1012.505986	2523.157994
1012.799408	2524.776204
1013.092795	2524.897192
1013.386147	2525.718900
1013.679464	2525.459281
1013.972745	2524.556914
1014.265992	2524.309898
1014.559204	2525.335772
1014.852380	2524.866945
1015.145521	2526.840557
1015.438628	2525.297964
1015.731699	2527.778211
1016.024736	2525.101359
1016.317737	2524.967768
1016.610703	2525.880217
1016.903635	2523.525998
1017.196531	2522.411903
1017.489393	2522.343847
1017.782219	2522.185051
1018.075011	2521.938035
1018.367768	2524.183869
1018.660490	2522.001049
1018.953177	2522.001049
1019.245829	2522.001049
