Dividing Wavelength (nm)	Counts (n)	Blue Motor Position (mm): 0.000000	Red Motor Position (mm): 32.600000	
326.493990	2127.326594
326.888308	2127.326594
327.282561	2127.326594
327.676750	2094.407859
328.070874	2094.690164
328.464933	2098.133272
328.858929	2104.107039
329.252859	2113.385283
329.646726	2124.664865
330.040528	2137.512245
330.434265	2154.397590
330.827938	2171.613130
331.221547	2190.333455
331.615091	2206.117308
332.008571	2225.031717
332.401986	2247.820253
332.795338	2264.887079
333.188625	2284.366098
333.581847	2304.649180
333.975006	2322.620894
334.368100	2342.044460
334.761129	2359.254959
335.154095	2376.805736
335.546996	2392.423231
335.939833	2412.280336
336.332606	2430.325146
336.725315	2437.113059
337.117960	2450.830039
337.510540	2458.923612
337.903056	2469.815024
338.295508	2478.079996
338.687896	2486.672643
339.080220	2493.468118
339.472480	2499.474653
339.864676	2503.840292
340.256807	2506.993534
340.648875	2513.421005
341.040879	2513.869668
341.432818	2516.317148
341.824694	2516.402848
342.216506	2519.906450
342.608253	2521.673374
342.999937	2517.166583
343.391557	2516.967457
343.783113	2517.222035
344.174605	2513.501664
344.566033	2512.816067
344.957397	2513.244565
345.348697	2508.699965
345.739934	2507.656446
346.131106	2508.195849
346.522215	2505.927330
346.913260	2506.161744
347.304241	2503.106804
347.695159	2501.284427
348.086012	2501.294510
348.476802	2498.872235
348.867528	2498.824344
349.258191	2497.359889
349.648789	2493.533653
350.039324	2491.497027
350.429796	2492.399394
350.820203	2489.052068
351.210548	2490.967706
351.600828	2490.181286
351.991045	2489.987202
352.381198	2489.452839
352.771288	2485.596357
353.161314	2486.375215
353.551276	2486.710452
353.941175	2489.687253
354.331010	2488.542911
354.720782	2488.245483
355.110490	2487.915287
355.500135	2486.581902
355.889717	2486.959989
356.279235	2486.871768
356.668689	2489.218426
357.058080	2486.251707
357.447408	2486.458394
357.836672	2483.839514
358.225873	2487.562407
358.615010	2484.444453
359.004084	2491.060967
359.393095	2491.328148
359.782043	2491.383601
360.170927	2491.544918
360.559748	2490.065339
360.948505	2494.546925
361.337199	2490.292191
361.725830	2497.511124
362.114398	2494.932573
362.502903	2496.336535
362.891344	2495.366113
363.279722	2498.695795
363.668037	2498.907523
364.056289	2498.310147
364.444478	2499.262925
364.832603	2500.427431
365.220665	2500.835765
365.608665	2501.992709
365.996601	2500.750065
366.384474	2500.886176
366.772284	2505.755931
367.160031	2503.565549
367.547715	2506.081085
367.935336	2510.797085
368.322893	2513.920079
368.710388	2516.796058
369.097820	2522.348889
369.485189	2525.696215
369.872495	2532.516896
370.259738	2538.644418
370.646918	2545.220604
371.034035	2554.619835
371.421090	2562.804148
371.808081	2573.476271
372.195010	2584.060173
372.581875	2596.819334
372.968678	2609.152517
373.355418	2620.091821
373.742096	2640.228710
374.128710	2652.486275
374.515262	2667.193842
374.901751	2683.663291
375.288177	2694.221988
375.674540	2720.017572
376.060841	2736.260170
376.447079	2756.956627
376.833254	2777.610234
377.219367	2788.148766
377.605417	2826.345589
377.991404	2840.841427
378.377329	2856.547142
378.763191	2875.214534
379.148991	2914.603590
379.534727	2937.986982
379.920402	2965.123513
380.306013	2978.782520
380.691563	3028.679860
381.077049	3046.971687
381.462474	3067.194276
381.847835	3102.237857
382.233134	3128.877834
382.618371	3126.856332
383.003545	3197.248483
383.388657	3205.281562
383.773706	3237.746593
384.158693	3254.077411
384.543618	3279.716719
384.928480	3314.077224
385.313280	3361.892568
385.698017	3358.058770
386.082692	3414.260074
386.467305	3415.507760
386.851856	3448.885239
387.236344	3468.122282
387.620770	3506.596368
388.005133	3531.292981
388.389435	3558.122002
388.773674	3568.899989
389.157851	3610.497070
389.541965	3626.480048
389.926018	3589.861107
390.310008	3662.118485
390.693936	3681.224458
391.077802	3719.943040
391.461606	3709.240671
391.845348	3774.629477
392.229027	3770.339455
392.612645	3786.773617
392.996200	3866.038199
393.379694	3906.846340
393.763125	3964.958241
394.146494	3933.065381
394.529801	3998.360926
394.913047	4045.331877
395.296230	4009.143954
395.679351	4066.292995
396.062410	4090.624124
396.445408	4072.133172
396.828343	4102.934622
397.211217	4127.495123
397.594028	4048.185170
397.976778	4111.933081
398.359466	4142.900889
398.742092	4168.212523
399.124656	4092.759053
399.507158	4173.510775
399.889598	4196.853838
400.271977	4258.769290
400.654294	4227.264599
401.036549	4240.351434
401.418742	4207.455385
401.800874	4310.768792
402.182944	4331.828212
402.564952	4395.079569
402.946898	4383.885687
403.328783	4382.685892
403.710606	4295.252120
404.092367	4486.190863
404.474067	4450.171819
404.855705	4455.039053
405.237282	4387.656470
405.618797	4495.837111
406.000250	4529.166700
406.381642	4607.423052
406.762972	4572.719748
407.144240	4582.713836
407.525447	4579.951284
407.906593	4641.849091
408.287677	4679.584648
408.668700	4612.378506
409.049661	4660.980270
409.430560	4705.476014
409.811399	4628.646309
410.192176	4791.135301
410.572891	4732.206733
410.953545	4835.361343
411.334138	4719.079568
411.714669	4780.523672
412.095139	4677.245553
412.475547	4818.753262
412.855894	4798.583605
413.236180	4810.725224
413.616405	4761.400055
413.996568	4850.126883
414.376670	4790.222852
414.756711	4750.352366
415.136691	4778.313126
415.516609	4857.040825
415.896466	4891.615579
416.276262	4928.151342
416.655997	4909.282303
417.035670	5091.547741
417.415283	5181.670968
417.794834	5122.558398
418.174324	5080.011060
418.553753	4980.672603
418.933121	5167.996839
419.312428	5239.409824
419.691674	5180.952604
420.070859	5303.447601
420.449983	5214.105752
420.829045	5328.676056
421.208047	5237.151387
421.586988	5308.017407
421.965867	5321.799922
422.344686	5449.278100
422.723444	5309.302902
423.102141	5129.437053
423.480777	5425.015026
423.859352	5192.915262
424.237866	5452.658193
424.616319	5442.238128
424.994712	5552.034459
425.373044	5431.697076
425.751314	5572.546914
426.129524	5374.152305
426.507673	5570.381739
426.885762	5651.942567
427.263789	5584.426393
427.641756	5466.932221
428.019662	5588.986117
428.397508	5594.480975
428.775292	5540.865783
429.153016	5639.092666
429.530679	5560.997631
429.908282	5649.313605
430.285824	5523.577146
430.663305	5794.261902
431.040726	5533.432602
431.418086	5535.396131
431.795385	5636.625021
432.172624	5651.619933
432.549802	5641.119209
432.926920	5661.581253
433.303977	5664.565616
433.680974	5699.170617
434.057910	5721.235747
434.434786	5724.426797
434.811601	5692.055028
435.188355	5928.838024
435.565050	5801.201050
435.941683	5789.346777
436.318257	6001.662533
436.694770	5981.951621
437.071222	6019.062075
437.447614	5948.871569
437.823946	5860.658939
438.200218	6013.907495
438.576429	5879.651486
438.952580	5976.025745
439.328670	6021.547364
439.704700	5929.306851
440.080670	5914.095170
440.456580	6188.200348
440.832429	6069.559313
441.208218	5915.670530
441.583947	6074.514767
441.959616	6075.011321
442.335224	6007.041444
442.710773	6143.016486
443.086261	6170.203429
443.461689	5963.445545
443.837057	6109.452484
444.212365	6266.862513
444.587612	6155.919320
444.962800	6310.612167
445.337927	6298.059693
445.712995	5905.399179
446.088002	6480.456201
446.462949	6311.481766
446.837837	6242.062557
447.212664	6413.406335
447.587431	6558.221041
447.962139	7098.599965
448.336786	8023.263527
448.711374	7763.918847
449.085901	6840.540779
449.460369	6759.579849
449.834776	6692.643408
450.209124	7085.152688
450.583412	7238.859989
450.957640	7388.917495
451.331808	7148.809858
451.705917	6698.407967
452.079965	6618.903930
452.453954	6832.946281
452.827883	6710.272323
453.201752	6804.743546
453.575562	6606.384224
453.949311	6810.518188
454.323001	6695.985693
454.696632	6771.608042
455.070202	6907.893115
455.443713	7061.328194
455.817164	7166.559760
456.190556	7244.248982
456.563888	7319.215981
456.937160	7362.746345
457.310373	7020.106679
457.683526	7046.608025
458.056619	6935.196005
458.429653	6923.404746
458.802628	6856.939653
459.175542	6964.641384
459.548398	7320.685478
459.921194	7481.142884
460.293930	7486.473904
460.666607	8015.782455
461.039224	8325.987336
461.411782	8447.191798
461.784280	8472.266498
462.156719	8357.489507
462.529099	8234.371927
462.901419	7824.405132
463.273680	7719.402938
463.645882	7728.683702
464.018024	7601.306348
464.390106	7766.250381
464.762130	8150.328331
465.134094	8626.624108
465.505999	9643.780240
465.877845	10860.992042
466.249631	11508.046823
466.621358	11122.758996
466.993026	10493.171813
467.364634	10240.499100
467.736184	9871.554694
468.107674	9541.454899
468.479105	9579.142565
468.850477	9343.589611
469.221790	9110.592521
469.593043	8786.448849
469.964238	8646.166141
470.335373	8657.591916
470.706449	8714.942603
471.077467	8696.391156
471.448425	10004.933543
471.819324	11074.079094
472.190164	11105.881213
472.560945	9858.263692
472.931667	9062.343638
473.302330	8930.537629
473.672934	8574.430521
474.043479	8937.602806
474.413965	8871.997230
474.784393	8753.419209
475.154761	8910.408302
475.525070	8990.993667
475.895321	8824.701125
476.265513	9001.668310
476.635645	9168.863218
477.005719	9165.881376
477.375734	9285.563409
477.745691	9509.372996
478.115588	9650.900870
478.485427	9885.145645
478.855207	10420.793447
479.224928	11233.253527
479.594591	11862.659229
479.964194	11667.919456
480.333739	11607.065167
480.703226	11524.236489
481.072653	11611.115734
481.442022	11851.460305
481.811333	12029.334898
482.180584	11841.294819
482.549777	11544.506968
482.918912	11366.599608
483.287988	11386.698688
483.657005	11388.732794
484.025964	11066.522405
484.394864	11194.572753
484.763706	11158.954481
485.132489	10914.340052
485.501213	10874.981244
485.869879	10944.072778
486.238487	10782.115628
486.607036	10886.737214
486.975527	10659.388738
487.343959	10844.106697
487.712333	10884.088088
488.080648	10800.319235
488.448905	10839.851963
488.817104	10765.686508
489.185244	11022.019098
489.553326	11162.566468
489.921350	11677.016218
490.289315	12676.424968
490.657222	13015.072039
491.025070	12907.939958
491.392861	12762.694233
491.760593	12384.811862
492.128267	12038.192206
492.495883	11704.936648
492.863440	11369.498271
493.230939	11024.585046
493.598380	10945.259969
493.965763	10793.672473
494.333088	10689.146669
494.700354	10590.188819
495.067563	10629.288008
495.434713	10448.643301
495.801805	10553.905114
496.168839	10453.341657
496.535815	10372.295026
496.902733	10353.128559
497.269593	10266.072873
497.636395	10341.604482
498.003139	10296.118150
498.369825	10151.079113
498.736453	10266.277040
499.103023	10172.367906
499.469535	10172.372947
499.835989	10139.645776
500.202385	10070.055168
500.568723	9903.540815
500.935003	10074.952649
501.301226	9858.140184
501.667390	10070.395446
502.033497	10122.006779
502.399546	9962.479465
502.765537	9840.314664
503.131470	9862.616728
503.497345	9982.538217
503.863163	9607.675496
504.228923	9840.397843
504.594625	9851.115336
504.960269	9592.879709
505.325856	9739.267255
505.691385	9515.863482
506.056856	9608.277914
506.422270	9577.032842
506.787625	9448.662380
507.152924	9485.480447
507.518164	9433.430534
507.883347	9312.006782
508.248472	9194.638638
508.613540	9331.294236
508.978550	9193.658133
509.343503	9115.384138
509.708398	9161.356940
510.073236	9192.438174
510.438016	9147.206421
510.802738	9045.269249
511.167403	9033.493114
511.532010	8882.311431
511.896561	9012.539558
512.261053	9005.968414
512.625488	8841.402467
512.989866	8768.386395
513.354186	8697.482566
513.718449	8564.083553
514.082655	8643.852251
514.446803	8501.976538
514.810894	8527.683902
515.174927	8364.952935
515.538904	8327.083787
515.902822	8354.492541
516.266684	8218.378866
516.630488	8111.375335
516.994235	8098.948891
517.357925	8053.235707
517.721558	8046.538535
518.085133	7984.829770
518.448651	7933.311699
518.812112	7792.459340
519.175516	7729.618836
519.538863	7730.904331
519.902152	7626.063454
520.265385	7630.033363
520.628560	7523.513782
520.991678	7427.746982
521.354739	7403.541882
521.717743	7299.132024
522.080690	7222.382977
522.443580	7208.113992
522.806413	7121.343131
523.169189	7071.662560
523.531908	7029.909203
523.894569	6873.106633
524.257174	6796.818852
524.619722	6784.452902
524.982213	6706.093206
525.344647	6648.550956
525.707025	6564.159520
526.069345	6539.457866
526.431608	6429.321257
526.793815	6412.856849
527.155964	6253.710142
527.518057	6216.156067
527.880093	6130.030474
528.242072	6097.227686
528.603995	5985.319112
528.965860	5896.176388
529.327669	5850.866498
529.689421	5773.789776
530.051117	5702.344023
530.412755	5670.176420
530.774337	5581.830199
531.135862	5502.454711
531.497331	5460.935768
531.858743	5347.625753
532.220098	5347.373695
532.581396	5248.156226
532.942638	5191.934758
533.303824	5123.548985
533.664953	5067.604780
534.026025	4990.328933
534.387040	4964.301456
534.747999	4918.414353
535.108902	4877.921285
535.469748	4763.643368
535.830537	4738.702259
536.191270	4680.963404
536.551947	4639.230212
536.912567	4586.461934
537.273131	4526.996483
537.633638	4474.636539
537.994089	4420.875153
538.354483	4367.373388
538.714821	4358.992469
539.075103	4314.060665
539.435328	4262.716513
539.795497	4190.265050
540.155609	4171.600178
540.515665	4149.582939
540.875665	4065.035227
541.235609	4031.428375
541.595496	3995.121985
541.955328	3977.626660
542.315102	3927.474741
542.674821	3880.607134
543.034483	3843.264787
543.394090	3806.197183
543.753640	3765.071450
544.113134	3759.526180
544.472571	3708.391236
544.831953	3691.639482
545.191278	3634.384577
545.550548	3607.081688
545.909761	3594.201540
546.268918	3560.370357
546.628019	3537.589382
546.987064	3493.885099
547.346053	3461.833443
547.704986	3436.070626
548.063863	3409.481060
548.422684	3387.766290
548.781449	3350.086186
549.140158	3339.398939
549.498811	3300.307312
549.857408	3267.428907
550.215949	3255.622524
550.574434	3225.158832
550.932864	3205.452961
551.291237	3196.124306
551.649555	3168.176149
552.007817	3154.305414
552.366022	3136.870584
552.724173	3112.365535
553.082267	3097.279882
553.440305	3083.444435
553.798288	3058.621794
554.156215	3046.273487
554.514086	3032.475849
554.871902	3009.520955
555.229661	2995.592247
555.587365	2978.974083
555.945014	2964.969758
556.302606	2950.010134
556.660143	2937.860953
557.017625	2927.569438
557.375050	2909.673342
557.732421	2903.994482
558.089735	2891.573079
558.446994	2881.508415
558.804197	2871.668083
559.161345	2857.429344
559.518437	2844.841582
559.875474	2837.826817
560.232455	2828.692246
560.589381	2816.956440
560.946251	2811.486788
561.303065	2804.096457
561.659825	2793.983902
562.016528	2782.621141
562.373177	2773.720984
562.729770	2770.461878
563.086307	2763.331166
563.442789	2758.801689
563.799216	2748.928589
564.155587	2744.136973
564.511904	2737.817886
564.868164	2732.673389
565.224370	2729.530229
565.580520	2718.537993
565.936615	2717.456666
566.292654	2707.039122
566.648638	2709.471478
567.004567	2702.955787
567.360441	2702.217258
567.716260	2696.361958
568.072023	2693.128057
568.427732	2684.714372
568.783385	2684.898374
569.138982	2681.893846
569.494525	2677.961746
569.850013	2671.579645
570.205445	2674.863957
570.560823	2671.015036
570.916145	2670.755417
571.271412	2667.382885
571.626625	2664.010353
571.981782	2662.548418
572.336884	2658.843170
572.691931	2660.884837
573.046923	2654.623724
573.401860	2657.134219
573.756743	2653.151707
574.111570	2651.104999
574.466342	2649.038126
574.821059	2648.589463
575.175722	2644.929586
575.530330	2642.726601
575.884882	2644.526293
576.239380	2643.117291
576.593823	2641.741056
576.948211	2637.594707
577.302544	2636.853657
577.656823	2635.802577
578.011047	2634.242339
578.365216	2632.364510
578.719330	2632.230919
579.073389	2628.296298
579.427394	2628.671864
579.781344	2626.320166
580.135239	2629.264200
580.489080	2625.745475
580.842866	2625.503499
581.196597	2625.634569
581.550273	2624.379322
581.903895	2623.512243
582.257463	2622.448560
582.610975	2621.843622
582.964434	2622.423354
583.317837	2618.854217
583.671186	2623.275309
584.024481	2622.249434
584.377721	2620.767335
584.730906	2617.851028
585.084037	2619.607870
585.437113	2617.472941
585.790135	2615.295163
586.143103	2613.709720
586.496016	2614.692745
586.848874	2611.809205
587.201679	2611.113526
587.554428	2609.626385
587.907124	2610.596807
588.259765	2608.033381
588.612352	2612.240223
588.964884	2609.749893
589.317362	2609.744852
589.669786	2610.954729
590.022155	2610.127980
590.374470	2608.887856
590.726731	2608.620675
591.078937	2608.393823
591.431090	2605.883328
591.783188	2607.650253
592.135232	2604.590272
592.487222	2607.829214
592.839157	2605.848040
593.191038	2605.724532
593.542866	2604.612958
593.894639	2606.034563
594.246358	2606.082454
594.598022	2603.511466
594.949633	2603.216558
595.301190	2603.871908
595.652692	2601.973914
596.004141	2605.500201
596.355535	2601.510127
596.706876	2601.230343
597.058162	2599.967534
597.409395	2601.850405
597.760573	2603.695468
598.111698	2601.381578
598.462768	2600.912751
598.813785	2600.897627
599.164748	2599.793615
599.515657	2602.094901
599.866511	2601.500045
600.217312	2599.173553
600.568060	2597.199941
600.918753	2602.036928
601.269392	2600.393512
601.619978	2597.630960
601.970510	2599.118100
602.320988	2598.097266
602.671412	2598.079622
603.021783	2593.565269
603.372100	2600.196907
603.722363	2598.664396
604.072572	2596.761361
604.422728	2598.112390
604.772830	2593.691298
605.122878	2595.213726
605.472872	2597.202462
605.822813	2592.733479
606.172701	2595.478387
606.522534	2600.196907
606.872314	2598.548450
607.222041	2595.057451
607.571714	2596.957966
607.921333	2595.433017
608.270899	2598.160281
608.620411	2597.749427
608.969870	2598.215733
609.319276	2599.070209
609.668627	2603.508945
610.017926	2602.720004
610.367171	2605.656477
610.716362	2605.724532
611.065500	2602.498194
611.414585	2600.695981
611.763616	2599.859150
612.112594	2598.833275
612.461518	2600.335539
612.810389	2600.731269
613.159207	2598.006526
613.507971	2597.464602
613.856682	2599.629777
614.205340	2598.815631
614.553945	2597.341093
614.902496	2597.099118
615.250994	2598.268666
615.599439	2598.498038
615.947830	2600.390991
616.296169	2595.952255
616.644454	2597.091556
616.992686	2595.727924
617.340864	2599.176073
617.688990	2594.356730
618.037063	2598.918974
618.385082	2597.023501
618.733048	2597.998964
619.080961	2595.564087
619.428821	2596.680702
619.776628	2596.456371
620.124382	2598.500559
620.472083	2597.333532
620.819731	2597.913264
621.167326	2593.635845
621.514868	2594.386977
621.862357	2596.968048
622.209793	2595.001998
622.557176	2594.515527
622.904506	2591.931935
623.251783	2591.019486
623.599007	2592.957810
623.946179	2589.008066
624.293297	2590.064188
624.640363	2589.292891
624.987376	2592.143664
625.334336	2591.437902
625.681243	2590.936307
626.028097	2590.129723
626.374899	2590.101996
626.721647	2592.476380
627.068343	2589.237438
627.414987	2589.822212
627.761577	2587.515884
628.108115	2588.992942
628.454600	2588.415730
628.801032	2587.820874
629.147412	2592.194075
629.493739	2588.372881
629.840014	2588.854311
630.186236	2585.817016
630.532405	2585.471697
630.878521	2587.765422
631.224585	2587.105030
631.570597	2587.684763
631.916556	2585.106213
632.262462	2584.544124
632.608316	2584.765935
632.954117	2583.936665
633.299866	2584.831470
633.645562	2584.667632
633.991206	2584.715523
634.336797	2582.363825
634.682336	2585.204515
635.027823	2580.412899
635.373257	2584.962540
635.718639	2581.158989
636.063968	2581.509350
636.409245	2580.458269
636.754470	2580.329720
637.099642	2579.223186
637.444762	2583.777869
637.789829	2581.771490
638.134845	2580.448187
638.479808	2579.986921
638.824719	2579.505491
639.169577	2578.847620
639.514383	2577.665470
639.859137	2577.985583
640.203839	2580.254102
640.548489	2576.357290
640.893086	2573.277145
641.237632	2574.928123
641.582125	2576.405181
641.926566	2574.802094
642.270955	2573.214131
642.615292	2577.110943
642.959576	2577.494071
643.303809	2578.739236
643.647990	2576.460634
643.992118	2576.284194
644.336195	2576.637074
644.680219	2575.074317
645.024192	2575.336457
645.368112	2578.938361
645.711981	2576.357290
646.055797	2578.459452
646.399562	2578.325861
646.743274	2579.732343
647.086935	2582.182344
647.430544	2578.638412
647.774101	2580.163362
648.117606	2579.046746
648.461059	2579.432394
648.804460	2583.538414
649.147810	2579.969277
649.491108	2577.700758
649.834354	2578.151941
650.177548	2577.688155
650.520690	2576.931982
650.863781	2576.498443
651.206820	2578.272929
651.549807	2578.918197
651.892742	2574.492063
652.235626	2577.173957
652.578458	2575.434759
652.921238	2573.662794
653.263967	2574.731518
653.606644	2574.812177
653.949269	2575.200346
654.291843	2573.602300
654.634365	2575.467527
654.976836	2574.214800
655.319255	2575.971642
655.661622	2573.851837
656.003938	2574.005592
656.346203	2574.403843
656.688416	2573.383010
657.030577	2573.652711
657.372687	2576.536251
657.714746	2574.282856
658.056753	2573.193966
658.398708	2568.669531
658.740612	2571.502659
659.082465	2570.383523
659.424266	2569.758420
659.766016	2570.010478
660.107715	2575.490212
660.449362	2574.726477
660.790958	2572.715057
661.132503	2573.052814
661.473996	2576.690007
661.815438	2573.882084
662.156829	2574.481981
662.498168	2573.909810
662.839456	2572.465520
663.180693	2573.864440
663.521879	2575.976683
663.863013	2572.011816
664.204097	2573.831672
664.545129	2573.987948
664.886110	2575.051632
665.227040	2574.635736
665.567918	2575.344018
665.908746	2574.519790
666.249522	2577.433577
666.590248	2575.936354
666.930922	2575.948957
667.271545	2574.456775
667.612118	2576.533731
667.952639	2573.551888
668.293109	2572.846127
668.633528	2571.611044
668.973896	2571.600962
669.314213	2575.815366
669.654480	2575.195304
669.994695	2572.538616
670.334859	2578.434246
670.674973	2573.506518
671.015035	2574.310582
671.355047	2574.970973
671.695008	2573.491394
672.034918	2571.414439
672.374777	2573.473750
672.714585	2573.138514
673.054342	2571.855540
673.394049	2574.187074
673.733705	2573.745973
674.073310	2573.904769
674.412864	2571.762279
674.752368	2572.483164
675.091820	2573.057855
675.431223	2572.457958
675.770574	2571.827814
676.109875	2567.245405
676.449125	2569.541650
676.788324	2567.137020
677.127473	2567.968810
677.466571	2564.818089
677.805619	2569.690364
678.144616	2570.570046
678.483562	2570.869994
678.822458	2569.450910
679.161303	2574.003072
679.500098	2567.915878
679.838842	2568.266238
680.177535	2570.353276
680.516179	2569.650035
680.854771	2570.935529
681.193314	2571.268246
681.531805	2571.353945
681.870247	2574.663463
682.208638	2573.768658
682.546978	2574.935685
682.885268	2571.805128
683.223508	2573.640108
683.561697	2573.045252
683.899836	2572.508369
684.237925	2574.998699
684.575963	2570.880077
684.913951	2570.645663
685.251889	2572.972156
685.589776	2573.130952
685.927614	2573.803946
686.265401	2571.404357
686.603137	2572.868812
686.940824	2573.655232
687.278460	2576.775706
687.616046	2577.456262
687.953582	2573.539285
688.291068	2573.657752
688.628504	2574.444172
688.965889	2575.974163
689.303224	2574.091292
689.640510	2573.655232
689.977745	2575.104564
690.314930	2573.776220
690.652065	2572.750345
690.989150	2572.515931
691.326185	2569.619788
691.663170	2570.249932
692.000105	2569.009809
692.336990	2569.186249
692.673825	2567.550395
693.010610	2566.569890
693.347345	2563.676268
693.684030	2558.380536
694.020665	2563.593089
694.357251	2560.238201
694.693786	2563.640980
695.030272	2564.540826
695.366707	2564.878583
695.703093	2564.558470
696.039429	2561.649724
696.375716	2561.687533
696.711952	2564.218192
697.048139	2564.417318
697.384276	2563.439334
697.720363	2561.705177
698.056400	2563.227605
698.392388	2564.119889
698.728326	2562.254663
699.064214	2560.956565
699.400053	2560.701987
699.735842	2562.645352
700.071581	2559.653427
700.407270	2560.422203
700.742910	2560.180228
701.078501	2561.611915
701.414042	2559.219888
701.749533	2560.679302
702.084974	2560.838098
702.420366	2559.781977
702.755709	2560.812893
703.091002	2559.787018
703.426246	2558.917419
703.761440	2560.023952
704.096584	2557.435319
704.431679	2559.197203
704.766725	2561.317008
705.101721	2556.769887
705.436668	2557.306770
705.771565	2556.908519
706.106413	2560.956565
706.441212	2557.057233
706.775961	2559.666030
707.110661	2558.105793
707.445311	2559.043448
707.779913	2561.095197
708.114465	2561.889179
708.448967	2559.199723
708.783421	2561.311967
709.117825	2561.269117
709.452180	2563.116700
709.786485	2562.693243
710.120742	2564.261042
710.454949	2562.209292
710.789107	2563.283058
711.123216	2561.448078
711.457275	2563.837585
711.791286	2558.993036
712.125247	2561.327090
712.459159	2566.239695
712.793023	2569.123235
713.126837	2562.274827
713.460602	2566.559808
713.794318	2564.528223
714.127985	2565.483522
714.461602	2560.460012
714.795171	2563.341031
715.128691	2561.130485
715.462162	2560.565876
715.795584	2559.368602
716.128957	2560.013870
716.462281	2560.366750
716.795556	2558.693087
717.128782	2558.103272
717.461960	2557.596636
717.795088	2557.478169
718.128167	2556.429609
718.461198	2557.654610
718.794180	2557.427758
719.127113	2558.002449
719.459997	2555.628066
719.792833	2559.935732
720.125619	2552.847869
720.458357	2554.952551
720.791046	2557.702501
721.123686	2557.692418
721.456278	2556.180072
721.788821	2556.147305
722.121315	2557.062274
722.453761	2552.868034
722.786158	2556.162428
723.118506	2555.436502
723.450805	2554.566903
723.783056	2554.390462
724.115259	2553.959444
724.447412	2553.465411
724.779518	2556.180072
725.111574	2553.631769
725.443582	2556.353992
725.775542	2555.479352
726.107453	2554.997922
726.439315	2556.293498
726.771129	2560.477656
727.102895	2555.988508
727.434612	2558.977913
727.766281	2557.826009
728.097901	2558.224260
728.429473	2553.258723
728.760996	2555.378529
729.092471	2552.091696
729.423897	2561.228788
729.755276	2554.614794
730.086606	2556.086811
730.417887	2560.086966
730.749120	2559.948335
731.080305	2561.044786
731.411442	2559.812223
731.742530	2559.028324
732.073570	2561.148129
732.404562	2561.984961
732.735506	2561.057388
733.066401	2558.551935
733.397249	2559.671071
733.728048	2556.530432
734.058798	2556.351471
734.389501	2557.873900
734.720156	2556.664023
735.050762	2556.666543
735.381320	2554.637479
735.711831	2554.365257
736.042293	2553.805689
736.372707	2555.454146
736.703073	2553.838456
737.033391	2555.050854
737.363661	2555.358364
737.693883	2554.062787
738.024056	2558.803993
738.354182	2551.985832
738.684260	2557.586554
739.014290	2555.958261
739.344272	2557.384908
739.674207	2553.883827
740.004093	2559.416493
740.333931	2556.807696
740.663722	2559.277861
740.993464	2557.452963
741.323159	2556.548076
741.652806	2557.001780
741.982405	2555.907850
742.311956	2554.733261
742.641460	2555.653272
742.970915	2552.542880
743.300323	2555.514640
743.629683	2557.200906
743.958996	2553.840977
744.288260	2552.532797
744.617477	2555.058415
744.946647	2546.632127
745.275768	2549.278733
745.604842	2547.300080
745.933869	2548.010882
746.262847	2547.151366
746.591778	2550.521377
746.920662	2551.804351
747.249498	2552.310987
747.578286	2552.520194
747.907027	2551.993394
748.235720	2553.447767
748.564365	2551.789227
748.892963	2551.315359
749.221514	2552.424412
749.550017	2552.492468
749.878473	2553.593960
750.206881	2554.193858
750.535242	2550.677653
750.863555	2549.745039
751.191821	2550.891902
751.520039	2550.070194
751.848210	2552.235369
752.176334	2550.239072
752.504411	2550.992725
752.832440	2550.385266
753.160421	2550.135729
753.488356	2551.872406
753.816243	2548.933413
754.144082	2551.133877
754.471875	2549.848383
754.799620	2550.942313
755.127318	2551.269988
755.454969	2550.392827
755.782572	2550.894422
756.110129	2553.341903
756.437638	2549.724875
756.765100	2549.102292
757.092515	2553.253682
757.419882	2553.364588
757.747203	2551.272509
758.074477	2552.807540
758.401703	2548.459545
758.728882	2550.150852
759.056014	2550.274360
759.383099	2550.649926
759.710138	2553.072201
760.037129	2553.898950
760.364073	2554.824002
760.690970	2550.150852
761.017820	2552.678991
761.344623	2549.603887
761.671379	2553.956923
761.998088	2549.999618
762.324751	2553.510781
762.651366	2556.474980
762.977935	2568.737586
763.304456	2569.274469
763.630931	2573.083061
763.957359	2571.686661
764.283740	2565.969993
764.610074	2562.347924
764.936362	2559.905485
765.262602	2554.904660
765.588796	2552.053888
765.914943	2553.634289
766.241044	2551.068342
766.567097	2551.179248
766.893104	2547.413506
767.219064	2549.397200
767.544978	2550.632282
767.870845	2549.722354
768.196665	2548.026006
768.522438	2546.732950
768.848165	2545.807898
769.173846	2549.036757
769.499479	2548.252858
769.825066	2547.211859
770.150607	2546.412837
770.476101	2545.475182
770.801548	2546.601880
771.126949	2544.935778
771.452303	2547.705893
771.777611	2542.609286
772.102872	2546.145655
772.428087	2546.014585
772.753256	2545.167672
773.078378	2545.928886
773.403453	2546.029709
773.728482	2545.195398
774.053465	2542.536189
774.378401	2544.449307
774.703291	2545.023999
775.028135	2542.672300
775.352932	2543.942671
775.677683	2545.911242
776.002388	2543.405788
776.327046	2546.627086
776.651658	2545.760007
776.976224	2542.180788
777.300743	2542.357228
777.625216	2544.129194
777.949643	2544.930737
778.274024	2545.238248
778.598359	2539.660211
778.922647	2539.924872
779.246889	2540.373534
779.571086	2538.379758
779.895236	2541.742207
780.219339	2544.366128
780.543397	2544.628268
780.867409	2540.678524
781.191374	2541.427135
781.515294	2543.002496
781.839167	2538.982176
782.162995	2543.499050
782.486776	2543.052907
782.810511	2545.540717
783.134201	2542.216076
783.457844	2542.256405
783.781441	2540.106353
784.104993	2542.042156
784.428498	2545.576005
784.751958	2541.192722
785.075372	2546.773279
785.398739	2543.678011
785.722061	2544.661036
786.045337	2542.500901
786.368568	2543.892260
786.691752	2543.589790
787.014891	2545.845707
787.337983	2542.591642
787.661030	2545.775131
787.984031	2542.374872
788.306987	2547.078269
788.629897	2548.073897
788.952760	2545.084492
789.275579	2544.265305
789.598351	2545.328988
789.921078	2544.345963
790.243759	2545.346632
790.566395	2542.077444
790.888984	2542.616848
791.211529	2542.861344
791.534027	2542.392516
791.856480	2540.376055
792.178888	2544.655994
792.501249	2543.037784
792.823566	2543.050387
793.145836	2541.807742
793.468062	2537.653832
793.790241	2540.718853
794.112375	2541.076775
794.434464	2544.063659
794.756507	2540.698689
795.078505	2544.146838
795.400457	2539.541744
795.722364	2541.790098
796.044226	2540.401261
796.366042	2540.978473
796.687812	2539.297248
797.009538	2545.901159
797.331218	2544.126673
797.652852	2545.011396
797.974442	2542.601724
798.295986	2542.974770
798.617484	2542.029553
798.938938	2543.521735
799.260346	2543.983000
799.581709	2544.093906
799.903026	2540.653318
800.224299	2544.320758
800.545526	2541.911086
800.866708	2542.226158
801.187845	2542.737835
801.508936	2544.030891
801.829983	2540.771785
802.150984	2541.961498
802.471940	2542.979811
802.792851	2540.537372
803.113717	2544.512322
803.434538	2545.172713
803.755314	2540.602907
804.076045	2542.485778
804.396731	2538.939326
804.717372	2543.355377
805.037967	2538.399923
805.358518	2537.764737
805.679024	2541.449821
805.999485	2539.236754
806.319901	2541.507794
806.640272	2539.796322
806.960598	2540.645757
807.280879	2541.664070
807.601115	2542.263967
807.921306	2540.681045
808.241453	2539.718184
808.561554	2541.848072
808.881611	2542.095088
809.201623	2540.570139
809.521590	2541.570808
809.841513	2540.038297
810.161390	2540.353370
810.481223	2541.023843
810.801011	2542.163144
811.120755	2539.677855
811.440453	2539.619882
811.760107	2538.392361
812.079716	2539.327495
812.399281	2535.039993
812.718801	2538.614172
813.038276	2537.505118
813.357707	2540.517207
813.677093	2539.133410
813.996434	2541.747249
814.315731	2540.963349
814.634983	2539.604758
814.954191	2540.111394
815.273354	2542.389996
815.592473	2538.863709
815.911547	2541.495191
816.230577	2539.632485
816.549562	2542.889070
816.868502	2540.136600
817.187399	2543.499050
817.506250	2541.676672
817.825058	2543.975439
818.143821	2539.430838
818.462539	2544.151879
818.781213	2545.389482
819.099843	2543.012578
819.418429	2548.391489
819.736970	2548.202446
820.055466	2552.363919
820.373919	2550.912066
820.692327	2558.889692
821.010691	2565.808676
821.329011	2584.022365
821.647286	2613.225769
821.965517	2648.518887
822.283704	2671.488905
822.601847	2679.489216
822.919945	2662.629077
823.237999	2640.843730
823.556010	2620.711882
823.873976	2603.788729
824.191897	2590.684250
824.509775	2579.944071
824.827609	2573.703123
825.145398	2569.798749
825.463144	2568.578790
825.780845	2568.762792
826.098502	2573.022567
826.416116	2581.378280
826.733685	2594.903695
827.051210	2597.212544
827.368692	2593.224991
827.686129	2582.396593
828.003522	2573.055335
828.320872	2560.926318
828.638177	2556.497665
828.955439	2555.295350
829.272656	2549.238403
829.589830	2547.221942
829.906960	2546.145655
830.224046	2547.915100
830.541088	2545.760007
830.858086	2544.335881
831.175041	2542.788247
831.491952	2547.037940
831.808819	2543.423432
832.125642	2543.483926
832.442421	2547.100954
832.759157	2550.007179
833.075849	2557.188303
833.392497	2562.519323
833.709101	2570.562484
834.025662	2568.082236
834.342179	2566.753892
834.658653	2558.446071
834.975083	2555.370967
835.291469	2554.690411
835.607811	2548.935934
835.924110	2545.364277
836.240366	2545.376879
836.556578	2543.579708
836.872746	2542.248843
837.188871	2541.348998
837.504952	2541.235572
837.820990	2538.977135
838.136984	2537.197607
838.452935	2541.011240
838.768842	2540.484440
839.084706	2539.400592
839.400526	2541.626261
839.716303	2546.271684
840.032037	2552.091696
840.347727	2551.310318
840.663373	2549.490461
840.978977	2543.040305
841.294537	2545.288659
841.610054	2539.045190
841.925527	2541.540561
842.240957	2538.699871
842.556344	2539.967721
842.871687	2538.714995
843.186987	2537.971424
843.502244	2538.359593
843.817458	2536.975797
844.132629	2534.818183
844.447756	2534.172915
844.762840	2531.632173
845.077881	2530.308871
845.392879	2536.328008
845.707833	2534.465302
846.022745	2531.183511
846.337613	2533.537730
846.652438	2535.569315
846.967221	2535.425642
847.281960	2535.463450
847.596656	2534.180477
847.911309	2533.898172
848.225919	2533.111752
848.540485	2533.608306
848.855009	2534.125024
849.169490	2537.369007
849.483928	2535.065199
849.798323	2533.641073
850.112675	2534.724921
850.426984	2533.366330
850.741251	2535.987730
851.055474	2534.205682
851.369654	2535.733152
851.683792	2534.445137
851.997887	2534.094777
852.311938	2535.052596
852.625947	2533.588141
852.939914	2533.923378
853.253837	2537.139634
853.567718	2532.479087
853.881555	2536.348173
854.195350	2531.576721
854.509103	2538.047042
854.822812	2532.126207
855.136479	2537.200128
855.450103	2534.881197
855.763685	2534.959335
856.077224	2534.654345
856.390720	2534.455220
856.704173	2536.638039
857.017584	2534.659386
857.330953	2535.186187
857.644278	2532.426155
857.957561	2539.516538
858.270802	2538.677186
858.584000	2536.441434
858.897155	2535.402957
859.210268	2535.715508
859.523339	2535.791125
859.836367	2535.327339
860.149352	2535.856660
860.462295	2535.145858
860.775195	2533.542771
861.088054	2532.295085
861.400869	2532.405991
861.713642	2528.236956
862.026373	2532.552184
862.339062	2535.050076
862.651708	2534.303985
862.964312	2534.974458
863.276873	2534.699716
863.589392	2534.379602
863.901869	2534.062010
864.214303	2537.580735
864.526696	2534.921526
864.839045	2536.998482
865.151353	2536.181815
865.463619	2535.707946
865.775842	2536.330529
866.088023	2534.871115
866.400162	2531.299457
866.712258	2535.196269
867.024313	2536.133924
867.336325	2534.137627
867.648296	2535.181146
867.960224	2536.272556
868.272110	2536.232226
868.583954	2536.343132
868.895755	2536.607792
869.207515	2533.101670
869.519233	2536.827083
869.830909	2537.986548
870.142542	2537.094264
870.454134	2534.238450
870.765684	2537.076620
871.077191	2533.913296
871.388657	2538.268853
871.700081	2535.556712
872.011463	2536.282638
872.322803	2538.019315
872.634101	2538.873791
872.945357	2536.138965
873.256571	2537.235416
873.567744	2537.999151
873.878874	2537.981507
874.189963	2536.607792
874.501010	2537.111908
874.812015	2537.931095
875.122979	2539.645088
875.433900	2537.003523
875.744780	2538.722556
876.055618	2538.881353
876.366415	2538.548637
876.677169	2537.532844
876.987882	2537.913451
877.298554	2535.496218
877.609183	2536.328008
877.919771	2536.854809
878.230317	2539.685417
878.540822	2541.787578
878.851285	2541.880839
879.161707	2544.000644
879.472087	2545.908721
879.782425	2547.952909
880.092722	2557.848694
880.402977	2566.327915
880.713191	2581.718557
881.023363	2602.049531
881.333494	2616.444546
881.643583	2620.114506
881.953631	2614.087806
882.263637	2611.441201
882.573602	2604.854933
882.883526	2595.067533
883.193408	2588.246852
883.503248	2577.723443
883.813048	2571.104408
884.122806	2566.005281
884.432522	2562.675599
884.742197	2557.221070
885.051831	2553.016748
885.361424	2548.635985
885.670975	2546.685059
885.980485	2548.429298
886.289954	2544.161961
886.599382	2545.271015
886.908768	2546.498536
887.218113	2541.883360
887.527417	2541.875798
887.836680	2541.704399
888.145901	2541.414533
888.455082	2537.679037
888.764221	2539.970242
889.073319	2537.739531
889.382376	2537.348842
889.691392	2535.957483
890.000366	2537.631147
890.309300	2537.162319
890.618193	2540.265149
890.927044	2539.647608
891.235855	2538.901517
891.544625	2539.622402
891.853353	2540.058462
892.162041	2537.631147
892.470687	2540.292876
892.779293	2543.483926
893.087858	2540.910417
893.396381	2541.459903
893.704864	2543.050387
894.013306	2546.750594
894.321707	2555.943138
894.630068	2564.576114
894.938387	2565.654921
895.246665	2563.550239
895.554903	2560.407080
895.863100	2555.799465
896.171256	2556.643858
896.479371	2547.899977
896.787446	2548.270502
897.095480	2544.698844
897.403473	2544.439225
897.711425	2543.549461
898.019336	2544.809750
898.327207	2542.155582
898.635038	2539.256919
898.942827	2542.541230
899.250576	2540.116435
899.558284	2540.739018
899.865952	2539.514017
900.173579	2535.813811
900.481165	2534.828265
900.788711	2536.575025
901.096216	2539.410674
901.403681	2538.548637
901.711105	2536.885056
902.018489	2537.137113
902.325832	2538.437731
902.633135	2536.975797
902.940397	2537.464788
903.247619	2542.450490
903.554800	2546.324616
903.861941	2554.738302
904.169041	2568.213306
904.476101	2573.778740
904.783121	2573.428380
905.090100	2569.229099
905.397039	2561.569066
905.703938	2556.525391
906.010796	2551.748898
906.317614	2547.380738
906.624391	2543.899821
906.931129	2540.779347
907.237826	2540.668442
907.544483	2535.755837
907.851099	2538.102494
908.157675	2535.896990
908.464211	2535.849099
908.770707	2532.963038
909.077163	2533.885569
909.383578	2530.129910
909.689954	2534.359438
909.996289	2530.336597
910.302584	2534.578728
910.608839	2535.173584
910.915054	2533.308357
911.221229	2533.759540
911.527363	2534.936650
911.833458	2534.190559
912.139513	2535.070240
912.445527	2536.547298
912.751502	2534.891279
913.057436	2539.589635
913.363331	2535.753317
913.669186	2538.462937
913.975000	2539.972763
914.280775	2539.549306
914.586510	2540.600386
914.892205	2548.562889
915.197859	2552.353836
915.503475	2557.410114
915.809050	2565.483522
916.114585	2567.689026
916.420081	2573.186405
916.725536	2571.795046
917.030952	2568.460323
917.336328	2561.967317
917.641665	2559.603016
917.946961	2553.573796
918.252218	2549.704710
918.557435	2545.782692
918.862612	2546.831252
919.167750	2541.873277
919.472848	2543.015099
919.777906	2539.922351
920.082925	2541.444779
920.387904	2540.461754
920.692843	2535.649973
920.997743	2535.347504
921.302603	2539.511497
921.607423	2537.353883
921.912204	2536.396064
922.216946	2533.883049
922.521647	2536.771630
922.826310	2533.598223
923.130932	2535.294572
923.435516	2535.871784
923.740059	2535.725590
924.044564	2531.649818
924.349028	2535.632329
924.653454	2527.795855
924.957840	2532.728624
925.262186	2528.725948
925.566493	2530.374406
925.870761	2529.245187
926.174989	2531.244005
926.479178	2533.343645
926.783328	2531.526309
927.087438	2531.906916
927.391509	2533.162164
927.695541	2532.612678
927.999533	2529.976154
928.303486	2532.620240
928.607400	2529.388860
928.911275	2529.008253
929.215110	2531.836340
929.518906	2529.867770
929.822663	2531.864067
930.126381	2532.158974
930.430060	2532.761392
930.733699	2531.344828
931.037299	2532.703419
931.340861	2531.591844
931.644383	2532.650487
931.947866	2529.010773
932.251309	2533.131917
932.554714	2529.892975
932.858080	2535.526465
933.161407	2528.965403
933.464694	2533.585621
933.767943	2530.076978
934.071153	2528.647810
934.374323	2527.798376
934.677455	2528.814168
934.980548	2529.219981
935.283602	2531.241484
935.586617	2532.106042
935.889593	2533.585621
936.192530	2531.354910
936.495428	2532.088398
936.798287	2528.723428
937.101108	2531.188552
937.403890	2531.541433
937.706632	2533.174767
938.009336	2530.951618
938.312002	2532.438758
938.614628	2531.604447
938.917216	2532.526978
939.219765	2534.692154
939.522275	2532.380785
939.824747	2532.703419
940.127179	2527.828623
940.429573	2528.617563
940.731929	2532.116124
941.034246	2527.029600
941.336524	2531.594365
941.638763	2531.503624
941.940964	2534.525796
942.243126	2534.424973
942.545250	2531.329704
942.847335	2532.078316
943.149381	2530.676875
943.451389	2532.295085
943.753359	2531.763243
944.055290	2530.535723
944.357182	2532.726104
944.659036	2529.116638
944.960851	2532.655528
945.262628	2530.823068
945.564367	2532.310209
945.866067	2530.820548
946.167729	2531.969931
946.469352	2532.731145
946.770937	2533.373892
947.072484	2529.507327
947.373992	2529.799714
947.675462	2529.653521
947.976893	2532.093439
948.278286	2531.503624
948.579641	2533.109232
948.880958	2531.801052
949.182236	2531.201155
949.483476	2529.945908
949.784678	2531.014632
950.085841	2528.766278
950.386967	2529.860208
950.688054	2528.819210
950.989103	2532.491690
951.290114	2528.476411
951.591087	2528.715866
951.892021	2533.162164
952.192917	2531.075126
952.493776	2531.526309
952.794596	2531.886752
953.095378	2532.889941
953.396122	2531.044879
953.696828	2533.772143
953.997496	2532.748789
954.298126	2532.766433
954.598718	2530.936494
954.899272	2530.008922
955.199788	2530.329035
955.500266	2529.988757
955.800706	2526.898530
956.101108	2524.289733
956.401472	2527.417769
956.701798	2524.393077
957.002087	2526.238139
957.302337	2527.687471
957.602550	2525.824764
957.902724	2527.223684
958.202861	2526.966586
958.502960	2526.379291
958.803022	2527.742923
959.103045	2529.300640
959.403031	2528.662934
959.702979	2527.765608
960.002889	2528.761236
960.302762	2529.550177
960.602596	2526.838036
960.902393	2525.640762
961.202153	2530.092101
961.501875	2527.077491
961.801559	2526.044054
962.101205	2527.609333
962.400814	2527.291740
962.700385	2526.036493
962.999918	2526.621267
963.299414	2527.856349
963.598873	2527.495907
963.898293	2530.475229
964.197677	2529.872811
964.497022	2525.918026
964.796331	2527.019518
965.095601	2531.097811
965.394835	2526.495238
965.694030	2525.744106
965.993189	2527.735362
966.292309	2527.269055
966.591393	2524.574558
966.890439	2528.783922
967.189447	2529.293078
967.488419	2526.470032
967.787353	2526.528005
968.086249	2527.652183
968.385108	2528.834333
968.683930	2527.062368
968.982714	2526.190248
969.281462	2527.657224
969.580172	2526.767460
969.878844	2526.354085
970.177480	2527.516071
970.476078	2527.632018
970.774639	2531.208717
971.073162	2524.892151
971.371649	2523.810823
971.670098	2523.596574
971.968510	2525.262676
972.266885	2522.255627
972.565223	2532.095960
972.863524	2526.114631
973.161788	2525.124044
973.460014	2530.835671
973.758204	2526.507841
974.056356	2527.664785
974.354471	2524.405679
974.652550	2527.334590
974.950591	2526.641431
975.248595	2529.197296
975.546563	2527.810979
975.844493	2529.179652
976.142386	2525.444157
976.440243	2525.514733
976.738062	2529.892975
977.035845	2528.534384
977.333590	2524.866945
977.631299	2527.314425
977.928971	2525.839888
978.226606	2525.507172
978.524204	2526.991791
978.821765	2528.282327
979.119290	2526.550690
979.416777	2530.165198
979.714228	2526.671678
980.011642	2529.570342
980.309020	2530.296268
980.606360	2526.046575
980.903664	2528.236956
981.200931	2526.696884
981.498162	2526.757378
981.795356	2530.001360
982.092513	2528.277286
982.389633	2527.430372
982.686717	2528.368026
982.983764	2528.967924
983.280775	2528.796524
983.577749	2531.566638
983.874686	2528.851977
984.171587	2530.102183
984.468451	2528.065557
984.765279	2528.466329
985.062070	2525.159332
985.358824	2529.633356
985.655543	2527.185876
985.952224	2524.844260
986.248869	2524.027593
986.545478	2523.026924
986.842050	2525.325690
987.138586	2520.965092
987.435086	2526.316277
987.731549	2520.339989
988.027975	2526.974147
988.324366	2524.060360
988.620719	2528.332738
988.917037	2528.428520
989.213318	2525.643283
989.509563	2523.243693
989.805772	2527.352234
990.101944	2522.979033
990.398080	2523.218488
990.694180	2524.524147
990.990244	2525.469363
991.286271	2526.371729
991.582262	2526.714528
991.878217	2528.037831
992.174136	2523.747809
992.470019	2526.971627
992.765865	2527.957172
993.061676	2528.582275
993.357450	2526.245701
993.653188	2527.495907
993.948890	2525.776873
994.244556	2523.223529
994.540186	2527.422810
994.835780	2527.072450
995.131337	2526.457429
995.426859	2526.860721
995.722345	2525.481966
996.017795	2527.904240
996.313208	2527.233767
996.608586	2526.921215
996.903928	2526.419620
997.199234	2526.964065
997.494504	2526.575896
997.789738	2528.418438
998.084936	2528.110927
998.380099	2528.211751
998.675225	2524.733354
998.970316	2525.749147
999.265371	2524.660258
999.560390	2526.389373
999.855373	2527.342152
1000.150320	2528.277286
1000.445232	2526.376771
1000.740108	2523.876358
1001.034948	2527.964734
1001.329752	2525.134126
1001.624521	2526.659075
1001.919254	2520.191275
1002.213951	2524.738396
1002.508613	2519.145235
1002.803239	2525.935670
1003.097829	2521.602798
1003.392384	2527.758047
1003.686903	2525.444157
1003.981386	2528.247039
1004.275834	2527.616894
1004.570246	2527.143026
1004.864623	2527.808458
1005.158964	2523.994825
1005.453270	2526.311236
1005.747540	2522.343847
1006.041775	2526.648993
1006.335974	2526.591020
1006.630138	2526.764939
1006.924266	2526.422141
1007.218359	2524.178828
1007.512416	2523.934332
1007.806438	2527.637059
1008.100425	2525.058509
1008.394376	2525.688653
1008.688292	2527.097656
1008.982172	2525.423993
1009.276017	2527.450536
1009.569827	2525.794517
1009.863602	2528.836854
1010.157341	2527.536236
1010.451045	2525.683612
1010.744714	2526.137316
1011.038347	2526.525485
1011.331945	2526.016328
1011.625508	2527.521113
1011.919036	2526.601102
1012.212528	2527.639580
1012.505986	2524.995494
1012.799408	2522.923580
1013.092795	2524.806451
1013.386147	2527.165711
1013.679464	2524.435926
1013.972745	2526.280989
1014.265992	2525.834847
1014.559204	2528.226874
1014.852380	2521.317973
1015.145521	2527.851308
1015.438628	2523.614218
1015.731699	2524.133457
1016.024736	2526.356606
1016.317737	2527.609333
1016.610703	2527.080012
1016.903635	2521.025586
1017.196531	2521.113806
1017.489393	2524.335103
1017.782219	2520.143384
1018.075011	2525.812161
1018.367768	2524.635052
1018.660490	2526.928777
1018.953177	2526.928777
1019.245829	2526.928777
