Dividing Wavelength (nm)	Counts (n)	Blue Motor Position (mm): 0.000000	Red Motor Position (mm): 48.300000	
326.493990	2129.746348
326.888308	2129.746348
327.282561	2129.746348
327.676750	2093.475246
328.070874	2092.814855
328.464933	2096.507500
328.858929	2103.214755
329.252859	2112.581219
329.646726	2123.765019
330.040528	2137.207255
330.434265	2155.635193
330.827938	2174.161434
331.221547	2191.671882
331.615091	2207.213759
332.008571	2229.089846
332.401986	2250.431571
332.795338	2267.195928
333.188625	2286.921963
333.581847	2306.085909
333.975006	2324.927222
334.368100	2343.350118
334.761129	2358.607171
335.154095	2374.708616
335.546996	2396.665362
335.939833	2424.316090
336.332606	2438.280087
336.725315	2449.756273
337.117960	2461.565176
337.510540	2469.479788
337.903056	2483.186685
338.295508	2487.017962
338.687896	2499.031032
339.080220	2503.671414
339.472480	2509.844307
339.864676	2516.095337
340.256807	2520.634896
340.648875	2522.714372
341.040879	2527.442975
341.432818	2528.241998
341.824694	2528.778880
342.216506	2528.899868
342.608253	2530.432379
342.999937	2528.877183
343.391557	2527.505989
343.783113	2527.795855
344.174605	2523.082377
344.566033	2524.138498
344.957397	2524.027593
345.348697	2519.878723
345.739934	2519.472910
346.131106	2521.539783
346.522215	2515.225738
346.913260	2513.902435
347.304241	2515.641633
347.695159	2510.290449
348.086012	2510.736591
348.476802	2509.178874
348.867528	2503.462206
349.258191	2505.413132
349.648789	2505.130828
350.039324	2501.203769
350.429796	2503.134531
350.820203	2501.617143
351.210548	2499.739314
351.600828	2500.540857
351.991045	2499.593120
352.381198	2498.022801
352.771288	2496.487769
353.161314	2497.518685
353.551276	2497.319560
353.941175	2497.455671
354.331010	2495.434168
354.720782	2497.874087
355.110490	2496.903665
355.500135	2496.097080
355.889717	2498.078253
356.279235	2499.152019
356.668689	2498.920126
357.058080	2500.276197
357.447408	2499.411639
357.836672	2494.055413
358.225873	2499.792246
358.615010	2492.235556
359.004084	2500.946670
359.393095	2500.316526
359.782043	2502.365755
360.170927	2503.822648
360.559748	2502.537154
360.948505	2506.862464
361.337199	2504.611589
361.725830	2504.896414
362.114398	2506.786847
362.502903	2508.584018
362.891344	2507.260715
363.279722	2509.849348
363.668037	2508.773061
364.056289	2510.739111
364.444478	2509.241889
364.832603	2511.129801
365.220665	2508.256343
365.608665	2511.613752
365.996601	2513.622651
366.384474	2514.840090
366.772284	2514.588032
367.160031	2513.118536
367.547715	2518.494927
367.935336	2517.043074
368.322893	2523.316790
368.710388	2526.669157
369.097820	2534.155271
369.485189	2536.149047
369.872495	2541.152392
370.259738	2548.172199
370.646918	2558.935063
371.034035	2563.683830
371.421090	2575.631364
371.808081	2583.709813
372.195010	2591.236256
372.581875	2605.631271
372.968678	2618.468569
373.355418	2628.268572
373.742096	2646.900677
374.128710	2663.339879
374.515262	2677.223217
374.901751	2692.147553
375.288177	2704.120293
375.674540	2727.949828
376.060841	2744.676376
376.447079	2765.541712
376.833254	2785.943262
377.219367	2796.693522
377.605417	2836.679954
377.991404	2844.992817
378.377329	2868.361086
378.763191	2882.882129
379.148991	2921.399065
379.534727	2945.533589
379.920402	2975.052066
380.306013	2989.386587
380.691563	3038.134544
381.077049	3059.950138
381.462474	3075.376068
381.847835	3117.167234
382.233134	3138.166160
382.618371	3136.026190
383.003545	3205.921788
383.388657	3213.022254
383.773706	3244.005185
384.158693	3257.908687
384.543618	3288.828605
384.928480	3322.740447
385.313280	3371.281717
385.698017	3371.082591
386.082692	3424.009666
386.467305	3427.412444
386.851856	3459.751446
387.236344	3481.551916
387.620770	3514.392513
388.005133	3535.847664
388.389435	3567.904361
388.773674	3576.549940
389.157851	3622.230355
389.541965	3636.033035
389.926018	3603.106738
390.310008	3673.077954
390.693936	3691.009338
391.077802	3733.967530
391.461606	3719.025550
391.845348	3784.913431
392.229027	3780.157103
392.612645	3795.562869
392.996200	3872.909292
393.379694	3914.403029
393.763125	3974.029797
394.146494	3944.720529
394.529801	4010.689068
394.913047	4051.552661
395.296230	4019.841283
395.679351	4073.411104
396.062410	4097.091924
396.445408	4084.075665
396.828343	4116.079430
397.211217	4140.828975
397.594028	4054.748752
397.976778	4124.109988
398.359466	4149.822393
398.742092	4181.866488
399.124656	4101.127368
399.507158	4180.974204
399.889598	4206.190055
400.271977	4268.755816
400.654294	4238.100559
401.036549	4246.680603
401.418742	4218.364442
401.800874	4320.465451
402.182944	4342.454964
402.564952	4405.141712
402.946898	4391.399527
403.328783	4388.833580
403.710606	4299.990805
404.092367	4495.186802
404.474067	4457.234476
404.855705	4468.564469
405.237282	4395.109816
405.618797	4505.138040
406.000250	4536.052916
406.381642	4621.901245
406.762972	4582.459258
407.144240	4594.880661
407.525447	4590.530145
407.906593	4654.751924
408.287677	4694.070404
408.668700	4622.082727
409.049661	4675.110624
409.430560	4716.856419
409.811399	4644.490656
410.192176	4803.869255
410.572891	4744.615533
410.953545	4848.549002
411.334138	4727.488213
411.714669	4798.744922
412.095139	4690.987738
412.475547	4831.542669
412.855894	4812.963497
413.236180	4823.686031
413.616405	4770.978247
413.996568	4861.746742
414.376670	4804.438906
414.756711	4755.980814
415.136691	4789.020537
415.516609	4870.089852
415.896466	4905.330038
416.276262	4941.654072
416.655997	4920.030043
417.035670	5100.311787
417.415283	5193.348801
417.794834	5138.513650
418.174324	5090.108491
418.553753	4998.210777
418.933121	5182.228016
419.312428	5249.960959
419.691674	5190.515673
420.070859	5314.679292
420.449983	5227.797526
420.829045	5345.276575
421.208047	5252.728553
421.586988	5318.306402
421.965867	5329.336447
422.344686	5465.366942
422.723444	5322.969470
423.102141	5137.550790
423.480777	5434.850317
423.859352	5205.258527
424.237866	5461.994410
424.616319	5459.123473
424.994712	5565.275050
425.373044	5441.683602
425.751314	5586.329429
426.129524	5390.152927
426.507673	5581.258028
426.885762	5663.484288
427.263789	5595.179174
427.641756	5475.532429
428.019662	5600.656388
428.397508	5607.295588
428.775292	5554.194594
429.153016	5654.493391
429.530679	5577.517492
429.908282	5665.611655
430.285824	5536.008631
430.663305	5808.873686
431.040726	5545.697729
431.418086	5545.460795
431.795385	5653.243184
432.172624	5664.300955
432.549802	5657.697044
432.926920	5671.040978
433.303977	5678.721176
433.680974	5715.720725
434.057910	5733.654629
434.434786	5744.120065
434.811601	5705.850145
435.188355	5944.130364
435.565050	5816.269059
435.941683	5801.790865
436.318257	6012.841291
436.694770	5995.592983
437.071222	6028.993148
437.447614	5962.003775
437.823946	5877.400611
438.200218	6031.188571
438.576429	5890.066510
438.952580	5993.389999
439.328670	6041.515374
439.704700	5945.582217
440.080670	5931.033447
440.456580	6202.958326
440.832429	6088.342652
441.208218	5929.321975
441.583947	6086.893321
441.959616	6092.042859
442.335224	6020.420666
442.710773	6151.987220
443.086261	6182.460995
443.461689	5977.565817
443.837057	6130.315299
444.212365	6278.729389
444.587612	6178.987640
444.962800	6326.355690
445.337927	6308.462114
445.712995	5917.450058
446.088002	6495.977914
446.462949	6323.146996
446.837837	6254.756182
447.212664	6428.980979
447.587431	6570.269398
447.962139	7109.466172
448.336786	8046.853607
448.711374	7778.802854
449.085901	6856.165836
449.460369	6780.546008
449.834776	6710.494134
450.209124	7098.307578
450.583412	7249.824498
450.957640	7398.283959
451.331808	7161.216137
451.705917	6718.491924
452.079965	6638.569471
452.453954	6850.320618
452.827883	6727.039201
453.201752	6823.710887
453.575562	6617.910823
453.949311	6825.376989
454.323001	6708.225614
454.696632	6785.014990
455.070202	6925.716115
455.443713	7085.220743
455.817164	7180.649785
456.190556	7259.964779
456.563888	7336.144176
456.937160	7378.371401
457.310373	7037.513784
457.683526	7060.826600
458.056619	6952.474559
458.429653	6937.741787
458.802628	6877.104268
459.175542	6982.325752
459.548398	7338.871440
459.921194	7499.754824
460.293930	7498.451686
460.666607	8030.807614
461.039224	8339.124583
461.411782	8466.693502
461.784280	8489.466914
462.156719	8378.266622
462.529099	8256.283302
462.901419	7844.025302
463.273680	7739.784323
463.645882	7746.340344
464.018024	7619.315870
464.390106	7784.973226
464.762130	8167.158223
465.134094	8631.965210
465.505999	9654.444801
465.877845	10877.458971
466.249631	11526.048783
466.621358	11144.456123
466.993026	10522.604590
467.364634	10261.709755
467.736184	9902.882945
468.107674	9568.404908
468.479105	9598.500596
468.850477	9364.641469
469.221790	9136.201583
469.593043	8810.956419
469.964238	8669.650356
470.335373	8684.418416
470.706449	8738.439421
471.077467	8719.167089
471.448425	10024.793168
471.819324	11104.946079
472.190164	11124.878802
472.560945	9891.041274
472.931667	9096.068957
473.302330	8956.484448
473.672934	8601.196528
474.043479	8962.894275
474.413965	8895.017659
474.784393	8787.348695
475.154761	8938.663969
475.525070	9021.575826
475.895321	8855.757153
476.265513	9027.501703
476.635645	9200.156181
477.005719	9197.053351
477.375734	9311.752203
477.745691	9543.524293
478.115588	9680.429428
478.485427	9922.775338
478.855207	10457.798037
479.224928	11278.329004
479.594591	11899.444528
479.964194	11718.346118
480.333739	11661.411326
480.703226	11572.755074
481.072653	11658.089206
481.442022	11901.208932
481.811333	12085.148033
482.180584	11903.542986
482.549777	11601.676173
482.918912	11430.465986
483.287988	11456.927002
483.657005	11471.125412
484.025964	11145.764302
484.394864	11282.881166
484.763706	11249.246587
485.132489	11008.498724
485.501213	10968.794596
485.869879	11045.405011
486.238487	10881.189425
486.607036	10996.964564
486.975527	10781.777871
487.343959	10966.011879
487.712333	11012.887048
488.080648	10943.702253
488.448905	10988.117339
488.817104	10922.559654
489.185244	11189.702999
489.553326	11342.328973
489.921350	11879.458874
490.289315	12950.603243
490.657222	13276.586936
491.025070	13197.254298
491.392861	13073.420874
491.760593	12695.687217
492.128267	12341.044564
492.495883	12021.483301
492.863440	11679.569562
493.230939	11344.295023
493.598380	11272.219126
493.965763	11146.008798
494.333088	11043.630525
494.700354	10969.530605
495.067563	11025.557988
495.434713	10854.451145
495.801805	10982.882101
496.168839	10905.364278
496.535815	10839.972951
496.902733	10839.216778
497.269593	10773.260841
497.636395	10875.417303
498.003139	10863.850376
498.369825	10729.420447
498.736453	10884.120856
499.103023	10811.054372
499.469535	10840.461943
499.835989	10839.274751
500.202385	10794.476537
500.568723	10646.427931
500.935003	10866.083607
501.301226	10674.565131
501.667390	10929.899574
502.033497	11029.706858
502.399546	10886.361648
502.765537	10793.178440
503.131470	10879.508200
503.497345	11045.289065
503.863163	10657.762966
504.228923	10962.677156
504.594625	11030.447908
504.960269	10778.962386
505.325856	11001.662919
505.691385	10794.219438
506.056856	10949.081164
506.422270	10968.902981
506.787625	10862.358194
507.152924	10977.893879
507.518164	10957.441918
507.883347	10875.775225
508.248472	10808.911881
508.613540	11032.711386
508.978550	10915.489435
509.343503	10886.137317
509.708398	11006.540236
510.073236	11121.322267
510.438016	11120.949222
510.802738	11068.498537
511.167403	11129.211673
511.532010	11027.362722
511.896561	11257.440983
512.261053	11329.509318
512.625488	11193.907321
512.989866	11178.501555
513.354186	11170.206336
513.718449	11069.708414
514.082655	11264.367528
514.446803	11160.305510
514.810894	11282.669437
515.174927	11147.223716
515.538904	11180.772595
515.902822	11329.824391
516.266684	11206.699249
516.630488	11153.099181
516.994235	11215.337266
517.357925	11275.009404
517.721558	11361.971829
518.085133	11372.457429
518.448651	11386.978472
518.812112	11269.350709
519.175516	11277.812286
519.538863	11405.063612
519.902152	11323.636374
520.265385	11478.246042
520.628560	11387.114583
520.991678	11367.675894
521.354739	11434.519074
521.717743	11370.453570
522.080690	11341.260248
522.443580	11480.370888
522.806413	11433.122674
523.169189	11467.699948
523.531908	11521.662980
523.894569	11346.225785
524.257174	11345.973727
524.619722	11465.108795
524.982213	11414.641804
525.344647	11461.741304
525.707025	11406.434806
526.069345	11506.698314
526.431608	11429.430029
526.793815	11535.959692
527.155964	11328.911942
527.518057	11375.507327
527.880093	11326.230048
528.242072	11393.902497
528.603995	11300.056377
528.965860	11220.660725
529.327669	11274.228025
529.689421	11219.854140
530.051117	11192.203411
530.412755	11298.483537
530.774337	11190.401199
531.135862	11172.585761
531.497331	11195.444873
531.858743	11046.773684
532.220098	11210.878366
532.581396	11085.918244
532.942638	11067.775131
533.303824	11028.912876
533.664953	11043.262521
534.026025	10959.292021
534.387040	11053.755683
534.747999	11053.896835
535.108902	11112.921185
535.469748	10866.249965
535.830537	10980.028807
536.191270	10956.519387
536.551947	10982.375465
536.912567	10979.197017
537.273131	10906.130533
537.633638	10878.252952
537.994089	10870.799607
538.354483	10818.268263
538.714821	10965.963988
539.075103	10970.788372
539.435328	10935.505337
539.795497	10762.263564
540.155609	10929.922259
540.515665	11009.166677
540.875665	10746.646070
541.235609	10815.674589
541.595496	10809.904989
541.955328	10968.459359
542.315102	10849.525937
542.674821	10803.921139
543.034483	10802.955758
543.394090	10804.876438
543.753640	10728.467669
544.113134	10954.185332
544.472571	10813.660648
544.831953	10953.106525
545.191278	10756.650239
545.550548	10791.202308
545.909761	10927.958729
546.268918	10903.335213
546.628019	10983.771864
546.987064	10846.876811
547.346053	10767.909657
547.704986	10866.522188
548.063863	10855.779489
548.422684	10848.225320
548.781449	10765.016034
549.140158	10858.932730
549.498811	10741.806562
549.857408	10601.412948
550.215949	10821.476957
550.574434	10672.319297
550.932864	10773.407035
551.291237	10832.018010
551.649555	10783.025556
552.007817	10791.406475
552.366022	10759.901784
552.724173	10751.258725
553.082267	10733.405479
553.440305	10873.778928
553.798288	10666.085911
554.156215	10829.560448
554.514086	10804.384925
554.871902	10655.179374
555.229661	10695.392658
555.587365	10669.609677
555.945014	10564.035313
556.302606	10693.330827
556.660143	10581.384444
557.017625	10740.079967
557.375050	10636.804368
557.732421	10765.915880
558.089735	10682.900679
558.446994	10679.386995
558.804197	10714.322191
559.161345	10725.790816
559.518437	10569.522609
559.875474	10657.783130
560.232455	10688.463592
560.589381	10637.981478
560.946251	10631.004521
561.303065	10744.788404
561.659825	10679.364310
562.016528	10601.652403
562.373177	10487.311472
562.729770	10604.170459
563.086307	10515.592345
563.442789	10607.338824
563.799216	10480.856274
564.155587	10539.016066
564.511904	10486.996400
564.868164	10476.624226
565.224370	10488.770886
565.580520	10420.039794
565.936615	10420.596842
566.292654	10290.099013
566.648638	10415.409494
567.004567	10380.013033
567.360441	10363.657009
567.716260	10270.541856
568.072023	10368.526764
568.427732	10319.826697
568.783385	10220.289114
569.138982	10301.209716
569.494525	10315.128342
569.850013	10193.906236
570.205445	10274.426065
570.560823	10175.548874
570.916145	10080.843237
571.271412	10156.556327
571.626625	10103.099931
571.981782	10077.682434
572.336884	10051.445748
572.691931	10056.081089
573.046923	10006.907154
573.401860	9959.046440
573.756743	9894.590247
574.111570	9942.808883
574.466342	9922.898846
574.821059	9955.651222
575.175722	9840.375158
575.530330	9856.952992
575.884882	9846.742135
576.239380	9769.557028
576.593823	9753.435418
576.948211	9765.957644
577.302544	9650.704265
577.656823	9666.818313
578.011047	9661.391511
578.365216	9640.586669
578.719330	9559.252693
579.073389	9568.324249
579.427394	9519.314151
579.781344	9496.460080
580.135239	9444.195918
580.489080	9449.582391
580.842866	9355.123771
581.196597	9357.656950
581.550273	9401.557839
581.903895	9369.700267
582.257463	9436.493035
582.610975	9306.017891
582.964434	9339.284465
583.317837	9260.955017
583.671186	9248.757945
584.024481	9237.556501
584.377721	9156.391404
584.730906	9137.913054
585.084037	9161.508175
585.437113	9102.478784
585.790135	9120.326989
586.143103	9026.301908
586.496016	8992.155653
586.848874	9054.045898
587.201679	9034.123258
587.554428	8925.216691
587.907124	8971.580183
588.259765	8947.541441
588.612352	8943.669835
588.964884	8821.230290
589.317362	8839.973300
589.669786	8830.763112
590.022155	8888.721258
590.374470	8903.353207
590.726731	8840.275769
591.078937	8686.986884
591.431090	8807.377199
591.783188	8676.518928
592.135232	8670.663628
592.487222	8669.569697
592.839157	8725.781083
593.191038	8655.885485
593.542866	8599.747196
593.894639	8499.019901
594.246358	8551.059732
594.598022	8565.303512
594.949633	8463.262997
595.301190	8437.648894
595.652692	8463.373902
596.004141	8580.764731
596.355535	8355.513374
596.706876	8334.622833
597.058162	8273.108153
597.409395	8344.652208
597.760573	8408.049759
598.111698	8311.725912
598.462768	8295.853839
598.813785	8266.642873
599.164748	8233.245229
599.515657	8224.995381
599.866511	8134.234447
600.217312	8264.107173
600.568060	8122.745657
600.918753	8228.597285
601.269392	8191.892644
601.619978	8105.716640
601.970510	8171.070158
602.320988	8167.175867
602.671412	8224.924805
603.021783	8157.630442
603.372100	8132.003736
603.722363	8136.157647
604.072572	8109.240406
604.422728	8119.534442
604.772830	8051.741005
605.122878	8059.627891
605.472872	8055.040441
605.822813	8086.638393
606.172701	8029.615381
606.522534	8103.990044
606.872314	8104.360569
607.222041	8069.929488
607.571714	8122.959906
607.921333	8087.059329
608.270899	8089.857170
608.620411	8181.487702
608.969870	8084.548835
609.319276	8079.910973
609.668627	8096.398067
610.017926	8130.751010
610.367171	8175.229110
610.716362	8153.658013
611.065500	8143.621075
611.414585	8170.694592
611.763616	8160.181266
612.112594	8136.344170
612.461518	8154.537694
612.810389	8218.267961
613.159207	8157.935432
613.507971	8104.973069
613.856682	8215.031540
614.205340	8176.262547
614.553945	8256.711800
614.902496	8158.109352
615.250994	8207.467289
615.599439	8190.161008
615.947830	8204.518214
616.296169	8173.056373
616.644454	8190.816358
616.992686	8194.143519
617.340864	8247.171417
617.688990	8151.485275
618.037063	8241.122032
618.385082	8182.208587
618.733048	8270.597658
619.080961	8210.912918
619.428821	8229.426555
619.776628	8233.204900
620.124382	8191.007922
620.472083	8172.055704
620.819731	8200.147533
621.167326	8085.345337
621.514868	8099.868901
621.862357	7984.202147
622.209793	8005.679983
622.557176	7940.505425
622.904506	7906.122235
623.251783	7838.739653
623.599007	7796.608209
623.946179	7804.598438
624.293297	7759.117148
624.640363	7675.197060
624.987376	7658.420100
625.334336	7608.053932
625.681243	7553.382618
626.028097	7546.261989
626.374899	7523.377671
626.721647	7519.221239
627.068343	7446.764735
627.414987	7414.324910
627.761577	7370.154320
628.108115	7411.108654
628.454600	7299.200080
628.801032	7351.499530
629.147412	7310.356153
629.493739	7301.070348
629.840014	7236.465441
630.186236	7288.744727
630.532405	7181.892430
630.878521	7225.246353
631.224585	7188.652617
631.570597	7108.430215
631.916556	7141.608569
632.262462	7136.358208
632.608316	7095.897907
632.954117	7078.652120
633.299866	7064.350366
633.645562	7056.024901
633.991206	6977.153528
634.336797	6916.001811
634.682336	6876.360698
635.027823	6844.109916
635.373257	6832.663977
635.718639	6766.569408
636.063968	6775.058712
636.409245	6672.009965
636.754470	6672.713206
637.099642	6627.781402
637.444762	6572.671508
637.789829	6589.176246
638.134845	6529.942688
638.479808	6510.647672
638.824719	6513.110275
639.169577	6447.119051
639.514383	6467.936496
639.859137	6397.796402
640.203839	6403.167751
640.548489	6388.687037
640.893086	6365.192739
641.237632	6337.927659
641.582125	6355.690164
641.926566	6330.290311
642.270955	6342.747002
642.615292	6335.845662
642.959576	6351.059864
643.303809	6343.576272
643.647990	6343.271282
643.992118	6339.818091
644.336195	6288.355472
644.680219	6302.929448
645.024192	6298.672194
645.368112	6395.727008
645.711981	6416.632673
646.055797	6489.434496
646.399562	6449.405214
646.743274	6575.113947
647.086935	6627.925075
647.430544	6625.646473
647.774101	6648.462736
648.117606	6651.946173
648.461059	6645.327138
648.804460	6603.238544
649.147810	6516.631521
649.491108	6484.262272
649.834354	6457.798735
650.177548	6375.025510
650.520690	6292.932840
650.863781	6264.538541
651.206820	6284.332632
651.549807	6209.380756
651.892742	6146.875490
652.235626	6154.066696
652.578458	6139.802751
652.921238	6050.690274
653.263967	6089.562612
653.606644	6028.635226
653.949269	6032.385845
654.291843	5972.292770
654.634365	6023.513414
654.976836	5972.721268
655.319255	5974.725127
655.661622	5954.973886
656.003938	5948.425427
656.346203	5910.188275
656.688416	5942.431495
657.030577	5893.809567
657.372687	5864.089444
657.714746	5846.931877
658.056753	5893.696141
658.398708	5833.308159
658.740612	5826.835317
659.082465	5874.043202
659.424266	5861.846131
659.766016	5865.732860
660.107715	5841.220250
660.449362	5859.005440
660.790958	5850.574111
661.132503	5837.509960
661.473996	5875.076639
661.815438	5861.790678
662.156829	5854.201221
662.498168	5851.214337
662.839456	5828.887067
663.180693	5857.397312
663.521879	5866.196646
663.863013	5852.366241
664.204097	5874.254931
664.545129	5907.491258
664.886110	5910.150467
665.227040	5942.436537
665.567918	5903.304580
665.908746	5936.215753
666.249522	5940.588954
666.590248	5922.476088
666.930922	5959.440348
667.271545	5966.351770
667.612118	5972.713707
667.952639	5943.164983
668.293109	5961.345905
668.633528	5922.634884
668.973896	5922.357621
669.314213	5913.707001
669.654480	5897.640843
669.994695	5890.898300
670.334859	5880.909254
670.674973	5873.725610
671.015035	5875.883223
671.355047	5871.898191
671.695008	5861.263877
672.034918	5831.639537
672.374777	5845.956414
672.714585	5831.460576
673.054342	5836.605073
673.394049	5826.749618
673.733705	5857.818249
674.073310	5845.480025
674.412864	5806.305218
674.752368	5792.540348
675.091820	5801.523684
675.431223	5734.415844
675.770574	5738.945320
676.109875	5685.519172
676.449125	5692.170974
676.788324	5664.074103
677.127473	5605.485813
677.466571	5598.652529
677.805619	5583.410601
678.144616	5573.797120
678.483562	5550.756527
678.822458	5515.307133
679.161303	5517.300909
679.500098	5504.226677
679.838842	5486.227237
680.177535	5495.487837
680.516179	5507.773128
680.854771	5519.120766
681.193314	5603.366008
681.531805	5706.997008
681.870247	5856.860429
682.208638	5957.640657
682.546978	5971.985260
682.885268	5951.311488
683.223508	5868.843252
683.561697	5809.478624
683.899836	5784.320746
684.237925	5735.693776
684.575963	5703.500968
684.913951	5658.518752
685.251889	5719.456220
685.589776	5690.081416
685.927614	5658.312065
686.265401	5733.367284
686.603137	5716.920519
686.940824	5789.699657
687.278460	5818.235109
687.616046	5829.267674
687.953582	5893.978445
688.291068	5875.555548
688.628504	5940.241114
688.965889	5901.908180
689.303224	5845.785014
689.640510	5798.559485
689.977745	5721.618875
690.314930	5626.235203
690.652065	5572.282254
690.989150	5474.118385
691.326185	5403.055760
691.663170	5349.599365
692.000105	5270.307056
692.336990	5190.472823
692.673825	5166.169420
693.010610	5096.959419
693.347345	5031.807547
693.684030	5014.075288
694.020665	4973.955265
694.357251	4879.862129
694.693786	4892.631372
695.030272	4859.848748
695.366707	4820.923479
695.703093	4790.661432
696.039429	4812.282941
696.375716	4792.680414
696.711952	4770.244759
697.048139	4757.397378
697.384276	4739.498762
697.720363	4749.137448
698.056400	4757.387296
698.392388	4707.399215
698.728326	4686.848951
699.064214	4666.591074
699.400053	4656.440711
699.735842	4624.711689
700.071581	4601.048512
700.407270	4573.493566
700.742910	4557.440011
701.078501	4504.404552
701.414042	4499.839787
701.749533	4472.446157
702.084974	4405.774377
702.420366	4464.949962
702.755709	4402.341351
703.091002	4349.873022
703.426246	4396.186103
703.761440	4355.977859
704.096584	4317.849092
704.431679	4341.671065
704.766725	4324.142973
705.101721	4312.818021
705.436668	4345.721632
705.771565	4285.346253
706.106413	4311.608144
706.441212	4348.877394
706.775961	4355.332592
707.110661	4332.513809
707.445311	4362.748129
707.779913	4386.091192
708.114465	4401.650713
708.448967	4422.967232
708.783421	4485.727077
709.117825	4524.440618
709.452180	4529.300290
709.786485	4574.005243
710.120742	4660.594622
710.454949	4645.463598
710.789107	4711.227971
711.123216	4785.547182
711.457275	4774.202065
711.791286	4853.295248
712.125247	4869.951220
712.459159	4774.804483
712.793023	4845.151264
713.126837	4805.797497
713.460602	4800.751302
713.794318	4720.193663
714.127985	4721.166606
714.461602	4640.175428
714.795171	4609.346252
715.128691	4545.772261
715.462162	4493.041791
715.795584	4438.012556
716.128957	4421.704423
716.462281	4373.909244
716.795556	4343.125438
717.128782	4305.117658
717.461960	4237.571238
717.795088	4247.313268
718.128167	4206.961352
718.461198	4143.775529
718.794180	4141.325529
719.127113	4121.493629
719.459997	4101.220629
719.792833	4056.553486
720.125619	4048.492681
720.458357	4010.162267
720.791046	4018.495295
721.123686	3990.726099
721.456278	3946.457206
721.788821	3965.149805
722.121315	3938.656021
722.453761	3914.760951
722.786158	3922.882250
723.118506	3948.181281
723.450805	3900.910381
723.783056	3923.353598
724.115259	3940.057461
724.447412	3943.472843
724.779518	3934.832305
725.111574	3944.571815
725.443582	3973.180363
725.775542	3954.276036
726.107453	4007.845857
726.439315	4005.559694
726.771129	4022.954195
727.102895	4057.518867
727.434612	4104.699025
727.766281	4118.562198
728.097901	4117.148155
728.429473	4122.201912
728.760996	4128.820947
729.092471	4125.065287
729.423897	4108.535343
729.755276	4114.894759
730.086606	4113.296713
730.417887	4153.918331
730.749120	4216.151375
731.080305	4280.078247
731.411442	4309.342145
731.742530	4278.810397
732.073570	4284.743835
732.404562	4336.080425
732.735506	4329.161442
733.066401	4290.087458
733.397249	4228.900453
733.728048	4152.509328
734.058798	4067.134868
734.389501	3995.500071
734.720156	3933.642593
735.050762	3888.698186
735.381320	3883.480592
735.711831	3830.853466
736.042293	3801.539157
736.372707	3827.211232
736.703073	3796.538332
737.033391	3786.019964
737.363661	3804.450423
737.693883	3826.349195
738.024056	3842.770754
738.354182	3834.871266
738.684260	3898.470463
739.014290	3915.970828
739.344272	3912.830189
739.674207	3954.860810
740.004093	3960.965647
740.333931	3955.133032
740.663722	3951.604224
740.993464	3952.254533
741.323159	3929.269392
741.652806	3900.638159
741.982405	3873.466340
742.311956	3842.513655
742.641460	3832.083508
742.970915	3807.235660
743.300323	3768.491873
743.629683	3733.060123
743.958996	3721.687280
744.288260	3697.809854
744.617477	3665.120492
744.946647	3651.683297
745.275768	3622.071559
745.604842	3621.396044
745.933869	3573.752099
746.262847	3567.611974
746.591778	3603.958693
746.920662	3572.559867
747.249498	3540.193138
747.578286	3588.094182
747.907027	3606.910289
748.235720	3605.115638
748.564365	3629.356026
748.892963	3630.689412
749.221514	3609.945063
749.550017	3587.453956
749.878473	3588.762135
750.206881	3557.577557
750.535242	3552.901887
750.863555	3557.592681
751.191821	3548.528686
751.520039	3530.093187
751.848210	3507.498735
752.176334	3543.187584
752.504411	3548.538768
752.832440	3508.217099
753.160421	3489.930314
753.488356	3500.385667
753.816243	3512.348325
754.144082	3470.342911
754.471875	3455.610138
754.799620	3474.746358
755.127318	3468.197900
755.454969	3467.192189
755.782572	3472.215699
756.110129	3451.189047
756.437638	3437.814865
756.765100	3453.568471
757.092515	3464.739668
757.419882	3469.614464
757.747203	3440.602623
758.074477	3442.009105
758.401703	3460.817650
758.728882	3482.330774
759.056014	3487.848317
759.383099	3490.991477
759.710138	3487.883605
760.037129	3506.805576
760.364073	3536.916388
760.690970	3521.896270
761.017820	3498.099504
761.344623	3516.313192
761.671379	3557.199471
761.998088	3610.207203
762.324751	3741.027666
762.651366	3985.185871
762.977935	4460.569199
763.304456	4906.973454
763.630931	4999.022403
763.957359	4643.230367
764.283740	4299.121206
764.610074	4105.969396
764.936362	3907.171494
765.262602	3750.119387
765.588796	3636.461533
765.914943	3551.006413
766.241044	3459.002835
766.567097	3430.855553
766.893104	3381.674056
767.219064	3351.709437
767.544978	3326.601970
767.870845	3269.979730
768.196665	3250.026843
768.522438	3256.630755
768.848165	3252.648243
769.173846	3218.945609
769.499479	3195.647917
769.825066	3182.745084
770.150607	3167.543484
770.476101	3183.113088
770.801548	3177.837520
771.126949	3133.646766
771.452303	3114.208077
771.777611	3122.513378
772.102872	3126.836167
772.428087	3103.092332
772.753256	3090.071032
773.078378	3084.689600
773.403453	3051.944785
773.728482	3036.849050
774.053465	3057.858059
774.378401	3046.165103
774.703291	3015.908097
775.028135	3017.244003
775.352932	3012.182684
775.677683	3002.909482
776.002388	2996.129130
776.327046	2999.373113
776.651658	2988.663181
776.976224	2976.148517
777.300743	2974.182467
777.625216	2964.836168
777.949643	2961.861887
778.274024	2963.603605
778.598359	2953.680094
778.922647	2957.869293
779.246889	2956.253603
779.571086	2941.261212
779.895236	2936.872887
780.219339	2944.056531
780.543397	2960.069757
780.867409	2962.446661
781.191374	2954.345526
781.515294	2952.258489
781.839167	2954.302677
782.162995	2942.755914
782.486776	2952.845783
782.810511	2947.297993
783.134201	2932.587906
783.457844	2942.093002
783.781441	2933.749892
784.104993	2915.715164
784.428498	2916.625093
784.751958	2928.469284
785.075372	2922.039292
785.398739	2908.203845
785.722061	2921.192378
786.045337	2935.811724
786.368568	2919.816143
786.691752	2910.280801
787.014891	2959.716876
787.337983	2990.969509
787.661030	3017.261647
787.984031	3084.233376
788.306987	3130.218781
788.629897	3123.536732
788.952760	3105.353290
789.275579	3092.173193
789.598351	3032.836292
789.921078	2989.053871
790.243759	2980.819146
790.566395	2963.588482
790.888984	2940.573094
791.211529	2922.694642
791.534027	2910.535379
791.856480	2898.938204
792.178888	2887.030999
792.501249	2878.899618
792.823566	2874.604555
793.145836	2871.123638
793.468062	2870.637167
793.790241	2867.829244
794.112375	2871.778988
794.434464	2884.339023
794.756507	2888.664333
795.078505	2888.606360
795.400457	2910.240471
795.722364	2946.067952
796.044226	2970.966211
796.366042	2973.943012
796.687812	2961.652679
797.009538	2979.200935
797.331218	2967.470170
797.652852	2955.444498
797.974442	2936.683844
798.295986	2932.474480
798.617484	2929.671599
798.938938	2912.536717
799.260346	2900.344686
799.581709	2891.018552
799.903026	2887.139384
800.224299	2879.549927
800.545526	2871.975593
800.866708	2855.223839
801.187845	2844.738239
801.508936	2842.394102
801.829983	2851.513550
802.150984	2838.532578
802.471940	2826.242245
802.792851	2826.741320
803.113717	2825.034889
803.434538	2832.062257
803.755314	2822.594971
804.076045	2817.846204
804.396731	2819.542552
804.717372	2815.789413
805.037967	2812.207673
805.358518	2818.035247
805.679024	2831.790035
805.999485	2826.711073
806.319901	2831.008656
806.640272	2823.391473
806.960598	2829.932370
807.280879	2834.741631
807.601115	2846.071624
807.921306	2832.412618
808.241453	2824.949189
808.561554	2834.615602
808.881611	2836.385047
809.201623	2828.440188
809.521590	2829.045127
809.841513	2825.889365
810.161390	2830.867504
810.481223	2823.451967
810.801011	2812.653815
811.120755	2811.960657
811.440453	2816.162458
811.760107	2810.211376
812.079716	2811.943012
812.399281	2804.232568
812.718801	2795.445837
813.038276	2791.468366
813.357707	2796.834674
813.677093	2801.253246
813.996434	2797.860549
814.315731	2795.085394
814.634983	2791.433078
814.954191	2790.273613
815.273354	2805.465130
815.592473	2814.070379
815.911547	2816.220432
816.230577	2819.892912
816.549562	2832.437823
816.868502	2831.439675
817.187399	2839.442507
817.506250	2857.777183
817.825058	2849.444156
818.143821	2862.651979
818.462539	2878.282077
818.781213	2905.768968
819.099843	2940.991510
819.418429	2999.761281
819.736970	3062.959707
820.055466	3135.494349
820.373919	3240.799011
820.692327	3383.360322
821.010691	3553.292577
821.329011	3999.611132
821.647286	4899.910798
821.965517	6293.452079
822.283704	7058.931126
822.601847	7051.981895
822.919945	6399.936372
823.237999	5892.574484
823.556010	5304.486079
823.873976	4741.588320
824.191897	4327.679342
824.509775	4033.661606
824.827609	3755.828494
825.145398	3631.838795
825.463144	3617.731126
825.780845	3707.506514
826.098502	3813.431238
826.416116	4097.437243
826.733685	4422.258950
827.051210	4484.665914
827.368692	4370.740878
827.686129	4099.355402
828.003522	3772.171915
828.320872	3514.836134
828.638177	3315.461020
828.955439	3174.132272
829.272656	3088.558686
829.589830	3024.765404
829.906960	2970.706591
830.224046	2925.431988
830.541088	2892.392266
830.858086	2875.388454
831.175041	2859.675178
831.491952	2862.417565
831.808819	2871.690768
832.125642	2896.823440
832.442421	2941.724998
832.759157	3024.775487
833.075849	3207.958415
833.392497	3484.541320
833.709101	3693.051005
834.025662	3644.920589
834.342179	3482.114005
834.658653	3306.485246
834.975083	3154.917914
835.291469	3058.672205
835.607811	2971.251036
835.924110	2910.502611
836.240366	2859.314735
836.556578	2817.382417
836.872746	2793.036165
837.188871	2769.998092
837.504952	2753.465628
837.820990	2746.229052
838.136984	2728.610219
838.452935	2725.257852
838.768842	2720.688046
839.084706	2740.966087
839.400526	2818.912408
839.716303	2951.030968
840.032037	3034.517517
840.347727	3023.255579
840.663373	2961.708132
840.978977	2886.110988
841.294537	2810.768424
841.610054	2763.757143
841.925527	2740.514904
842.240957	2719.939434
842.556344	2692.553366
842.871687	2682.725637
843.186987	2670.420180
843.502244	2667.448420
843.817458	2661.832574
844.132629	2649.224649
844.447756	2638.600417
844.762840	2634.985910
845.077881	2638.232413
845.392879	2630.552215
845.707833	2629.443161
846.022745	2620.805144
846.337613	2627.187245
846.652438	2624.175155
846.967221	2622.176338
847.281960	2622.236832
847.596656	2621.808333
847.911309	2620.558127
848.225919	2617.309104
848.540485	2614.029833
848.855009	2615.544700
849.169490	2614.541510
849.483928	2616.638630
849.798323	2615.055708
850.112675	2613.404730
850.426984	2613.898763
850.741251	2611.274842
851.055474	2608.043463
851.369654	2615.766511
851.683792	2616.512601
851.997887	2611.295007
852.311938	2611.274842
852.625947	2614.783486
852.939914	2612.583022
853.253837	2618.559310
853.567718	2612.341047
853.881555	2607.940119
854.195350	2615.133846
854.509103	2614.208794
854.822812	2610.919441
855.136479	2608.683689
855.450103	2611.998248
855.763685	2612.590584
856.077224	2611.272322
856.390720	2609.086982
856.704173	2612.487240
857.017584	2617.959412
857.330953	2616.331120
857.644278	2620.583333
857.957561	2618.226594
858.270802	2615.937910
858.584000	2613.989504
858.897155	2619.050822
859.210268	2618.405555
859.523339	2615.204422
859.836367	2608.996241
860.149352	2612.361211
860.462295	2611.027826
860.775195	2611.554627
861.088054	2607.443566
861.400869	2608.305603
861.713642	2606.049687
862.026373	2608.512290
862.339062	2610.372476
862.651708	2613.271139
862.964312	2611.405912
863.276873	2614.264247
863.589392	2615.156531
863.901869	2621.594084
864.214303	2625.508540
864.526696	2628.155146
864.839045	2632.460292
865.151353	2632.082205
865.463619	2633.019860
865.775842	2629.075157
866.088023	2632.412401
866.400162	2630.348048
866.712258	2634.857360
867.024313	2630.383336
867.336325	2627.880403
867.648296	2630.456433
867.960224	2631.197482
868.272110	2633.650004
868.583954	2628.387039
868.895755	2626.526853
869.207515	2631.230250
869.519233	2636.379789
869.830909	2635.116980
870.142542	2635.106897
870.454134	2634.159160
870.765684	2639.013792
871.077191	2637.519089
871.388657	2645.731129
871.700081	2644.364976
872.011463	2642.603093
872.322803	2646.288177
872.634101	2648.851603
872.945357	2655.813437
873.256571	2660.116062
873.567744	2656.098262
873.878874	2656.050371
874.189963	2656.519198
874.501010	2661.814930
874.812015	2666.772905
875.122979	2665.114366
875.433900	2659.251504
875.744780	2656.317552
876.055618	2661.275527
876.366415	2667.030004
876.677169	2665.943635
876.987882	2661.265445
877.298554	2659.937101
877.609183	2671.483863
877.919771	2678.584329
878.230317	2682.965091
878.540822	2697.206351
878.851285	2711.528269
879.161707	2735.327556
879.472087	2773.365583
879.782425	2822.736123
880.092722	2935.413473
880.402977	3131.889924
880.713191	3393.099831
881.023363	3699.322201
881.333494	3895.546593
881.643583	4069.693253
881.953631	4068.715269
882.263637	3891.243969
882.573602	3669.007222
882.883526	3531.860111
883.193408	3414.630599
883.503248	3308.244609
883.813048	3193.727237
884.122806	3074.720718
884.432522	2990.200733
884.742197	2921.013417
885.051831	2881.392468
885.361424	2846.656398
885.670975	2811.416212
885.980485	2777.574946
886.289954	2758.693304
886.599382	2745.084710
886.908768	2732.902761
887.218113	2717.759135
887.527417	2700.170549
887.836680	2691.308201
888.145901	2685.868796
888.455082	2677.714730
888.764221	2666.596465
889.073319	2659.150681
889.382376	2658.845691
889.691392	2660.194199
890.000366	2658.409631
890.309300	2657.643376
890.618193	2659.463232
890.927044	2662.001453
891.235855	2664.131341
891.544625	2661.842657
891.853353	2659.702687
892.162041	2668.139058
892.470687	2690.234435
892.779293	2700.410004
893.087858	2712.281922
893.396381	2733.701784
893.704864	2777.043104
894.013306	2848.670339
894.321707	2942.004782
894.630068	2998.579131
894.938387	3020.674508
895.246665	3011.381141
895.554903	2967.202989
895.863100	2920.552152
896.171256	2862.311701
896.479371	2799.030097
896.787446	2759.114241
897.095480	2739.642784
897.403473	2732.421331
897.711425	2719.130329
898.019336	2697.627287
898.327207	2685.089938
898.635038	2686.834177
898.942827	2680.326047
899.250576	2668.857422
899.558284	2657.812254
899.865952	2653.333189
900.173579	2651.372180
900.481165	2652.682880
900.788711	2641.564615
901.096216	2635.517751
901.403681	2632.558594
901.711105	2632.787967
902.018489	2631.487349
902.325832	2634.098667
902.633135	2637.400622
902.940397	2650.051398
903.247619	2691.164528
903.554800	2759.956113
903.861941	2892.667009
904.169041	3021.924714
904.476101	3085.854107
904.783121	3079.829928
905.090100	3022.322965
905.397039	2947.318158
905.703938	2869.016436
906.010796	2802.221147
906.317614	2749.233579
906.624391	2710.661191
906.931129	2683.635565
907.237826	2661.802327
907.544483	2644.425470
907.851099	2632.692185
908.157675	2619.711213
908.464211	2609.805346
908.770707	2600.703543
909.077163	2598.495518
909.383578	2592.015114
909.689954	2589.446646
909.996289	2588.829105
910.302584	2589.000504
910.608839	2588.496389
910.915054	2586.379104
911.221229	2587.546131
911.527363	2589.509661
911.833458	2590.971595
912.139513	2593.345979
912.445527	2593.076277
912.751502	2597.731783
913.057436	2607.267125
913.363331	2611.315172
913.669186	2618.710544
913.975000	2633.803759
914.280775	2652.851759
914.586510	2669.137206
914.892205	2709.501725
915.197859	2776.639812
915.503475	2865.444778
915.809050	2933.702001
916.114585	2952.719754
916.420081	2963.659058
916.725536	2973.522076
917.030952	2947.824794
917.336328	2897.556928
917.641665	2851.533714
917.946961	2796.869962
918.252218	2762.809407
918.557435	2733.086763
918.862612	2711.140100
919.167750	2691.867769
919.472848	2676.630882
919.777906	2660.673109
920.082925	2644.730460
920.387904	2635.900879
920.692843	2630.766464
920.997743	2624.840587
921.302603	2617.019237
921.607423	2613.313989
921.912204	2604.686054
922.216946	2602.591455
922.521647	2599.481063
922.826310	2600.864860
923.130932	2589.613004
923.435516	2586.464804
923.740059	2583.344330
924.044564	2583.614031
924.349028	2580.463310
924.653454	2573.592218
924.957840	2568.888821
925.262186	2568.009140
925.566493	2570.680951
925.870761	2564.775239
926.174989	2567.081567
926.479178	2564.631567
926.783328	2561.871535
927.087438	2559.103941
927.391509	2562.365568
927.695541	2557.314332
927.999533	2559.406411
928.303486	2556.918601
928.607400	2556.011193
928.911275	2553.268806
929.215110	2552.941131
929.518906	2554.004814
929.822663	2556.991698
930.126381	2554.710576
930.430060	2556.432130
930.733699	2552.941131
931.037299	2558.393139
931.340861	2554.571944
931.644383	2558.143602
931.947866	2553.936759
932.251309	2554.335010
932.554714	2554.055226
932.858080	2557.523540
933.161407	2555.360885
933.464694	2556.454815
933.767943	2552.293343
934.071153	2551.809392
934.374323	2552.457180
934.677455	2551.872406
934.980548	2552.459701
935.283602	2552.247972
935.586617	2552.016079
935.889593	2551.479196
936.192530	2549.961809
936.495428	2551.083466
936.798287	2552.411810
937.101108	2552.343754
937.403890	2557.147974
937.706632	2559.567728
938.009336	2563.184755
938.312002	2567.878070
938.614628	2571.028791
938.917216	2576.216138
939.219765	2573.030129
939.522275	2577.504153
939.824747	2578.275449
940.127179	2569.718091
940.429573	2566.625343
940.731929	2567.936043
941.034246	2562.055537
941.336524	2567.910837
941.638763	2566.779098
941.940964	2567.321022
942.243126	2564.800445
942.545250	2566.181721
942.847335	2562.985630
943.149381	2561.521175
943.451389	2560.533108
943.753359	2557.909188
944.055290	2554.206460
944.357182	2557.717624
944.659036	2555.731409
944.960851	2558.221739
945.262628	2554.103117
945.564367	2553.712427
945.866067	2554.498847
946.167729	2557.853735
946.469352	2554.834084
946.770937	2555.733930
947.072484	2557.367264
947.373992	2554.755946
947.675462	2555.512119
947.976893	2554.201419
948.278286	2553.412479
948.579641	2553.664536
948.880958	2551.766542
949.182236	2553.886347
949.483476	2550.949875
949.784678	2548.562889
950.085841	2550.780996
950.386967	2550.652447
950.688054	2552.890719
950.989103	2553.886347
951.290114	2554.236707
951.591087	2556.699311
951.892021	2554.866852
952.192917	2561.473284
952.493776	2556.946327
952.794596	2562.902451
953.095378	2560.339024
953.396122	2560.472615
953.696828	2558.277192
953.997496	2557.389949
954.298126	2554.977757
954.598718	2554.156049
954.899272	2553.004145
955.199788	2551.935421
955.500266	2554.448436
955.800706	2546.337219
956.101108	2541.606096
956.401472	2545.150027
956.701798	2543.085675
957.002087	2542.596683
957.302337	2544.792106
957.602550	2546.463248
957.902724	2540.630633
958.202861	2540.396219
958.502960	2541.515356
958.803022	2541.984183
959.103045	2539.990407
959.403031	2539.052752
959.702979	2538.921682
960.002889	2536.998482
960.302762	2537.890766
960.602596	2536.012936
960.902393	2540.187012
961.202153	2538.510828
961.501875	2537.968904
961.801559	2535.697864
962.101205	2536.910262
962.400814	2538.631816
962.700385	2534.823224
962.999918	2538.289017
963.299414	2535.861702
963.598873	2539.952598
963.898293	2534.777853
964.197677	2535.715508
964.497022	2536.219623
964.796331	2535.851619
965.095601	2538.042001
965.394835	2537.885725
965.694030	2533.313398
965.993189	2537.507638
966.292309	2535.017308
966.591393	2537.754655
966.890439	2537.598379
967.189447	2532.055630
967.488419	2535.365148
967.787353	2533.915816
968.086249	2536.567463
968.385108	2535.970086
968.683930	2534.810621
968.982714	2536.358255
969.281462	2533.625950
969.580172	2537.941178
969.878844	2536.373379
970.177480	2535.566794
970.476078	2537.840354
970.774639	2535.861702
971.073162	2537.794984
971.371649	2531.596885
971.670098	2533.847761
971.968510	2534.119983
972.266885	2531.125538
972.565223	2537.268183
972.863524	2533.210055
973.161788	2537.711805
973.460014	2534.959335
973.758204	2536.030580
974.056356	2536.335570
974.354471	2536.297761
974.652550	2537.031249
974.950591	2537.807587
975.248595	2535.158461
975.546563	2534.155271
975.844493	2533.673841
976.142386	2536.784233
976.440243	2533.507483
976.738062	2535.387833
977.035845	2531.828778
977.333590	2534.109901
977.631299	2536.159130
977.928971	2538.823379
978.226606	2535.818852
978.524204	2536.542257
978.821765	2531.947246
979.119290	2535.153419
979.416777	2535.496218
979.714228	2534.356917
980.011642	2530.150074
980.309020	2538.425128
980.606360	2534.964376
980.903664	2535.980169
981.200931	2537.880684
981.498162	2539.340098
981.795356	2537.616023
982.092513	2542.069883
982.389633	2542.637012
982.686717	2548.094061
982.983764	2550.846531
983.280775	2554.040102
983.577749	2551.746377
983.874686	2547.726057
984.171587	2548.877961
984.468451	2543.859492
984.765279	2540.897814
985.062070	2541.321271
985.358824	2539.642567
985.655543	2535.932278
985.952224	2535.657535
986.248869	2536.103677
986.545478	2530.777698
986.842050	2531.753161
987.138586	2529.204858
987.435086	2532.647966
987.731549	2529.207378
988.027975	2535.594520
988.324366	2530.853315
988.620719	2533.164684
988.917037	2531.339787
989.213318	2533.968748
989.509563	2532.126207
989.805772	2531.571680
990.101944	2531.790970
990.398080	2531.712832
990.694180	2531.974972
990.990244	2529.698891
991.286271	2531.070085
991.582262	2528.047913
991.878217	2531.105373
992.174136	2530.729807
992.470019	2530.994468
992.765865	2532.867256
993.061676	2534.341794
993.357450	2534.407329
993.653188	2532.486649
993.948890	2532.554705
994.244556	2531.168387
994.540186	2534.089736
994.835780	2530.074457
995.131337	2534.218285
995.426859	2535.528985
995.722345	2535.665097
996.017795	2533.699047
996.313208	2537.807587
996.608586	2535.725590
996.903928	2536.063348
997.199234	2536.426311
997.494504	2536.975797
997.789738	2536.605272
998.084936	2534.798018
998.380099	2533.406660
998.675225	2531.498583
998.970316	2531.952287
999.265371	2532.799201
999.560390	2532.355579
999.855373	2530.175280
1000.150320	2532.244674
1000.445232	2531.100332
1000.740108	2532.249715
1001.034948	2531.087729
1001.329752	2532.700898
1001.624521	2531.158305
1001.919254	2526.719569
1002.213951	2528.602440
1002.508613	2525.396266
1002.803239	2528.587317
1003.097829	2525.315608
1003.392384	2531.848943
1003.686903	2529.061185
1003.981386	2530.462626
1004.275834	2527.203520
1004.570246	2530.921371
1004.864623	2528.526823
1005.158964	2529.172090
1005.453270	2528.070598
1005.747540	2530.777698
1006.041775	2528.909950
1006.335974	2526.558252
1006.630138	2528.894827
1006.924266	2527.493386
1007.218359	2531.932122
1007.512416	2530.641587
1007.806438	2530.066895
1008.100425	2529.567821
1008.394376	2531.110414
1008.688292	2530.971782
1008.982172	2531.218799
1009.276017	2529.356092
1009.569827	2530.724766
1009.863602	2524.771163
1010.157341	2530.457585
1010.451045	2529.076308
1010.744714	2529.925743
1011.038347	2531.768285
1011.331945	2529.943387
1011.625508	2527.521113
1011.919036	2527.440454
1012.212528	2525.025741
1012.505986	2529.187214
1012.799408	2529.121679
1013.092795	2528.121010
1013.386147	2531.511186
1013.679464	2529.852646
1013.972745	2530.510517
1014.265992	2529.169570
1014.559204	2529.686288
1014.852380	2528.143695
1015.145521	2529.744261
1015.438628	2528.458767
1015.731699	2531.707791
1016.024736	2528.693181
1016.317737	2528.420958
1016.610703	2530.495393
1016.903635	2526.913653
1017.196531	2524.506502
1017.489393	2527.125382
1017.782219	2523.052130
1018.075011	2527.463139
1018.367768	2528.332738
1018.660490	2529.431710
1018.953177	2529.431710
1019.245829	2529.431710
