Dividing Wavelength (nm)	Counts (n)	Blue Motor Position (mm): 0.000000	Red Motor Position (mm): 21.200000	
326.493990	2128.717952
326.888308	2128.717952
327.282561	2128.717952
327.676750	2098.145875
328.070874	2094.513723
328.464933	2099.141503
328.858929	2104.966556
329.252859	2114.988370
329.646726	2123.762498
330.040528	2139.473254
330.434265	2154.720224
330.827938	2172.008861
331.221547	2191.364371
331.615091	2207.475899
332.008571	2229.291492
332.401986	2248.649523
332.795338	2265.585279
333.188625	2285.742333
333.581847	2306.554737
333.975006	2323.306491
334.368100	2341.525221
334.761129	2362.556915
335.154095	2378.318082
335.546996	2393.393653
335.939833	2409.011147
336.332606	2424.716862
336.725315	2437.082812
337.117960	2446.769390
337.510540	2454.885647
337.903056	2466.810497
338.295508	2471.713019
338.687896	2479.970429
339.080220	2491.764208
339.472480	2496.966679
339.864676	2501.176043
340.256807	2507.132166
340.648875	2507.646363
341.040879	2513.748680
341.432818	2512.284225
341.824694	2515.384535
342.216506	2511.182733
342.608253	2515.354288
342.999937	2514.565347
343.391557	2515.016530
343.783113	2514.726664
344.174605	2511.114677
344.566033	2513.015192
344.957397	2510.761797
345.348697	2507.890859
345.739934	2506.018071
346.131106	2504.609068
346.522215	2505.120745
346.913260	2502.206958
347.304241	2498.572287
347.695159	2496.858294
348.086012	2493.039620
348.476802	2491.975937
348.867528	2489.626759
349.258191	2493.044661
349.648789	2489.714979
350.039324	2487.184320
350.429796	2489.997284
350.820203	2487.189361
351.210548	2489.054588
351.600828	2483.945379
351.991045	2483.184164
352.381198	2482.982518
352.771288	2482.150728
353.161314	2482.395224
353.551276	2484.827581
353.941175	2484.041161
354.331010	2483.988228
354.720782	2483.582416
355.110490	2481.016468
355.500135	2484.527632
355.889717	2480.446818
356.279235	2484.598208
356.668689	2483.234576
357.058080	2485.911429
357.447408	2483.360605
357.836672	2481.719709
358.225873	2485.210708
358.615010	2482.175934
359.004084	2486.108034
359.393095	2487.814464
359.782043	2486.080307
360.170927	2489.072232
360.559748	2488.376553
360.948505	2489.667088
361.337199	2491.807058
361.725830	2489.818323
362.114398	2491.297902
362.502903	2492.154898
362.891344	2490.536687
363.279722	2493.344610
363.668037	2494.801503
364.056289	2493.500886
364.444478	2494.861997
364.832603	2496.719662
365.220665	2497.687564
365.608665	2497.019611
365.996601	2496.190341
366.384474	2500.878614
366.772284	2500.119921
367.160031	2502.519510
367.547715	2503.177381
367.935336	2506.065962
368.322893	2508.112670
368.710388	2509.420850
369.097820	2518.724299
369.485189	2518.411747
369.872495	2527.753006
370.259738	2534.278779
370.646918	2542.316899
371.034035	2551.116233
371.421090	2559.406411
371.808081	2568.881259
372.195010	2577.819225
372.581875	2591.390011
372.968678	2605.268308
373.355418	2616.089144
373.742096	2633.007257
374.128710	2645.416057
374.515262	2659.233860
374.901751	2676.797240
375.288177	2689.294260
375.674540	2714.421891
376.060841	2731.518965
376.447079	2749.634351
376.833254	2774.179729
377.219367	2783.480658
377.605417	2821.584219
377.991404	2832.825992
378.377329	2852.211749
378.763191	2870.259080
379.148991	2908.256777
379.534727	2935.189142
379.920402	2961.650158
380.306013	2972.181129
380.691563	3022.207019
381.077049	3042.974052
381.462474	3062.919377
381.847835	3102.242898
382.233134	3122.815847
382.618371	3123.690487
383.003545	3194.445602
383.388657	3198.755788
383.773706	3232.029924
384.158693	3245.699013
384.543618	3272.706995
384.928480	3310.815597
385.313280	3355.467617
385.698017	3352.536186
386.082692	3405.271697
386.467305	3412.198242
386.851856	3445.704271
387.236344	3464.031386
387.620770	3496.579596
388.005133	3522.470962
388.389435	3551.064387
388.773674	3560.801375
389.157851	3606.968262
389.541965	3621.474182
389.926018	3584.272987
390.310008	3656.588339
390.693936	3673.619878
391.077802	3716.303327
391.461606	3704.960731
391.845348	3767.738220
392.229027	3769.573200
392.612645	3781.112401
392.996200	3858.789020
393.379694	3894.450142
393.763125	3960.171665
394.146494	3928.165379
394.529801	3989.296932
394.913047	4035.299981
395.296230	4005.799149
395.679351	4060.649423
396.062410	4083.211107
396.445408	4063.674115
396.828343	4097.467490
397.211217	4122.824494
397.594028	4041.656876
397.976778	4106.549129
398.359466	4132.616935
398.742092	4163.781348
399.124656	4085.431735
399.507158	4165.210516
399.889598	4187.850338
400.271977	4252.838372
400.654294	4220.746387
401.036549	4232.724168
401.418742	4200.695198
401.800874	4302.541629
402.182944	4322.106347
402.564952	4386.423908
402.946898	4373.717680
403.328783	4373.049727
403.710606	4280.952887
404.092367	4477.830110
404.474067	4439.033390
404.855705	4448.175522
405.237282	4378.703381
405.618797	4486.304289
406.000250	4516.926778
406.381642	4599.279067
406.762972	4561.162903
407.144240	4573.740582
407.525447	4572.371909
407.906593	4631.003049
408.287677	4673.842774
408.668700	4602.205457
409.049661	4655.427439
409.430560	4692.399261
409.811399	4617.603662
410.192176	4778.512251
410.572891	4719.409764
410.953545	4819.280062
411.334138	4704.591292
411.714669	4767.386425
412.095139	4668.557124
412.475547	4806.369667
412.855894	4784.866626
413.236180	4790.484992
413.616405	4748.482098
413.996568	4829.556455
414.376670	4775.822796
414.756711	4723.661977
415.136691	4754.743211
415.516609	4828.795240
415.896466	4866.465262
416.276262	4890.045260
416.655997	4865.530128
417.035670	5042.535122
417.415283	5127.055108
417.794834	5060.779058
418.174324	5011.852139
418.553753	4914.998971
418.933121	5083.353345
419.312428	5138.160770
419.691674	5072.199792
420.070859	5176.705432
420.449983	5084.933747
420.829045	5179.122665
421.208047	5079.615329
421.586988	5124.965549
421.965867	5124.514366
422.344686	5227.338781
422.723444	5077.886214
423.102141	4894.746136
423.480777	5145.598992
423.859352	4915.276235
424.237866	5125.061331
424.616319	5093.624696
424.994712	5168.891643
425.373044	5030.257392
425.751314	5126.641733
426.129524	4933.268113
426.507673	5069.543104
426.885762	5108.019711
427.263789	5015.963200
427.641756	4896.203029
428.019662	4952.028767
428.397508	4924.975415
428.775292	4838.476776
429.153016	4878.647211
429.530679	4788.619765
429.908282	4805.888237
430.285824	4675.632384
430.663305	4827.456814
431.040726	4594.341257
431.418086	4557.800454
431.795385	4587.013940
432.172624	4546.881314
432.549802	4497.677132
432.926920	4457.090803
433.303977	4419.443466
433.680974	4396.506216
434.057910	4354.520966
434.434786	4308.769974
434.811601	4246.925099
435.188355	4319.981500
435.565050	4206.232905
435.941683	4144.206548
436.318257	4195.457439
436.694770	4133.524343
437.071222	4097.686780
437.447614	4013.920447
437.823946	3928.936676
438.200218	3941.781536
438.576429	3839.052903
438.952580	3820.635047
439.328670	3791.572795
439.704700	3718.249213
440.080670	3663.179648
440.456580	3696.998229
440.832429	3610.124024
441.208218	3522.377701
441.583947	3522.024820
441.959616	3478.623006
442.335224	3419.785179
442.710773	3408.651790
443.086261	3366.986654
443.461689	3284.581432
443.837057	3277.148251
444.212365	3268.810183
444.587612	3212.518138
444.962800	3200.119420
445.337927	3161.695746
445.712995	3065.480283
446.088002	3117.371401
446.462949	3062.422824
446.837837	3018.400948
447.212664	3013.226203
447.587431	2997.724655
447.962139	3030.754295
448.336786	3098.172166
448.711374	3040.206459
449.085901	2920.917635
449.460369	2883.098899
449.834776	2850.076821
450.209124	2858.619056
450.583412	2845.862416
450.957640	2838.288082
451.331808	2799.292237
451.705917	2755.288005
452.079965	2735.209089
452.453954	2730.787997
452.827883	2709.952908
453.201752	2700.500745
453.575562	2680.668846
453.949311	2673.356652
454.323001	2661.882986
454.696632	2655.158087
455.070202	2650.265647
455.443713	2645.799185
455.817164	2637.375417
456.190556	2630.743779
456.563888	2626.957872
456.937160	2617.861110
457.310373	2608.378700
457.683526	2606.435335
458.056619	2597.164653
458.429653	2593.945876
458.802628	2586.794999
459.175542	2587.793148
459.548398	2585.580081
459.921194	2588.032603
460.293930	2585.438929
460.666607	2586.389187
461.039224	2591.470670
461.411782	2589.348344
461.784280	2586.328693
462.156719	2582.857858
462.529099	2581.169072
462.901419	2575.966601
463.273680	2574.151786
463.645882	2570.819583
464.018024	2570.849830
464.390106	2569.650035
464.762130	2574.776889
465.134094	2575.434759
465.505999	2582.494895
465.877845	2592.735999
466.249631	2596.252204
466.621358	2588.173755
466.993026	2586.832808
467.364634	2587.609146
467.736184	2581.496747
468.107674	2577.680593
468.479105	2576.604307
468.850477	2577.529359
469.221790	2574.476940
469.593043	2573.556929
469.964238	2572.581466
470.335373	2571.081723
470.706449	2570.774212
471.077467	2570.365879
471.448425	2578.494740
471.819324	2587.205853
472.190164	2587.084866
472.560945	2579.145048
472.931667	2574.391240
473.302330	2570.880077
473.672934	2570.625498
474.043479	2571.157340
474.413965	2572.084912
474.784393	2566.317832
475.154761	2572.006775
475.525070	2568.132648
475.895321	2572.825962
476.265513	2569.881928
476.635645	2574.507187
477.005719	2574.159347
477.375734	2574.560119
477.745691	2577.751169
478.115588	2576.586663
478.485427	2579.278639
478.855207	2580.657395
479.224928	2585.968250
479.594591	2589.552511
479.964194	2589.607963
480.333739	2587.783066
480.703226	2589.539908
481.072653	2588.788776
481.442022	2589.461770
481.811333	2592.186513
482.180584	2589.365988
482.549777	2587.488158
482.918912	2588.342634
483.287988	2585.232242
483.657005	2587.160483
484.025964	2584.932293
484.394864	2585.590164
484.763706	2586.190061
485.132489	2583.795513
485.501213	2583.107395
485.869879	2584.546645
486.238487	2583.064546
486.607036	2584.791141
486.975527	2584.032447
487.343959	2585.446491
487.712333	2584.614700
488.080648	2581.985739
488.448905	2585.224680
488.817104	2585.116295
489.185244	2584.657550
489.553326	2585.123857
489.921350	2588.657706
490.289315	2592.849425
490.657222	2595.052409
491.025070	2594.003849
491.392861	2595.579210
491.760593	2590.044023
492.128267	2590.863211
492.495883	2588.304825
492.863440	2584.939855
493.230939	2583.810636
493.598380	2585.811974
493.965763	2581.030440
494.333088	2579.901222
494.700354	2577.436097
495.067563	2580.032292
495.434713	2575.971642
495.801805	2579.785275
496.168839	2580.692683
496.535815	2576.241344
496.902733	2579.450038
497.269593	2580.808629
497.636395	2578.625810
498.003139	2578.033474
498.369825	2577.052970
498.736453	2579.006417
499.103023	2576.657239
499.469535	2580.362487
499.835989	2579.071952
500.202385	2577.829307
500.568723	2579.114802
500.935003	2577.983063
501.301226	2579.487847
501.667390	2576.349729
502.033497	2579.344174
502.399546	2579.540779
502.765537	2576.566498
503.131470	2579.129925
503.497345	2578.527507
503.863163	2578.570357
504.228923	2577.950295
504.594625	2577.121025
504.960269	2576.420305
505.325856	2579.029102
505.691385	2577.360480
506.056856	2577.567167
506.422270	2579.296283
506.787625	2578.905594
507.152924	2577.859554
507.518164	2578.774524
507.883347	2576.195973
508.248472	2577.620099
508.613540	2578.683783
508.978550	2577.274780
509.343503	2579.260995
509.708398	2582.142014
510.073236	2581.201839
510.438016	2581.456417
510.802738	2581.479103
511.167403	2580.140676
511.532010	2580.138156
511.896561	2581.143866
512.261053	2583.485482
512.625488	2578.570357
512.989866	2578.235120
513.354186	2578.479616
513.718449	2575.689338
514.082655	2580.619586
514.446803	2581.080852
514.810894	2583.876171
515.174927	2580.531366
515.538904	2584.017324
515.902822	2581.900039
516.266684	2584.329875
516.630488	2580.813670
516.994235	2584.246696
517.357925	2581.098496
517.721558	2581.358115
518.085133	2582.618403
518.448651	2582.570512
518.812112	2581.380800
519.175516	2584.218970
519.538863	2584.455904
519.902152	2583.608990
520.265385	2583.069587
520.628560	2581.721078
520.991678	2581.428691
521.354739	2582.265523
521.717743	2585.665781
522.080690	2583.016655
522.443580	2584.876840
522.806413	2587.261306
523.169189	2583.508167
523.531908	2585.030596
523.894569	2583.450194
524.257174	2584.344999
524.619722	2585.368353
524.982213	2584.929772
525.344647	2583.611511
525.707025	2585.481779
526.069345	2584.271902
526.431608	2583.218301
526.793815	2587.616707
527.155964	2583.427509
527.518057	2585.522108
527.880093	2587.014290
528.242072	2584.483630
528.603995	2584.707962
528.965860	2583.881212
529.327669	2585.882551
529.689421	2582.575554
530.051117	2585.169227
530.412755	2583.051943
530.774337	2583.976994
531.135862	2583.644278
531.497331	2584.304669
531.858743	2580.102868
532.220098	2581.736202
532.581396	2580.516242
532.942638	2583.190574
533.303824	2584.057653
533.664953	2584.390369
534.026025	2583.346850
534.387040	2584.453383
534.747999	2583.498085
535.108902	2585.166707
535.469748	2579.916345
535.830537	2583.830801
536.191270	2584.536562
536.551947	2585.817016
536.912567	2581.950451
537.273131	2583.634196
537.633638	2582.865420
537.994089	2582.444484
538.354483	2582.701583
538.714821	2584.226532
539.075103	2584.758373
539.435328	2585.348188
539.795497	2582.015986
540.155609	2585.479258
540.515665	2583.825760
540.875665	2583.039340
541.235609	2581.753846
541.595496	2582.701582
541.955328	2583.505647
542.315102	2582.086562
542.674821	2585.698548
543.034483	2583.157807
543.394090	2583.651840
543.753640	2587.226018
544.113134	2584.297108
544.472571	2583.745101
544.831953	2585.990935
545.191278	2582.830132
545.550548	2586.205184
545.909761	2583.606470
546.268918	2583.414906
546.628019	2586.192582
546.987064	2584.070256
547.346053	2584.942375
547.704986	2582.010944
548.063863	2586.197623
548.422684	2584.483630
548.781449	2583.974474
549.140158	2584.745770
549.498811	2583.813157
549.857408	2582.000862
550.215949	2583.808116
550.574434	2581.950451
550.932864	2579.124884
551.291237	2582.021027
551.649555	2585.038157
552.007817	2582.608321
552.366022	2586.371543
552.724173	2583.495564
553.082267	2586.232911
553.440305	2584.196285
553.798288	2585.093610
554.156215	2583.717375
554.514086	2583.825760
554.871902	2582.925914
555.229661	2584.050091
555.587365	2583.805595
555.945014	2584.201326
556.302606	2582.497416
556.660143	2583.598908
557.017625	2581.287539
557.375050	2584.418095
557.732421	2585.454052
558.089735	2585.451532
558.446994	2581.748804
558.804197	2583.341809
559.161345	2587.989753
559.518437	2585.746439
559.875474	2582.043712
560.232455	2583.898857
560.589381	2584.765935
560.946251	2584.574371
561.303065	2585.277612
561.659825	2581.816860
562.016528	2583.092272
562.373177	2583.316603
562.729770	2583.828280
563.086307	2584.619742
563.442789	2585.169227
563.799216	2583.304000
564.155587	2581.716037
564.511904	2583.883733
564.868164	2584.130750
565.224370	2581.716037
565.580520	2582.825091
565.936615	2583.490523
566.292654	2581.990780
566.648638	2581.413568
567.004567	2579.818043
567.360441	2582.351222
567.716260	2582.383990
568.072023	2580.322158
568.427732	2576.203535
568.783385	2579.835687
569.138982	2579.213104
569.494525	2578.968608
569.850013	2578.424163
570.205445	2579.160172
570.560823	2582.658733
570.916145	2580.223855
571.271412	2578.809812
571.626625	2582.860379
571.981782	2581.232086
572.336884	2581.665625
572.691931	2580.959864
573.046923	2580.682600
573.401860	2580.012127
573.756743	2575.767475
574.111570	2578.527507
574.466342	2580.465831
574.821059	2581.043043
575.175722	2579.737384
575.530330	2578.159503
575.884882	2577.879719
576.239380	2580.917014
576.593823	2581.078331
576.948211	2580.869123
577.302544	2579.671849
577.656823	2578.872826
578.011047	2580.680080
578.365216	2578.600604
578.719330	2576.407702
579.073389	2578.008268
579.427394	2573.751014
579.781344	2580.233938
580.135239	2577.786458
580.489080	2576.311920
580.842866	2578.706468
581.196597	2581.201839
581.550273	2576.387537
581.903895	2579.031622
582.257463	2578.303176
582.610975	2578.391396
582.964434	2575.202866
583.317837	2576.934502
583.671186	2577.216807
584.024481	2576.442990
584.377721	2576.841241
584.730906	2575.449883
585.084037	2574.587845
585.437113	2578.043556
585.790135	2577.186560
586.143103	2572.609192
586.496016	2574.678586
586.848874	2570.197000
587.201679	2575.525500
587.554428	2571.134655
587.907124	2574.809656
588.259765	2570.973338
588.612352	2573.473750
588.964884	2571.686661
589.317362	2575.303689
589.669786	2573.551888
590.022155	2575.041549
590.374470	2575.336457
590.726731	2573.486353
591.078937	2573.572053
591.431090	2572.379820
591.783188	2573.801425
592.135232	2572.175653
592.487222	2574.832341
592.839157	2575.510377
593.191038	2574.217321
593.542866	2574.328226
593.894639	2572.488205
594.246358	2575.835531
594.598022	2570.582649
594.949633	2571.540468
595.301190	2574.285376
595.652692	2574.134142
596.004141	2571.301013
596.355535	2571.946281
596.706876	2571.469892
597.058162	2569.178687
597.409395	2571.222875
597.760573	2572.543657
598.111698	2569.145920
598.462768	2571.195149
598.813785	2569.700447
599.164748	2571.298492
599.515657	2569.231619
599.866511	2571.290931
600.217312	2570.088616
600.568060	2568.351938
600.918753	2567.494942
601.269392	2568.906465
601.619978	2570.930488
601.970510	2569.763461
602.320988	2569.294634
602.671412	2571.306054
603.021783	2569.861764
603.372100	2570.441496
603.722363	2571.485015
604.072572	2570.796898
604.422728	2572.432752
604.772830	2564.934036
605.122878	2566.998388
605.472872	2567.550395
605.822813	2563.827503
606.172701	2568.223389
606.522534	2566.159036
606.872314	2569.314798
607.222041	2572.508369
607.571714	2569.876887
607.921333	2570.408729
608.270899	2567.174829
608.620411	2568.704819
608.969870	2572.261353
609.319276	2571.364027
609.668627	2573.085582
610.017926	2575.591035
610.367171	2576.541292
610.716362	2576.894173
611.065500	2575.865778
611.414585	2573.592217
611.763616	2573.067937
612.112594	2575.465006
612.461518	2572.599110
612.810389	2574.227403
613.159207	2572.397464
613.507971	2571.318657
613.856682	2573.055335
614.205340	2573.070458
614.553945	2571.283369
614.902496	2568.039387
615.250994	2570.139027
615.599439	2570.116342
615.947830	2571.870663
616.296169	2571.197669
616.644454	2569.826476
616.992686	2569.208934
617.340864	2571.916034
617.688990	2565.642318
618.037063	2571.190108
618.385082	2568.480487
618.733048	2569.307237
619.080961	2569.657597
619.428821	2572.173133
619.776628	2569.342525
620.124382	2572.067268
620.472083	2569.521486
620.819731	2568.651887
621.167326	2569.667679
621.514868	2568.445199
621.862357	2568.515776
622.209793	2567.414283
622.557176	2572.112639
622.904506	2567.033676
623.251783	2564.407235
623.599007	2564.636608
623.946179	2563.088973
624.293297	2567.623491
624.640363	2566.516958
624.987376	2566.121227
625.334336	2565.322205
625.681243	2563.814900
626.028097	2563.807338
626.374899	2566.552246
626.721647	2563.366237
627.068343	2567.356310
627.414987	2565.488563
627.761577	2563.104097
628.108115	2564.429920
628.454600	2566.012843
628.801032	2566.174160
629.147412	2567.462174
629.493739	2565.876732
629.840014	2562.292471
630.186236	2565.889334
630.532405	2565.705332
630.878521	2564.508058
631.224585	2560.901113
631.570597	2565.753223
631.916556	2563.003274
632.262462	2564.681978
632.608316	2562.511761
632.954117	2563.167111
633.299866	2562.630228
633.645562	2563.824982
633.991206	2566.310271
634.336797	2564.722307
634.682336	2565.942267
635.027823	2561.606874
635.373257	2560.502862
635.718639	2559.905485
636.063968	2561.324570
636.409245	2557.750392
636.754470	2561.811041
637.099642	2560.734755
637.444762	2558.844322
637.789829	2559.267779
638.134845	2560.492779
638.479808	2559.073694
638.824719	2562.012687
639.169577	2560.021431
639.514383	2560.712069
639.859137	2558.567058
640.203839	2558.380536
640.548489	2559.981102
640.893086	2555.708724
641.237632	2555.595298
641.582125	2555.323076
641.926566	2553.258723
642.270955	2557.402552
642.615292	2558.345248
642.959576	2559.509754
643.303809	2556.709393
643.647990	2559.328273
643.992118	2557.735268
644.336195	2559.590413
644.680219	2560.754919
645.024192	2558.607388
645.368112	2558.781308
645.711981	2561.006977
646.055797	2558.025134
646.399562	2559.330793
646.743274	2562.184086
647.086935	2560.820454
647.430544	2558.004970
647.774101	2558.136040
648.117606	2558.879610
648.461059	2560.104610
648.804460	2559.844991
649.147810	2559.061092
649.491108	2558.123437
649.834354	2557.848694
650.177548	2560.822975
650.520690	2557.110165
650.863781	2553.800647
651.206820	2561.506051
651.549807	2556.963972
651.892742	2556.260731
652.235626	2554.735782
652.578458	2557.770556
652.921238	2558.302398
653.263967	2557.039589
653.606644	2557.823488
653.949269	2557.659651
654.291843	2555.711245
654.634365	2552.958775
654.976836	2556.767367
655.319255	2556.918601
655.661622	2553.238559
656.003938	2558.257027
656.346203	2556.495144
656.688416	2556.505227
657.030577	2553.465411
657.372687	2557.861297
657.714746	2555.948179
658.056753	2554.942469
658.398708	2552.437015
658.740612	2554.758467
659.082465	2550.420554
659.424266	2552.880637
659.766016	2549.729916
660.107715	2555.809547
660.449362	2556.626214
660.790958	2554.655123
661.132503	2557.042109
661.473996	2556.376677
661.815438	2553.699824
662.156829	2553.152859
662.498168	2555.224773
662.839456	2556.139743
663.180693	2553.871224
663.521879	2556.351471
663.863013	2557.538663
664.204097	2555.915412
664.545129	2552.399207
664.886110	2556.222922
665.227040	2553.916594
665.567918	2554.745864
665.908746	2556.227963
666.249522	2555.270144
666.590248	2554.277037
666.930922	2557.200906
667.271545	2554.193857
667.612118	2557.271482
667.952639	2551.927859
668.293109	2555.446584
668.633528	2553.336861
668.973896	2555.691080
669.314213	2557.319373
669.654480	2555.660833
669.994695	2556.689229
670.334859	2556.278375
670.674973	2555.610422
671.015035	2557.243756
671.355047	2552.046326
671.695008	2557.304249
672.034918	2553.258723
672.374777	2554.776111
672.714585	2556.260731
673.054342	2553.745195
673.394049	2554.725699
673.733705	2555.318035
674.073310	2554.937428
674.412864	2556.222922
674.752368	2553.432643
675.091820	2554.241748
675.431223	2555.985988
675.770574	2554.682849
676.109875	2550.125646
676.449125	2551.577499
676.788324	2549.707231
677.127473	2554.423230
677.466571	2549.613969
677.805619	2550.881819
678.144616	2551.922818
678.483562	2552.522715
678.822458	2555.938097
679.161303	2554.483724
679.500098	2553.351985
679.838842	2553.765359
680.177535	2555.496996
680.516179	2553.402396
680.854771	2553.223435
681.193314	2554.624876
681.531805	2554.093034
681.870247	2553.767880
682.208638	2552.981460
682.546978	2556.459856
682.885268	2553.520863
683.223508	2555.910370
683.561697	2554.183775
683.899836	2553.684701
684.237925	2555.537325
684.575963	2551.824515
684.913951	2554.919784
685.251889	2556.878272
685.589776	2552.759649
685.927614	2552.769732
686.265401	2552.583209
686.603137	2556.162428
686.940824	2552.147149
687.278460	2556.409445
687.616046	2557.210988
687.953582	2557.382387
688.291068	2557.858776
688.628504	2554.640000
688.965889	2554.443395
689.303224	2553.747715
689.640510	2557.231153
689.977745	2552.016079
690.314930	2556.096893
690.652065	2556.338868
690.989150	2551.985832
691.326185	2552.676470
691.663170	2550.118085
692.000105	2555.517160
692.336990	2553.167983
692.673825	2550.712941
693.010610	2552.212684
693.347345	2546.667415
693.684030	2546.185985
694.020665	2548.096582
694.357251	2541.686755
694.693786	2550.380225
695.030272	2550.944834
695.366707	2552.641182
695.703093	2550.428116
696.039429	2549.039278
696.375716	2549.886192
696.711952	2549.283774
697.048139	2548.903167
697.384276	2552.187478
697.720363	2547.864689
698.056400	2548.782179
698.392388	2548.514998
698.728326	2548.275543
699.064214	2549.266130
699.400053	2547.962991
699.735842	2545.946530
700.071581	2548.822508
700.407270	2550.806202
700.742910	2546.677497
701.078501	2546.624565
701.414042	2546.773279
701.749533	2546.085162
702.084974	2548.464586
702.420366	2548.071376
702.755709	2546.770758
703.091002	2544.978628
703.426246	2547.511808
703.761440	2544.227496
704.096584	2548.167158
704.431679	2547.103475
704.766725	2547.418547
705.101721	2544.172044
705.436668	2546.180943
705.771565	2548.537683
706.106413	2547.721016
706.441212	2547.093392
706.775961	2545.084492
707.110661	2546.185985
707.445311	2549.518187
707.779913	2546.281767
708.114465	2548.797302
708.448967	2546.876623
708.783421	2547.557178
709.117825	2547.121119
709.452180	2548.842673
709.786485	2548.951057
710.120742	2550.581871
710.454949	2550.579350
710.789107	2544.608103
711.123216	2543.935109
711.457275	2548.204967
711.791286	2545.918803
712.125247	2548.288146
712.459159	2549.208156
712.793023	2551.701007
713.126837	2547.093392
713.460602	2550.959957
713.794318	2551.096068
714.127985	2553.132695
714.461602	2548.315872
714.795171	2548.630944
715.128691	2546.934596
715.462162	2549.240924
715.795584	2548.903167
716.128957	2546.972405
716.462281	2546.521221
716.795556	2546.891746
717.128782	2546.536345
717.461960	2548.799823
717.795088	2546.959802
718.128167	2545.160110
718.461198	2544.867723
718.794180	2547.254709
719.127113	2545.460058
719.459997	2546.924514
719.792833	2546.458207
720.125619	2544.436704
720.458357	2546.397713
720.791046	2543.869574
721.123686	2547.037940
721.456278	2547.658002
721.788821	2548.346119
722.121315	2545.208001
722.453761	2543.612476
722.786158	2545.013916
723.118506	2543.998124
723.450805	2544.091385
723.783056	2543.577187
724.115259	2542.899152
724.447412	2542.659697
724.779518	2544.880326
725.111574	2547.075748
725.443582	2544.300593
725.775542	2541.865716
726.107453	2544.343443
726.439315	2545.316386
726.771129	2549.225800
727.102895	2546.775800
727.434612	2545.863351
727.766281	2546.329657
728.097901	2546.274205
728.429473	2542.606765
728.760996	2543.246992
729.092471	2540.509645
729.423897	2543.115922
729.755276	2546.082641
730.086606	2546.448125
730.417887	2547.713454
730.749120	2544.824873
731.080305	2546.402754
731.411442	2546.589277
731.742530	2548.509957
732.073570	2547.751263
732.404562	2548.865358
732.735506	2547.700851
733.066401	2545.838145
733.397249	2547.295038
733.728048	2549.984494
734.058798	2548.711603
734.389501	2546.284287
734.720156	2544.212373
735.050762	2544.933258
735.381320	2545.346633
735.711831	2544.804708
736.042293	2544.671118
736.372707	2543.204142
736.703073	2545.208001
737.033391	2544.212373
737.363661	2544.804708
737.693883	2543.494008
738.024056	2547.484082
738.354182	2544.794626
738.684260	2542.878988
739.014290	2546.196067
739.344272	2546.722868
739.674207	2545.613814
740.004093	2547.327806
740.333931	2545.633978
740.663722	2546.596839
740.993464	2544.582898
741.323159	2545.646581
741.652806	2545.518032
741.982405	2544.270346
742.311956	2543.471323
742.641460	2546.211190
742.970915	2544.126673
743.300323	2542.954605
743.629683	2544.739173
743.958996	2547.526932
744.288260	2544.608103
744.617477	2542.624409
744.946647	2536.471681
745.275768	2544.129194
745.604842	2538.493184
745.933869	2539.677855
746.262847	2538.011754
746.591778	2541.560726
746.920662	2540.814635
747.249498	2543.007537
747.578286	2542.435366
747.907027	2545.727240
748.235720	2541.449821
748.564365	2542.715150
748.892963	2542.142979
749.221514	2544.371169
749.550017	2542.165664
749.878473	2543.758669
750.206881	2542.442928
750.535242	2541.711961
750.863555	2544.487116
751.191821	2543.834286
751.520039	2541.351518
751.848210	2542.775644
752.176334	2543.161292
752.504411	2543.171375
752.832440	2544.000644
753.160421	2544.103988
753.488356	2543.012578
753.816243	2544.585418
754.144082	2542.831097
754.471875	2540.776827
754.799620	2541.621220
755.127318	2541.238092
755.454969	2543.398227
755.782572	2540.895294
756.110129	2541.371683
756.437638	2543.017619
756.765100	2543.226827
757.092515	2541.661549
757.419882	2541.520397
757.747203	2542.243802
758.074477	2542.417722
758.401703	2544.305634
758.728882	2541.641384
759.056014	2541.510314
759.383099	2543.567105
759.710138	2542.949564
760.037129	2543.262115
760.364073	2543.811601
760.690970	2541.480067
761.017820	2544.103988
761.344623	2543.602393
761.671379	2544.177085
761.998088	2540.388658
762.324751	2542.657177
762.651366	2541.406971
762.977935	2549.760163
763.304456	2551.204453
763.630931	2554.733261
763.957359	2552.908363
764.283740	2551.723692
764.610074	2545.465100
764.936362	2546.735470
765.262602	2546.241437
765.588796	2545.926365
765.914943	2543.506611
766.241044	2541.003678
766.567097	2540.239944
766.893104	2539.700540
767.219064	2541.091899
767.544978	2541.303627
767.870845	2541.545603
768.196665	2539.945036
768.522438	2537.870601
768.848165	2540.610468
769.173846	2539.647608
769.499479	2538.057124
769.825066	2540.779347
770.150607	2540.701209
770.476101	2540.371014
770.801548	2541.384286
771.126949	2539.080478
771.452303	2543.347815
771.777611	2538.636857
772.102872	2538.510828
772.428087	2539.085519
772.753256	2538.697351
773.078378	2539.302289
773.403453	2537.711805
773.728482	2536.789274
774.053465	2538.931764
774.378401	2539.357742
774.703291	2537.318595
775.028135	2538.604089
775.352932	2537.603420
775.677683	2537.121990
776.002388	2539.458565
776.327046	2538.528472
776.651658	2540.111394
776.976224	2538.253729
777.300743	2538.508307
777.625216	2536.960673
777.949643	2541.734646
778.274024	2537.890766
778.598359	2534.956814
778.922647	2532.166536
779.246889	2536.910262
779.571086	2532.809283
779.895236	2536.360776
780.219339	2539.324974
780.543397	2539.685417
780.867409	2537.971424
781.191374	2536.242309
781.515294	2536.696013
781.839167	2538.911600
782.162995	2537.142155
782.486776	2537.237937
782.810511	2539.027546
783.134201	2537.149716
783.457844	2537.522762
783.781441	2540.529810
784.104993	2535.967566
784.428498	2536.905220
784.751958	2535.080323
785.075372	2537.048893
785.398739	2537.366486
785.722061	2536.544778
786.045337	2534.016639
786.368568	2538.530992
786.691752	2537.898328
787.014891	2536.814480
787.337983	2537.031249
787.661030	2539.123328
787.984031	2541.142310
788.306987	2539.554347
788.629897	2538.765406
788.952760	2542.367311
789.275579	2538.505787
789.598351	2542.942002
789.921078	2538.004192
790.243759	2536.867412
790.566395	2537.568132
790.888984	2538.770447
791.211529	2539.967721
791.534027	2534.896321
791.856480	2537.147196
792.178888	2537.941177
792.501249	2536.186856
792.823566	2539.539223
793.145836	2539.060314
793.468062	2537.726928
793.790241	2538.188194
794.112375	2536.547298
794.434464	2536.640560
794.756507	2538.160468
795.078505	2539.745911
795.400457	2533.641073
795.722364	2532.388347
796.044226	2536.305323
796.366042	2532.191742
796.687812	2536.968235
797.009538	2537.452186
797.331218	2535.629808
797.652852	2538.049562
797.974442	2537.001002
798.295986	2537.681558
798.617484	2537.142155
798.938938	2536.869932
799.260346	2534.924047
799.581709	2537.984027
799.903026	2538.974614
800.224299	2537.157278
800.545526	2538.042001
800.866708	2538.457896
801.187845	2540.275232
801.508936	2539.377906
801.829983	2536.867412
802.150984	2534.230888
802.471940	2537.671476
802.792851	2534.732483
803.113717	2539.408153
803.434538	2536.176774
803.755314	2534.195600
804.076045	2538.641898
804.396731	2535.483615
804.717372	2537.542926
805.037967	2538.364634
805.358518	2538.896476
805.679024	2537.757175
805.999485	2537.217772
806.319901	2541.044008
806.640272	2535.982689
806.960598	2539.019984
807.280879	2535.891948
807.601115	2535.728111
807.921306	2535.314736
808.241453	2538.072248
808.561554	2536.718698
808.881611	2538.727597
809.201623	2537.394212
809.521590	2537.507638
809.841513	2537.341280
810.161390	2537.661393
810.481223	2537.114428
810.801011	2537.527803
811.120755	2538.765406
811.440453	2537.497556
811.760107	2536.658204
812.079716	2534.102339
812.399281	2533.411701
812.718801	2534.301464
813.038276	2531.241484
813.357707	2536.920344
813.677093	2536.295241
813.996434	2536.882535
814.315731	2535.115611
814.634983	2537.462268
814.954191	2537.530323
815.273354	2537.764737
815.592473	2534.558563
815.911547	2539.057793
816.230577	2538.818338
816.549562	2538.006712
816.868502	2537.227854
817.187399	2536.935467
817.506250	2536.310364
817.825058	2536.396064
818.143821	2536.118800
818.462539	2537.943698
818.781213	2535.773481
819.099843	2538.246167
819.418429	2540.854964
819.736970	2540.628112
820.055466	2540.733977
820.373919	2545.439894
820.692327	2545.044163
821.010691	2547.627755
821.329011	2557.210988
821.647286	2574.665983
821.965517	2591.473190
822.283704	2603.526589
822.601847	2607.163782
822.919945	2598.694643
823.237999	2587.967068
823.556010	2579.235789
823.873976	2569.612227
824.191897	2561.145609
824.509775	2558.130999
824.827609	2554.816440
825.145398	2551.453990
825.463144	2549.558517
825.780845	2549.359391
826.098502	2555.844835
826.416116	2557.717624
826.733685	2564.203068
827.051210	2562.375650
827.368692	2563.151988
827.686129	2557.538663
828.003522	2552.747046
828.320872	2547.063145
828.638177	2545.661705
828.955439	2537.220293
829.272656	2539.115766
829.589830	2537.119469
829.906960	2539.902186
830.224046	2538.344470
830.541088	2539.521579
830.858086	2537.540406
831.175041	2539.483771
831.491952	2537.638708
831.808819	2536.128883
832.125642	2537.099305
832.442421	2539.766075
832.759157	2543.042825
833.075849	2545.717157
833.392497	2549.702189
833.709101	2554.214022
834.025662	2549.818136
834.342179	2549.135060
834.658653	2545.903680
834.975083	2542.687424
835.291469	2548.376366
835.607811	2540.222300
835.924110	2537.822710
836.240366	2539.206507
836.556578	2537.240457
836.872746	2537.595858
837.188871	2537.883204
837.504952	2535.738193
837.820990	2536.322967
838.136984	2534.223327
838.452935	2535.077802
838.768842	2540.252547
839.084706	2535.302133
839.400526	2540.736497
839.716303	2537.457227
840.032037	2540.980993
840.347727	2540.025695
840.663373	2538.185673
840.978977	2538.319264
841.294537	2534.956814
841.610054	2536.645601
841.925527	2536.368338
842.240957	2533.121834
842.556344	2535.423121
842.871687	2534.535878
843.186987	2534.268697
843.502244	2535.097967
843.817458	2533.820034
844.132629	2533.338604
844.447756	2533.255425
844.762840	2528.458767
845.077881	2529.383819
845.392879	2532.756351
845.707833	2531.473377
846.022745	2526.333921
846.337613	2531.675023
846.652438	2533.131917
846.967221	2534.225847
847.281960	2532.705939
847.596656	2532.653007
847.911309	2534.939170
848.225919	2533.308357
848.540485	2533.656197
848.855009	2533.820034
849.169490	2533.129396
849.483928	2534.311547
849.798323	2531.412883
850.112675	2534.770292
850.426984	2533.308357
850.741251	2532.655528
851.055474	2535.602082
851.369654	2531.861546
851.683792	2532.874818
851.997887	2533.504962
852.311938	2532.020342
852.625947	2534.283820
852.939914	2534.228368
853.253837	2537.311033
853.567718	2534.616537
853.881555	2532.395908
854.195350	2532.436238
854.509103	2535.508821
854.822812	2534.926567
855.136479	2532.405991
855.450103	2534.566125
855.763685	2531.712832
856.077224	2533.666279
856.390720	2533.941022
856.704173	2533.182328
857.017584	2532.078316
857.330953	2535.342463
857.644278	2534.220806
857.957561	2534.349355
858.270802	2533.331042
858.584000	2530.989426
858.897155	2530.326515
859.210268	2534.185518
859.523339	2533.908254
859.836367	2532.819365
860.149352	2535.188708
860.462295	2533.875487
860.775195	2530.772657
861.088054	2529.726617
861.400869	2531.007070
861.713642	2528.834333
862.026373	2530.316432
862.339062	2533.961187
862.651708	2532.224509
862.964312	2533.996475
863.276873	2531.380116
863.589392	2530.974303
863.901869	2533.366330
864.214303	2529.933305
864.526696	2534.046886
864.839045	2530.878521
865.151353	2532.252235
865.463619	2533.174767
865.775842	2532.514375
866.088023	2532.562266
866.400162	2535.362627
866.712258	2532.158974
867.024313	2534.419932
867.336325	2534.276259
867.648296	2534.384643
867.960224	2534.220806
868.272110	2531.450692
868.583954	2531.871628
868.895755	2531.455733
869.207515	2533.552853
869.519233	2535.360107
869.830909	2531.632173
870.142542	2534.838347
870.454134	2533.048738
870.765684	2534.949253
871.077191	2530.835671
871.388657	2534.422452
871.700081	2535.042514
872.011463	2534.026722
872.322803	2535.014788
872.634101	2537.447144
872.945357	2533.923378
873.256571	2531.934643
873.567744	2533.998995
873.878874	2536.514531
874.189963	2534.160312
874.501010	2534.009078
874.812015	2532.158974
875.122979	2536.338091
875.433900	2535.450848
875.744780	2535.148378
876.055618	2532.025383
876.366415	2535.609644
876.677169	2535.987730
876.987882	2531.591844
877.298554	2528.826771
877.609183	2533.870446
877.919771	2530.155115
878.230317	2531.236443
878.540822	2537.734490
878.851285	2536.522093
879.161707	2538.147865
879.472087	2540.746580
879.782425	2540.839841
880.092722	2542.339584
880.402977	2546.695141
880.713191	2557.397511
881.023363	2565.334807
881.333494	2578.212435
881.643583	2574.487022
881.953631	2573.332598
882.263637	2573.786302
882.573602	2569.536609
882.883526	2564.543346
883.193408	2561.206102
883.503248	2554.708055
883.813048	2553.485575
884.122806	2548.114226
884.432522	2547.113557
884.742197	2543.393185
885.051831	2544.119112
885.361424	2541.338915
885.670975	2539.692978
885.980485	2537.207690
886.289954	2539.690458
886.599382	2535.758358
886.908768	2538.490663
887.218113	2536.945550
887.527417	2537.749614
887.836680	2537.517721
888.145901	2535.715508
888.455082	2533.845240
888.764221	2533.867925
889.073319	2532.156453
889.382376	2535.357586
889.691392	2536.862371
890.000366	2536.494366
890.309300	2534.956814
890.618193	2536.237268
890.927044	2535.589479
891.235855	2534.916485
891.544625	2533.205013
891.853353	2533.540250
892.162041	2535.682741
892.470687	2537.273225
892.779293	2534.939170
893.087858	2535.171063
893.396381	2530.621422
893.704864	2536.136444
894.013306	2538.747762
894.321707	2545.712116
894.630068	2544.749256
894.938387	2549.664381
895.246665	2544.146838
895.554903	2545.334030
895.863100	2543.539379
896.171256	2543.730943
896.479371	2538.725077
896.787446	2539.660211
897.095480	2539.352701
897.403473	2540.010571
897.711425	2538.500746
898.019336	2534.868594
898.327207	2536.181815
898.635038	2534.820703
898.942827	2537.676517
899.250576	2535.367668
899.558284	2533.041176
899.865952	2533.827596
900.173579	2532.809283
900.481165	2534.916485
900.788711	2532.390867
901.096216	2534.976979
901.403681	2535.521424
901.711105	2533.252904
902.018489	2533.757020
902.325832	2537.152237
902.633135	2533.436907
902.940397	2532.229550
903.247619	2537.303472
903.554800	2537.845396
903.861941	2545.094575
904.169041	2548.157076
904.476101	2552.089176
904.783121	2555.323076
905.090100	2551.123795
905.397039	2550.491130
905.703938	2542.798329
906.010796	2539.887063
906.317614	2539.884542
906.624391	2536.448996
906.931129	2537.013605
907.237826	2535.886907
907.544483	2534.273738
907.851099	2535.438245
908.157675	2535.397915
908.464211	2533.210055
908.770707	2526.495238
909.077163	2530.303829
909.383578	2528.529343
909.689954	2533.028573
909.996289	2526.459950
910.302584	2532.637884
910.608839	2533.502442
910.915054	2530.472708
911.221229	2533.746937
911.527363	2532.292565
911.833458	2531.957328
912.139513	2534.450178
912.445527	2532.405991
912.751502	2532.685775
913.057436	2533.391536
913.363331	2531.533871
913.669186	2532.680733
913.975000	2532.993285
914.280775	2536.166691
914.586510	2539.483771
914.892205	2537.666435
915.197859	2542.354708
915.503475	2543.015099
915.809050	2547.796633
916.114585	2550.377704
916.420081	2551.111192
916.725536	2549.787889
917.030952	2549.170348
917.336328	2548.041129
917.641665	2545.465100
917.946961	2543.761190
918.252218	2541.084337
918.557435	2537.104346
918.862612	2541.369162
919.167750	2534.649304
919.472848	2538.399923
919.777906	2533.280631
920.082925	2536.653163
920.387904	2534.858512
920.692843	2534.803059
920.997743	2533.608306
921.302603	2531.387678
921.607423	2531.430527
921.912204	2531.382636
922.216946	2532.375744
922.521647	2533.116793
922.826310	2533.036135
923.130932	2530.538243
923.435516	2532.353058
923.740059	2532.411032
924.044564	2530.502955
924.349028	2531.574200
924.653454	2527.523633
924.957840	2529.787111
925.262186	2525.222346
925.566493	2529.255269
925.870761	2527.682429
926.174989	2531.899355
926.479178	2529.623274
926.783328	2531.906916
927.087438	2530.888603
927.391509	2530.654190
927.695541	2529.454395
927.999533	2529.088911
928.303486	2529.807276
928.607400	2529.693850
928.911275	2529.903058
929.215110	2530.066895
929.518906	2530.084539
929.822663	2527.768129
930.126381	2527.385001
930.430060	2531.480939
930.733699	2528.950280
931.037299	2531.659900
931.340861	2529.744261
931.644383	2528.733510
931.947866	2531.738038
932.251309	2530.354241
932.554714	2529.779549
932.858080	2532.027904
933.161407	2527.543798
933.464694	2530.986906
933.767943	2528.947759
934.071153	2530.606299
934.374323	2530.863397
934.677455	2530.467667
934.980548	2531.465815
935.283602	2529.033459
935.586617	2528.655372
935.889593	2529.593027
936.192530	2531.266690
936.495428	2532.521937
936.798287	2529.585465
937.101108	2527.987419
937.403890	2531.962369
937.706632	2530.664272
938.009336	2530.177801
938.312002	2532.141330
938.614628	2530.323994
938.917216	2532.534540
939.219765	2531.816176
939.522275	2532.022863
939.824747	2532.249715
940.127179	2525.504651
940.429573	2528.673016
940.731929	2528.751154
941.034246	2525.912984
941.336524	2527.470701
941.638763	2530.505476
941.940964	2530.452543
942.243126	2531.261649
942.545250	2531.286854
942.847335	2529.817358
943.149381	2532.494211
943.451389	2527.596730
943.753359	2530.651669
944.055290	2530.976823
944.357182	2530.674354
944.659036	2529.915661
944.960851	2530.823068
945.262628	2530.626463
945.564367	2529.582944
945.866067	2528.534384
946.167729	2527.684950
946.469352	2529.961031
946.770937	2529.676206
947.072484	2529.688809
947.373992	2529.187214
947.675462	2529.666123
947.976893	2529.971113
948.278286	2528.914992
948.579641	2532.022863
948.880958	2529.131761
949.182236	2529.293078
949.483476	2528.400794
949.784678	2526.986750
950.085841	2529.212420
950.386967	2531.861546
950.688054	2527.508510
950.989103	2530.374406
951.290114	2529.983716
951.591087	2529.971113
951.892021	2529.371216
952.192917	2530.346679
952.493776	2531.264169
952.794596	2527.662265
953.095378	2532.156453
953.396122	2529.401463
953.696828	2530.883562
953.997496	2530.298788
954.298126	2526.903571
954.598718	2531.677544
954.899272	2529.948428
955.199788	2529.794673
955.500266	2530.510517
955.800706	2527.175793
956.101108	2523.634383
956.401472	2526.880886
956.701798	2524.524147
957.002087	2525.020700
957.302337	2528.736031
957.602550	2532.199303
957.902724	2529.371216
958.202861	2528.549508
958.502960	2527.700073
958.803022	2525.350896
959.103045	2528.362985
959.403031	2529.782070
959.702979	2526.046575
960.002889	2529.739220
960.302762	2528.148736
960.602596	2529.829961
960.902393	2528.171421
961.202153	2528.504138
961.501875	2526.522964
961.801559	2530.082019
962.101205	2527.097656
962.400814	2528.652852
962.700385	2529.580424
962.999918	2529.787111
963.299414	2527.387522
963.598873	2527.800897
963.898293	2527.044723
964.197677	2530.994467
964.497022	2527.679909
964.796331	2527.755526
965.095601	2527.274096
965.394835	2528.756195
965.694030	2527.321987
965.993189	2530.371885
966.292309	2524.750998
966.591393	2529.272913
966.890439	2527.800897
967.189447	2529.356093
967.488419	2528.269724
967.787353	2530.470187
968.086249	2527.503468
968.385108	2524.372912
968.683930	2528.310053
968.982714	2528.645290
969.281462	2529.270393
969.580172	2527.576565
969.878844	2528.486493
970.177480	2527.725279
970.476078	2529.227543
970.774639	2526.845598
971.073162	2528.118489
971.371649	2524.917357
971.670098	2525.532377
971.968510	2526.165042
972.266885	2519.407375
972.565223	2529.325846
972.863524	2527.445495
973.161788	2526.807789
973.460014	2527.740403
973.758204	2529.068747
974.056356	2527.574045
974.354471	2529.865249
974.652550	2527.193437
974.950591	2525.164373
975.248595	2529.497245
975.546563	2528.161339
975.844493	2526.805269
976.142386	2529.668644
976.440243	2527.904240
976.738062	2528.146216
977.035845	2525.202182
977.333590	2529.164529
977.631299	2529.313243
977.928971	2527.316946
978.226606	2528.589837
978.524204	2529.950949
978.821765	2526.162522
979.119290	2525.660927
979.416777	2528.950280
979.714228	2526.641431
980.011642	2525.272758
980.309020	2529.192255
980.606360	2527.095135
980.903664	2528.645290
981.200931	2526.071781
981.498162	2526.480114
981.795356	2528.481452
982.092513	2527.311905
982.389633	2529.996319
982.686717	2528.017666
982.983764	2530.200486
983.280775	2527.014477
983.577749	2527.553880
983.874686	2529.010773
984.171587	2529.199817
984.468451	2528.176463
984.765279	2529.041020
985.062070	2528.126051
985.358824	2526.137316
985.655543	2529.202337
985.952224	2528.766278
986.248869	2528.521782
986.545478	2525.008097
986.842050	2525.366019
987.138586	2524.176307
987.435086	2523.430216
987.731549	2523.778056
988.027975	2530.089580
988.324366	2525.484486
988.620719	2529.635877
988.917037	2528.186545
989.213318	2529.323325
989.509563	2527.261493
989.805772	2525.484486
990.101944	2523.687315
990.398080	2529.101514
990.694180	2529.714014
990.990244	2525.499610
991.286271	2526.036493
991.582262	2530.548325
991.878217	2526.074301
992.174136	2529.822399
992.470019	2525.784435
992.765865	2529.272913
993.061676	2527.538757
993.357450	2528.705784
993.653188	2526.505320
993.948890	2527.755526
994.244556	2526.701925
994.540186	2527.417769
994.835780	2526.069260
995.131337	2527.594209
995.426859	2527.203520
995.722345	2528.221833
996.017795	2527.155629
996.313208	2528.163860
996.608586	2527.327028
996.903928	2525.023221
997.199234	2527.316946
997.494504	2525.776873
997.789738	2528.698222
998.084936	2527.001874
998.380099	2528.047913
998.675225	2527.609333
998.970316	2527.528674
999.265371	2528.302491
999.560390	2525.219826
999.855373	2526.588499
1000.150320	2527.044723
1000.445232	2526.540608
1000.740108	2527.465660
1001.034948	2529.862728
1001.329752	2527.490866
1001.624521	2527.382481
1001.919254	2521.194464
1002.213951	2525.502130
1002.508613	2522.779907
1002.803239	2524.067922
1003.097829	2522.575741
1003.392384	2526.591020
1003.686903	2526.984230
1003.981386	2525.897861
1004.275834	2526.737213
1004.570246	2526.795186
1004.864623	2525.786956
1005.158964	2528.834333
1005.453270	2525.257634
1005.747540	2527.571524
1006.041775	2525.804600
1006.335974	2526.064219
1006.630138	2523.054650
1006.924266	2526.439785
1007.218359	2526.696884
1007.512416	2524.509023
1007.806438	2526.447347
1008.100425	2525.912984
1008.394376	2524.849301
1008.688292	2525.877696
1008.982172	2525.986081
1009.276017	2525.088756
1009.569827	2527.591689
1009.863602	2525.562624
1010.157341	2527.112779
1010.451045	2525.214785
1010.744714	2523.520957
1011.038347	2526.810310
1011.331945	2527.821061
1011.625508	2527.246370
1011.919036	2525.295443
1012.212528	2526.102028
1012.505986	2527.518592
1012.799408	2525.587830
1013.092795	2523.722603
1013.386147	2525.189579
1013.679464	2530.540764
1013.972745	2525.902902
1014.265992	2526.729651
1014.559204	2527.808458
1014.852380	2529.603109
1015.145521	2523.732685
1015.438628	2525.857532
1015.731699	2526.326359
1016.024736	2525.386184
1016.317737	2527.795855
1016.610703	2526.699404
1016.903635	2521.723786
1017.196531	2522.583302
1017.489393	2523.359640
1017.782219	2522.311080
1018.075011	2523.299146
1018.367768	2524.834178
1018.660490	2527.473222
1018.953177	2527.473222
1019.245829	2527.473222
