Dividing Wavelength (nm)	Counts (n)	Blue Motor Position (mm): 0.000000	Red Motor Position (mm): 39.000000	
326.493990	2127.631584
326.888308	2127.631584
327.282561	2127.631584
327.676750	2093.187900
328.070874	2093.923908
328.464933	2096.315936
328.858929	2103.371031
329.252859	2113.954933
329.646726	2124.390122
330.040528	2137.663480
330.434265	2155.967909
330.827938	2171.126659
331.221547	2188.657272
331.615091	2208.663091
332.008571	2228.421893
332.401986	2247.507702
332.795338	2268.204159
333.188625	2285.903650
333.581847	2305.901907
333.975006	2323.518219
334.368100	2340.756445
334.761129	2361.440299
335.154095	2373.206352
335.546996	2395.881462
335.939833	2415.010120
336.332606	2433.327153
336.725315	2442.113884
337.117960	2452.516305
337.510540	2461.040896
337.903056	2473.923565
338.295508	2481.563433
338.687896	2491.713797
339.080220	2495.451812
339.472480	2504.546054
339.864676	2508.243740
340.256807	2514.310769
340.648875	2516.788496
341.040879	2518.484844
341.432818	2520.702952
341.824694	2524.335103
342.216506	2522.510206
342.608253	2526.039013
342.999937	2524.226718
343.391557	2523.793179
343.783113	2518.925945
344.174605	2517.910153
344.566033	2519.495596
344.957397	2516.438136
345.348697	2515.818074
345.739934	2511.951509
346.131106	2510.376148
346.522215	2511.563340
346.913260	2507.278359
347.304241	2507.492608
347.695159	2506.161744
348.086012	2507.379182
348.476802	2500.603872
348.867528	2501.556650
349.258191	2502.138903
349.648789	2499.270486
350.039324	2497.432986
350.429796	2494.458705
350.820203	2491.890237
351.210548	2494.017604
351.600828	2494.178921
351.991045	2490.135916
352.381198	2491.892758
352.771288	2491.706235
353.161314	2490.055257
353.551276	2494.410814
353.941175	2489.800679
354.331010	2490.307315
354.720782	2490.211533
355.110490	2488.081645
355.500135	2487.668271
355.889717	2487.859835
356.279235	2489.772952
356.668689	2491.887717
357.058080	2491.108858
357.447408	2490.755977
357.836672	2487.307828
358.225873	2491.159270
358.615010	2486.670122
359.004084	2493.432830
359.393095	2494.262100
359.782043	2494.965341
360.170927	2495.207316
360.559748	2495.482059
360.948505	2496.210506
361.337199	2499.134375
361.725830	2499.116731
362.114398	2500.077071
362.502903	2499.439365
362.891344	2499.968686
363.279722	2498.637822
363.668037	2501.062617
364.056289	2500.722339
364.444478	2501.765858
364.832603	2502.184273
365.220665	2503.094202
365.608665	2506.786847
365.996601	2504.092350
366.384474	2505.834069
366.772284	2508.155520
367.160031	2508.455469
367.547715	2513.907477
367.935336	2514.106602
368.322893	2517.327899
368.710388	2519.099865
369.097820	2528.562111
369.485189	2527.372398
369.872495	2534.883718
370.259738	2543.640202
370.646918	2548.197405
371.034035	2556.946328
371.421090	2564.147616
371.808081	2577.756211
372.195010	2583.586305
372.581875	2600.814448
372.968678	2611.451283
373.355418	2622.546862
373.742096	2639.812814
374.128710	2657.272851
374.515262	2670.735252
374.901751	2686.514064
375.288177	2697.125692
375.674540	2721.413972
376.060841	2738.594224
376.447079	2760.311515
376.833254	2781.113836
377.219367	2791.377625
377.605417	2830.978409
377.991404	2840.294462
378.377329	2861.928573
378.763191	2873.770244
379.148991	2915.939496
379.534727	2939.529575
379.920402	2968.911940
380.306013	2981.144300
380.691563	3030.608102
381.077049	3055.329920
381.462474	3070.309709
381.847835	3110.495267
382.233134	3132.104173
382.618371	3130.307001
383.003545	3199.408618
383.388657	3207.197200
383.773706	3238.419587
384.158693	3259.055550
384.543618	3282.869961
384.928480	3321.495282
385.313280	3363.278885
385.698017	3362.195037
386.082692	3418.396341
386.467305	3418.499684
386.851856	3454.995118
387.236344	3476.276349
387.620770	3509.507635
388.005133	3534.768857
388.389435	3560.335068
388.773674	3573.565577
389.157851	3614.754324
389.541965	3627.631952
389.926018	3594.960234
390.310008	3664.999505
390.693936	3683.971887
391.077802	3724.447311
391.461606	3712.156978
391.845348	3779.111063
392.229027	3776.101494
392.612645	3792.258392
392.996200	3867.311091
393.379694	3904.078746
393.763125	3972.255311
394.146494	3937.859518
394.529801	4000.568952
394.913047	4050.985531
395.296230	4015.256353
395.679351	4069.272317
396.062410	4092.806943
396.445408	4078.129624
396.828343	4109.450313
397.211217	4131.149960
397.594028	4053.332188
397.976778	4119.930872
398.359466	4145.058503
398.742092	4172.759643
399.124656	4096.713838
399.507158	4177.331970
399.889598	4202.600754
400.271977	4261.657871
400.654294	4233.674426
401.036549	4244.522989
401.418742	4216.965522
401.800874	4311.141837
402.182944	4338.565714
402.564952	4402.482504
402.946898	4387.127149
403.328783	4388.236203
403.710606	4298.359992
404.092367	4491.242099
404.474067	4457.907470
404.855705	4465.524653
405.237282	4393.809198
405.618797	4498.609746
406.000250	4534.724572
406.381642	4611.012353
406.762972	4575.492383
407.144240	4588.450669
407.525447	4587.946554
407.906593	4649.461233
408.287677	4687.816852
408.668700	4619.055514
409.049661	4671.201209
409.430560	4711.946335
409.811399	4638.569821
410.192176	4801.477228
410.572891	4738.361982
410.953545	4842.938197
411.334138	4724.569385
411.714669	4789.025578
412.095139	4682.710164
412.475547	4829.042257
412.855894	4807.579544
413.236180	4815.506759
413.616405	4769.206281
413.996568	4858.830435
414.376670	4799.974964
414.756711	4752.638529
415.136691	4786.323519
415.516609	4865.225139
415.896466	4902.060850
416.276262	4935.183751
416.655997	4915.170370
417.035670	5098.723823
417.415283	5188.363100
417.794834	5132.733967
418.174324	5088.253347
418.553753	4994.354294
418.933121	5177.476728
419.312428	5248.461216
419.691674	5188.012740
420.070859	5312.171318
420.449983	5221.380137
420.829045	5336.449515
421.208047	5240.851594
421.586988	5313.983613
421.965867	5330.004400
422.344686	5460.116581
422.723444	5316.254653
423.102141	5135.269668
423.480777	5434.540287
423.859352	5202.417837
424.237866	5463.650429
424.616319	5453.343790
424.994712	5561.842024
425.373044	5441.101348
425.751314	5582.530919
426.129524	5384.116145
426.507673	5584.418832
426.885762	5667.991080
427.263789	5590.556436
427.641756	5474.834229
428.019662	5598.919711
428.397508	5605.747953
428.775292	5553.027567
429.153016	5654.369882
429.530679	5578.437502
429.908282	5661.913969
430.285824	5533.369587
430.663305	5808.417462
431.040726	5542.993150
431.418086	5542.844436
431.795385	5646.099869
432.172624	5659.106046
432.549802	5655.564636
432.926920	5668.732130
433.303977	5674.418551
433.680974	5714.677206
434.057910	5736.094548
434.434786	5740.195527
434.811601	5709.930959
435.188355	5943.180107
435.565050	5814.124048
435.941683	5796.333816
436.318257	6014.693915
436.694770	5990.299772
437.071222	6029.880391
437.447614	5957.270132
437.823946	5874.827102
438.200218	6030.422315
438.576429	5887.238423
438.952580	5989.674669
439.328670	6038.011772
439.704700	5939.943686
440.080670	5927.461789
440.456580	6203.346495
440.832429	6080.922074
441.208218	5930.491523
441.583947	6083.203196
441.959616	6093.338436
442.335224	6017.305233
442.710773	6154.966542
443.086261	6181.656931
443.461689	5975.012473
443.837057	6121.795749
444.212365	6280.196365
444.587612	6174.894223
444.962800	6326.206976
445.337927	6307.093441
445.712995	5919.176653
446.088002	6496.731567
446.462949	6322.365617
446.837837	6253.309371
447.212664	6427.924858
447.587431	6570.561785
447.962139	7115.906247
448.336786	8043.554172
448.711374	7780.345447
449.085901	6855.835640
449.460369	6771.489575
449.834776	6702.529111
450.209124	7102.915193
450.583412	7250.308449
450.957640	7395.854122
451.331808	7162.433576
451.705917	6714.763991
452.079965	6636.512680
452.453954	6847.384146
452.827883	6726.114149
453.201752	6819.020094
453.575562	6622.601616
453.949311	6830.607186
454.323001	6712.228291
454.696632	6786.232429
455.070202	6929.731394
455.443713	7083.269817
455.817164	7182.898140
456.190556	7260.844461
456.563888	7336.113929
456.937160	7381.461628
457.310373	7035.356170
457.683526	7063.518576
458.056619	6951.950279
458.429653	6943.894516
458.802628	6877.842797
459.175542	6989.322873
459.548398	7341.918817
459.921194	7504.067531
460.293930	7503.417222
460.666607	8032.360289
461.039224	8340.581477
461.411782	8465.415569
461.784280	8491.039754
462.156719	8384.255513
462.529099	8261.170701
462.901419	7849.308432
463.273680	7741.074858
463.645882	7749.435612
464.018024	7616.475179
464.390106	7785.936087
464.762130	8174.336826
465.134094	8639.395871
465.505999	9655.455552
465.877845	10881.784281
466.249631	11535.546317
466.621358	11156.305355
466.993026	10521.321616
467.364634	10269.694942
467.736184	9906.764633
468.107674	9563.015914
468.479105	9594.664278
468.850477	9368.308908
469.221790	9143.811204
469.593043	8813.086306
469.964238	8669.368051
470.335373	8682.482613
470.706449	8746.908559
471.077467	8726.779232
471.448425	10031.926401
471.819324	11109.016811
472.190164	11139.011676
472.560945	9885.566581
472.931667	9092.162063
473.302330	8959.002504
473.672934	8599.792566
474.043479	8963.327814
474.413965	8902.004698
474.784393	8778.950133
475.154761	8938.580790
475.525070	9023.577164
475.895321	8852.019137
476.265513	9034.360193
476.635645	9199.102580
477.005719	9201.678609
477.375734	9313.004930
477.745691	9550.720540
478.115588	9685.347074
478.485427	9928.030741
478.855207	10460.124529
479.224928	11281.000816
479.594591	11913.635376
479.964194	11730.306255
480.333739	11662.855617
480.703226	11579.893348
481.072653	11669.661174
481.442022	11904.243707
481.811333	12092.435021
482.180584	11906.063563
482.549777	11609.416865
482.918912	11435.060998
483.287988	11460.927158
483.657005	11466.870678
484.025964	11149.512400
484.394864	11290.195880
484.763706	11253.632391
485.132489	11003.286171
485.501213	10971.794083
485.869879	11047.353417
486.238487	10889.391382
486.607036	10997.075469
486.975527	10780.094125
487.343959	10970.793414
487.712333	11021.822493
488.080648	10946.227871
488.448905	10989.702782
488.817104	10923.330950
489.185244	11188.861126
489.553326	11348.098573
489.921350	11887.970862
490.289315	12951.553501
490.657222	13291.566725
491.025070	13200.626830
491.392861	13075.379363
491.760593	12696.662680
492.128267	12349.564114
492.495883	12018.123372
492.863440	11677.895899
493.230939	11345.285609
493.598380	11277.719024
493.965763	11146.611216
494.333088	11041.508199
494.700354	10964.358381
495.067563	11021.245281
495.434713	10861.047494
495.801805	10992.140180
496.168839	10906.175904
496.535815	10840.184679
496.902733	10837.873310
497.269593	10778.160843
497.636395	10876.410411
498.003139	10862.113698
498.369825	10733.914636
498.736453	10893.532690
499.103023	10815.936729
499.469535	10842.019659
499.835989	10837.394401
500.202385	10792.686928
500.568723	10646.745524
500.935003	10873.042920
501.301226	10675.666623
501.667390	10930.809502
502.033497	11028.393638
502.399546	10888.713347
502.765537	10797.770931
503.131470	10872.006963
503.497345	11042.418128
503.863163	10657.019395
504.228923	10967.055398
504.594625	11032.008145
504.960269	10779.653024
505.325856	10999.197795
505.691385	10789.672318
506.056856	10944.060175
506.422270	10978.559311
506.787625	10863.789882
507.152924	10977.772891
507.518164	10957.509973
507.883347	10884.319981
508.248472	10797.617176
508.613540	11030.548731
508.978550	10918.062944
509.343503	10889.623275
509.708398	11003.669298
510.073236	11120.445107
510.438016	11132.150666
510.802738	11073.476676
511.167403	11124.581373
511.532010	11024.479182
511.896561	11253.224058
512.261053	11322.645788
512.625488	11199.462673
512.989866	11175.418889
513.354186	11155.060190
513.718449	11066.529966
514.082655	11256.130283
514.446803	11156.799388
514.810894	11274.165011
515.174927	11144.597275
515.538904	11170.140801
515.902822	11323.719553
516.266684	11204.397962
516.630488	11139.505709
516.994235	11201.224556
517.357925	11266.620924
517.721558	11354.261384
518.085133	11369.415092
518.448651	11379.136957
518.812112	11263.775193
519.175516	11280.673141
519.538863	11395.530790
519.902152	11309.606843
520.265385	11471.863941
520.628560	11387.759851
520.991678	11364.686490
521.354739	11422.939543
521.717743	11356.320695
522.080690	11329.048053
522.443580	11473.772018
522.806413	11424.126735
523.169189	11450.781836
523.531908	11506.531956
523.894569	11333.355719
524.257174	11334.341264
524.619722	11455.079420
524.982213	11401.391131
525.344647	11449.488780
525.707025	11405.804661
526.069345	11491.927734
526.431608	11414.369582
526.793815	11529.323013
527.155964	11304.754732
527.518057	11368.462314
527.880093	11316.591362
528.242072	11383.817669
528.603995	11286.369644
528.965860	11203.752695
529.327669	11261.418453
529.689421	11209.250073
530.051117	11180.747389
530.412755	11286.415015
530.774337	11173.296564
531.135862	11152.852164
531.497331	11176.911071
531.858743	11028.098730
532.220098	11200.047447
532.581396	11062.648278
532.942638	11047.270238
533.303824	11013.275217
533.664953	11022.465241
534.026025	10937.103382
534.387040	11035.980574
534.747999	11037.203054
535.108902	11092.197001
535.469748	10852.376710
535.830537	10949.582759
536.191270	10932.168093
536.551947	10960.615324
536.912567	10955.412853
537.273131	10877.438806
537.633638	10858.206804
537.994089	10845.339259
538.354483	10798.007866
538.714821	10937.554566
539.075103	10949.645773
539.435328	10909.752602
539.795497	10741.829247
540.155609	10889.351053
540.515665	10986.776392
540.875665	10718.677748
541.235609	10785.767944
541.595496	10777.795359
541.955328	10938.197313
542.315102	10816.239198
542.674821	10770.352096
543.034483	10762.528225
543.394090	10775.415935
543.753640	10693.149345
544.113134	10917.498335
544.472571	10768.600295
544.831953	10912.169836
545.191278	10721.266381
545.550548	10749.930381
545.909761	10882.701771
546.268918	10861.612104
546.628019	10939.913826
546.987064	10801.458535
547.346053	10723.010620
547.704986	10821.676083
548.063863	10811.412294
548.422684	10799.895778
548.781449	10707.115862
549.140158	10807.762498
549.498811	10690.406957
549.857408	10542.043279
550.215949	10770.770511
550.574434	10617.161512
550.932864	10712.018384
551.291237	10773.434761
551.649555	10712.091481
552.007817	10726.063038
552.366022	10694.404592
552.724173	10682.832624
553.082267	10660.336475
553.440305	10795.920828
553.798288	10594.153686
554.156215	10748.637325
554.514086	10723.731505
554.871902	10569.671323
555.229661	10603.013514
555.587365	10575.965203
555.945014	10465.594181
556.302606	10587.983314
556.660143	10483.205452
557.017625	10625.270208
557.375050	10520.636019
557.732421	10650.188632
558.089735	10565.668647
558.446994	10562.712010
558.804197	10589.314179
559.161345	10593.589077
559.518437	10441.671385
559.875474	10516.840030
560.232455	10544.611747
560.589381	10486.976235
560.946251	10474.761519
561.303065	10577.195245
561.659825	10514.505976
562.016528	10433.257700
562.373177	10316.549947
562.729770	10422.078941
563.086307	10331.562503
563.442789	10417.206666
563.799216	10290.126739
564.155587	10332.164921
564.511904	10283.946284
564.868164	10261.734961
565.224370	10274.373133
565.580520	10187.869454
565.936615	10192.275422
566.292654	10050.258557
566.648638	10167.520836
567.004567	10126.692531
567.360441	10094.615669
567.716260	9999.473973
568.072023	10086.151572
568.427732	10027.974136
568.783385	9929.590978
569.138982	9981.683741
569.494525	9995.695628
569.850013	9862.084887
570.205445	9928.494527
570.560823	9817.236261
570.916145	9736.277851
571.271412	9793.016038
571.626625	9724.960461
571.981782	9697.745792
572.336884	9651.921703
572.691931	9652.105705
573.046923	9579.160209
573.401860	9532.179176
573.756743	9458.729564
574.111570	9483.201846
574.466342	9459.747877
574.821059	9476.928130
575.175722	9361.992343
575.530330	9349.928862
575.884882	9330.722065
576.239380	9246.315506
576.593823	9215.025064
576.948211	9216.943223
577.302544	9097.790511
577.656823	9085.374149
578.011047	9077.963653
578.365216	9032.096714
578.719330	8947.543962
579.073389	8939.687323
579.427394	8882.601297
579.781344	8845.952109
580.135239	8778.057849
580.489080	8779.875185
580.842866	8661.889499
581.196597	8646.264443
581.550273	8673.005244
581.903895	8620.342830
582.257463	8657.743150
582.610975	8524.288685
582.964434	8538.575315
583.317837	8444.792209
583.671186	8417.509484
584.024481	8389.475628
584.377721	8305.626116
584.730906	8266.978110
585.084037	8271.174871
585.437113	8195.285341
585.790135	8190.125720
586.143103	8087.303825
586.496016	8041.063842
586.848874	8072.245899
587.201679	8041.159623
587.554428	7916.554903
587.907124	7939.887884
588.259765	7899.102429
588.612352	7869.135290
588.964884	7751.346209
589.317362	7740.704334
589.669786	7716.652989
590.022155	7743.534942
590.374470	7725.414514
590.726731	7659.322467
591.078937	7509.370825
591.431090	7582.906136
591.783188	7456.746220
592.135232	7423.083915
592.487222	7414.294663
592.839157	7428.493073
593.191038	7354.846857
593.542866	7289.967207
593.894639	7187.530960
594.246358	7208.383693
594.598022	7193.850047
594.949633	7088.137051
595.301190	7049.602471
595.652692	7048.926956
596.004141	7104.752694
596.355535	6920.569097
596.706876	6883.158694
597.058162	6810.205636
597.409395	6849.241811
597.760573	6869.643361
598.111698	6780.921573
598.462768	6749.875628
598.813785	6708.225614
599.164748	6657.362893
599.515657	6632.830118
599.866511	6530.585435
600.217312	6608.357836
600.568060	6488.612788
600.918753	6533.970570
601.269392	6495.922461
601.619978	6408.561786
601.970510	6431.400733
602.320988	6404.969964
602.671412	6414.220481
603.021783	6359.854157
603.372100	6318.294885
603.722363	6288.486542
604.072572	6256.107211
604.422728	6236.456793
604.772830	6170.006824
605.122878	6148.604605
605.472872	6126.378158
605.822813	6116.310974
606.172701	6059.144289
606.522534	6088.448517
606.872314	6068.183078
607.222041	6020.695409
607.571714	6029.739239
607.921333	5980.124203
608.270899	5949.816786
608.620411	5990.355224
608.969870	5910.664664
609.319276	5876.919181
609.668627	5863.182036
610.017926	5867.363673
610.367171	5857.540985
610.716362	5829.320606
611.065500	5793.457838
611.414585	5780.149191
611.763616	5753.368062
612.112594	5719.214244
612.461518	5700.937541
612.810389	5712.423810
613.159207	5649.132123
613.507971	5600.527839
613.856682	5639.271627
614.205340	5600.273260
614.553945	5613.531495
614.902496	5533.099885
615.250994	5538.030134
615.599439	5506.447305
615.947830	5480.011494
616.296169	5455.151044
616.644454	5432.803609
616.992686	5406.216564
617.340864	5415.267955
617.688990	5339.809444
618.037063	5368.612077
618.385082	5319.072658
618.733048	5334.869113
619.080961	5286.254746
619.428821	5271.577427
619.776628	5242.651286
620.124382	5202.536304
620.472083	5170.736706
620.819731	5163.563144
621.167326	5086.635136
621.514868	5067.922373
621.862357	4997.643647
622.209793	4985.149148
622.557176	4928.504222
622.904506	4896.059356
623.251783	4848.889280
623.599007	4800.126198
623.946179	4785.887459
624.293297	4743.445985
624.640363	4692.424467
624.987376	4662.394314
625.334336	4624.845279
625.681243	4582.229885
626.028097	4558.448242
626.374899	4533.403790
626.721647	4500.187627
627.068343	4461.952996
627.414987	4431.663223
627.761577	4394.046133
628.108115	4393.226945
628.454600	4332.067667
628.801032	4326.358560
629.147412	4303.068429
629.493739	4275.644552
629.840014	4234.440681
630.186236	4242.297320
630.532405	4177.911703
630.878521	4183.585521
631.224585	4149.832476
631.570597	4116.003813
631.916556	4105.971917
632.262462	4090.606480
632.608316	4058.552303
632.954117	4038.511196
633.299866	4020.647867
633.645562	3997.183817
633.991206	3955.420378
634.336797	3926.799227
634.682336	3900.958272
635.027823	3868.092470
635.373257	3850.715612
635.718639	3814.716733
636.063968	3803.406904
636.409245	3759.057353
636.754470	3742.731576
637.099642	3716.512535
637.444762	3686.845345
637.789829	3670.842202
638.134845	3645.616268
638.479808	3626.490130
638.824719	3615.318933
639.169577	3583.960436
639.514383	3575.050197
639.859137	3547.195301
640.203839	3537.692726
640.548489	3518.932072
640.893086	3500.378105
641.237632	3482.930672
641.582125	3476.745176
641.926566	3455.315231
642.270955	3452.968574
642.615292	3439.564146
642.959576	3430.976540
643.303809	3415.989190
643.647990	3406.249681
643.992118	3396.865573
644.336195	3372.277345
644.680219	3365.509596
645.024192	3359.266127
645.368112	3368.511603
645.711981	3364.645038
646.055797	3374.218189
646.399562	3358.341075
646.743274	3372.035369
647.086935	3378.364538
647.430544	3368.919936
647.774101	3361.864842
648.117606	3358.038606
648.461059	3345.970083
648.804460	3326.112978
649.147810	3296.382774
649.491108	3279.905762
649.834354	3263.761467
650.177548	3237.759196
650.520690	3209.828683
650.863781	3199.204451
651.206820	3192.343441
651.549807	3169.577590
651.892742	3148.992038
652.235626	3143.721512
652.578458	3132.424286
652.921238	3109.207252
653.263967	3109.290431
653.606644	3095.626383
653.949269	3083.222624
654.291843	3069.840882
654.634365	3071.532189
654.976836	3056.842266
655.319255	3054.442677
655.661622	3039.382230
656.003938	3033.854605
656.346203	3023.437060
656.688416	3015.867768
657.030577	3003.993330
657.372687	2998.541322
657.714746	2987.281905
658.056753	2989.227790
658.398708	2969.889924
658.740612	2964.127885
659.082465	2959.754684
659.424266	2956.901391
659.766016	2949.437963
660.107715	2943.832200
660.449362	2941.876232
660.790958	2936.507403
661.132503	2928.691094
661.473996	2925.701690
661.815438	2921.542738
662.156829	2916.466296
662.498168	2906.250398
662.839456	2899.341497
663.180693	2898.499624
663.521879	2893.319838
663.863013	2889.203736
664.204097	2883.371121
664.545129	2883.744167
664.886110	2878.763507
665.227040	2875.653115
665.567918	2871.098432
665.908746	2868.197248
666.249522	2867.594830
666.590248	2861.195086
666.930922	2861.079139
667.271545	2857.593181
667.612118	2850.986749
667.952639	2847.422653
668.293109	2844.481140
668.633528	2834.330777
668.973896	2828.558656
669.314213	2825.206288
669.654480	2819.350988
669.994695	2814.009886
670.334859	2812.444607
670.674973	2803.284831
671.015035	2802.311888
671.355047	2797.099335
671.695008	2793.777215
672.034918	2791.486010
672.374777	2788.287398
672.714585	2784.128446
673.054342	2782.941254
673.394049	2778.552930
673.733705	2776.786006
674.073310	2774.300717
674.412864	2767.714449
674.752368	2762.123810
675.091820	2760.419900
675.431223	2750.972777
675.770574	2750.362798
676.109875	2738.944584
676.449125	2735.183883
676.788324	2729.852863
677.127473	2725.078891
677.466571	2719.480689
677.805619	2720.703169
678.144616	2716.934907
678.483562	2715.616645
678.822458	2706.620706
679.161303	2707.538196
679.500098	2704.092567
679.838842	2701.443441
680.177535	2698.867411
680.516179	2699.845395
680.854771	2697.118131
681.193314	2704.148020
681.531805	2704.266487
681.870247	2711.924000
682.208638	2715.067159
682.546978	2713.504401
682.885268	2707.588607
683.223508	2703.162474
683.561697	2695.978830
683.899836	2695.751978
684.237925	2690.294929
684.575963	2690.269723
684.913951	2685.024403
685.251889	2687.973478
685.589776	2684.492561
685.927614	2681.351922
686.265401	2683.721264
686.603137	2680.719257
686.940824	2684.147242
687.278460	2686.672860
687.616046	2689.682429
687.953582	2688.399455
688.291068	2688.598581
688.628504	2689.805937
688.965889	2686.642613
689.303224	2683.123888
689.640510	2677.598783
689.977745	2672.459327
690.314930	2667.808862
690.652065	2661.525064
690.989150	2658.182779
691.326185	2650.426964
691.663170	2647.172899
692.000105	2643.891108
692.336990	2636.780560
692.673825	2637.604789
693.010610	2633.423152
693.347345	2626.161370
693.684030	2622.304887
694.020665	2622.501492
694.357251	2616.184926
694.693786	2620.822788
695.030272	2620.951337
695.366707	2614.556634
695.703093	2613.808022
696.039429	2615.872375
696.375716	2612.988835
696.711952	2611.151334
697.048139	2613.765172
697.384276	2610.402723
697.720363	2611.957919
698.056400	2609.545727
698.392388	2606.372320
698.728326	2608.696292
699.064214	2604.058431
699.400053	2604.391147
699.735842	2599.778491
700.071581	2603.352669
700.407270	2599.312184
700.742910	2597.204982
701.078501	2597.242791
701.414042	2595.778336
701.749533	2592.589806
702.084974	2591.455546
702.420366	2592.602409
702.755709	2590.028900
703.091002	2588.766091
703.426246	2588.685432
703.761440	2587.901533
704.096584	2587.508323
704.431679	2586.661409
704.766725	2588.007397
705.101721	2586.152252
705.436668	2585.391038
705.771565	2584.355081
706.106413	2582.230235
706.441212	2583.130081
706.775961	2585.607808
707.110661	2585.950606
707.445311	2585.713672
707.779913	2584.218970
708.114465	2586.542942
708.448967	2586.923549
708.783421	2584.438260
709.117825	2586.114444
709.452180	2587.785586
709.786485	2585.330544
710.120742	2591.263982
710.454949	2590.177614
710.789107	2588.551842
711.123216	2587.891450
711.457275	2589.950762
711.791286	2590.686770
712.125247	2593.976123
712.459159	2594.404621
712.793023	2595.569128
713.126837	2590.464959
713.460602	2592.645258
713.794318	2587.717531
714.127985	2590.414548
714.461602	2588.123343
714.795171	2585.509505
715.128691	2581.592529
715.462162	2582.389031
715.795584	2579.109760
716.128957	2580.538928
716.462281	2581.635378
716.795556	2577.577250
717.128782	2579.911304
717.461960	2572.558781
717.795088	2574.918041
718.128167	2577.249575
718.461198	2576.185891
718.794180	2573.458627
719.127113	2572.205900
719.459997	2570.086095
719.792833	2570.401167
720.125619	2572.478123
720.458357	2571.187587
720.791046	2571.568194
721.123686	2569.196331
721.456278	2570.076013
721.788821	2567.363872
722.121315	2572.430232
722.453761	2567.378995
722.786158	2568.379664
723.118506	2568.339335
723.450805	2570.756568
723.783056	2568.787998
724.115259	2567.046279
724.447412	2566.166598
724.779518	2570.789336
725.111574	2568.414952
725.443582	2569.839078
725.775542	2564.694581
726.107453	2567.668862
726.439315	2567.890673
726.771129	2573.408215
727.102895	2569.811352
727.434612	2574.023236
727.766281	2570.824624
728.097901	2569.529048
728.429473	2568.593913
728.760996	2567.895714
729.092471	2568.099880
729.423897	2571.510221
729.755276	2568.457802
730.086606	2570.925447
730.417887	2572.347052
730.749120	2574.033318
731.080305	2572.783112
731.411442	2575.986766
731.742530	2572.725139
732.073570	2574.401323
732.404562	2572.291600
732.735506	2574.751683
733.066401	2575.490212
733.397249	2573.055335
733.728048	2569.806311
734.058798	2569.387895
734.389501	2564.288768
734.720156	2566.514438
735.050762	2565.208779
735.381320	2565.821279
735.711831	2564.767678
736.042293	2564.752554
736.372707	2564.810527
736.703073	2565.445713
737.033391	2564.568552
737.363661	2562.894889
737.693883	2563.638459
738.024056	2566.527040
738.354182	2564.820610
738.684260	2566.748851
739.014290	2566.262380
739.344272	2565.503686
739.674207	2568.916547
740.004093	2566.411094
740.333931	2563.971175
740.663722	2567.910837
740.993464	2565.947308
741.323159	2563.731721
741.652806	2565.836402
741.982405	2568.805642
742.311956	2564.162739
742.641460	2564.011505
742.970915	2564.492935
743.300323	2565.440672
743.629683	2560.646534
743.958996	2563.061247
744.288260	2560.379353
744.617477	2559.696277
744.946647	2555.635628
745.275768	2559.144271
745.604842	2554.700493
745.933869	2556.520350
746.262847	2555.580175
746.591778	2559.527398
746.920662	2557.836091
747.249498	2560.253324
747.578286	2560.865825
747.907027	2559.734086
748.235720	2558.541853
748.564365	2561.866494
748.892963	2560.712069
749.221514	2560.225598
749.550017	2562.899930
749.878473	2560.260886
750.206881	2559.144271
750.535242	2559.093859
750.863555	2560.565876
751.191821	2556.142263
751.520039	2558.708211
751.848210	2559.194682
752.176334	2558.158725
752.504411	2558.909857
752.832440	2557.019424
753.160421	2558.166287
753.488356	2559.429096
753.816243	2559.552604
754.144082	2558.229301
754.471875	2557.054712
754.799620	2557.616801
755.127318	2557.616801
755.454969	2558.675443
755.782572	2557.006821
756.110129	2558.229301
756.437638	2557.417675
756.765100	2555.436502
757.092515	2555.660833
757.419882	2554.632438
757.747203	2554.892057
758.074477	2554.556821
758.401703	2555.050854
758.728882	2558.957748
759.056014	2558.960268
759.383099	2556.913560
759.710138	2557.447922
760.037129	2558.710731
760.364073	2559.250135
760.690970	2557.165618
761.017820	2559.295505
761.344623	2558.509085
761.671379	2559.721483
761.998088	2555.970864
762.324751	2561.291802
762.651366	2567.447051
762.977935	2579.533217
763.304456	2581.416088
763.630931	2587.006728
763.957359	2583.629155
764.283740	2577.010120
764.610074	2568.878739
764.936362	2570.847309
765.262602	2562.494117
765.588796	2560.502862
765.914943	2560.591082
766.241044	2560.853222
766.567097	2553.372149
766.893104	2559.008159
767.219064	2555.192006
767.544978	2553.871224
767.870845	2549.916438
768.196665	2554.423230
768.522438	2552.174875
768.848165	2553.888868
769.173846	2553.614125
769.499479	2553.273847
769.825066	2551.799309
770.150607	2551.554813
770.476101	2553.430123
770.801548	2551.383414
771.126949	2549.334185
771.452303	2548.509957
771.777611	2548.857796
772.102872	2551.537169
772.428087	2547.393341
772.753256	2550.352498
773.078378	2547.912580
773.403453	2549.561037
773.728482	2548.961140
774.053465	2548.792261
774.378401	2546.412837
774.703291	2549.860986
775.028135	2545.467620
775.352932	2546.248999
775.677683	2545.961653
776.002388	2547.365615
776.327046	2544.661036
776.651658	2545.843186
776.976224	2547.232024
777.300743	2546.914431
777.625216	2546.453166
777.949643	2545.956612
778.274024	2549.056922
778.598359	2544.214893
778.922647	2541.139790
779.246889	2543.972918
779.571086	2542.891591
779.895236	2547.579864
780.219339	2544.930737
780.543397	2548.000800
780.867409	2548.202446
781.191374	2548.230172
781.515294	2545.291180
781.839167	2546.405275
782.162995	2545.155069
782.486776	2549.233362
782.810511	2546.248999
783.134201	2547.095913
783.457844	2545.974256
783.781441	2544.903011
784.104993	2547.116077
784.428498	2545.586087
784.751958	2544.799667
785.075372	2546.790923
785.398739	2543.952753
785.722061	2546.932075
786.045337	2546.541386
786.368568	2548.628424
786.691752	2546.874102
787.014891	2550.352498
787.337983	2548.499874
787.661030	2548.996428
787.984031	2547.146324
788.306987	2552.852911
788.629897	2550.377704
788.952760	2552.686552
789.275579	2553.727551
789.598351	2548.157076
789.921078	2548.908208
790.243759	2551.005328
790.566395	2544.897970
790.888984	2548.893084
791.211529	2547.612631
791.534027	2547.723537
791.856480	2545.694472
792.178888	2546.611962
792.501249	2545.480223
792.823566	2547.259750
793.145836	2546.838814
793.468062	2544.862682
793.790241	2546.385110
794.112375	2546.629606
794.434464	2545.704554
794.756507	2544.829914
795.078505	2544.981149
795.400457	2543.768751
795.722364	2544.734132
796.044226	2543.977959
796.366042	2546.354863
796.687812	2547.383259
797.009538	2548.850234
797.331218	2546.977446
797.652852	2547.398382
797.974442	2547.053063
798.295986	2546.483413
798.617484	2546.858979
798.938938	2548.799823
799.260346	2546.974925
799.581709	2549.830739
799.903026	2547.337888
800.224299	2543.332692
800.545526	2545.719678
800.866708	2545.341591
801.187845	2547.221942
801.508936	2544.245140
801.829983	2547.746222
802.150984	2545.883515
802.471940	2544.305634
802.792851	2543.564585
803.113717	2544.940820
803.434538	2545.359235
803.755314	2543.955274
804.076045	2543.728422
804.396731	2542.891591
804.717372	2543.100798
805.037967	2544.797147
805.358518	2546.433001
805.679024	2546.841335
805.999485	2543.551982
806.319901	2543.849410
806.640272	2543.612476
806.960598	2545.717157
807.280879	2545.719678
807.601115	2545.790254
807.921306	2546.185985
808.241453	2547.594987
808.561554	2545.220604
808.881611	2548.041129
809.201623	2543.133566
809.521590	2546.458207
809.841513	2543.098278
810.161390	2545.379400
810.481223	2543.786395
810.801011	2547.947868
811.120755	2544.948381
811.440453	2545.150027
811.760107	2546.536345
812.079716	2541.744728
812.399281	2542.024512
812.718801	2541.482588
813.038276	2539.264480
813.357707	2542.780685
813.677093	2541.041487
813.996434	2542.629451
814.315731	2545.016437
814.634983	2546.337219
814.954191	2543.967877
815.273354	2544.174564
815.592473	2545.218083
815.911547	2545.071890
816.230577	2543.070552
816.549562	2544.756817
816.868502	2547.358053
817.187399	2546.294369
817.506250	2546.826211
817.825058	2544.114070
818.143821	2547.675646
818.462539	2548.457024
818.781213	2549.180430
819.099843	2548.275543
819.418429	2552.195040
819.736970	2556.149825
820.055466	2558.955227
820.373919	2562.967986
820.692327	2564.069478
821.010691	2574.035839
821.329011	2595.934611
821.647286	2630.511886
821.965517	2672.202228
822.283704	2697.586958
822.601847	2708.611962
822.919945	2685.725123
823.237999	2662.939108
823.556010	2640.463123
823.873976	2621.478138
824.191897	2603.874429
824.509775	2594.356730
824.827609	2586.447160
825.145398	2578.530028
825.463144	2578.461972
825.780845	2578.766962
826.098502	2584.055132
826.416116	2593.348499
826.733685	2606.475664
827.051210	2611.481530
827.368692	2608.424070
827.686129	2593.991247
828.003522	2583.765266
828.320872	2569.125755
828.638177	2564.334138
828.955439	2559.106462
829.272656	2556.139743
829.589830	2549.440049
829.906960	2552.757129
830.224046	2550.849052
830.541088	2550.624721
830.858086	2546.349822
831.175041	2547.353012
831.491952	2547.814277
831.808819	2548.046170
832.125642	2549.495502
832.442421	2549.256047
832.759157	2557.349620
833.075849	2563.325908
833.392497	2574.028277
833.709101	2577.186560
834.025662	2579.031622
834.342179	2571.797567
834.658653	2567.699109
834.975083	2563.184755
835.291469	2564.346741
835.607811	2552.759649
835.924110	2548.799823
836.240366	2545.878474
836.556578	2548.648588
836.872746	2544.540048
837.188871	2545.714637
837.504952	2545.817980
837.820990	2545.288659
838.136984	2542.518545
838.452935	2546.304452
838.768842	2545.034081
839.084706	2542.223638
839.400526	2545.213042
839.716303	2552.570606
840.032037	2556.553117
840.347727	2555.945658
840.663373	2553.909032
840.978977	2551.985832
841.294537	2547.806716
841.610054	2545.772610
841.925527	2544.504760
842.240957	2543.030222
842.556344	2543.814122
842.871687	2542.362269
843.186987	2540.749100
843.502244	2540.426466
843.817458	2538.518390
844.132629	2537.673996
844.447756	2537.789943
844.762840	2535.758358
845.077881	2535.090405
845.392879	2535.773481
845.707833	2536.822041
846.022745	2533.419262
846.337613	2540.466796
846.652438	2538.785571
846.967221	2537.865560
847.281960	2536.033101
847.596656	2540.033256
847.911309	2536.391023
848.225919	2538.021836
848.540485	2539.269522
848.855009	2538.457896
849.169490	2537.008564
849.483928	2537.376568
849.798323	2538.185673
850.112675	2538.016795
850.426984	2539.259439
850.741251	2537.164840
851.055474	2537.051414
851.369654	2538.825900
851.683792	2538.984696
851.997887	2537.285827
852.311938	2538.982176
852.625947	2537.132072
852.939914	2538.440252
853.253837	2539.551826
853.567718	2538.369676
853.881555	2538.745242
854.195350	2536.615354
854.509103	2539.715664
854.822812	2536.675848
855.136479	2536.761548
855.450103	2537.366486
855.763685	2537.762217
856.077224	2539.677855
856.390720	2539.372865
856.704173	2537.217772
857.017584	2537.232895
857.330953	2539.982845
857.644278	2539.750952
857.957561	2537.986548
858.270802	2537.792463
858.584000	2536.975797
858.897155	2540.441590
859.210268	2537.253060
859.523339	2537.779861
859.836367	2537.575694
860.149352	2535.871784
860.462295	2540.174409
860.775195	2535.198790
861.088054	2534.336752
861.400869	2535.760878
861.713642	2531.801052
862.026373	2536.738862
862.339062	2537.111908
862.651708	2540.118956
862.964312	2538.904038
863.276873	2535.544109
863.589392	2538.967052
863.901869	2540.076106
864.214303	2539.188863
864.526696	2538.238606
864.839045	2538.248688
865.151353	2534.467822
865.463619	2539.221631
865.775842	2539.103163
866.088023	2536.733821
866.400162	2540.723894
866.712258	2541.152392
867.024313	2540.595345
867.336325	2537.560570
867.648296	2542.720191
867.960224	2536.398584
868.272110	2536.958153
868.583954	2538.745242
868.895755	2540.174409
869.207515	2539.950077
869.519233	2541.517876
869.830909	2539.453524
870.142542	2538.629295
870.454134	2541.681714
870.765684	2537.845396
871.077191	2540.388658
871.388657	2542.326981
871.700081	2539.151054
872.011463	2542.977290
872.322803	2539.753472
872.634101	2540.234903
872.945357	2539.559388
873.256571	2542.117773
873.567744	2537.532844
873.878874	2540.771785
874.189963	2542.992414
874.501010	2544.179605
874.812015	2543.884698
875.122979	2542.266487
875.433900	2542.745397
875.744780	2542.889070
876.055618	2541.701878
876.366415	2544.713968
876.677169	2542.647095
876.987882	2540.902855
877.298554	2537.084181
877.609183	2538.503266
877.919771	2538.301620
878.230317	2540.459234
878.540822	2545.046684
878.851285	2547.453835
879.161707	2545.155069
879.472087	2552.537838
879.782425	2554.957592
880.092722	2564.213151
880.402977	2574.860068
880.713191	2594.094590
881.023363	2617.959412
881.333494	2635.371558
881.643583	2635.547998
881.953631	2636.382309
882.263637	2627.971144
882.573602	2620.646347
882.883526	2610.611931
883.193408	2598.752616
883.503248	2589.721389
883.813048	2582.172261
884.122806	2575.472568
884.432522	2569.410580
884.742197	2566.935374
885.051831	2561.120403
885.361424	2556.631255
885.670975	2552.333672
885.980485	2553.765359
886.289954	2549.598846
886.599382	2547.998279
886.908768	2548.749411
887.218113	2545.470141
887.527417	2549.026675
887.836680	2546.712785
888.145901	2545.034081
888.455082	2545.394523
888.764221	2542.281611
889.073319	2542.248843
889.382376	2543.756148
889.691392	2541.477547
890.000366	2543.625078
890.309300	2543.148689
890.618193	2544.716488
890.927044	2543.630120
891.235855	2545.560882
891.544625	2544.293031
891.853353	2547.960471
892.162041	2543.282280
892.470687	2546.450645
892.779293	2547.884853
893.087858	2544.683721
893.396381	2547.733619
893.704864	2550.607077
894.013306	2553.198230
894.321707	2568.669531
894.630068	2574.623133
894.938387	2575.497774
895.246665	2572.997361
895.554903	2568.432597
895.863100	2564.271124
896.171256	2560.205433
896.479371	2558.856925
896.787446	2554.584547
897.095480	2551.401058
897.403473	2547.836963
897.711425	2551.418702
898.019336	2549.283774
898.327207	2547.658002
898.635038	2549.054401
898.942827	2543.408309
899.250576	2544.935778
899.558284	2545.298742
899.865952	2542.939482
900.173579	2543.773793
900.481165	2545.071890
900.788711	2542.616848
901.096216	2542.707588
901.403681	2543.846889
901.711105	2544.545089
902.018489	2542.412681
902.325832	2545.026519
902.633135	2542.284132
902.940397	2544.403937
903.247619	2547.776469
903.554800	2553.478014
903.861941	2563.928326
904.169041	2580.218814
904.476101	2587.382294
904.783121	2587.967068
905.090100	2578.895511
905.397039	2569.138358
905.703938	2566.398491
906.010796	2559.807182
906.317614	2553.248641
906.624391	2551.045657
906.931129	2548.935934
907.237826	2545.581046
907.544483	2542.193391
907.851099	2542.826056
908.157675	2541.517876
908.464211	2539.549306
908.770707	2536.998482
909.077163	2538.856147
909.383578	2536.322967
909.689954	2538.407484
909.996289	2533.681402
910.302584	2539.045190
910.608839	2539.375386
910.915054	2538.188194
911.221229	2537.437062
911.527363	2539.932433
911.833458	2538.334388
912.139513	2538.099974
912.445527	2538.556198
912.751502	2537.653832
913.057436	2542.989893
913.363331	2540.527289
913.669186	2540.129038
913.975000	2543.685572
914.280775	2544.683721
914.586510	2548.600697
914.892205	2553.122612
915.197859	2558.897254
915.503475	2567.787329
915.809050	2572.954512
916.114585	2580.037333
916.420081	2584.597056
916.725536	2581.567323
917.030952	2578.509863
917.336328	2569.738255
917.641665	2565.891855
917.946961	2561.173335
918.252218	2558.468756
918.557435	2555.819630
918.862612	2552.590771
919.167750	2550.849052
919.472848	2546.251520
919.777906	2546.070038
920.082925	2545.807898
920.387904	2542.132897
920.692843	2542.843700
920.997743	2543.436035
921.302603	2542.019471
921.607423	2538.951929
921.912204	2539.750952
922.216946	2537.616023
922.521647	2539.239275
922.826310	2538.803215
923.130932	2540.204656
923.435516	2535.652494
923.740059	2540.363452
924.044564	2536.796836
924.349028	2538.525951
924.653454	2534.298944
924.957840	2534.190559
925.262186	2533.860363
925.566493	2535.672658
925.870761	2531.009591
926.174989	2534.082174
926.479178	2536.176774
926.783328	2538.246167
927.087438	2537.258101
927.391509	2533.653676
927.695541	2534.634181
927.999533	2536.529654
928.303486	2534.924047
928.607400	2533.119314
928.911275	2535.647452
929.215110	2535.498738
929.518906	2533.497400
929.822663	2538.011754
930.126381	2535.536547
930.430060	2534.215765
930.733699	2533.184849
931.037299	2534.087215
931.340861	2535.624767
931.644383	2533.915816
931.947866	2533.646114
932.251309	2532.476567
932.554714	2534.167874
932.858080	2535.781043
933.161407	2536.421270
933.464694	2536.549819
933.767943	2534.545960
934.071153	2533.636032
934.374323	2533.212575
934.677455	2536.252391
934.980548	2534.278779
935.283602	2532.148892
935.586617	2533.033614
935.889593	2534.772812
936.192530	2533.986392
936.495428	2535.160981
936.798287	2532.748789
937.101108	2533.746938
937.403890	2536.403626
937.706632	2533.570497
938.009336	2535.390354
938.312002	2536.774150
938.614628	2534.286341
938.917216	2535.652494
939.219765	2536.244829
939.522275	2536.907741
939.824747	2537.784902
940.127179	2532.733666
940.429573	2534.717360
940.731929	2535.672658
941.034246	2533.376413
941.336524	2535.309695
941.638763	2532.894982
941.940964	2535.987730
942.243126	2535.627288
942.545250	2534.798018
942.847335	2534.346835
943.149381	2536.537216
943.451389	2534.377082
943.753359	2534.901362
944.055290	2533.661238
944.357182	2534.203162
944.659036	2532.892462
944.960851	2536.968235
945.262628	2533.371372
945.564367	2536.083512
945.866067	2534.495549
946.167729	2534.551002
946.469352	2536.083512
946.770937	2535.944881
947.072484	2534.251053
947.373992	2534.228368
947.675462	2531.543953
947.976893	2536.741383
948.278286	2532.242153
948.579641	2534.636701
948.880958	2532.660569
949.182236	2533.404139
949.483476	2532.683254
949.784678	2533.661238
950.085841	2532.849612
950.386967	2535.171063
950.688054	2535.516383
950.989103	2534.311547
951.290114	2532.637884
951.591087	2535.528985
951.892021	2533.356248
952.192917	2535.307175
952.493776	2532.935312
952.794596	2535.760878
953.095378	2534.238450
953.396122	2537.270704
953.696828	2533.898172
953.997496	2534.576207
954.298126	2532.272400
954.598718	2532.408511
954.899272	2532.993285
955.199788	2533.182328
955.500266	2532.476567
955.800706	2530.646628
956.101108	2526.830474
956.401472	2529.058664
956.701798	2527.856349
957.002087	2530.691998
957.302337	2532.045548
957.602550	2530.150074
957.902724	2533.973789
958.202861	2531.876669
958.502960	2530.792821
958.803022	2530.409694
959.103045	2532.713501
959.403031	2531.617050
959.702979	2531.919519
960.002889	2531.007070
960.302762	2529.577903
960.602596	2532.595034
960.902393	2530.787780
961.202153	2529.401463
961.501875	2528.103366
961.801559	2532.133768
962.101205	2528.932636
962.400814	2530.510517
962.700385	2531.284334
962.999918	2532.282482
963.299414	2530.797862
963.598873	2531.395239
963.898293	2532.138809
964.197677	2532.211906
964.497022	2528.047913
964.796331	2527.621936
965.095601	2528.917512
965.394835	2529.025897
965.694030	2528.194107
965.993189	2530.666793
966.292309	2529.618233
966.591393	2532.138809
966.890439	2529.209899
967.189447	2528.824251
967.488419	2529.507327
967.787353	2529.484642
968.086249	2529.419107
968.385108	2528.693181
968.683930	2529.766947
968.982714	2532.511855
969.281462	2526.538087
969.580172	2529.582944
969.878844	2528.990609
970.177480	2531.823737
970.476078	2529.295599
970.774639	2527.163191
971.073162	2529.545136
971.371649	2528.607481
971.670098	2526.946421
971.968510	2528.627646
972.266885	2524.425844
972.565223	2528.431041
972.863524	2529.426669
973.161788	2530.313912
973.460014	2530.850795
973.758204	2528.317615
974.056356	2528.743592
974.354471	2529.986237
974.652550	2529.928263
974.950591	2529.683768
975.248595	2529.146885
975.546563	2533.031094
975.844493	2528.998171
976.142386	2529.779549
976.440243	2530.450023
976.738062	2530.228212
977.035845	2528.113448
977.333590	2528.337779
977.631299	2531.889272
977.928971	2530.359282
978.226606	2527.700073
978.524204	2530.613860
978.821765	2530.021525
979.119290	2530.465146
979.416777	2525.101359
979.714228	2526.964065
980.011642	2529.444313
980.309020	2531.974972
980.606360	2531.523789
980.903664	2528.191586
981.200931	2530.142513
981.498162	2530.697039
981.795356	2529.734179
982.092513	2530.792821
982.389633	2529.726617
982.686717	2529.950949
982.983764	2532.030425
983.280775	2532.020342
983.577749	2530.429858
983.874686	2527.397604
984.171587	2529.235105
984.468451	2530.187883
984.765279	2533.555374
985.062070	2534.263656
985.358824	2531.526309
985.655543	2528.151257
985.952224	2527.470701
986.248869	2528.831813
986.545478	2525.045906
986.842050	2525.640762
987.138586	2526.492717
987.435086	2525.655886
987.731549	2523.301667
988.027975	2527.896678
988.324366	2531.813655
988.620719	2530.255938
988.917037	2528.151257
989.213318	2525.723941
989.509563	2526.961544
989.805772	2529.378778
990.101944	2525.209743
990.398080	2528.713345
990.694180	2528.287368
990.990244	2528.834333
991.286271	2528.539426
991.582262	2526.331400
991.878217	2527.632018
992.174136	2527.206040
992.470019	2530.480270
992.765865	2530.515558
993.061676	2528.577234
993.357450	2525.855011
993.653188	2527.453057
993.948890	2527.674868
994.244556	2528.400794
994.540186	2529.300640
994.835780	2528.851977
995.131337	2526.870804
995.426859	2526.805269
995.722345	2527.735362
996.017795	2527.808458
996.313208	2529.724097
996.608586	2528.501617
996.903928	2528.851977
997.199234	2526.961544
997.494504	2524.322500
997.789738	2528.680578
998.084936	2526.974147
998.380099	2529.396422
998.675225	2528.791483
998.970316	2529.081350
999.265371	2528.446164
999.560390	2522.739578
999.855373	2527.122861
1000.150320	2526.059178
1000.445232	2527.810979
1000.740108	2527.125382
1001.034948	2526.033972
1001.329752	2528.110928
1001.624521	2528.373068
1001.919254	2524.609846
1002.213951	2524.990453
1002.508613	2523.732685
1002.803239	2525.270237
1003.097829	2524.090607
1003.392384	2529.333407
1003.686903	2528.995650
1003.981386	2528.869621
1004.275834	2530.941535
1004.570246	2528.398273
1004.864623	2527.143026
1005.158964	2529.202337
1005.453270	2528.022707
1005.747540	2527.616894
1006.041775	2527.954652
1006.335974	2528.962882
1006.630138	2525.010618
1006.924266	2528.718387
1007.218359	2525.751668
1007.512416	2527.836185
1007.806438	2525.923067
1008.100425	2528.151257
1008.394376	2526.432223
1008.688292	2529.948428
1008.982172	2526.391894
1009.276017	2530.311391
1009.569827	2529.098994
1009.863602	2528.884745
1010.157341	2529.560259
1010.451045	2527.488345
1010.744714	2525.119003
1011.038347	2525.660927
1011.331945	2527.339631
1011.625508	2527.165711
1011.919036	2527.037162
1012.212528	2528.788963
1012.505986	2527.994981
1012.799408	2526.437264
1013.092795	2529.046062
1013.386147	2527.117820
1013.679464	2527.523633
1013.972745	2528.025228
1014.265992	2527.591689
1014.559204	2530.896165
1014.852380	2525.413910
1015.145521	2527.420289
1015.438628	2526.742254
1015.731699	2527.863911
1016.024736	2524.955165
1016.317737	2524.617408
1016.610703	2529.474560
1016.903635	2522.545494
1017.196531	2524.277130
1017.489393	2523.422654
1017.782219	2525.116482
1018.075011	2526.162522
1018.367768	2526.706966
1018.660490	2529.335928
1018.953177	2529.335928
1019.245829	2529.335928
