Dividing Wavelength (nm)	Counts (n)	Blue Motor Position (mm): 0.000000	Red Motor Position (mm): 28.600000	
326.493990	2126.267952
326.888308	2126.267952
327.282561	2126.267952
327.676750	2093.543301
328.070874	2092.330904
328.464933	2097.641759
328.858929	2102.163674
329.252859	2112.566095
329.646726	2124.841305
330.040528	2136.302368
330.434265	2152.905408
330.827938	2170.496515
331.221547	2191.026614
331.615091	2207.281814
332.008571	2227.489280
332.401986	2246.146590
332.795338	2263.528488
333.188625	2284.076232
333.581847	2303.106587
333.975006	2325.116265
334.368100	2340.932885
334.761129	2358.266893
335.154095	2375.812629
335.546996	2391.820813
335.939833	2411.735891
336.332606	2425.654517
336.725315	2436.671958
337.117960	2448.901798
337.510540	2455.339351
337.903056	2465.557770
338.295508	2473.101857
338.687896	2484.593167
339.080220	2491.852428
339.472480	2496.326453
339.864676	2502.370796
340.256807	2505.657628
340.648875	2512.165758
341.040879	2513.085768
341.432818	2514.187261
341.824694	2514.940913
342.216506	2515.465193
342.608253	2517.411078
342.999937	2516.178516
343.391557	2515.797909
343.783113	2516.077693
344.174605	2514.797240
344.566033	2512.720285
344.957397	2509.632578
345.348697	2506.436487
345.739934	2507.774913
346.131106	2504.977073
346.522215	2503.205107
346.913260	2500.485404
347.304241	2502.564880
347.695159	2497.296875
348.086012	2499.368789
348.476802	2494.778818
348.867528	2495.388798
349.258191	2490.647593
349.648789	2492.565752
350.039324	2488.469814
350.429796	2488.386635
350.820203	2486.851604
351.210548	2488.527787
351.600828	2486.526449
351.991045	2486.337406
352.381198	2484.540235
352.771288	2482.964874
353.161314	2483.456387
353.551276	2486.299598
353.941175	2484.368836
354.331010	2484.814978
354.720782	2484.706593
355.110490	2484.532673
355.500135	2483.227014
355.889717	2482.997642
356.279235	2482.712817
356.668689	2487.620380
357.058080	2486.894454
357.447408	2482.841366
357.836672	2483.332878
358.225873	2484.981336
358.615010	2484.963692
359.004084	2485.573671
359.393095	2485.407313
359.782043	2488.835298
360.170927	2491.071050
360.559748	2490.682881
360.948505	2490.546770
361.337199	2494.133551
361.725830	2493.332007
362.114398	2494.060454
362.502903	2492.157418
362.891344	2492.696822
363.279722	2494.151195
363.668037	2498.267297
364.056289	2495.582882
364.444478	2494.917450
364.832603	2496.142450
365.220665	2499.436844
365.608665	2497.468274
365.996601	2498.968017
366.384474	2499.940960
366.772284	2501.498676
367.160031	2502.131341
367.547715	2505.803822
367.935336	2506.247443
368.322893	2509.516632
368.710388	2513.133659
369.097820	2518.744464
369.485189	2521.038189
369.872495	2529.098994
370.259738	2537.048893
370.646918	2542.707588
371.034035	2550.723023
371.421090	2561.062430
371.808081	2571.225396
372.195010	2579.286201
372.581875	2592.133581
372.968678	2606.251333
373.355418	2618.050153
373.742096	2633.546660
374.128710	2649.716161
374.515262	2667.604696
374.901751	2680.699093
375.288177	2694.872297
375.674540	2715.793085
376.060841	2736.126579
376.447079	2752.848087
376.833254	2774.827517
377.219367	2786.790175
377.605417	2821.720330
377.991404	2834.456806
378.377329	2855.531349
378.763191	2868.552650
379.148991	2911.087385
379.534727	2932.582865
379.920402	2960.031948
380.306013	2973.595172
380.691563	3023.734488
381.077049	3046.553271
381.462474	3062.717731
381.847835	3102.298351
382.233134	3124.139150
382.618371	3124.471866
383.003545	3194.730427
383.388657	3201.190666
383.773706	3233.837178
384.158693	3246.336719
384.543618	3273.125410
384.928480	3311.546564
385.313280	3356.649768
385.698017	3358.290663
386.082692	3406.705905
386.467305	3414.199580
386.851856	3443.445834
387.236344	3468.530616
387.620770	3503.551512
388.005133	3526.889533
388.389435	3552.014644
388.773674	3564.471335
389.157851	3608.591514
389.541965	3622.517701
389.926018	3588.373966
390.310008	3662.743588
390.693936	3675.412008
391.077802	3715.733677
391.461606	3708.038356
391.845348	3771.849281
392.229027	3771.531688
392.612645	3776.968573
392.996200	3860.079556
393.379694	3899.125813
393.763125	3960.161583
394.146494	3929.670164
394.529801	3994.058301
394.913047	4041.346845
395.296230	4005.166484
395.679351	4060.599012
396.062410	4086.422322
396.445408	4064.573961
396.828343	4099.010083
397.211217	4121.226448
397.594028	4044.114438
397.976778	4107.832102
398.359466	4131.389414
398.742092	4165.823016
399.124656	4089.562961
399.507158	4167.385773
399.889598	4191.129608
400.271977	4252.747632
400.654294	4222.639340
401.036549	4232.580496
401.418742	4202.910785
401.800874	4304.679078
402.182944	4323.709434
402.564952	4389.425915
402.946898	4377.196076
403.328783	4374.186507
403.710606	4288.338178
404.092367	4482.142817
404.474067	4442.287454
404.855705	4452.158034
405.237282	4380.276221
405.618797	4489.404599
406.000250	4524.942213
406.381642	4604.720993
406.762972	4566.100713
407.144240	4576.505655
407.525447	4577.952466
407.906593	4636.064367
408.287677	4678.830996
408.668700	4607.455819
409.049661	4662.474972
409.430560	4696.800189
409.811399	4623.257316
410.192176	4786.736894
410.572891	4728.204057
410.953545	4827.991176
411.334138	4712.475657
411.714669	4777.183907
412.095139	4669.981250
412.475547	4817.351821
412.855894	4795.332061
413.236180	4803.319769
413.616405	4757.412502
413.996568	4843.780070
414.376670	4790.517759
414.756711	4742.150409
415.136691	4772.440182
415.516609	4848.826265
415.896466	4885.286410
416.276262	4922.250671
416.655997	4904.004215
417.035670	5083.139096
417.415283	5176.534033
417.794834	5123.876660
418.174324	5074.901851
418.553753	4982.885669
418.933121	5163.621117
419.312428	5233.400769
419.691674	5173.816851
420.070859	5297.355367
420.449983	5212.220361
420.829045	5328.565150
421.208047	5226.295262
421.586988	5303.308970
421.965867	5312.866997
422.344686	5448.723573
422.723444	5297.897291
423.102141	5120.887256
423.480777	5416.324077
423.859352	5191.050035
424.237866	5446.439930
424.616319	5437.612870
424.994712	5547.489859
425.373044	5428.347229
425.751314	5563.359411
426.129524	5372.869331
426.507673	5569.713786
426.885762	5644.960569
427.263789	5575.006997
427.641756	5460.824863
428.019662	5578.432461
428.397508	5591.529379
428.775292	5533.672056
429.153016	5637.910515
429.530679	5561.214400
429.908282	5647.201362
430.285824	5517.492473
430.663305	5789.923989
431.040726	5525.742321
431.418086	5526.463206
431.795385	5630.096727
432.172624	5642.291278
432.549802	5638.969157
432.926920	5652.232433
433.303977	5658.029760
433.680974	5695.273805
434.057910	5714.853646
434.434786	5718.916816
434.811601	5687.805335
435.188355	5925.256284
435.565050	5793.951871
435.941683	5779.652638
436.318257	5988.840358
436.694770	5977.444829
437.071222	6009.123440
437.447614	5941.859324
437.823946	5856.114339
438.200218	6013.660479
438.576429	5869.032295
438.952580	5965.880423
439.328670	6012.954717
439.704700	5926.241830
440.080670	5912.217340
440.456580	6180.527712
440.832429	6064.026647
441.208218	5910.536115
441.583947	6063.152007
441.959616	6071.666515
442.335224	5998.226986
442.710773	6135.079190
443.086261	6156.471326
443.461689	5955.034380
443.837057	6106.452998
444.212365	6258.257263
444.587612	6152.420759
444.962800	6301.921217
445.337927	6281.854904
445.712995	5895.339557
446.088002	6470.084027
446.462949	6301.165044
446.837837	6234.034519
447.212664	6402.905611
447.587431	6543.468104
447.962139	7086.302071
448.336786	8004.454982
448.711374	7746.841938
449.085901	6826.352452
449.460369	6742.641572
449.834776	6679.344844
450.209124	7066.979328
450.583412	7217.934159
450.957640	7361.647373
451.331808	7123.651979
451.705917	6676.836870
452.079965	6601.595128
452.453954	6809.867879
452.827883	6682.886255
453.201752	6775.736747
453.575562	6569.782927
453.949311	6780.213291
454.323001	6662.162071
454.696632	6730.537761
455.070202	6862.794953
455.443713	7016.529981
455.817164	7109.962726
456.190556	7184.949890
456.563888	7254.694253
456.937160	7288.802700
457.310373	6948.295443
457.683526	6965.994934
458.056619	6855.402101
458.429653	6834.057856
458.802628	6766.103102
459.175542	6867.183277
459.548398	7202.891356
459.921194	7345.374528
460.293930	7336.595359
460.666607	7835.558684
461.039224	8114.221066
461.411782	8226.043941
461.784280	8229.930670
462.156719	8119.204247
462.529099	7985.144842
462.901419	7573.564878
463.273680	7464.413815
463.645882	7456.279913
464.018024	7313.693397
464.390106	7455.276723
464.762130	7799.995865
465.134094	8211.646405
465.505999	9099.602806
465.877845	10190.710144
466.249631	10754.573284
466.621358	10393.679601
466.993026	9788.262230
467.364634	9533.855360
467.736184	9172.618878
468.107674	8839.559926
468.479105	8821.066453
468.850477	8583.872603
469.221790	8347.399637
469.593043	8022.827467
469.964238	7858.385029
470.335373	7829.075761
470.706449	7842.540682
471.077467	7785.363916
471.448425	8827.841763
471.819324	9660.824381
472.190164	9653.376076
472.560945	8577.727436
472.931667	7869.175619
473.302330	7715.947227
473.672934	7367.911007
474.043479	7609.568799
474.413965	7506.179774
474.784393	7350.645055
475.154761	7424.351765
475.525070	7436.984897
475.895321	7256.365396
476.265513	7328.509348
476.635645	7401.003661
477.005719	7326.182856
477.375734	7351.083635
477.745691	7457.356199
478.115588	7478.219015
478.485427	7576.619817
478.855207	7871.413891
479.224928	8311.239441
479.594591	8649.947006
479.964194	8443.841952
480.333739	8337.133328
480.703226	8172.070827
481.072653	8138.693347
481.442022	8178.498298
481.811333	8211.248154
482.180584	7998.982810
482.549777	7731.476502
482.918912	7538.440638
483.287988	7449.988553
483.657005	7372.889146
484.025964	7103.288238
484.394864	7081.187820
484.763706	6971.595656
485.132489	6766.274501
485.501213	6660.352297
485.869879	6613.008301
486.238487	6443.804492
486.607036	6413.749133
486.975527	6216.970213
487.343959	6223.506069
487.712333	6158.797818
488.080648	6052.752106
488.448905	5973.185054
488.817104	5866.521801
489.185244	5886.840171
489.553326	5862.670359
489.921350	5982.526313
490.289315	6276.856600
490.657222	6318.201624
491.025070	6174.672412
491.392861	6044.114089
491.760593	5823.959339
492.128267	5616.178101
492.495883	5423.953863
492.863440	5239.253548
493.230939	5056.289911
493.598380	4964.850942
493.965763	4845.178990
494.333088	4764.921301
494.700354	4661.660826
495.067563	4625.934168
495.434713	4508.253473
495.801805	4481.328670
496.168839	4399.795569
496.535815	4318.703568
496.902733	4269.393522
497.269593	4185.879246
497.636395	4157.149711
498.003139	4083.911828
498.369825	4014.837937
498.736453	3983.088751
499.103023	3922.483999
499.469535	3871.170094
499.835989	3819.946930
500.202385	3767.793673
500.568723	3699.352448
500.935003	3691.034544
501.301226	3613.778861
501.667390	3607.782408
502.033497	3578.793253
502.399546	3519.113553
502.765537	3465.238742
503.131470	3436.327725
503.497345	3410.721184
503.863163	3337.828620
504.228923	3332.779904
504.594625	3305.582879
504.960269	3252.849890
505.325856	3235.997312
505.691385	3187.708100
506.056856	3170.258146
506.422270	3143.865185
506.787625	3110.528034
507.152924	3090.781835
507.518164	3066.720407
507.883347	3033.206817
508.248472	3007.575070
508.613540	2998.740448
508.978550	2970.862867
509.343503	2947.539969
509.708398	2937.245933
510.073236	2921.358736
510.438016	2904.322157
510.802738	2886.226935
511.167403	2873.954246
511.532010	2851.143025
511.896561	2848.478775
512.261053	2837.572239
512.625488	2814.839155
512.989866	2802.251394
513.354186	2792.801751
513.718449	2774.265429
514.082655	2773.988165
514.446803	2760.162801
514.810894	2752.943868
515.174927	2743.030439
515.538904	2735.647670
515.902822	2731.806310
516.266684	2721.494630
516.630488	2712.443238
516.994235	2707.800336
517.357925	2703.293544
517.721558	2701.037628
518.085133	2692.082018
518.448651	2688.885927
518.812112	2683.075997
519.175516	2679.083403
519.538863	2677.190450
519.902152	2671.942608
520.265385	2669.200221
520.628560	2665.179901
520.991678	2662.278717
521.354739	2658.770073
521.717743	2656.720844
522.080690	2655.737819
522.443580	2653.464259
522.806413	2650.873106
523.169189	2650.094248
523.531908	2647.871099
523.894569	2643.828093
524.257174	2643.056797
524.619722	2641.604945
524.982213	2640.662249
525.344647	2638.522279
525.707025	2637.831641
526.069345	2636.704943
526.431608	2633.962555
526.793815	2634.668317
527.155964	2631.958697
527.518057	2630.524488
527.880093	2632.603964
528.242072	2628.122379
528.603995	2626.040382
528.965860	2623.779425
529.327669	2623.895371
529.689421	2621.455453
530.051117	2624.588530
530.412755	2618.927314
530.774337	2619.343209
531.135862	2618.347581
531.497331	2617.520832
531.858743	2615.222066
532.220098	2614.634772
532.581396	2613.021602
532.942638	2613.898763
533.303824	2615.721140
533.664953	2615.650564
534.026025	2615.184257
534.387040	2613.946654
534.747999	2610.795933
535.108902	2613.699637
535.469748	2611.463886
535.830537	2614.208794
536.191270	2613.480347
536.551947	2614.591922
536.912567	2611.799122
537.273131	2609.707044
537.633638	2610.034719
537.994089	2609.666714
538.354483	2608.154368
538.714821	2609.870881
539.075103	2610.783330
539.435328	2609.175202
539.795497	2608.396344
540.155609	2610.070007
540.515665	2607.746035
540.875665	2608.497167
541.235609	2606.077413
541.595496	2609.772579
541.955328	2608.731580
542.315102	2606.432814
542.674821	2606.347115
543.034483	2606.379882
543.394090	2606.475664
543.753640	2606.473143
544.113134	2606.722681
544.472571	2607.690582
544.831953	2608.822321
545.191278	2605.986672
545.550548	2604.008019
545.909761	2607.425922
546.268918	2607.304934
546.628019	2609.187805
546.987064	2604.953236
547.346053	2603.350149
547.704986	2603.612289
548.063863	2606.027001
548.422684	2607.075561
548.781449	2603.856785
549.140158	2604.340735
549.498811	2606.326950
549.857408	2604.161774
550.215949	2604.393667
550.574434	2600.315374
550.932864	2601.192535
551.291237	2600.300251
551.649555	2604.940633
552.007817	2602.949377
552.366022	2607.551950
552.724173	2604.789398
553.082267	2604.779316
553.440305	2606.662187
553.798288	2601.986517
554.156215	2605.543051
554.514086	2606.450458
554.871902	2603.304778
555.229661	2605.593462
555.587365	2603.660180
555.945014	2601.754623
556.302606	2603.771085
556.660143	2604.741507
557.017625	2603.914758
557.375050	2603.577001
557.732421	2603.178749
558.089735	2606.279059
558.446994	2603.829058
558.804197	2604.522217
559.161345	2606.488267
559.518437	2606.636981
559.875474	2605.734614
560.232455	2601.757144
560.589381	2603.448451
560.946251	2605.515324
561.303065	2604.257556
561.659825	2607.415839
562.016528	2602.261259
562.373177	2605.555653
562.729770	2601.742021
563.086307	2603.503904
563.442789	2604.096239
563.799216	2603.299737
564.155587	2602.447782
564.511904	2601.000971
564.868164	2601.061465
565.224370	2603.466095
565.580520	2602.515838
565.936615	2603.629933
566.292654	2602.178080
566.648638	2603.708071
567.004567	2602.125148
567.360441	2602.687237
567.716260	2601.883173
568.072023	2602.513317
568.427732	2596.438727
568.783385	2601.479881
569.138982	2600.156578
569.494525	2600.035590
569.850013	2599.559201
570.205445	2601.817638
570.560823	2604.202104
570.916145	2598.354365
571.271412	2598.908892
571.626625	2601.038780
571.981782	2597.552822
572.336884	2601.295878
572.691931	2600.181783
573.046923	2599.712956
573.401860	2600.194386
573.756743	2599.347472
574.111570	2599.060127
574.466342	2599.246649
574.821059	2597.290682
575.175722	2596.229519
575.530330	2598.699684
575.884882	2600.544747
576.239380	2600.416197
576.593823	2599.259252
576.948211	2597.961155
577.302544	2597.915785
577.656823	2597.141968
578.011047	2597.774632
578.365216	2598.611464
578.719330	2594.238263
579.073389	2596.975610
579.427394	2596.111052
579.781344	2595.785897
580.135239	2597.729262
580.489080	2596.572317
580.842866	2594.996957
581.196597	2595.788418
581.550273	2594.407142
581.903895	2597.477204
582.257463	2597.908223
582.610975	2592.983016
582.964434	2595.349837
583.317837	2594.603747
583.671186	2596.554673
584.024481	2594.870928
584.377721	2592.867069
584.730906	2594.951586
585.084037	2595.861515
585.437113	2593.204827
585.790135	2593.653489
586.143103	2591.223653
586.496016	2594.021493
586.848874	2587.989753
587.201679	2591.803386
587.554428	2588.335072
587.907124	2591.332038
588.259765	2591.503437
588.612352	2593.943356
588.964884	2590.180134
589.317362	2592.224322
589.669786	2592.115937
590.022155	2594.336566
590.374470	2594.513006
590.726731	2594.233222
591.078937	2589.754157
591.431090	2591.503437
591.783188	2592.378077
592.135232	2590.893458
592.487222	2590.296081
592.839157	2591.553849
593.191038	2589.529825
593.542866	2590.923704
593.894639	2591.516040
594.246358	2588.793817
594.598022	2590.006214
594.949633	2589.610484
595.301190	2588.677870
595.652692	2588.965216
596.004141	2587.994794
596.355535	2589.854980
596.706876	2589.975967
597.058162	2586.792479
597.409395	2586.195102
597.760573	2588.549321
598.111698	2590.386822
598.462768	2589.741554
598.813785	2589.529825
599.164748	2587.084866
599.515657	2588.214084
599.866511	2588.445977
600.217312	2586.043867
600.568060	2584.985225
600.918753	2588.680391
601.269392	2586.921028
601.619978	2589.028231
601.970510	2587.921697
602.320988	2587.407500
602.671412	2588.380442
603.021783	2586.484968
603.372100	2586.527818
603.722363	2587.243662
604.072572	2589.774321
604.422728	2588.337592
604.772830	2585.065884
605.122878	2582.073959
605.472872	2585.305338
605.822813	2581.448856
606.172701	2583.901377
606.522534	2587.969588
606.872314	2587.165524
607.222041	2586.737026
607.571714	2589.055957
607.921333	2586.442119
608.270899	2587.742736
608.620411	2586.915987
608.969870	2586.540421
609.319276	2587.982191
609.668627	2591.453026
610.017926	2595.364961
610.367171	2595.153232
610.716362	2594.873448
611.065500	2593.318252
611.414585	2591.977306
611.763616	2590.318766
612.112594	2590.094435
612.461518	2592.483942
612.810389	2590.374219
613.159207	2588.393045
613.507971	2589.905391
613.856682	2589.179465
614.205340	2587.803230
614.553945	2590.417068
614.902496	2587.999835
615.250994	2585.312900
615.599439	2589.401276
615.947830	2589.607963
616.296169	2588.448498
616.644454	2585.554876
616.992686	2588.493868
617.340864	2587.856162
617.688990	2588.745926
618.037063	2588.050247
618.385082	2587.722572
618.733048	2589.272727
619.080961	2587.578899
619.428821	2589.577716
619.776628	2588.035123
620.124382	2590.832964
620.472083	2589.721389
620.819731	2587.168045
621.167326	2588.196440
621.514868	2590.482603
621.862357	2585.083528
622.209793	2586.210226
622.557176	2586.217787
622.904506	2584.750812
623.251783	2582.908270
623.599007	2582.971284
623.946179	2582.890626
624.293297	2580.591860
624.640363	2582.320975
624.987376	2582.419278
625.334336	2583.636717
625.681243	2581.065728
626.028097	2577.478947
626.374899	2583.931624
626.721647	2582.207549
627.068343	2582.900708
627.414987	2580.619586
627.761577	2581.753846
628.108115	2580.196129
628.454600	2580.238979
628.801032	2581.489185
629.147412	2581.227045
629.493739	2581.521952
629.840014	2582.487333
630.186236	2582.431881
630.532405	2581.368197
630.878521	2580.460790
631.224585	2579.013978
631.570597	2579.044225
631.916556	2580.745615
632.262462	2579.578588
632.608316	2575.916189
632.954117	2579.366859
633.299866	2577.289904
633.645562	2577.693196
633.991206	2577.851992
634.336797	2576.248906
634.682336	2576.354770
635.027823	2574.814697
635.373257	2573.917372
635.718639	2574.061045
636.063968	2576.097671
636.409245	2574.464337
636.754470	2576.047259
637.099642	2573.521641
637.444762	2573.287228
637.789829	2576.493402
638.134845	2573.289748
638.479808	2573.751014
638.824719	2573.015005
639.169577	2572.551219
639.514383	2575.901066
639.859137	2570.000395
640.203839	2574.146744
640.548489	2571.540468
640.893086	2567.802452
641.237632	2570.174315
641.582125	2572.457958
641.926566	2566.947977
642.270955	2569.886969
642.615292	2571.676579
642.959576	2572.972156
643.303809	2573.357804
643.647990	2574.277814
643.992118	2571.051476
644.336195	2573.630026
644.680219	2569.697926
645.024192	2571.389233
645.368112	2570.824624
645.711981	2572.924265
646.055797	2570.050807
646.399562	2574.184553
646.743274	2574.056004
647.086935	2573.360324
647.430544	2575.384348
647.774101	2573.052814
648.117606	2576.997517
648.461059	2574.824780
648.804460	2576.614389
649.147810	2574.613051
649.491108	2573.446024
649.834354	2570.988462
650.177548	2570.368400
650.520690	2570.111301
650.863781	2571.106929
651.206820	2574.058524
651.549807	2573.125911
651.892742	2569.445868
652.235626	2570.486867
652.578458	2569.229099
652.921238	2567.744479
653.263967	2570.227247
653.606644	2571.732032
653.949269	2566.539643
654.291843	2571.162381
654.634365	2569.725653
654.976836	2569.113152
655.319255	2570.509552
655.661622	2568.747669
656.003938	2568.230950
656.346203	2566.469067
656.688416	2567.283213
657.030577	2567.694068
657.372687	2567.676423
657.714746	2565.009653
658.056753	2565.057544
658.398708	2563.837585
658.740612	2564.167780
659.082465	2563.764488
659.424266	2563.303223
659.766016	2560.964127
660.107715	2569.970148
660.449362	2567.996537
660.790958	2568.510734
661.132503	2566.590055
661.473996	2569.536609
661.815438	2568.283882
662.156829	2565.745662
662.498168	2563.504869
662.839456	2566.035528
663.180693	2565.644838
663.521879	2567.192473
663.863013	2566.242215
664.204097	2568.964438
664.545129	2570.496949
664.886110	2568.349417
665.227040	2568.125086
665.567918	2567.757082
665.908746	2570.421332
666.249522	2567.278172
666.590248	2566.448902
666.930922	2569.334963
667.271545	2567.845302
667.612118	2572.657083
667.952639	2570.176836
668.293109	2569.143399
668.633528	2569.967628
668.973896	2567.452092
669.314213	2567.595765
669.654480	2567.144582
669.994695	2566.191804
670.334859	2569.062741
670.674973	2565.165929
671.015035	2567.356310
671.355047	2566.763975
671.695008	2568.036866
672.034918	2565.783470
672.374777	2567.847823
672.714585	2565.244067
673.054342	2567.315981
673.394049	2567.252967
673.733705	2568.543502
674.073310	2567.810014
674.412864	2568.107442
674.752368	2572.669686
675.091820	2569.145920
675.431223	2570.202042
675.770574	2567.280693
676.109875	2564.291289
676.449125	2565.213820
676.788324	2565.322205
677.127473	2566.033007
677.466571	2561.858932
677.805619	2567.217678
678.144616	2564.639128
678.483562	2568.190621
678.822458	2565.483522
679.161303	2565.596948
679.500098	2564.384550
679.838842	2562.988150
680.177535	2563.416648
680.516179	2567.494942
680.854771	2565.871690
681.193314	2566.136351
681.531805	2568.301527
681.870247	2570.869994
682.208638	2567.331104
682.546978	2569.203893
682.885268	2566.882442
683.223508	2567.857905
683.561697	2566.688357
683.899836	2566.832030
684.237925	2570.431414
684.575963	2569.035014
684.913951	2563.368757
685.251889	2569.239181
685.589776	2567.275652
685.927614	2568.029304
686.265401	2564.944118
686.603137	2569.919737
686.940824	2567.308419
687.278460	2567.994016
687.616046	2568.581311
687.953582	2569.299675
688.291068	2567.736917
688.628504	2568.107442
688.965889	2569.345045
689.303224	2567.472257
689.640510	2565.135682
689.977745	2564.505538
690.314930	2566.491752
690.652065	2565.682647
690.989150	2565.029818
691.326185	2563.346072
691.663170	2560.989333
692.000105	2562.849519
692.336990	2561.107800
692.673825	2562.617626
693.010610	2562.766340
693.347345	2562.189128
693.684030	2557.589075
694.020665	2560.656617
694.357251	2557.805844
694.693786	2559.993705
695.030272	2561.014539
695.366707	2559.565207
695.703093	2557.427758
696.039429	2559.045968
696.375716	2558.113355
696.711952	2559.361040
697.048139	2559.431616
697.384276	2559.151832
697.720363	2558.539332
698.056400	2557.087480
698.392388	2556.979095
698.728326	2559.706359
699.064214	2560.694425
699.400053	2557.742830
699.735842	2559.686195
700.071581	2557.831050
700.407270	2555.897767
700.742910	2558.625032
701.078501	2556.840463
701.414042	2556.250648
701.749533	2555.680998
702.084974	2556.106975
702.420366	2555.093703
702.755709	2556.656461
703.091002	2555.355843
703.426246	2553.704866
703.761440	2554.261913
704.096584	2555.570092
704.431679	2554.783672
704.766725	2553.248641
705.101721	2553.203271
705.436668	2551.670760
705.771565	2554.110678
706.106413	2552.994063
706.441212	2554.597150
706.775961	2554.884496
707.110661	2555.401214
707.445311	2557.785680
707.779913	2553.964485
708.114465	2557.299208
708.448967	2555.433981
708.783421	2557.815927
709.117825	2554.503888
709.452180	2555.988508
709.786485	2556.739640
710.120742	2558.070505
710.454949	2560.664178
710.789107	2554.032541
711.123216	2553.717468
711.457275	2555.111347
711.791286	2555.809547
712.125247	2556.787531
712.459159	2558.942624
712.793023	2560.122254
713.126837	2560.144940
713.460602	2560.172666
713.794318	2558.322563
714.127985	2559.209806
714.461602	2557.838612
714.795171	2556.956410
715.128691	2553.709907
715.462162	2554.859290
715.795584	2556.417006
716.128957	2557.210988
716.462281	2555.464228
716.795556	2557.205947
717.128782	2552.313507
717.461960	2555.277706
717.795088	2554.990360
718.128167	2556.434650
718.461198	2553.145297
718.794180	2551.753939
719.127113	2554.017417
719.459997	2552.260575
719.792833	2550.249155
720.125619	2552.847869
720.458357	2549.271171
720.791046	2554.771070
721.123686	2550.118085
721.456278	2552.323589
721.788821	2553.556152
722.121315	2552.139587
722.453761	2551.464073
722.786158	2551.993394
723.118506	2552.255534
723.450805	2551.017931
723.783056	2547.894936
724.115259	2551.149001
724.447412	2551.123795
724.779518	2552.457180
725.111574	2550.423074
725.443582	2551.481717
725.775542	2553.903991
726.107453	2556.066646
726.439315	2551.764021
726.771129	2555.166800
727.102895	2551.713610
727.434612	2554.347613
727.766281	2554.700493
728.097901	2554.206460
728.429473	2548.462066
728.760996	2551.068342
729.092471	2548.842673
729.423897	2557.049671
729.755276	2556.270813
730.086606	2553.843497
730.417887	2555.759136
730.749120	2554.224104
731.080305	2552.885678
731.411442	2553.876265
731.742530	2553.662016
732.073570	2555.648230
732.404562	2557.548745
732.735506	2554.156049
733.066401	2554.372818
733.397249	2555.857438
733.728048	2555.396173
734.058798	2551.637993
734.389501	2552.005997
734.720156	2551.123795
735.050762	2551.375852
735.381320	2550.508774
735.711831	2548.431819
736.042293	2548.658671
736.372707	2548.933413
736.703073	2550.438198
737.033391	2551.267468
737.363661	2551.242262
737.693883	2552.356357
738.024056	2551.242262
738.354182	2550.934752
738.684260	2552.505071
739.014290	2551.698486
739.344272	2552.951213
739.674207	2551.063301
740.004093	2552.537838
740.333931	2553.939279
740.663722	2554.950031
740.993464	2550.753270
741.323159	2551.330482
741.652806	2548.681356
741.982405	2551.380894
742.311956	2551.509443
742.641460	2551.287632
742.970915	2548.192364
743.300323	2552.658826
743.629683	2550.100441
743.958996	2550.455842
744.288260	2551.154042
744.617477	2547.158927
744.946647	2542.200952
745.275768	2546.851417
745.604842	2546.286808
745.933869	2546.369987
746.262847	2545.760007
746.591778	2549.467776
746.920662	2547.839483
747.249498	2552.081614
747.578286	2545.389482
747.907027	2549.266130
748.235720	2547.466438
748.564365	2548.996428
748.892963	2547.055584
749.221514	2546.460727
749.550017	2547.484082
749.878473	2549.039278
750.206881	2548.688917
750.535242	2551.398538
750.863555	2547.509287
751.191821	2547.214380
751.520039	2547.544576
751.848210	2548.759494
752.176334	2547.922662
752.504411	2546.228834
752.832440	2548.378887
753.160421	2547.410985
753.488356	2548.336037
753.816243	2546.357384
754.144082	2548.255378
754.471875	2546.891746
754.799620	2546.916952
755.127318	2546.145655
755.454969	2549.470296
755.782572	2546.838814
756.110129	2545.013916
756.437638	2546.818649
756.765100	2545.011396
757.092515	2544.802188
757.419882	2545.681869
757.747203	2547.519370
758.074477	2547.902498
758.401703	2545.709596
758.728882	2545.810419
759.056014	2547.778989
759.383099	2545.316386
759.710138	2549.059442
760.037129	2547.993238
760.364073	2547.700851
760.690970	2543.917465
761.017820	2549.467776
761.344623	2548.840152
761.671379	2549.077086
761.998088	2543.655325
762.324751	2549.001469
762.651366	2551.552293
762.977935	2564.366906
763.304456	2563.903120
763.630931	2568.503173
763.957359	2564.109807
764.283740	2561.264076
764.610074	2556.976574
764.936362	2553.447767
765.262602	2551.040616
765.588796	2550.831408
765.914943	2550.410472
766.241044	2549.293856
766.567097	2545.535676
766.893104	2543.662887
767.219064	2544.449307
767.544978	2547.194215
767.870845	2540.958308
768.196665	2544.141797
768.522438	2544.028371
768.848165	2544.121632
769.173846	2543.771272
769.499479	2544.421581
769.825066	2543.720860
770.150607	2544.797147
770.476101	2543.630120
770.801548	2544.272867
771.126949	2542.253885
771.452303	2543.330171
771.777611	2543.798998
772.102872	2543.352856
772.428087	2543.005017
772.753256	2541.477547
773.078378	2541.772454
773.403453	2541.596014
773.728482	2539.503935
774.053465	2541.621220
774.378401	2543.105840
774.703291	2540.595345
775.028135	2540.532331
775.352932	2541.346477
775.677683	2538.679707
776.002388	2540.890252
776.327046	2543.551982
776.651658	2541.648946
776.976224	2541.343956
777.300743	2543.597352
777.625216	2540.353370
777.949643	2541.843031
778.274024	2538.520910
778.598359	2537.331198
778.922647	2536.486805
779.246889	2538.261291
779.571086	2533.615867
779.895236	2537.371527
780.219339	2539.882022
780.543397	2538.198276
780.867409	2540.698689
781.191374	2542.873947
781.515294	2540.008051
781.839167	2538.969573
782.162995	2538.256250
782.486776	2539.839172
782.810511	2540.146682
783.134201	2541.079296
783.457844	2537.563091
783.781441	2538.583925
784.104993	2538.503266
784.428498	2538.266332
784.751958	2536.501928
785.075372	2539.456044
785.398739	2537.711805
785.722061	2542.977290
786.045337	2538.586445
786.368568	2539.267001
786.691752	2538.765406
787.014891	2541.364121
787.337983	2537.129552
787.661030	2543.993083
787.984031	2544.411498
788.306987	2543.995603
788.629897	2544.371169
788.952760	2545.969215
789.275579	2543.241951
789.598351	2543.400747
789.921078	2545.351674
790.243759	2541.538041
790.566395	2538.102494
790.888984	2541.855633
791.211529	2542.269008
791.534027	2539.060314
791.856480	2539.692978
792.178888	2539.768596
792.501249	2540.615510
792.823566	2539.403112
793.145836	2540.103832
793.468062	2539.065355
793.790241	2538.662063
794.112375	2540.333205
794.434464	2536.496887
794.756507	2540.101312
795.078505	2540.854964
795.400457	2539.657690
795.722364	2537.006043
796.044226	2537.182484
796.366042	2537.351362
796.687812	2538.278935
797.009538	2541.490150
797.331218	2541.054090
797.652852	2538.654501
797.974442	2538.092412
798.295986	2541.240613
798.617484	2540.217258
798.938938	2541.190201
799.260346	2539.511497
799.581709	2539.327495
799.903026	2542.261446
800.224299	2538.127700
800.545526	2539.025026
800.866708	2539.335057
801.187845	2539.085519
801.508936	2537.164840
801.829983	2540.219779
802.150984	2536.852288
802.471940	2541.936292
802.792851	2537.308513
803.113717	2536.711136
803.434538	2538.823379
803.755314	2540.819676
804.076045	2539.771116
804.396731	2539.110725
804.717372	2539.403112
805.037967	2538.856147
805.358518	2537.273225
805.679024	2537.837834
805.999485	2537.679038
806.319901	2538.130221
806.640272	2538.248688
806.960598	2538.082330
807.280879	2539.488812
807.601115	2541.432177
807.921306	2540.139121
808.241453	2540.131559
808.561554	2538.195756
808.881611	2538.571322
809.201623	2539.108205
809.521590	2539.645088
809.841513	2539.135931
810.161390	2538.160468
810.481223	2538.581404
810.801011	2539.458565
811.120755	2539.279604
811.440453	2538.720036
811.760107	2539.178781
812.079716	2537.462268
812.399281	2533.343645
812.718801	2538.566281
813.038276	2533.343645
813.357707	2539.824048
813.677093	2538.631816
813.996434	2536.769109
814.315731	2535.874304
814.634983	2539.282124
814.954191	2537.192566
815.273354	2539.720705
815.592473	2539.274563
815.911547	2539.960160
816.230577	2542.505942
816.549562	2540.431508
816.868502	2540.217258
817.187399	2539.919830
817.506250	2537.706764
817.825058	2543.781354
818.143821	2539.239275
818.462539	2539.332536
818.781213	2540.290355
819.099843	2542.271529
819.418429	2540.965870
819.736970	2548.184802
820.055466	2549.124977
820.373919	2548.129349
820.692327	2553.294012
821.010691	2558.655279
821.329011	2571.989131
821.647286	2601.169850
821.965517	2627.656072
822.283704	2646.273053
822.601847	2654.538025
822.919945	2640.621920
823.237999	2620.036368
823.556010	2604.640684
823.873976	2591.203488
824.191897	2579.835687
824.509775	2571.792526
824.827609	2563.945970
825.145398	2565.004612
825.463144	2559.507234
825.780845	2562.410938
826.098502	2565.087791
826.416116	2570.580128
826.733685	2581.282498
827.051210	2585.847262
827.368692	2583.994638
827.686129	2575.099522
828.003522	2562.632749
828.320872	2555.713765
828.638177	2550.904505
828.955439	2547.831921
829.272656	2543.340253
829.589830	2539.856816
829.906960	2544.537527
830.224046	2544.096426
830.541088	2541.739687
830.858086	2543.806560
831.175041	2540.123997
831.491952	2541.170037
831.808819	2540.610468
832.125642	2539.163657
832.442421	2543.060469
832.759157	2549.203115
833.075849	2553.351985
833.392497	2557.697459
833.709101	2561.150650
834.025662	2561.299364
834.342179	2558.330124
834.658653	2550.720503
834.975083	2553.475493
835.291469	2552.028682
835.607811	2544.096426
835.924110	2544.008206
836.240366	2542.100129
836.556578	2537.467309
836.872746	2538.263811
837.188871	2536.905220
837.504952	2536.580066
837.820990	2534.913965
838.136984	2537.202648
838.452935	2539.082999
838.768842	2535.246681
839.084706	2538.888914
839.400526	2538.311702
839.716303	2540.975952
840.032037	2547.816798
840.347727	2546.889226
840.663373	2545.833104
840.978977	2541.243133
841.294537	2539.836651
841.610054	2540.060983
841.925527	2536.693492
842.240957	2536.088553
842.556344	2538.442772
842.871687	2535.750796
843.186987	2534.351876
843.502244	2534.752648
843.817458	2535.753317
844.132629	2532.557225
844.447756	2532.932791
844.762840	2529.441792
845.077881	2531.274252
845.392879	2530.011442
845.707833	2533.215096
846.022745	2530.742410
846.337613	2531.778367
846.652438	2533.358769
846.967221	2533.441948
847.281960	2532.920188
847.596656	2534.366999
847.911309	2532.680733
848.225919	2533.956145
848.540485	2533.436907
848.855009	2532.773995
849.169490	2530.298788
849.483928	2535.251722
849.798323	2533.164684
850.112675	2532.839530
850.426984	2531.002029
850.741251	2534.498069
851.055474	2534.873635
851.369654	2534.288862
851.683792	2534.177956
851.997887	2533.661238
852.311938	2534.971938
852.625947	2532.209386
852.939914	2532.426155
853.253837	2534.583769
853.567718	2532.219468
853.881555	2534.165353
854.195350	2531.937163
854.509103	2532.786598
854.822812	2529.877852
855.136479	2535.012267
855.450103	2531.886752
855.763685	2534.417411
856.077224	2531.669982
856.390720	2532.957997
856.704173	2533.172246
857.017584	2535.574356
857.330953	2529.393901
857.644278	2533.459592
857.957561	2536.242309
858.270802	2534.737524
858.584000	2531.876669
858.897155	2536.191897
859.210268	2534.377082
859.523339	2533.338604
859.836367	2532.247194
860.149352	2532.363141
860.462295	2533.744417
860.775195	2531.370033
861.088054	2527.453057
861.400869	2530.187883
861.713642	2528.776360
862.026373	2528.844415
862.339062	2532.910106
862.651708	2533.394057
862.964312	2534.364479
863.276873	2534.714839
863.589392	2535.418080
863.901869	2531.680064
864.214303	2534.898841
864.526696	2534.142668
864.839045	2531.574200
865.151353	2535.997813
865.463619	2530.981865
865.775842	2533.240302
866.088023	2534.835827
866.400162	2534.329191
866.712258	2532.254756
867.024313	2532.925229
867.336325	2531.140661
867.648296	2535.811290
867.960224	2532.973120
868.272110	2536.005374
868.583954	2533.751979
868.895755	2535.705426
869.207515	2531.969931
869.519233	2533.981351
869.830909	2536.320447
870.142542	2535.776002
870.454134	2533.948584
870.765684	2535.062679
871.077191	2532.995806
871.388657	2535.508821
871.700081	2533.159643
872.011463	2533.986392
872.322803	2534.243491
872.634101	2535.057638
872.945357	2531.634694
873.256571	2537.076620
873.567744	2533.399098
873.878874	2534.203162
874.189963	2539.307330
874.501010	2536.121321
874.812015	2533.222658
875.122979	2536.622916
875.433900	2531.422966
875.744780	2535.801208
876.055618	2535.909592
876.366415	2537.401774
876.677169	2536.118800
876.987882	2534.697195
877.298554	2533.363810
877.609183	2534.608975
877.919771	2535.027391
878.230317	2534.513193
878.540822	2539.619882
878.851285	2537.900848
879.161707	2538.745242
879.472087	2541.550644
879.782425	2544.540048
880.092722	2550.138249
880.402977	2557.427758
880.713191	2570.154151
881.023363	2586.558065
881.333494	2601.124479
881.643583	2600.638008
881.953631	2598.470312
882.263637	2595.065012
882.573602	2590.994281
882.883526	2580.513722
883.193408	2575.081878
883.503248	2565.115517
883.813048	2560.117213
884.122806	2559.862635
884.432522	2553.941800
884.742197	2550.191181
885.051831	2548.167158
885.361424	2545.394523
885.670975	2543.418391
885.980485	2541.913607
886.289954	2542.566436
886.599382	2539.718184
886.908768	2540.207176
887.218113	2538.571322
887.527417	2539.324974
887.836680	2535.894469
888.145901	2538.271373
888.455082	2535.997813
888.764221	2535.629808
889.073319	2534.314067
889.382376	2534.319108
889.691392	2535.302133
890.000366	2535.453368
890.309300	2536.645601
890.618193	2533.971269
890.927044	2538.911600
891.235855	2536.897659
891.544625	2537.001002
891.853353	2536.753986
892.162041	2536.580066
892.470687	2540.441590
892.779293	2538.677186
893.087858	2538.654501
893.396381	2538.578883
893.704864	2539.841692
894.013306	2540.829759
894.321707	2549.442570
894.630068	2555.807027
894.938387	2559.572769
895.246665	2555.451625
895.554903	2554.309804
895.863100	2549.513146
896.171256	2549.563558
896.479371	2545.651622
896.787446	2544.915614
897.095480	2543.451159
897.403473	2540.237423
897.711425	2537.379089
898.019336	2537.051414
898.327207	2538.750283
898.635038	2536.653163
898.942827	2537.671476
899.250576	2541.228010
899.558284	2535.768440
899.865952	2538.702392
900.173579	2535.254242
900.481165	2534.409849
900.788711	2535.072761
901.096216	2534.908923
901.403681	2535.488656
901.711105	2533.068902
902.018489	2533.331042
902.325832	2537.621064
902.633135	2535.415559
902.940397	2536.325488
903.247619	2543.128525
903.554800	2540.509645
903.861941	2547.554658
904.169041	2561.133006
904.476101	2564.908830
904.783121	2564.739951
905.090100	2559.852553
905.397039	2551.474155
905.703938	2551.489278
906.010796	2545.069369
906.317614	2544.257743
906.624391	2542.049718
906.931129	2540.413863
907.237826	2538.828421
907.544483	2535.881866
907.851099	2533.555374
908.157675	2535.579397
908.464211	2532.249715
908.770707	2529.338448
909.077163	2534.011598
909.383578	2527.521113
909.689954	2529.499765
909.996289	2527.143026
910.302584	2535.481094
910.608839	2530.419776
910.915054	2532.355579
911.221229	2532.000178
911.527363	2535.140817
911.833458	2535.831455
912.139513	2532.317770
912.445527	2532.436238
912.751502	2534.931609
913.057436	2533.893131
913.363331	2533.928419
913.669186	2536.494366
913.975000	2535.478574
914.280775	2536.872453
914.586510	2540.194573
914.892205	2544.257743
915.197859	2547.922662
915.503475	2550.236552
915.809050	2557.357182
916.114585	2557.200906
916.420081	2564.097204
916.725536	2563.207441
917.030952	2558.919939
917.336328	2550.483568
917.641665	2551.428785
917.946961	2550.165976
918.252218	2549.036757
918.557435	2543.657846
918.862612	2541.044008
919.167750	2540.244985
919.472848	2540.754141
919.777906	2537.437062
920.082925	2534.561084
920.387904	2536.688451
920.692843	2533.414221
920.997743	2536.012936
921.302603	2533.426824
921.607423	2533.862884
921.912204	2535.357586
922.216946	2536.391023
922.521647	2533.580579
922.826310	2535.309695
923.130932	2535.647452
923.435516	2532.098480
923.740059	2532.302647
924.044564	2532.093439
924.349028	2531.307019
924.653454	2527.929446
924.957840	2528.511699
925.262186	2530.450023
925.566493	2530.908768
925.870761	2525.350896
926.174989	2531.405322
926.479178	2530.157636
926.783328	2530.082019
927.087438	2531.372554
927.391509	2528.632687
927.695541	2532.731145
927.999533	2528.476411
928.303486	2533.295754
928.607400	2527.170752
928.911275	2529.661082
929.215110	2530.356762
929.518906	2529.829961
929.822663	2529.305681
930.126381	2528.869621
930.430060	2527.364837
930.733699	2528.985568
931.037299	2531.380116
931.340861	2529.774508
931.644383	2530.757533
931.947866	2528.667975
932.251309	2531.606968
932.554714	2528.269724
932.858080	2528.897347
933.161407	2526.107069
933.464694	2530.263500
933.767943	2528.988088
934.071153	2530.313912
934.374323	2530.455064
934.677455	2528.393232
934.980548	2532.111083
935.283602	2530.457585
935.586617	2527.689991
935.889593	2529.025897
936.192530	2527.238808
936.495428	2529.779549
936.798287	2530.729807
937.101108	2528.118489
937.403890	2529.346010
937.706632	2531.173428
938.009336	2527.402645
938.312002	2531.251566
938.614628	2530.709642
938.917216	2532.894983
939.219765	2531.463295
939.522275	2530.434899
939.824747	2532.826927
940.127179	2528.186545
940.429573	2526.535567
940.731929	2529.401463
941.034246	2526.439785
941.336524	2527.437933
941.638763	2532.290044
941.940964	2530.722245
942.243126	2531.337266
942.545250	2531.017153
942.847335	2531.443130
943.149381	2531.720394
943.451389	2529.197296
943.753359	2529.456916
944.055290	2528.698222
944.357182	2528.007584
944.659036	2534.505631
944.960851	2530.820548
945.262628	2529.585465
945.564367	2528.937677
945.866067	2529.867770
946.167729	2532.048069
946.469352	2532.103521
946.770937	2528.451205
947.072484	2529.426669
947.373992	2529.199817
947.675462	2529.411545
947.976893	2530.472708
948.278286	2530.825589
948.579641	2529.033459
948.880958	2530.656710
949.182236	2528.141174
949.483476	2528.345341
949.784678	2529.035979
950.085841	2530.276103
950.386967	2530.538243
950.688054	2530.107224
950.989103	2528.980527
951.290114	2529.179652
951.591087	2532.085877
951.892021	2528.904909
952.192917	2529.683768
952.493776	2528.909950
952.794596	2530.041689
953.095378	2531.223840
953.396122	2531.586803
953.696828	2531.566638
953.997496	2530.089580
954.298126	2527.500948
954.598718	2532.189221
954.899272	2530.581093
955.199788	2530.538243
955.500266	2528.912471
955.800706	2526.759898
956.101108	2524.098169
956.401472	2526.618746
956.701798	2523.407531
957.002087	2525.189579
957.302337	2525.398787
957.602550	2527.483304
957.902724	2528.972965
958.202861	2526.543129
958.502960	2526.308715
958.803022	2529.807276
959.103045	2528.662934
959.403031	2527.400125
959.702979	2530.233253
960.002889	2527.800897
960.302762	2527.712676
960.602596	2525.844929
960.902393	2527.289219
961.202153	2527.233767
961.501875	2526.921215
961.801559	2526.986750
962.101205	2527.473222
962.400814	2526.621267
962.700385	2528.085722
962.999918	2529.686288
963.299414	2526.026410
963.598873	2529.935825
963.898293	2525.471883
964.197677	2530.182842
964.497022	2526.260824
964.796331	2528.451205
965.095601	2524.085566
965.394835	2527.334590
965.694030	2522.399300
965.993189	2529.114117
966.292309	2528.236956
966.591393	2527.629497
966.890439	2525.219826
967.189447	2526.528005
967.488419	2529.381298
967.787353	2527.543798
968.086249	2528.705784
968.385108	2526.485155
968.683930	2527.490866
968.982714	2528.035310
969.281462	2526.878365
969.580172	2523.999867
969.878844	2527.034641
970.177480	2528.269724
970.476078	2526.923736
970.774639	2528.781401
971.073162	2525.950793
971.371649	2525.058509
971.670098	2526.805269
971.968510	2525.144208
972.266885	2523.432737
972.565223	2524.924918
972.863524	2525.975999
973.161788	2525.434075
973.460014	2527.793335
973.758204	2528.239477
974.056356	2524.234280
974.354471	2529.610671
974.652550	2525.991122
974.950591	2526.800227
975.248595	2526.447347
975.546563	2527.095135
975.844493	2525.260155
976.142386	2526.144878
976.440243	2525.121523
976.738062	2527.407687
977.035845	2526.404497
977.333590	2529.794673
977.631299	2528.148736
977.928971	2523.460463
978.226606	2526.984230
978.524204	2526.938859
978.821765	2526.608664
979.119290	2525.139167
979.416777	2526.253262
979.714228	2523.299146
980.011642	2528.451205
980.309020	2528.279806
980.606360	2524.025072
980.903664	2526.391894
981.200931	2527.236287
981.498162	2528.849457
981.795356	2526.669158
982.092513	2525.471883
982.389633	2528.065557
982.686717	2527.795855
982.983764	2529.482121
983.280775	2530.840712
983.577749	2527.379960
983.874686	2529.272913
984.171587	2527.916843
984.468451	2528.431041
984.765279	2527.188396
985.062070	2527.417769
985.358824	2526.961544
985.655543	2527.311905
985.952224	2526.535567
986.248869	2528.625125
986.545478	2521.837212
986.842050	2525.497089
987.138586	2522.895854
987.435086	2524.345186
987.731549	2524.977850
988.027975	2527.891637
988.324366	2525.618077
988.620719	2525.391225
988.917037	2525.343334
989.213318	2527.531195
989.509563	2526.694363
989.805772	2524.592202
990.101944	2525.872655
990.398080	2526.018849
990.694180	2527.851308
990.990244	2524.960206
991.286271	2524.819054
991.582262	2527.080012
991.878217	2523.215967
992.174136	2527.712676
992.470019	2522.658920
992.765865	2525.522295
993.061676	2528.597399
993.357450	2526.893489
993.653188	2523.533560
993.948890	2525.217305
994.244556	2525.275278
994.540186	2523.556245
994.835780	2527.198479
995.131337	2528.481452
995.426859	2523.977181
995.722345	2524.814013
996.017795	2525.550021
996.313208	2527.080012
996.608586	2526.601102
996.903928	2526.086904
997.199234	2526.205371
997.494504	2527.689991
997.789738	2527.296781
998.084936	2526.772501
998.380099	2526.495238
998.675225	2524.861904
998.970316	2526.359127
999.265371	2525.797038
999.560390	2526.291071
999.855373	2528.431041
1000.150320	2527.238808
1000.445232	2527.556401
1000.740108	2524.584640
1001.034948	2527.531195
1001.329752	2527.004394
1001.624521	2526.414579
1001.919254	2520.912160
1002.213951	2523.974661
1002.508613	2522.777387
1002.803239	2520.942407
1003.097829	2521.748991
1003.392384	2524.844260
1003.686903	2523.130268
1003.981386	2526.288550
1004.275834	2523.667150
1004.570246	2527.082532
1004.864623	2522.038858
1005.158964	2526.671678
1005.453270	2524.836698
1005.747540	2527.067409
1006.041775	2525.212264
1006.335974	2527.372398
1006.630138	2522.603467
1006.924266	2528.854498
1007.218359	2523.163035
1007.512416	2527.760567
1007.806438	2525.111441
1008.100425	2528.667975
1008.394376	2523.727644
1008.688292	2527.281658
1008.982172	2525.005577
1009.276017	2526.344003
1009.569827	2523.820906
1009.863602	2528.390712
1010.157341	2524.493900
1010.451045	2526.744775
1010.744714	2523.745288
1011.038347	2525.421472
1011.331945	2525.769312
1011.625508	2524.700587
1011.919036	2521.743950
1012.212528	2524.829136
1012.505986	2524.693025
1012.799408	2525.497089
1013.092795	2521.859897
1013.386147	2525.000536
1013.679464	2521.948117
1013.972745	2523.717562
1014.265992	2521.638086
1014.559204	2524.473735
1014.852380	2526.767460
1015.145521	2523.039527
1015.438628	2526.805269
1015.731699	2526.666637
1016.024736	2527.173273
1016.317737	2523.331914
1016.610703	2525.386184
1016.903635	2519.150277
1017.196531	2522.500123
1017.489393	2523.767973
1017.782219	2517.892509
1018.075011	2524.955165
1018.367768	2523.331914
1018.660490	2524.647655
1018.953177	2524.647655
1019.245829	2524.647655
