Dividing Wavelength (nm)	Counts (n)	Blue Motor Position (mm): 0.000000	Red Motor Position (mm): 27.900000	
326.493990	2125.937756
326.888308	2125.937756
327.282561	2125.937756
327.676750	2095.418611
328.070874	2094.773343
328.464933	2096.373909
328.858929	2101.599065
329.252859	2111.081476
329.646726	2123.613784
330.040528	2138.054169
330.434265	2152.749133
330.827938	2172.122287
331.221547	2187.921263
331.615091	2210.031764
332.008571	2226.042468
332.401986	2248.132805
332.795338	2266.449837
333.188625	2286.208640
333.581847	2303.635908
333.975006	2321.925215
334.368100	2340.358194
334.761129	2360.079188
335.154095	2375.943699
335.546996	2392.392984
335.939833	2411.768658
336.332606	2426.231729
336.725315	2439.091712
337.117960	2446.252671
337.510540	2455.818261
337.903056	2469.192442
338.295508	2472.431383
338.687896	2483.058136
339.080220	2491.628097
339.472480	2497.380054
339.864676	2503.195025
340.256807	2504.929182
340.648875	2509.541837
341.040879	2512.838752
341.432818	2511.691889
341.824694	2516.337313
342.216506	2517.456449
342.608253	2516.405368
342.999937	2514.615759
343.391557	2518.421830
343.783113	2512.932013
344.174605	2512.334637
344.566033	2513.219359
344.957397	2511.102074
345.348697	2507.336332
345.739934	2507.119563
346.131106	2505.675272
346.522215	2502.953049
346.913260	2502.937926
347.304241	2500.757627
347.695159	2499.310816
348.086012	2498.854591
348.476802	2495.701349
348.867528	2492.928715
349.258191	2495.101452
349.648789	2492.018787
350.039324	2491.214722
350.429796	2486.639875
350.820203	2486.468476
351.210548	2487.602736
351.600828	2485.563589
351.991045	2485.971923
352.381198	2482.934627
352.771288	2486.486120
353.161314	2484.608290
353.551276	2485.031747
353.941175	2486.828919
354.331010	2483.247179
354.720782	2487.847232
355.110490	2485.301449
355.500135	2485.760194
355.889717	2485.699700
356.279235	2484.943527
356.668689	2486.155925
357.058080	2487.733806
357.447408	2482.642240
357.836672	2482.806078
358.225873	2486.072746
358.615010	2483.842035
359.004084	2484.872951
359.393095	2488.495020
359.782043	2488.069042
360.170927	2488.679022
360.559748	2489.137767
360.948505	2490.582058
361.337199	2490.627428
361.725830	2493.019456
362.114398	2493.137923
362.502903	2493.233705
362.891344	2495.739158
363.279722	2495.771926
363.668037	2496.989364
364.056289	2495.207316
364.444478	2498.163953
364.832603	2498.153871
365.220665	2496.109683
365.608665	2496.618839
365.996601	2498.020280
366.384474	2500.868532
366.772284	2502.325426
367.160031	2502.942967
367.547715	2505.665190
367.935336	2511.520490
368.322893	2509.851868
368.710388	2512.974863
369.097820	2520.972654
369.485189	2525.267717
369.872495	2526.986750
370.259738	2537.293389
370.646918	2542.087527
371.034035	2548.202446
371.421090	2559.476987
371.808081	2573.935016
372.195010	2576.337126
372.581875	2595.874117
372.968678	2607.720829
373.355418	2615.169134
373.742096	2632.692185
374.128710	2649.103661
374.515262	2662.437513
374.901751	2676.741787
375.288177	2691.698890
375.674540	2715.903991
376.060841	2732.040724
376.447079	2753.125350
376.833254	2775.313989
377.219367	2783.659619
377.605417	2825.919612
377.991404	2833.783812
378.377329	2854.182841
378.763191	2872.648587
379.148991	2911.208373
379.534727	2934.327104
379.920402	2963.656538
380.306013	2973.950574
380.691563	3025.080477
381.077049	3046.389434
381.462474	3063.937690
381.847835	3103.369596
382.233134	3125.144860
382.618371	3121.971453
383.003545	3191.037782
383.388657	3201.631767
383.773706	3233.116293
384.158693	3249.200094
384.543618	3273.490894
384.928480	3313.706699
385.313280	3357.594984
385.698017	3354.537524
386.082692	3408.455185
386.467305	3416.216042
386.851856	3447.874488
387.236344	3469.566573
387.620770	3497.817199
388.005133	3525.389790
388.389435	3554.426836
388.773674	3564.257086
389.157851	3607.250567
389.541965	3626.154894
389.926018	3588.789861
390.310008	3657.553720
390.693936	3677.685568
391.077802	3716.459603
391.461606	3707.740928
391.845348	3772.313067
392.229027	3771.536729
392.612645	3782.808749
392.996200	3862.040564
393.379694	3900.756626
393.763125	3965.916060
394.146494	3932.896502
394.529801	3990.350533
394.913047	4043.007905
395.296230	4009.295189
395.679351	4064.110175
396.062410	4085.618258
396.445408	4069.373140
396.828343	4096.943210
397.211217	4124.593939
397.594028	4043.108728
397.976778	4110.887042
398.359466	4138.033655
398.742092	4171.910209
399.124656	4089.384000
399.507158	4168.078932
399.889598	4192.392417
400.271977	4255.298455
400.654294	4227.720823
401.036549	4234.216350
401.418742	4203.621587
401.800874	4305.503307
402.182944	4328.170855
402.564952	4395.172831
402.946898	4375.406466
403.328783	4374.892269
403.710606	4289.376655
404.092367	4484.043332
404.474067	4448.725008
404.855705	4456.448056
405.237282	4380.747569
405.618797	4492.381400
406.000250	4525.353067
406.381642	4606.702167
406.762972	4569.175817
407.144240	4578.985903
407.525447	4578.902724
407.906593	4636.248369
408.287677	4680.121531
408.668700	4610.840954
409.049661	4664.115868
409.430560	4702.884861
409.811399	4632.961537
410.192176	4791.286535
410.572891	4727.016865
410.953545	4835.552907
411.334138	4711.999268
411.714669	4779.649032
412.095139	4676.837219
412.475547	4817.669414
412.855894	4800.842042
413.236180	4808.300429
413.616405	4761.402575
413.996568	4849.660576
414.376670	4791.437770
414.756711	4743.347683
415.136691	4776.883959
415.516609	4854.369014
415.896466	4889.664652
416.276262	4923.100105
416.655997	4903.903392
417.035670	5087.056073
417.415283	5180.879507
417.794834	5122.475219
418.174324	5078.644907
418.553753	4980.672603
418.933121	5172.622097
419.312428	5235.069391
419.691674	5173.857180
420.070859	5299.485254
420.449983	5215.592893
420.829045	5328.930634
421.208047	5237.476542
421.586988	5303.959278
421.965867	5319.760775
422.344686	5449.704077
422.723444	5303.041788
423.102141	5121.582935
423.480777	5419.978914
423.859352	5193.621024
424.237866	5449.545281
424.616319	5437.733857
424.994712	5555.038987
425.373044	5424.684831
425.751314	5568.811419
426.129524	5372.319845
426.507673	5569.887706
426.885762	5652.744110
427.263789	5582.440179
427.641756	5465.213187
428.019662	5585.621147
428.397508	5590.732877
428.775292	5539.928128
429.153016	5639.213653
429.530679	5561.998300
429.908282	5652.418956
430.285824	5521.666548
430.663305	5793.878774
431.040726	5532.187437
431.418086	5529.576119
431.795385	5639.178365
432.172624	5643.680116
432.549802	5642.039220
432.926920	5656.542620
433.303977	5658.990100
433.680974	5703.110278
434.057910	5717.154933
434.434786	5726.198763
434.811601	5696.808836
435.188355	5929.780720
435.565050	5801.430422
435.941683	5783.458709
436.318257	5994.940154
436.694770	5977.165045
437.071222	6011.500344
437.447614	5947.714625
437.823946	5855.945460
438.200218	6014.058730
438.576429	5878.174428
438.952580	5973.648841
439.328670	6023.992323
439.704700	5927.202170
440.080670	5915.489049
440.456580	6186.178846
440.832429	6067.351288
441.208218	5912.545015
441.583947	6074.222380
441.959616	6072.999901
442.335224	6001.450804
442.710773	6136.173120
443.086261	6158.913765
443.461689	5955.961952
443.837057	6108.635817
444.212365	6261.327326
444.587612	6150.149719
444.962800	6306.644778
445.337927	6284.655265
445.712995	5899.616976
446.088002	6473.219625
446.462949	6301.359129
446.837837	6229.023612
447.212664	6399.999386
447.587431	6542.926180
447.962139	7082.788386
448.336786	7995.239753
448.711374	7735.441369
449.085901	6814.843498
449.460369	6734.810139
449.834776	6665.632906
450.209124	7049.063067
450.583412	7195.838782
450.957640	7338.160637
451.331808	7099.504852
451.705917	6654.507079
452.079965	6569.079686
452.453954	6773.982425
452.827883	6646.658003
453.201752	6733.159161
453.575562	6525.761051
453.949311	6722.053499
454.323001	6606.820284
454.696632	6676.199164
455.070202	6795.200642
455.443713	6940.743794
455.817164	7023.169180
456.190556	7086.304591
456.563888	7148.867831
456.937160	7183.619025
457.310373	6839.154462
457.683526	6855.918819
458.056619	6737.366004
458.429653	6709.944648
458.802628	6634.022350
459.175542	6721.191462
459.548398	7034.526900
459.921194	7168.856006
460.293930	7147.491596
460.666607	7605.528314
461.039224	7867.537244
461.411782	7959.981923
461.784280	7946.310314
462.156719	7829.925195
462.529099	7693.463681
462.901419	7291.882845
463.273680	7180.433016
463.645882	7158.960221
464.018024	7010.099989
464.390106	7126.157433
464.762130	7431.225378
465.134094	7791.672920
465.505999	8592.981967
465.877845	9556.527949
466.249631	10068.242873
466.621358	9716.632475
466.993026	9142.697109
467.364634	8887.788644
467.736184	8540.034729
468.107674	8208.654481
468.479105	8167.667379
468.850477	7937.044673
469.221790	7693.569545
469.593043	7383.064715
469.964238	7213.326545
470.335373	7176.833632
470.706449	7155.098697
471.077467	7087.776608
471.448425	7974.903738
471.819324	8663.979058
472.190164	8630.588975
472.560945	7676.661515
472.931667	7045.801441
473.302330	6894.239150
473.672934	6584.175421
474.043479	6765.477999
474.413965	6658.814745
474.784393	6510.854359
475.154761	6548.340379
475.525070	6533.358070
475.895321	6361.903386
476.265513	6398.093830
476.635645	6430.573984
477.005719	6352.456264
477.375734	6351.299319
477.745691	6406.028606
478.115588	6397.935033
478.485427	6446.231808
478.855207	6651.515154
479.224928	6970.605069
479.594591	7208.522325
479.964194	7016.139291
480.333739	6901.795840
480.703226	6738.502784
481.072653	6696.333533
481.442022	6700.560540
481.811333	6697.901331
482.180584	6517.405338
482.549777	6286.437313
482.918912	6123.648373
483.287988	6042.286671
483.657005	5964.307583
484.025964	5753.181539
484.394864	5702.689342
484.763706	5605.132933
485.132489	5441.179486
485.501213	5341.402449
485.869879	5291.598369
486.238487	5147.509589
486.607036	5117.423983
486.975527	4964.918997
487.343959	4944.893013
487.712333	4882.682654
488.080648	4793.993635
488.448905	4728.594746
488.817104	4642.698526
489.185244	4639.031086
489.553326	4603.584213
489.921350	4673.568031
490.289315	4837.443340
490.657222	4847.717211
491.025070	4739.375253
491.392861	4639.530160
491.760593	4483.829083
492.128267	4340.269624
492.495883	4205.350703
492.863440	4084.451231
493.230939	3969.177687
493.598380	3900.776791
493.965763	3820.100685
494.333088	3766.102366
494.700354	3697.782128
495.067563	3666.171573
495.434713	3592.222887
495.801805	3565.542580
496.168839	3514.899149
496.535815	3462.932414
496.902733	3425.887495
497.269593	3380.408726
497.636395	3350.839838
498.003139	3308.723518
498.369825	3269.684823
498.736453	3245.746904
499.103023	3208.754917
499.469535	3181.363808
499.835989	3152.029333
500.202385	3119.150928
500.568723	3082.090885
500.935003	3072.928588
501.301226	3030.774460
501.667390	3026.499561
502.033497	3003.562311
502.399546	2973.597693
502.765537	2947.449228
503.131470	2926.876279
503.497345	2918.586102
503.863163	2886.398334
504.228923	2874.276880
504.594625	2864.066023
504.960269	2836.748010
505.325856	2830.786846
505.691385	2810.067703
506.056856	2800.575211
506.422270	2790.102213
506.787625	2777.025460
507.152924	2766.265117
507.518164	2756.165166
507.883347	2745.102354
508.248472	2734.783112
508.613540	2731.425703
508.978550	2719.934393
509.343503	2713.612786
509.708398	2708.750593
510.073236	2703.348997
510.438016	2697.647452
510.802738	2692.137471
511.167403	2687.418951
511.532010	2680.439473
511.896561	2677.828156
512.261053	2676.666170
512.625488	2669.109480
512.989866	2661.325938
513.354186	2660.721000
513.718449	2653.600370
514.082655	2657.819816
514.446803	2652.274547
514.810894	2654.714465
515.174927	2649.408651
515.538904	2645.350522
515.902822	2643.477733
516.266684	2642.124183
516.630488	2638.421456
516.994235	2638.295427
517.357925	2635.830303
517.721558	2634.789305
518.085133	2634.491877
518.448651	2634.567494
518.812112	2630.088429
519.175516	2627.882924
519.538863	2627.789662
519.902152	2628.147584
520.265385	2628.437451
520.628560	2626.272275
520.991678	2623.595422
521.354739	2626.325207
521.717743	2622.809002
522.080690	2621.669702
522.443580	2620.968981
522.806413	2619.070987
523.169189	2623.202212
523.531908	2622.209105
523.894569	2618.708024
524.257174	2619.746502
524.619722	2615.776593
524.982213	2617.528394
525.344647	2618.443363
525.707025	2615.312807
526.069345	2617.178034
526.431608	2613.659308
526.793815	2614.667539
527.155964	2613.077055
527.518057	2611.320213
527.880093	2610.223762
528.242072	2611.549585
528.603995	2612.204935
528.965860	2610.788371
529.327669	2613.208125
529.689421	2609.729729
530.051117	2611.322733
530.412755	2611.143772
530.774337	2608.734101
531.135862	2607.919955
531.497331	2605.611106
531.858743	2602.399891
532.220098	2606.642022
532.581396	2604.033225
532.942638	2606.684872
533.303824	2606.364759
533.664953	2605.480036
534.026025	2605.386775
534.387040	2605.757300
534.747999	2605.091867
535.108902	2605.104470
535.469748	2603.070365
535.830537	2610.009513
536.191270	2606.705037
536.551947	2605.245622
536.912567	2603.090529
537.273131	2603.866867
537.633638	2602.596496
537.994089	2605.525407
538.354483	2602.069696
538.714821	2605.452310
539.075103	2604.002978
539.435328	2602.256218
539.795497	2603.506424
540.155609	2607.141096
540.515665	2603.897114
540.875665	2605.480036
541.235609	2602.964500
541.595496	2604.915427
541.955328	2601.615992
542.315102	2605.966508
542.674821	2600.605240
543.034483	2606.548761
543.394090	2603.791250
543.753640	2602.654469
544.113134	2604.484408
544.472571	2603.108173
544.831953	2604.418873
545.191278	2602.873760
545.550548	2603.355190
545.909761	2604.164295
546.268918	2604.630602
546.628019	2604.393667
546.987064	2602.440220
547.346053	2601.966352
547.704986	2602.495673
548.063863	2602.901486
548.422684	2604.176898
548.781449	2600.083481
549.140158	2602.856116
549.498811	2606.538678
549.857408	2602.135231
550.215949	2601.242946
550.574434	2596.068202
550.932864	2599.644901
551.291237	2597.250352
551.649555	2601.454675
552.007817	2601.283276
552.366022	2603.042638
552.724173	2602.626743
553.082267	2604.106322
553.440305	2602.551126
553.798288	2604.746548
554.156215	2601.318564
554.514086	2602.178080
554.871902	2601.820158
555.229661	2602.886362
555.587365	2601.852926
555.945014	2600.350662
556.302606	2602.740169
556.660143	2602.442741
557.017625	2603.161105
557.375050	2601.086671
557.732421	2601.114397
558.089735	2601.220261
558.446994	2602.415015
558.804197	2603.735797
559.161345	2604.844851
559.518437	2602.271342
559.875474	2603.584562
560.232455	2601.764706
560.589381	2602.785539
560.946251	2605.404419
561.303065	2601.777309
561.659825	2603.869388
562.016528	2599.622215
562.373177	2601.895776
562.729770	2601.903337
563.086307	2600.534664
563.442789	2602.956939
563.799216	2599.972576
564.155587	2601.215220
564.511904	2601.789912
564.868164	2601.000971
565.224370	2602.687237
565.580520	2600.648090
565.936615	2598.911413
566.292654	2601.263111
566.648638	2601.472319
567.004567	2600.418718
567.360441	2601.192535
567.716260	2600.942998
568.072023	2600.706063
568.427732	2597.807400
568.783385	2596.466453
569.138982	2595.364961
569.494525	2597.646083
569.850013	2591.783221
570.205445	2599.448296
570.560823	2600.020467
570.916145	2598.619026
571.271412	2598.152719
571.626625	2598.871083
571.981782	2599.198758
572.336884	2600.965683
572.691931	2600.751434
573.046923	2597.388984
573.401860	2597.522575
573.756743	2598.964345
574.111570	2594.941504
574.466342	2601.101794
574.821059	2598.805548
575.175722	2599.496187
575.530330	2598.442585
575.884882	2598.795466
576.239380	2597.845209
576.593823	2597.646083
576.948211	2595.370002
577.302544	2596.844540
577.656823	2595.281782
578.011047	2597.434355
578.365216	2595.700198
578.719330	2595.826227
579.073389	2596.259766
579.427394	2594.354210
579.781344	2595.301947
580.135239	2597.388984
580.489080	2595.271700
580.842866	2592.312542
581.196597	2594.752461
581.550273	2594.971751
581.903895	2595.380084
582.257463	2594.712132
582.610975	2593.182141
582.964434	2594.881010
583.317837	2592.405804
583.671186	2595.049889
584.024481	2593.807244
584.377721	2592.201637
584.730906	2593.807244
585.084037	2594.079467
585.437113	2591.329517
585.790135	2596.221957
586.143103	2589.751636
586.496016	2590.401945
586.848874	2589.539908
587.201679	2589.797007
587.554428	2587.155442
587.907124	2588.803899
588.259765	2584.297108
588.612352	2591.848756
588.964884	2592.297419
589.317362	2590.928746
589.669786	2591.654672
590.022155	2594.359251
590.374470	2589.847418
590.726731	2591.102665
591.078937	2589.154259
591.431090	2591.160639
591.783188	2590.820361
592.135232	2589.683581
592.487222	2589.895309
592.839157	2591.127871
593.191038	2589.242480
593.542866	2589.373550
593.894639	2587.006728
594.246358	2591.652151
594.598022	2589.779362
594.949633	2587.745257
595.301190	2585.774166
595.652692	2589.045875
596.004141	2589.600402
596.355535	2587.558734
596.706876	2588.531677
597.058162	2586.366501
597.409395	2587.636872
597.760573	2589.071080
598.111698	2585.433888
598.462768	2587.243662
598.813785	2587.606625
599.164748	2586.311049
599.515657	2587.856162
599.866511	2583.515729
600.217312	2587.357088
600.568060	2586.621080
600.918753	2588.014959
601.269392	2588.140987
601.619978	2586.104361
601.970510	2587.790627
602.320988	2583.482961
602.671412	2585.897674
603.021783	2587.735175
603.372100	2590.112079
603.722363	2584.105544
604.072572	2586.167376
604.422728	2584.423137
604.772830	2581.496747
605.122878	2581.945409
605.472872	2582.447004
605.822813	2581.171592
606.172701	2582.416757
606.522534	2582.701582
606.872314	2586.883220
607.222041	2582.676377
607.571714	2588.624938
607.921333	2585.166707
608.270899	2585.244845
608.620411	2586.174938
608.969870	2587.057139
609.319276	2589.118971
609.668627	2588.322469
610.017926	2592.630135
610.367171	2594.999477
610.716362	2593.351020
611.065500	2591.884044
611.414585	2590.858169
611.763616	2589.650813
612.112594	2590.001173
612.461518	2590.555700
612.810389	2590.802717
613.159207	2585.184351
613.507971	2586.487489
613.856682	2587.006728
614.205340	2586.426995
614.553945	2592.010073
614.902496	2584.884402
615.250994	2590.533015
615.599439	2586.023703
615.947830	2584.793661
616.296169	2587.155442
616.644454	2588.178796
616.992686	2587.747777
617.340864	2587.740216
617.688990	2585.005390
618.037063	2588.458580
618.385082	2583.583784
618.733048	2588.728282
619.080961	2587.379773
619.428821	2590.351533
619.776628	2586.971440
620.124382	2589.862542
620.472083	2583.367015
620.819731	2590.434713
621.167326	2584.539083
621.514868	2584.554207
621.862357	2582.615883
622.209793	2586.452201
622.557176	2585.491861
622.904506	2583.074628
623.251783	2581.668146
623.599007	2584.665112
623.946179	2576.760583
624.293297	2579.631520
624.640363	2580.208732
624.987376	2582.825091
625.334336	2580.498598
625.681243	2580.470872
626.028097	2581.350553
626.374899	2580.483475
626.721647	2580.440625
627.068343	2582.242837
627.414987	2580.382652
627.761577	2580.024730
628.108115	2580.296952
628.454600	2581.569843
628.801032	2578.555233
629.147412	2581.542117
629.493739	2579.815522
629.840014	2578.310737
630.186236	2579.820563
630.532405	2576.387537
630.878521	2582.809967
631.224585	2578.182188
631.570597	2578.235120
631.916556	2577.199163
632.262462	2579.588670
632.608316	2578.388875
632.954117	2578.615727
633.299866	2576.836200
633.645562	2580.105388
633.991206	2577.783937
634.336797	2574.522310
634.682336	2576.170768
635.027823	2576.664801
635.373257	2574.963411
635.718639	2571.961404
636.063968	2577.045408
636.409245	2575.880901
636.754470	2573.715726
637.099642	2570.020560
637.444762	2575.628844
637.789829	2572.699933
638.134845	2572.062227
638.479808	2573.340160
638.824719	2574.865109
639.169577	2572.130283
639.514383	2572.914182
639.859137	2569.002247
640.203839	2571.606003
640.548489	2570.761610
640.893086	2569.985272
641.237632	2567.215158
641.582125	2568.336815
641.926566	2566.895045
642.270955	2571.288410
642.615292	2571.351425
642.959576	2570.718760
643.303809	2573.756055
643.647990	2572.311764
643.992118	2569.486198
644.336195	2572.263873
644.680219	2570.320509
645.024192	2571.532906
645.368112	2568.661969
645.711981	2571.477453
646.055797	2570.060889
646.399562	2571.374110
646.743274	2574.116497
647.086935	2575.885942
647.430544	2573.972825
647.774101	2572.551219
648.117606	2576.034657
648.461059	2573.932495
648.804460	2574.008113
649.147810	2573.231775
649.491108	2572.490725
649.834354	2570.423852
650.177548	2573.166240
650.520690	2571.721949
650.863781	2571.333781
651.206820	2574.509708
651.549807	2570.199521
651.892742	2570.766651
652.235626	2568.699778
652.578458	2568.326732
652.921238	2568.722463
653.263967	2571.696744
653.606644	2567.878070
653.949269	2567.071485
654.291843	2567.991496
654.634365	2570.557443
654.976836	2569.922257
655.319255	2570.078533
655.661622	2567.734397
656.003938	2568.593913
656.346203	2567.777247
656.688416	2568.422514
657.030577	2566.814386
657.372687	2566.753892
657.714746	2565.528892
658.056753	2568.001578
658.398708	2564.392112
658.740612	2567.502504
659.082465	2564.848336
659.424266	2564.563511
659.766016	2565.047462
660.107715	2568.460323
660.449362	2565.077709
660.790958	2566.660631
661.132503	2564.797925
661.473996	2567.895714
661.815438	2570.287741
662.156829	2569.508883
662.498168	2569.660117
662.839456	2567.822617
663.180693	2567.484860
663.521879	2570.824624
663.863013	2568.425035
664.204097	2567.472257
664.545129	2567.883111
664.886110	2569.365210
665.227040	2568.437638
665.567918	2567.341187
665.908746	2567.426886
666.249522	2569.055179
666.590248	2568.399829
666.930922	2568.467885
667.271545	2567.126938
667.612118	2570.345714
667.952639	2569.672720
668.293109	2569.445868
668.633528	2565.349931
668.973896	2566.068295
669.314213	2569.161043
669.654480	2566.514438
669.994695	2567.585683
670.334859	2568.402350
670.674973	2566.549726
671.015035	2568.966959
671.355047	2566.080898
671.695008	2567.850343
672.034918	2569.695406
672.374777	2568.722463
672.714585	2564.135013
673.054342	2566.907647
673.394049	2568.621640
673.733705	2571.550550
674.073310	2567.227761
674.412864	2569.488718
674.752368	2568.283883
675.091820	2565.942267
675.431223	2565.634756
675.770574	2566.204407
676.109875	2562.030331
676.449125	2566.219530
676.788324	2563.751885
677.127473	2561.662327
677.466571	2560.810372
677.805619	2564.583676
678.144616	2565.977555
678.483562	2565.614592
678.822458	2564.750034
679.161303	2565.075188
679.500098	2562.758778
679.838842	2564.339180
680.177535	2565.382698
680.516179	2569.007288
680.854771	2563.376319
681.193314	2566.380847
681.531805	2567.613409
681.870247	2566.607699
682.208638	2568.306568
682.546978	2568.165415
682.885268	2565.541495
683.223508	2569.307237
683.561697	2567.202555
683.899836	2569.637432
684.237925	2564.135013
684.575963	2565.176011
684.913951	2564.737431
685.251889	2566.693398
685.589776	2563.789694
685.927614	2563.668706
686.265401	2562.962945
686.603137	2569.899572
686.940824	2565.566701
687.278460	2565.919581
687.616046	2568.916547
687.953582	2568.747669
688.291068	2566.970662
688.628504	2566.577452
688.965889	2567.724314
689.303224	2568.155333
689.640510	2565.927143
689.977745	2567.910837
690.314930	2565.239026
690.652065	2566.665672
690.989150	2563.583007
691.326185	2563.988819
691.663170	2561.556463
692.000105	2562.171483
692.336990	2563.189797
692.673825	2563.182235
693.010610	2562.181566
693.347345	2558.047820
693.684030	2556.757284
694.020665	2558.829198
694.357251	2553.553631
694.693786	2558.216698
695.030272	2557.987326
695.366707	2560.265927
695.703093	2562.476473
696.039429	2556.132181
696.375716	2555.376008
696.711952	2559.081256
697.048139	2554.816440
697.384276	2556.459856
697.720363	2556.568241
698.056400	2559.023283
698.392388	2554.788714
698.728326	2557.286605
699.064214	2557.899106
699.400053	2558.521688
699.735842	2556.205278
700.071581	2554.627397
700.407270	2557.427758
700.742910	2556.434650
701.078501	2558.030176
701.414042	2555.678477
701.749533	2554.970195
702.084974	2554.854249
702.420366	2556.192675
702.755709	2556.124619
703.091002	2555.673436
703.426246	2554.629917
703.761440	2554.191337
704.096584	2558.272151
704.431679	2554.377860
704.766725	2555.199568
705.101721	2554.274516
705.436668	2555.791903
705.771565	2554.188816
706.106413	2554.561862
706.441212	2554.503888
706.775961	2553.840977
707.110661	2554.072870
707.445311	2557.069836
707.779913	2556.469938
708.114465	2555.408776
708.448967	2556.011193
708.783421	2555.582695
709.117825	2558.171328
709.452180	2552.749567
709.786485	2557.049671
710.120742	2557.216029
710.454949	2557.999929
710.789107	2554.695452
711.123216	2553.775442
711.457275	2555.963303
711.791286	2554.806358
712.125247	2556.021276
712.459159	2559.832388
712.793023	2561.634601
713.126837	2556.250648
713.460602	2559.741647
713.794318	2556.810216
714.127985	2559.973540
714.461602	2555.744012
714.795171	2561.001936
715.128691	2556.633776
715.462162	2556.112017
715.795584	2554.826522
716.128957	2555.502037
716.462281	2555.426420
716.795556	2553.924156
717.128782	2553.969526
717.461960	2554.622356
717.795088	2551.965668
718.128167	2554.327448
718.461198	2557.727706
718.794180	2556.217881
719.127113	2554.332489
719.459997	2551.562375
719.792833	2551.380894
720.125619	2551.401058
720.458357	2549.924000
720.791046	2551.322920
721.123686	2548.787220
721.456278	2552.943651
721.788821	2550.289484
722.121315	2551.597663
722.453761	2550.725544
722.786158	2549.901315
723.118506	2550.602035
723.450805	2553.775442
723.783056	2553.394835
724.115259	2553.359547
724.447412	2550.047508
724.779518	2550.337375
725.111574	2551.567416
725.443582	2548.792261
725.775542	2551.953065
726.107453	2549.974412
726.439315	2550.178578
726.771129	2554.619835
727.102895	2554.516491
727.434612	2554.329969
727.766281	2555.179403
728.097901	2550.836449
728.429473	2548.739329
728.760996	2553.601522
729.092471	2549.225800
729.423897	2551.355688
729.755276	2550.697817
730.086606	2554.766028
730.417887	2553.573796
730.749120	2556.374157
731.080305	2556.490103
731.411442	2557.609239
731.742530	2553.573796
732.073570	2556.442212
732.404562	2554.496327
732.735506	2551.958106
733.066401	2552.943651
733.397249	2555.008004
733.728048	2554.387942
734.058798	2551.015410
734.389501	2549.472817
734.720156	2552.399207
735.050762	2549.124977
735.381320	2551.600184
735.711831	2550.264278
736.042293	2549.447611
736.372707	2551.849721
736.703073	2545.762528
737.033391	2550.602035
737.363661	2548.197405
737.693883	2547.889895
738.024056	2551.670760
738.354182	2549.477858
738.684260	2551.174206
739.014290	2551.315359
739.344272	2548.971222
739.674207	2549.213198
740.004093	2551.970709
740.333931	2550.622200
740.663722	2552.439536
740.993464	2551.025492
741.323159	2552.404248
741.652806	2551.106151
741.982405	2551.698486
742.311956	2549.583722
742.641460	2552.104299
742.970915	2546.223793
743.300323	2547.123639
743.629683	2550.292004
743.958996	2549.210677
744.288260	2548.872920
744.617477	2547.484082
744.946647	2544.577857
745.275768	2547.118598
745.604842	2542.601724
745.933869	2542.276570
746.262847	2542.916796
746.591778	2544.136756
746.920662	2548.318393
747.249498	2546.811088
747.578286	2545.094575
747.907027	2546.165820
748.235720	2549.964329
748.564365	2547.247148
748.892963	2547.398382
749.221514	2548.653629
749.550017	2548.457024
749.878473	2548.419216
750.206881	2546.680018
750.535242	2547.784030
750.863555	2546.107847
751.191821	2549.218239
751.520039	2549.997097
751.848210	2545.979297
752.176334	2548.066335
752.504411	2546.498536
752.832440	2547.529452
753.160421	2548.537683
753.488356	2546.117929
753.816243	2548.623382
754.144082	2543.703216
754.471875	2546.586756
754.799620	2549.114895
755.127318	2544.703885
755.454969	2545.180274
755.782572	2548.484751
756.110129	2545.916283
756.437638	2546.221273
756.765100	2546.412837
757.092515	2546.395192
757.419882	2544.615665
757.747203	2545.623896
758.074477	2547.438711
758.401703	2544.852599
758.728882	2547.179092
759.056014	2546.102806
759.383099	2548.996428
759.710138	2550.032385
760.037129	2547.574823
760.364073	2549.147663
760.690970	2547.337888
761.017820	2548.409133
761.344623	2548.257899
761.671379	2548.716644
761.998088	2543.234389
762.324751	2549.858465
762.651366	2551.882488
762.977935	2560.981771
763.304456	2561.987481
763.630931	2563.202399
763.957359	2564.727348
764.283740	2562.403377
764.610074	2556.961451
764.936362	2555.232335
765.262602	2549.750080
765.588796	2549.326623
765.914943	2546.808567
766.241044	2547.748742
766.567097	2543.902342
766.893104	2544.345963
767.219064	2544.345963
767.544978	2543.504091
767.870845	2543.526776
768.196665	2546.087682
768.522438	2544.348484
768.848165	2541.989224
769.173846	2544.560213
769.499479	2543.965356
769.825066	2543.589790
770.150607	2540.819676
770.476101	2543.806560
770.801548	2541.182639
771.126949	2542.465613
771.452303	2544.645912
771.777611	2541.669111
772.102872	2541.293545
772.428087	2544.013247
772.753256	2542.684903
773.078378	2539.133410
773.403453	2540.192053
773.728482	2543.126004
774.053465	2540.320602
774.378401	2541.437218
774.703291	2538.997299
775.028135	2540.219779
775.352932	2540.819676
775.677683	2540.275232
776.002388	2542.531148
776.327046	2540.136600
776.651658	2540.988555
776.976224	2539.372865
777.300743	2542.052238
777.625216	2543.209183
777.949643	2541.273380
778.274024	2540.885211
778.598359	2539.287166
778.922647	2535.400436
779.246889	2536.423790
779.571086	2535.435724
779.895236	2538.077289
780.219339	2537.941178
780.543397	2541.023843
780.867409	2540.673483
781.191374	2539.650129
781.515294	2539.703061
781.839167	2542.788247
782.162995	2540.045859
782.486776	2538.657021
782.810511	2537.971424
783.134201	2541.475026
783.457844	2541.616179
783.781441	2543.380582
784.104993	2540.562578
784.428498	2540.237423
784.751958	2539.297248
785.075372	2541.643905
785.398739	2539.135931
785.722061	2541.739687
786.045337	2537.963863
786.368568	2540.403781
786.691752	2540.005530
787.014891	2541.240613
787.337983	2538.236085
787.661030	2542.523586
787.984031	2541.810263
788.306987	2542.702547
788.629897	2544.214893
788.952760	2543.925027
789.275579	2542.261446
789.598351	2541.631302
789.921078	2540.093750
790.243759	2538.480581
790.566395	2538.624254
790.888984	2539.990407
791.211529	2538.553678
791.534027	2538.435211
791.856480	2541.417053
792.178888	2538.127700
792.501249	2539.846734
792.823566	2540.174409
793.145836	2538.493184
793.468062	2541.777496
793.790241	2538.967052
794.112375	2540.882691
794.434464	2539.955118
794.756507	2537.583256
795.078505	2541.810263
795.400457	2538.861188
795.722364	2535.420601
796.044226	2538.354552
796.366042	2539.393030
796.687812	2536.932947
797.009538	2539.788760
797.331218	2540.358411
797.652852	2540.718853
797.974442	2541.530479
798.295986	2539.544264
798.617484	2540.159285
798.938938	2540.998637
799.260346	2541.464944
799.581709	2537.111908
799.903026	2540.834800
800.224299	2541.036446
800.545526	2540.660880
800.866708	2538.132741
801.187845	2539.420756
801.508936	2536.680889
801.829983	2539.771116
802.150984	2538.830941
802.471940	2536.985879
802.792851	2538.881353
803.113717	2538.218441
803.434538	2536.685930
803.755314	2537.923533
804.076045	2539.191384
804.396731	2540.350849
804.717372	2536.219623
805.037967	2539.055273
805.358518	2536.025539
805.679024	2538.029398
805.999485	2538.087371
806.319901	2539.350180
806.640272	2538.036959
806.960598	2537.668955
807.280879	2536.174253
807.601115	2540.207176
807.921306	2537.379089
808.241453	2541.439738
808.561554	2538.057124
808.881611	2539.047711
809.201623	2540.171888
809.521590	2540.063503
809.841513	2537.936136
810.161390	2538.525951
810.481223	2538.591486
810.801011	2538.125180
811.120755	2539.415715
811.440453	2538.704912
811.760107	2535.357586
812.079716	2533.477236
812.399281	2536.809438
812.718801	2537.217772
813.038276	2531.929602
813.357707	2538.404964
813.677093	2536.756506
813.996434	2537.767258
814.315731	2537.237937
814.634983	2536.166691
814.954191	2537.013605
815.273354	2539.387989
815.592473	2535.753317
815.911547	2535.816331
816.230577	2537.673996
816.549562	2543.932589
816.868502	2539.463606
817.187399	2541.399409
817.506250	2537.878163
817.825058	2540.466796
818.143821	2539.403112
818.462539	2540.890252
818.781213	2542.763041
819.099843	2541.669111
819.418429	2543.236910
819.736970	2544.063659
820.055466	2547.239586
820.373919	2550.216387
820.692327	2551.753939
821.010691	2558.834240
821.329011	2572.765468
821.647286	2597.086515
821.965517	2623.807151
822.283704	2640.352218
822.601847	2648.082827
822.919945	2638.854995
823.237999	2615.920266
823.556010	2602.624222
823.873976	2585.438929
824.191897	2577.310068
824.509775	2569.808832
824.827609	2564.293809
825.145398	2562.100907
825.463144	2562.587379
825.780845	2560.918757
826.098502	2562.249621
826.416116	2568.888821
826.733685	2580.667477
827.051210	2584.871799
827.368692	2580.806109
827.686129	2569.922258
828.003522	2562.453788
828.320872	2553.475493
828.638177	2551.426264
828.955439	2546.591798
829.272656	2542.868905
829.589830	2539.355221
829.906960	2543.983000
830.224046	2543.617517
830.541088	2544.575336
830.858086	2542.284132
831.175041	2543.872095
831.491952	2538.430169
831.808819	2540.759182
832.125642	2538.533513
832.442421	2542.624409
832.759157	2546.828732
833.075849	2550.181099
833.392497	2560.200392
833.709101	2560.021431
834.025662	2558.725855
834.342179	2559.287943
834.658653	2555.232335
834.975083	2550.914587
835.291469	2553.256203
835.607811	2542.480737
835.924110	2544.802188
836.240366	2541.331353
836.556578	2540.552495
836.872746	2543.148689
837.188871	2538.057124
837.504952	2539.115766
837.820990	2537.671476
838.136984	2537.704243
838.452935	2533.315919
838.768842	2538.137783
839.084706	2535.826413
839.400526	2539.934954
839.716303	2540.968390
840.032037	2544.948381
840.347727	2546.279246
840.663373	2544.199770
840.978977	2541.094419
841.294537	2541.911086
841.610054	2540.388658
841.925527	2536.937988
842.240957	2536.711136
842.556344	2537.124511
842.871687	2537.447144
843.186987	2537.563091
843.502244	2533.167205
843.817458	2533.184849
844.132629	2536.690971
844.447756	2532.206865
844.762840	2528.791483
845.077881	2528.809127
845.392879	2530.727286
845.707833	2531.261649
846.022745	2528.584796
846.337613	2533.794828
846.652438	2535.410518
846.967221	2533.071423
847.281960	2532.874818
847.596656	2534.419932
847.911309	2532.395908
848.225919	2531.649817
848.540485	2531.032276
848.855009	2534.644263
849.169490	2532.940353
849.483928	2532.980682
849.798323	2534.162833
850.112675	2533.295754
850.426984	2533.421783
850.741251	2533.767102
851.055474	2534.314067
851.369654	2531.357431
851.683792	2533.973789
851.997887	2533.152081
852.311938	2533.550332
852.625947	2534.213244
852.939914	2530.308871
853.253837	2532.395908
853.567718	2532.857174
853.881555	2534.913965
854.195350	2534.482946
854.509103	2534.230888
854.822812	2534.329191
855.136479	2532.277441
855.450103	2533.336083
855.763685	2532.095960
856.077224	2531.768285
856.390720	2533.414221
856.704173	2533.646114
857.017584	2532.940353
857.330953	2533.041176
857.644278	2533.595703
857.957561	2536.229706
858.270802	2534.845909
858.584000	2532.307688
858.897155	2532.758871
859.210268	2532.156453
859.523339	2533.373892
859.836367	2532.574869
860.149352	2534.243491
860.462295	2533.371372
860.775195	2531.150743
861.088054	2529.202337
861.400869	2531.286854
861.713642	2530.548325
862.026373	2532.708460
862.339062	2532.481608
862.651708	2532.584952
862.964312	2531.717873
863.276873	2534.130065
863.589392	2531.463295
863.901869	2532.300126
864.214303	2533.477236
864.526696	2532.872297
864.839045	2533.530168
865.151353	2532.665610
865.463619	2533.106711
865.775842	2534.266176
866.088023	2531.513706
866.400162	2533.293234
866.712258	2533.691485
867.024313	2536.794315
867.336325	2533.227699
867.648296	2534.119983
867.960224	2531.853984
868.272110	2534.830786
868.583954	2532.426155
868.895755	2536.564943
869.207515	2533.078985
869.519233	2534.742565
869.830909	2533.686444
870.142542	2532.937832
870.454134	2533.736855
870.765684	2535.350024
871.077191	2535.617206
871.388657	2534.200641
871.700081	2534.727442
872.011463	2534.929088
872.322803	2534.593851
872.634101	2533.457071
872.945357	2533.590662
873.256571	2532.857174
873.567744	2536.244829
873.878874	2534.976979
874.189963	2534.969417
874.501010	2537.167360
874.812015	2537.409336
875.122979	2537.943698
875.433900	2535.080323
875.744780	2536.716177
876.055618	2533.883049
876.366415	2537.215251
876.677169	2535.952442
876.987882	2533.613347
877.298554	2531.191072
877.609183	2532.106042
877.919771	2534.931609
878.230317	2532.564787
878.540822	2538.772968
878.851285	2537.825231
879.161707	2540.307999
879.472087	2538.977135
879.782425	2543.501570
880.092722	2550.982642
880.402977	2558.592264
880.713191	2572.410067
881.023363	2584.468507
881.333494	2596.854622
881.643583	2599.725559
881.953631	2596.647935
882.263637	2591.470670
882.573602	2589.406317
882.883526	2578.925758
883.193408	2571.742114
883.503248	2565.178532
883.813048	2560.132337
884.122806	2557.357182
884.432522	2554.927345
884.742197	2551.078424
885.051831	2548.910728
885.361424	2545.074410
885.670975	2543.423432
885.980485	2543.383103
886.289954	2543.194060
886.599382	2540.948226
886.908768	2538.667104
887.218113	2537.600900
887.527417	2538.823379
887.836680	2538.530992
888.145901	2537.878163
888.455082	2533.822555
888.764221	2536.199459
889.073319	2535.534027
889.382376	2537.021167
889.691392	2535.471012
890.000366	2537.018646
890.309300	2535.463450
890.618193	2537.535365
890.927044	2534.755168
891.235855	2536.010416
891.544625	2535.407998
891.853353	2535.037473
892.162041	2536.862371
892.470687	2536.524613
892.779293	2538.697351
893.087858	2538.220962
893.396381	2537.207690
893.704864	2541.717002
894.013306	2543.466282
894.321707	2549.797971
894.630068	2553.178065
894.938387	2556.001111
895.246665	2553.878785
895.554903	2554.708055
895.863100	2550.531459
896.171256	2546.369987
896.479371	2546.869061
896.787446	2542.700027
897.095480	2542.621889
897.403473	2540.935623
897.711425	2541.442259
898.019336	2539.337577
898.327207	2541.709440
898.635038	2535.579397
898.942827	2536.925385
899.250576	2538.082330
899.558284	2534.833306
899.865952	2537.164840
900.173579	2538.072247
900.481165	2536.638039
900.788711	2534.160312
901.096216	2533.872966
901.403681	2535.002185
901.711105	2534.240971
902.018489	2536.408667
902.325832	2537.084181
902.633135	2533.078985
902.940397	2538.036959
903.247619	2536.436393
903.554800	2542.634492
903.861941	2547.892415
904.169041	2558.476318
904.476101	2566.912689
904.783121	2565.385219
905.090100	2556.200237
905.397039	2555.350802
905.703938	2548.542724
906.010796	2548.492312
906.317614	2542.274049
906.624391	2539.846734
906.931129	2540.060983
907.237826	2535.060158
907.544483	2536.910262
907.851099	2536.713657
908.157675	2536.126362
908.464211	2532.912627
908.770707	2528.698222
909.077163	2532.302647
909.383578	2531.911957
909.689954	2531.702750
909.996289	2529.043541
910.302584	2533.716691
910.608839	2533.104190
910.915054	2531.435568
911.221229	2531.450692
911.527363	2535.382792
911.833458	2531.004550
912.139513	2533.520086
912.445527	2532.660569
912.751502	2532.857174
913.057436	2533.759540
913.363331	2534.475384
913.669186	2536.075951
913.975000	2535.528985
914.280775	2535.586959
914.586510	2541.916127
914.892205	2540.189532
915.197859	2544.603062
915.503475	2549.916438
915.809050	2559.280382
916.114585	2561.679971
916.420081	2561.460681
916.725536	2561.790876
917.030952	2555.814588
917.336328	2551.534649
917.641665	2551.335523
917.946961	2549.999618
918.252218	2543.045346
918.557435	2541.913607
918.862612	2543.022661
919.167750	2540.852444
919.472848	2539.776158
919.777906	2537.411856
920.082925	2536.648122
920.387904	2536.519572
920.692843	2535.468492
920.997743	2533.686444
921.302603	2535.617206
921.607423	2532.738707
921.912204	2536.408667
922.216946	2534.102339
922.521647	2533.724252
922.826310	2531.730476
923.130932	2537.918492
923.435516	2532.650487
923.740059	2531.327184
924.044564	2530.805424
924.349028	2531.964890
924.653454	2526.926256
924.957840	2528.123530
925.262186	2527.377440
925.566493	2529.943387
925.870761	2528.264683
926.174989	2530.034128
926.479178	2531.606968
926.783328	2531.964890
927.087438	2529.852646
927.391509	2529.749302
927.695541	2527.974816
927.999533	2532.050589
928.303486	2529.769467
928.607400	2530.649148
928.911275	2529.255269
929.215110	2532.920188
929.518906	2532.191742
929.822663	2529.106555
930.126381	2530.860877
930.430060	2529.267872
930.733699	2530.497914
931.037299	2528.546987
931.340861	2530.649148
931.644383	2527.987419
931.947866	2529.958510
932.251309	2532.637884
932.554714	2528.617563
932.858080	2529.570342
933.161407	2526.838036
933.464694	2530.200486
933.767943	2528.713345
934.071153	2529.920702
934.374323	2528.352903
934.677455	2532.176618
934.980548	2529.923222
935.283602	2529.386339
935.586617	2529.179652
935.889593	2529.131761
936.192530	2531.758202
936.495428	2528.468849
936.798287	2531.417924
937.101108	2530.407173
937.403890	2531.329704
937.706632	2532.101001
938.009336	2530.523120
938.312002	2532.927750
938.614628	2530.558408
938.917216	2531.639735
939.219765	2534.243491
939.522275	2532.862215
939.824747	2532.839530
940.127179	2529.232584
940.429573	2526.485155
940.731929	2532.093439
941.034246	2527.556401
941.336524	2532.116124
941.638763	2529.623274
941.940964	2531.344828
942.243126	2532.572349
942.545250	2529.933305
942.847335	2531.428007
943.149381	2530.699560
943.451389	2527.198479
943.753359	2531.581762
944.055290	2528.690660
944.357182	2530.727286
944.659036	2530.034128
944.960851	2530.664272
945.262628	2529.842564
945.564367	2532.678213
945.866067	2528.597399
946.167729	2529.918181
946.469352	2527.861390
946.770937	2532.085877
947.072484	2527.695032
947.373992	2531.485980
947.675462	2529.754344
947.976893	2532.257277
948.278286	2527.810979
948.579641	2528.887265
948.880958	2529.305681
949.182236	2528.766278
949.483476	2527.858870
949.784678	2529.058664
950.085841	2529.214940
950.386967	2533.988913
950.688054	2528.090763
950.989103	2528.083201
951.290114	2530.553367
951.591087	2530.273583
951.892021	2528.151257
952.192917	2529.013294
952.493776	2531.037317
952.794596	2532.232071
953.095378	2529.169570
953.396122	2530.412214
953.696828	2528.355423
953.997496	2532.690816
954.298126	2527.889117
954.598718	2530.518078
954.899272	2528.279806
955.199788	2532.166536
955.500266	2531.100332
955.800706	2525.489527
956.101108	2523.495751
956.401472	2526.495238
956.701798	2523.127747
957.002087	2526.762419
957.302337	2528.562111
957.602550	2529.794673
957.902724	2528.186545
958.202861	2528.315094
958.502960	2527.143026
958.803022	2528.176462
959.103045	2527.505989
959.403031	2527.732841
959.702979	2525.481966
960.002889	2525.814682
960.302762	2526.318797
960.602596	2528.917512
960.902393	2528.665454
961.202153	2529.746782
961.501875	2525.749147
961.801559	2528.337779
962.101205	2526.341483
962.400814	2525.706297
962.700385	2527.957172
962.999918	2529.512368
963.299414	2527.727800
963.598873	2528.148736
963.898293	2526.585978
964.197677	2525.519774
964.497022	2527.853829
964.796331	2526.812830
965.095601	2525.139167
965.394835	2528.642769
965.694030	2526.200330
965.993189	2526.202851
966.292309	2525.388704
966.591393	2524.919877
966.890439	2526.028931
967.189447	2525.686133
967.488419	2525.171935
967.787353	2527.826102
968.086249	2527.500948
968.385108	2528.365506
968.683930	2528.509179
968.982714	2527.763088
969.281462	2527.586648
969.580172	2526.843077
969.878844	2527.256452
970.177480	2530.689478
970.476078	2527.642100
970.774639	2529.696370
971.073162	2525.676050
971.371649	2526.611184
971.670098	2524.148581
971.968510	2523.493231
972.266885	2520.075328
972.565223	2527.342152
972.863524	2528.489014
973.161788	2524.630011
973.460014	2528.121010
973.758204	2528.254600
974.056356	2526.389373
974.354471	2526.084384
974.652550	2527.952131
974.950591	2531.246525
975.248595	2528.625125
975.546563	2524.060360
975.844493	2526.885927
976.142386	2527.264014
976.440243	2524.980371
976.738062	2523.931811
977.035845	2526.008766
977.333590	2527.276617
977.631299	2527.016997
977.928971	2526.139836
978.226606	2526.986750
978.524204	2526.313756
978.821765	2526.507841
979.119290	2524.173786
979.416777	2527.901720
979.714228	2527.823582
980.011642	2525.701256
980.309020	2531.669982
980.606360	2525.159332
980.903664	2527.841226
981.200931	2525.149250
981.498162	2526.275948
981.795356	2530.649148
982.092513	2527.800897
982.389633	2525.688653
982.686717	2528.909950
982.983764	2528.534384
983.280775	2532.534540
983.577749	2528.325177
983.874686	2529.048582
984.171587	2528.093283
984.468451	2527.775691
984.765279	2526.049096
985.062070	2530.041689
985.358824	2528.839374
985.655543	2527.896678
985.952224	2525.849970
986.248869	2526.606143
986.545478	2522.270751
986.842050	2523.997346
987.138586	2523.462984
987.435086	2523.765453
987.731549	2522.031296
988.027975	2527.591689
988.324366	2523.304187
988.620719	2529.393901
988.917037	2524.188910
989.213318	2526.081863
989.509563	2523.498272
989.805772	2526.661596
990.101944	2522.608508
990.398080	2526.681760
990.694180	2525.547501
990.990244	2526.258303
991.286271	2526.732172
991.582262	2528.272244
991.878217	2527.190917
992.174136	2525.050947
992.470019	2527.087573
992.765865	2525.658406
993.061676	2526.535567
993.357450	2524.466173
993.653188	2525.202182
993.948890	2524.108251
994.244556	2528.804086
994.540186	2524.226718
994.835780	2525.696215
995.131337	2526.986750
995.426859	2526.495238
995.722345	2525.340813
996.017795	2526.003725
996.313208	2527.868952
996.608586	2528.541946
996.903928	2525.827285
997.199234	2527.236287
997.494504	2527.221164
997.789738	2525.698735
998.084936	2526.220495
998.380099	2525.396266
998.675225	2526.044054
998.970316	2528.698222
999.265371	2527.574045
999.560390	2529.275434
999.855373	2528.420958
1000.150320	2525.035824
1000.445232	2527.596730
1000.740108	2526.341483
1001.034948	2529.139323
1001.329752	2523.949455
1001.624521	2523.059691
1001.919254	2523.939373
1002.213951	2520.745802
1002.508613	2519.876203
1002.803239	2524.214116
1003.097829	2524.070443
1003.392384	2526.046575
1003.686903	2525.751667
1003.981386	2523.757891
1004.275834	2522.979033
1004.570246	2526.749816
1004.864623	2525.224867
1005.158964	2526.054137
1005.453270	2525.030783
1005.747540	2524.055319
1006.041775	2522.704290
1006.335974	2525.587830
1006.630138	2524.083046
1006.924266	2525.310567
1007.218359	2523.362161
1007.512416	2529.151926
1007.806438	2526.659075
1008.100425	2526.646472
1008.394376	2525.938190
1008.688292	2524.521626
1008.982172	2526.286030
1009.276017	2525.393746
1009.569827	2523.654547
1009.863602	2529.363654
1010.157341	2525.597912
1010.451045	2526.661596
1010.744714	2525.484486
1011.038347	2525.940711
1011.331945	2524.055319
1011.625508	2525.401307
1011.919036	2524.554393
1012.212528	2523.364681
1012.505986	2524.637572
1012.799408	2527.929446
1013.092795	2525.398787
1013.386147	2525.013138
1013.679464	2526.790145
1013.972745	2526.064219
1014.265992	2522.807634
1014.559204	2525.918026
1014.852380	2523.205885
1015.145521	2524.776204
1015.438628	2525.413910
1015.731699	2524.141019
1016.024736	2525.774353
1016.317737	2525.267717
1016.610703	2525.751667
1016.903635	2521.718744
1017.196531	2520.453415
1017.489393	2521.554907
1017.782219	2520.219001
1018.075011	2525.610515
1018.367768	2526.016328
1018.660490	2524.786287
1018.953177	2524.786287
1019.245829	2524.786287
