Dividing Wavelength (nm)	Counts (n)	Blue Motor Position (mm): 0.000000	Red Motor Position (mm): 8.000000	
326.493990	2245.834038
326.888308	2245.834038
327.282561	2245.834038
327.676750	2170.216731
328.070874	2087.037692
328.464933	2210.545962
328.858929	2102.161154
329.252859	2230.710577
329.646726	2162.655000
330.040528	2253.395769
330.434265	2112.243462
330.827938	2195.422500
331.221547	2313.889615
331.615091	2205.504808
332.008571	2235.751731
332.401986	2271.039808
332.795338	2306.327885
333.188625	2306.327885
333.581847	2371.862885
333.975006	2371.862885
334.368100	2414.712692
334.761129	2361.780577
335.154095	2447.480192
335.546996	2409.671538
335.939833	2490.330000
336.332606	2442.439038
336.725315	2475.206538
337.117960	2432.356731
337.510540	2560.906154
337.903056	2545.782692
338.295508	2530.659231
338.687896	2578.550192
339.080220	2550.823846
339.472480	2535.700385
339.864676	2608.797115
340.256807	2515.535769
340.648875	2588.632500
341.040879	2570.988462
341.432818	2709.620192
341.824694	2558.385577
342.216506	2659.208654
342.608253	2593.673654
342.999937	2586.111923
343.391557	2518.056346
343.783113	2644.085192
344.174605	2593.673654
344.566033	2555.865000
344.957397	2613.838269
345.348697	2593.673654
345.739934	2576.029615
346.131106	2596.194231
346.522215	2497.891731
346.913260	2555.865000
347.304241	2601.235385
347.695159	2553.344423
348.086012	2563.426731
348.476802	2568.467885
348.867528	2523.097500
349.258191	2616.358846
349.648789	2581.070769
350.039324	2596.194231
350.429796	2518.056346
350.820203	2560.906154
351.210548	2513.015192
351.600828	2626.441154
351.991045	2457.562500
352.381198	2578.550192
352.771288	2490.330000
353.161314	2515.535769
353.551276	2598.714808
353.941175	2558.385577
354.331010	2477.727115
354.720782	2540.741538
355.110490	2442.439038
355.500135	2518.056346
355.889717	2513.015192
356.279235	2533.179808
356.668689	2530.659231
357.058080	2560.906154
357.447408	2417.233269
357.836672	2611.317692
358.225873	2500.412308
358.615010	2570.988462
359.004084	2565.947308
359.393095	2487.809423
359.782043	2621.400000
360.170927	2616.358846
360.559748	2581.070769
360.948505	2533.179808
361.337199	2654.167500
361.725830	2545.782692
362.114398	2578.550192
362.502903	2560.906154
362.891344	2576.029615
363.279722	2631.482308
363.668037	2563.426731
364.056289	2578.550192
364.444478	2525.618077
364.832603	2578.550192
365.220665	2570.988462
365.608665	2535.700385
365.996601	2543.262115
366.384474	2578.550192
366.772284	2608.797115
367.160031	2510.494615
367.547715	2583.591346
367.935336	2631.482308
368.322893	2457.562500
368.710388	2538.220962
369.097820	2581.070769
369.485189	2535.700385
369.872495	2510.494615
370.259738	2543.262115
370.646918	2533.179808
371.034035	2545.782692
371.421090	2598.714808
371.808081	2570.988462
372.195010	2606.276538
372.581875	2616.358846
372.968678	2543.262115
373.355418	2553.344423
373.742096	2550.823846
374.128710	2608.797115
374.515262	2573.509038
374.901751	2570.988462
375.288177	2545.782692
375.674540	2576.029615
376.060841	2593.673654
376.447079	2611.317692
376.833254	2550.823846
377.219367	2563.426731
377.605417	2608.797115
377.991404	2565.947308
378.377329	2550.823846
378.763191	2545.782692
379.148991	2581.070769
379.534727	2603.755962
379.920402	2573.509038
380.306013	2555.865000
380.691563	2608.797115
381.077049	2616.358846
381.462474	2565.947308
381.847835	2540.741538
382.233134	2482.768269
382.618371	2563.426731
383.003545	2528.138654
383.388657	2548.303269
383.773706	2525.618077
384.158693	2450.000769
384.543618	2606.276538
384.928480	2543.262115
385.313280	2603.755962
385.698017	2669.290962
386.082692	2560.906154
386.467305	2593.673654
386.851856	2586.111923
387.236344	2555.865000
387.620770	2482.768269
388.005133	2565.947308
388.389435	2591.153077
388.773674	2543.262115
389.157851	2593.673654
389.541965	2560.906154
389.926018	2518.056346
390.310008	2611.317692
390.693936	2601.235385
391.077802	2570.988462
391.461606	2631.482308
391.845348	2573.509038
392.229027	2581.070769
392.612645	2510.494615
392.996200	2515.535769
393.379694	2581.070769
393.763125	2676.852692
394.146494	2586.111923
394.529801	2586.111923
394.913047	2639.044038
395.296230	2606.276538
395.679351	2603.755962
396.062410	2568.467885
396.445408	2608.797115
396.828343	2573.509038
397.211217	2558.385577
397.594028	2591.153077
397.976778	2628.961731
398.359466	2674.332115
398.742092	2565.947308
399.124656	2518.056346
399.507158	2611.317692
399.889598	2598.714808
400.271977	2465.124231
400.654294	2467.644808
401.036549	2628.961731
401.418742	2500.412308
401.800874	2639.044038
402.182944	2613.838269
402.564952	2518.056346
402.946898	2543.262115
403.328783	2596.194231
403.710606	2608.797115
404.092367	2510.494615
404.474067	2568.467885
404.855705	2455.041923
405.237282	2568.467885
405.618797	2608.797115
406.000250	2570.988462
406.381642	2583.591346
406.762972	2603.755962
407.144240	2694.496731
407.525447	2538.220962
407.906593	2596.194231
408.287677	2586.111923
408.668700	2636.523462
409.049661	2530.659231
409.430560	2588.632500
409.811399	2553.344423
410.192176	2608.797115
410.572891	2634.002885
410.953545	2651.646923
411.334138	2573.509038
411.714669	2631.482308
412.095139	2568.467885
412.475547	2616.358846
412.855894	2515.535769
413.236180	2525.618077
413.616405	2581.070769
413.996568	2507.974038
414.376670	2573.509038
414.756711	2623.920577
415.136691	2684.414423
415.516609	2636.523462
415.896466	2623.920577
416.276262	2530.659231
416.655997	2560.906154
417.035670	2545.782692
417.415283	2654.167500
417.794834	2485.288846
418.174324	2601.235385
418.553753	2550.823846
418.933121	2623.920577
419.312428	2555.865000
419.691674	2533.179808
420.070859	2555.865000
420.449983	2570.988462
420.829045	2550.823846
421.208047	2533.179808
421.586988	2576.029615
421.965867	2533.179808
422.344686	2616.358846
422.723444	2621.400000
423.102141	2555.865000
423.480777	2634.002885
423.859352	2591.153077
424.237866	2487.809423
424.616319	2515.535769
424.994712	2583.591346
425.373044	2490.330000
425.751314	2626.441154
426.129524	2573.509038
426.507673	2623.920577
426.885762	2576.029615
427.263789	2560.906154
427.641756	2533.179808
428.019662	2646.605769
428.397508	2530.659231
428.775292	2664.249808
429.153016	2555.865000
429.530679	2601.235385
429.908282	2634.002885
430.285824	2656.688077
430.663305	2560.906154
431.040726	2644.085192
431.418086	2591.153077
431.795385	2631.482308
432.172624	2709.620192
432.549802	2737.346538
432.926920	2550.823846
433.303977	2646.605769
433.680974	2712.140769
434.057910	2538.220962
434.434786	2568.467885
434.811601	2616.358846
435.188355	2588.632500
435.565050	2606.276538
435.941683	2679.373269
436.318257	2618.879423
436.694770	2628.961731
437.071222	2659.208654
437.447614	2689.455577
437.823946	2659.208654
438.200218	2628.961731
438.576429	2659.208654
438.952580	2669.290962
439.328670	2659.208654
439.704700	2654.167500
440.080670	2679.373269
440.456580	2724.743654
440.832429	2694.496731
441.208218	2770.114038
441.583947	2666.770385
441.959616	2744.908269
442.335224	2732.305385
442.710773	2747.428846
443.086261	2765.072885
443.461689	2780.196346
443.837057	2818.005000
444.212365	2888.581154
444.587612	2830.607885
444.962800	2898.663462
445.337927	2891.101731
445.712995	2921.348654
446.088002	2951.595577
446.462949	3092.747885
446.837837	3082.665577
447.212664	3042.336346
447.587431	3213.735577
447.962139	3349.846731
448.336786	3546.451731
448.711374	3531.328269
449.085901	3435.546346
449.460369	3455.710962
449.834776	3589.301538
450.209124	3697.686346
450.583412	3730.453846
450.957640	3909.414808
451.331808	3778.344808
451.705917	3821.194615
452.079965	3808.591731
452.453954	4002.676154
452.827883	4141.307885
453.201752	4171.554808
453.575562	4209.363462
453.949311	4353.036346
454.323001	4501.750385
454.696632	4484.106346
455.070202	4655.505577
455.443713	4978.139423
455.817164	5149.538654
456.190556	5285.649808
456.563888	5391.514038
456.937160	5628.448269
457.310373	5497.378269
457.683526	5593.160192
458.056619	5741.874231
458.429653	5966.205577
458.802628	5948.561538
459.175542	6190.536923
459.548398	6540.897115
459.921194	6873.613269
460.293930	7095.424038
460.666607	7723.047692
461.039224	8297.739231
461.411782	8547.276346
461.784280	8663.222885
462.156719	8930.404038
462.529099	8887.554231
462.901419	8766.566538
463.273680	8678.346346
463.645882	8837.142692
464.018024	8799.334038
464.390106	9328.655192
464.762130	9868.058654
465.134094	10659.519808
465.505999	12257.565577
465.877845	14526.084808
466.249631	16010.704615
466.621358	15841.825962
466.993026	15183.955385
467.364634	14954.582885
467.736184	14344.603269
468.107674	13974.078462
468.479105	14397.535385
468.850477	14034.572308
469.221790	14135.395385
469.593043	13951.393269
469.964238	13525.415769
470.335373	13923.666923
470.706449	14412.658846
471.077467	14639.510769
471.448425	16754.274808
471.819324	20081.436346
472.190164	20462.043462
472.560945	17707.052885
472.931667	16308.132692
473.302330	16245.118269
473.672934	16406.435192
474.043479	16532.464038
474.413965	16348.461923
474.784393	16325.776731
475.154761	17371.816154
475.525070	17165.128846
475.895321	17152.525962
476.265513	17853.246346
476.635645	18284.265000
477.005719	18561.528462
477.375734	18750.571731
477.745691	19065.643846
478.115588	19562.197500
478.485427	20938.432500
478.855207	21974.389615
479.224928	23796.766731
479.594591	25840.954615
479.964194	24948.670385
480.333739	25450.265192
480.703226	25430.100577
481.072653	25190.645769
481.442022	26587.045385
481.811333	27552.426346
482.180584	26793.732692
482.549777	26324.905385
482.918912	25626.705577
483.287988	26234.164615
483.657005	25677.117115
484.025964	25011.684808
484.394864	25104.946154
484.763706	24366.417115
485.132489	24162.250385
485.501213	24366.417115
485.869879	24532.775192
486.238487	23839.616538
486.607036	24396.664038
486.975527	23937.919038
487.343959	24366.417115
487.712333	23945.480769
488.080648	23338.021731
488.448905	24295.840962
488.817104	23758.958077
489.185244	24416.828654
489.553326	24000.933462
489.921350	25127.631346
490.289315	27431.438654
490.657222	28419.504808
491.025070	28459.834038
491.392861	28222.899808
491.760593	27030.666923
492.128267	25878.763269
492.495883	24658.804038
492.863440	23670.737885
493.230939	23123.772692
493.598380	22483.546154
493.965763	22183.597500
494.333088	21543.370962
494.700354	21351.807115
495.067563	20807.362500
495.434713	20522.537308
495.801805	20688.895385
496.168839	20025.983654
496.535815	20031.024808
496.902733	19663.020577
497.269593	19224.440192
497.636395	18959.779615
498.003139	18934.573846
498.369825	18458.184808
498.736453	18566.569615
499.103023	18332.155962
499.469535	17848.205192
499.835989	17886.013846
500.202385	17520.530192
500.568723	17263.431346
500.935003	16968.523846
501.301226	16600.519615
501.667390	16776.960000
502.033497	16799.645192
502.399546	16580.355000
502.765537	15930.046154
503.131470	15982.978269
503.497345	15763.688077
503.863163	14901.650769
504.228923	14954.582885
504.594625	14785.704231
504.960269	14533.646538
505.325856	14551.290577
505.691385	13727.061923
506.056856	13767.391154
506.422270	13719.500192
506.787625	13245.631731
507.152924	13192.699615
507.518164	13069.191346
507.883347	12595.322885
508.248472	12181.948269
508.613540	12217.236346
508.978550	12086.166346
509.343503	11871.917308
509.708398	11579.530385
510.073236	11448.460385
510.438016	11571.968654
510.802738	11047.688654
511.167403	10946.865577
511.532010	10674.643269
511.896561	10634.314038
512.261053	10604.067115
512.625488	10180.610192
512.989866	9721.865192
513.354186	9565.589423
513.718449	9404.272500
514.082655	9495.013269
514.446803	8945.527500
514.810894	8998.459615
515.174927	8849.745577
515.538904	8653.140577
515.902822	8431.329808
516.266684	8327.986154
516.630488	8098.613654
516.994235	7836.473654
517.357925	7844.035385
517.721558	7627.265769
518.085133	7637.348077
518.448651	7344.961154
518.812112	7193.726538
519.175516	7072.738846
519.538863	7105.506346
519.902152	6732.460962
520.265385	6712.296346
520.628560	6460.238654
520.991678	6465.279808
521.354739	6288.839423
521.717743	6188.016346
522.080690	5991.411346
522.443580	5870.423654
522.806413	5721.709615
523.169189	5794.806346
523.531908	5552.830962
523.894569	5343.623077
524.257174	5383.952308
524.619722	5310.855577
524.982213	5149.538654
525.344647	5018.468654
525.707025	4920.166154
526.069345	4809.260769
526.431608	4731.122885
526.793815	4655.505577
527.155964	4645.423269
527.518057	4531.997308
527.880093	4330.351154
528.242072	4370.680385
528.603995	4292.542500
528.965860	4216.925192
529.327669	4181.637115
529.689421	4121.143269
530.051117	3990.073269
530.412755	4005.196731
530.774337	3856.482692
531.135862	3853.962115
531.497331	3793.468269
531.858743	3753.139038
532.220098	3770.783077
532.581396	3606.945577
532.942638	3559.054615
533.303824	3528.807692
533.664953	3528.807692
534.026025	3478.396154
534.387040	3501.081346
534.747999	3468.313846
535.108902	3347.326154
535.469748	3317.079231
535.830537	3322.120385
536.191270	3241.461923
536.551947	3231.379615
536.912567	3196.091538
537.273131	3170.885769
537.633638	3163.324038
537.994089	3128.035962
538.354483	3117.953654
538.714821	3080.145000
539.075103	3057.459808
539.435328	3173.406346
539.795497	3034.774615
540.155609	2999.486538
540.515665	3017.130577
540.875665	3009.568846
541.235609	2941.513269
541.595496	2984.363077
541.955328	2891.101731
542.315102	2949.075000
542.674821	2951.595577
543.034483	2921.348654
543.394090	2888.581154
543.753640	2926.389808
544.113134	2865.895962
544.472571	2855.813654
544.831953	2855.813654
545.191278	2810.443269
545.550548	2797.840385
545.909761	2807.922692
546.268918	2833.128462
546.628019	2777.675769
546.987064	2739.867115
547.346053	2865.895962
547.704986	2694.496731
548.063863	2782.716923
548.422684	2734.825962
548.781449	2795.319808
549.140158	2787.758077
549.498811	2717.181923
549.857408	2757.511154
550.215949	2676.852692
550.574434	2762.552308
550.932864	2689.455577
551.291237	2689.455577
551.649555	2684.414423
552.007817	2704.579038
552.366022	2742.387692
552.724173	2628.961731
553.082267	2734.825962
553.440305	2681.893846
553.798288	2722.223077
554.156215	2702.058462
554.514086	2709.620192
554.871902	2586.111923
555.229661	2747.428846
555.587365	2631.482308
555.945014	2712.140769
556.302606	2729.784808
556.660143	2689.455577
557.017625	2684.414423
557.375050	2661.729231
557.732421	2631.482308
558.089735	2729.784808
558.446994	2724.743654
558.804197	2666.770385
559.161345	2626.441154
559.518437	2717.181923
559.875474	2674.332115
560.232455	2621.400000
560.589381	2654.167500
560.946251	2659.208654
561.303065	2679.373269
561.659825	2651.646923
562.016528	2646.605769
562.373177	2651.646923
562.729770	2644.085192
563.086307	2603.755962
563.442789	2611.317692
563.799216	2664.249808
564.155587	2666.770385
564.511904	2702.058462
564.868164	2626.441154
565.224370	2560.906154
565.580520	2651.646923
565.936615	2684.414423
566.292654	2656.688077
566.648638	2694.496731
567.004567	2586.111923
567.360441	2591.153077
567.716260	2570.988462
568.072023	2623.920577
568.427732	2621.400000
568.783385	2634.002885
569.138982	2671.811538
569.494525	2666.770385
569.850013	2636.523462
570.205445	2702.058462
570.560823	2646.605769
570.916145	2702.058462
571.271412	2699.537885
571.626625	2679.373269
571.981782	2581.070769
572.336884	2699.537885
572.691931	2691.976154
573.046923	2603.755962
573.401860	2618.879423
573.756743	2641.564615
574.111570	2664.249808
574.466342	2666.770385
574.821059	2681.893846
575.175722	2623.920577
575.530330	2606.276538
575.884882	2681.893846
576.239380	2628.961731
576.593823	2596.194231
576.948211	2697.017308
577.302544	2644.085192
577.656823	2621.400000
578.011047	2649.126346
578.365216	2598.714808
578.719330	2644.085192
579.073389	2691.976154
579.427394	2626.441154
579.781344	2628.961731
580.135239	2608.797115
580.489080	2560.906154
580.842866	2666.770385
581.196597	2639.044038
581.550273	2608.797115
581.903895	2588.632500
582.257463	2717.181923
582.610975	2659.208654
582.964434	2689.455577
583.317837	2578.550192
583.671186	2618.879423
584.024481	2704.579038
584.377721	2689.455577
584.730906	2613.838269
585.084037	2513.015192
585.437113	2684.414423
585.790135	2626.441154
586.143103	2684.414423
586.496016	2686.935000
586.848874	2581.070769
587.201679	2676.852692
587.554428	2613.838269
587.907124	2560.906154
588.259765	2623.920577
588.612352	2656.688077
588.964884	2659.208654
589.317362	2530.659231
589.669786	2686.935000
590.022155	2565.947308
590.374470	2618.879423
590.726731	2608.797115
591.078937	2666.770385
591.431090	2628.961731
591.783188	2654.167500
592.135232	2588.632500
592.487222	2634.002885
592.839157	2679.373269
593.191038	2613.838269
593.542866	2581.070769
593.894639	2689.455577
594.246358	2581.070769
594.598022	2694.496731
594.949633	2722.223077
595.301190	2641.564615
595.652692	2598.714808
596.004141	2651.646923
596.355535	2651.646923
596.706876	2581.070769
597.058162	2565.947308
597.409395	2689.455577
597.760573	2676.852692
598.111698	2712.140769
598.462768	2697.017308
598.813785	2659.208654
599.164748	2709.620192
599.515657	2623.920577
599.866511	2676.852692
600.217312	2634.002885
600.568060	2513.015192
600.918753	2533.179808
601.269392	2646.605769
601.619978	2618.879423
601.970510	2646.605769
602.320988	2616.358846
602.671412	2641.564615
603.021783	2548.303269
603.372100	2674.332115
603.722363	2628.961731
604.072572	2689.455577
604.422728	2631.482308
604.772830	2684.414423
605.122878	2621.400000
605.472872	2573.509038
605.822813	2654.167500
606.172701	2636.523462
606.522534	2676.852692
606.872314	2581.070769
607.222041	2621.400000
607.571714	2707.099615
607.921333	2593.673654
608.270899	2628.961731
608.620411	2611.317692
608.969870	2691.976154
609.319276	2593.673654
609.668627	2611.317692
610.017926	2538.220962
610.367171	2621.400000
610.716362	2646.605769
611.065500	2671.811538
611.414585	2651.646923
611.763616	2578.550192
612.112594	2636.523462
612.461518	2694.496731
612.810389	2671.811538
613.159207	2636.523462
613.507971	2639.044038
613.856682	2664.249808
614.205340	2550.823846
614.553945	2606.276538
614.902496	2623.920577
615.250994	2689.455577
615.599439	2586.111923
615.947830	2712.140769
616.296169	2613.838269
616.644454	2636.523462
616.992686	2664.249808
617.340864	2608.797115
617.688990	2631.482308
618.037063	2707.099615
618.385082	2654.167500
618.733048	2631.482308
619.080961	2709.620192
619.428821	2636.523462
619.776628	2573.509038
620.124382	2616.358846
620.472083	2661.729231
620.819731	2628.961731
621.167326	2613.838269
621.514868	2646.605769
621.862357	2664.249808
622.209793	2707.099615
622.557176	2689.455577
622.904506	2611.317692
623.251783	2679.373269
623.599007	2495.371154
623.946179	2583.591346
624.293297	2649.126346
624.640363	2606.276538
624.987376	2644.085192
625.334336	2492.850577
625.681243	2681.893846
626.028097	2674.332115
626.374899	2618.879423
626.721647	2656.688077
627.068343	2681.893846
627.414987	2646.605769
627.761577	2586.111923
628.108115	2684.414423
628.454600	2623.920577
628.801032	2651.646923
629.147412	2674.332115
629.493739	2664.249808
629.840014	2661.729231
630.186236	2646.605769
630.532405	2656.688077
630.878521	2606.276538
631.224585	2606.276538
631.570597	2646.605769
631.916556	2628.961731
632.262462	2598.714808
632.608316	2578.550192
632.954117	2613.838269
633.299866	2613.838269
633.645562	2578.550192
633.991206	2623.920577
634.336797	2613.838269
634.682336	2626.441154
635.027823	2616.358846
635.373257	2618.879423
635.718639	2525.618077
636.063968	2621.400000
636.409245	2664.249808
636.754470	2639.044038
637.099642	2639.044038
637.444762	2649.126346
637.789829	2611.317692
638.134845	2641.564615
638.479808	2664.249808
638.824719	2659.208654
639.169577	2639.044038
639.514383	2676.852692
639.859137	2596.194231
640.203839	2697.017308
640.548489	2603.755962
640.893086	2603.755962
641.237632	2709.620192
641.582125	2699.537885
641.926566	2669.290962
642.270955	2646.605769
642.615292	2661.729231
642.959576	2593.673654
643.303809	2709.620192
643.647990	2583.591346
643.992118	2704.579038
644.336195	2676.852692
644.680219	2611.317692
645.024192	2684.414423
645.368112	2621.400000
645.711981	2611.317692
646.055797	2664.249808
646.399562	2520.576923
646.743274	2581.070769
647.086935	2611.317692
647.430544	2616.358846
647.774101	2616.358846
648.117606	2631.482308
648.461059	2641.564615
648.804460	2586.111923
649.147810	2644.085192
649.491108	2573.509038
649.834354	2636.523462
650.177548	2581.070769
650.520690	2603.755962
650.863781	2666.770385
651.206820	2626.441154
651.549807	2649.126346
651.892742	2626.441154
652.235626	2576.029615
652.578458	2608.797115
652.921238	2593.673654
653.263967	2618.879423
653.606644	2618.879423
653.949269	2649.126346
654.291843	2659.208654
654.634365	2666.770385
654.976836	2623.920577
655.319255	2674.332115
655.661622	2578.550192
656.003938	2644.085192
656.346203	2669.290962
656.688416	2626.441154
657.030577	2686.935000
657.372687	2618.879423
657.714746	2535.700385
658.056753	2558.385577
658.398708	2598.714808
658.740612	2623.920577
659.082465	2603.755962
659.424266	2639.044038
659.766016	2618.879423
660.107715	2639.044038
660.449362	2772.634615
660.790958	2626.441154
661.132503	2649.126346
661.473996	2664.249808
661.815438	2598.714808
662.156829	2656.688077
662.498168	2644.085192
662.839456	2533.179808
663.180693	2636.523462
663.521879	2639.044038
663.863013	2613.838269
664.204097	2616.358846
664.545129	2621.400000
664.886110	2628.961731
665.227040	2618.879423
665.567918	2596.194231
665.908746	2618.879423
666.249522	2581.070769
666.590248	2634.002885
666.930922	2669.290962
667.271545	2613.838269
667.612118	2573.509038
667.952639	2591.153077
668.293109	2666.770385
668.633528	2598.714808
668.973896	2656.688077
669.314213	2606.276538
669.654480	2686.935000
669.994695	2598.714808
670.334859	2603.755962
670.674973	2659.208654
671.015035	2704.579038
671.355047	2558.385577
671.695008	2649.126346
672.034918	2581.070769
672.374777	2684.414423
672.714585	2616.358846
673.054342	2634.002885
673.394049	2618.879423
673.733705	2661.729231
674.073310	2631.482308
674.412864	2669.290962
674.752368	2676.852692
675.091820	2639.044038
675.431223	2661.729231
675.770574	2651.646923
676.109875	2644.085192
676.449125	2644.085192
676.788324	2568.467885
677.127473	2697.017308
677.466571	2626.441154
677.805619	2651.646923
678.144616	2676.852692
678.483562	2593.673654
678.822458	2553.344423
679.161303	2538.220962
679.500098	2586.111923
679.838842	2573.509038
680.177535	2626.441154
680.516179	2626.441154
680.854771	2664.249808
681.193314	2502.932885
681.531805	2636.523462
681.870247	2598.714808
682.208638	2543.262115
682.546978	2671.811538
682.885268	2621.400000
683.223508	2623.920577
683.561697	2664.249808
683.899836	2616.358846
684.237925	2621.400000
684.575963	2581.070769
684.913951	2611.317692
685.251889	2621.400000
685.589776	2598.714808
685.927614	2631.482308
686.265401	2596.194231
686.603137	2646.605769
686.940824	2611.317692
687.278460	2618.879423
687.616046	2626.441154
687.953582	2518.056346
688.291068	2618.879423
688.628504	2611.317692
688.965889	2729.784808
689.303224	2644.085192
689.640510	2669.290962
689.977745	2613.838269
690.314930	2591.153077
690.652065	2649.126346
690.989150	2676.852692
691.326185	2623.920577
691.663170	2616.358846
692.000105	2676.852692
692.336990	2694.496731
692.673825	2659.208654
693.010610	2712.140769
693.347345	2649.126346
693.684030	2654.167500
694.020665	2646.605769
694.357251	2639.044038
694.693786	2525.618077
695.030272	2639.044038
695.366707	2641.564615
695.703093	2558.385577
696.039429	2603.755962
696.375716	2598.714808
696.711952	2523.097500
697.048139	2651.646923
697.384276	2613.838269
697.720363	2636.523462
698.056400	2538.220962
698.392388	2641.564615
698.728326	2626.441154
699.064214	2555.865000
699.400053	2518.056346
699.735842	2679.373269
700.071581	2656.688077
700.407270	2684.414423
700.742910	2563.426731
701.078501	2654.167500
701.414042	2613.838269
701.749533	2639.044038
702.084974	2631.482308
702.420366	2576.029615
702.755709	2651.646923
703.091002	2616.358846
703.426246	2593.673654
703.761440	2651.646923
704.096584	2583.591346
704.431679	2717.181923
704.766725	2583.591346
705.101721	2621.400000
705.436668	2631.482308
705.771565	2656.688077
706.106413	2639.044038
706.441212	2626.441154
706.775961	2550.823846
707.110661	2717.181923
707.445311	2528.138654
707.779913	2563.426731
708.114465	2613.838269
708.448967	2601.235385
708.783421	2548.303269
709.117825	2613.838269
709.452180	2646.605769
709.786485	2500.412308
710.120742	2621.400000
710.454949	2664.249808
710.789107	2601.235385
711.123216	2588.632500
711.457275	2661.729231
711.791286	2611.317692
712.125247	2626.441154
712.459159	2646.605769
712.793023	2644.085192
713.126837	2671.811538
713.460602	2651.646923
713.794318	2644.085192
714.127985	2603.755962
714.461602	2586.111923
714.795171	2646.605769
715.128691	2686.935000
715.462162	2631.482308
715.795584	2651.646923
716.128957	2634.002885
716.462281	2649.126346
716.795556	2613.838269
717.128782	2550.823846
717.461960	2596.194231
717.795088	2611.317692
718.128167	2659.208654
718.461198	2601.235385
718.794180	2596.194231
719.127113	2588.632500
719.459997	2576.029615
719.792833	2654.167500
720.125619	2606.276538
720.458357	2634.002885
720.791046	2634.002885
721.123686	2548.303269
721.456278	2646.605769
721.788821	2644.085192
722.121315	2641.564615
722.453761	2661.729231
722.786158	2563.426731
723.118506	2603.755962
723.450805	2591.153077
723.783056	2621.400000
724.115259	2626.441154
724.447412	2646.605769
724.779518	2636.523462
725.111574	2505.453462
725.443582	2601.235385
725.775542	2654.167500
726.107453	2623.920577
726.439315	2669.290962
726.771129	2613.838269
727.102895	2641.564615
727.434612	2586.111923
727.766281	2661.729231
728.097901	2679.373269
728.429473	2636.523462
728.760996	2581.070769
729.092471	2618.879423
729.423897	2591.153077
729.755276	2654.167500
730.086606	2709.620192
730.417887	2626.441154
730.749120	2689.455577
731.080305	2596.194231
731.411442	2520.576923
731.742530	2684.414423
732.073570	2634.002885
732.404562	2598.714808
732.735506	2613.838269
733.066401	2651.646923
733.397249	2601.235385
733.728048	2581.070769
734.058798	2578.550192
734.389501	2626.441154
734.720156	2656.688077
735.050762	2616.358846
735.381320	2631.482308
735.711831	2618.879423
736.042293	2608.797115
736.372707	2639.044038
736.703073	2593.673654
737.033391	2626.441154
737.363661	2608.797115
737.693883	2613.838269
738.024056	2644.085192
738.354182	2646.605769
738.684260	2593.673654
739.014290	2694.496731
739.344272	2631.482308
739.674207	2540.741538
740.004093	2598.714808
740.333931	2646.605769
740.663722	2601.235385
740.993464	2565.947308
741.323159	2671.811538
741.652806	2664.249808
741.982405	2583.591346
742.311956	2626.441154
742.641460	2654.167500
742.970915	2616.358846
743.300323	2545.782692
743.629683	2702.058462
743.958996	2664.249808
744.288260	2576.029615
744.617477	2558.385577
744.946647	2568.467885
745.275768	2601.235385
745.604842	2666.770385
745.933869	2639.044038
746.262847	2598.714808
746.591778	2502.932885
746.920662	2646.605769
747.249498	2654.167500
747.578286	2603.755962
747.907027	2608.797115
748.235720	2616.358846
748.564365	2664.249808
748.892963	2596.194231
749.221514	2641.564615
749.550017	2644.085192
749.878473	2598.714808
750.206881	2591.153077
750.535242	2558.385577
750.863555	2606.276538
751.191821	2591.153077
751.520039	2568.467885
751.848210	2530.659231
752.176334	2563.426731
752.504411	2634.002885
752.832440	2596.194231
753.160421	2699.537885
753.488356	2570.988462
753.816243	2621.400000
754.144082	2636.523462
754.471875	2573.509038
754.799620	2608.797115
755.127318	2565.947308
755.454969	2560.906154
755.782572	2649.126346
756.110129	2565.947308
756.437638	2593.673654
756.765100	2639.044038
757.092515	2606.276538
757.419882	2639.044038
757.747203	2593.673654
758.074477	2586.111923
758.401703	2669.290962
758.728882	2628.961731
759.056014	2684.414423
759.383099	2576.029615
759.710138	2593.673654
760.037129	2603.755962
760.364073	2623.920577
760.690970	2576.029615
761.017820	2634.002885
761.344623	2606.276538
761.671379	2586.111923
761.998088	2631.482308
762.324751	2608.797115
762.651366	2646.605769
762.977935	2558.385577
763.304456	2608.797115
763.630931	2586.111923
763.957359	2608.797115
764.283740	2588.632500
764.610074	2553.344423
764.936362	2654.167500
765.262602	2578.550192
765.588796	2628.961731
765.914943	2623.920577
766.241044	2681.893846
766.567097	2646.605769
766.893104	2684.414423
767.219064	2618.879423
767.544978	2681.893846
767.870845	2671.811538
768.196665	2548.303269
768.522438	2631.482308
768.848165	2598.714808
769.173846	2697.017308
769.499479	2485.288846
769.825066	2538.220962
770.150607	2601.235385
770.476101	2608.797115
770.801548	2649.126346
771.126949	2588.632500
771.452303	2628.961731
771.777611	2641.564615
772.102872	2634.002885
772.428087	2628.961731
772.753256	2583.591346
773.078378	2568.467885
773.403453	2591.153077
773.728482	2636.523462
774.053465	2568.467885
774.378401	2621.400000
774.703291	2603.755962
775.028135	2596.194231
775.352932	2628.961731
775.677683	2578.550192
776.002388	2621.400000
776.327046	2545.782692
776.651658	2513.015192
776.976224	2588.632500
777.300743	2563.426731
777.625216	2646.605769
777.949643	2548.303269
778.274024	2550.823846
778.598359	2588.632500
778.922647	2581.070769
779.246889	2623.920577
779.571086	2608.797115
779.895236	2586.111923
780.219339	2593.673654
780.543397	2581.070769
780.867409	2581.070769
781.191374	2588.632500
781.515294	2578.550192
781.839167	2591.153077
782.162995	2616.358846
782.486776	2601.235385
782.810511	2613.838269
783.134201	2644.085192
783.457844	2616.358846
783.781441	2613.838269
784.104993	2591.153077
784.428498	2520.576923
784.751958	2631.482308
785.075372	2568.467885
785.398739	2616.358846
785.722061	2545.782692
786.045337	2621.400000
786.368568	2676.852692
786.691752	2608.797115
787.014891	2583.591346
787.337983	2618.879423
787.661030	2550.823846
787.984031	2583.591346
788.306987	2664.249808
788.629897	2641.564615
788.952760	2598.714808
789.275579	2616.358846
789.598351	2631.482308
789.921078	2636.523462
790.243759	2621.400000
790.566395	2644.085192
790.888984	2639.044038
791.211529	2626.441154
791.534027	2603.755962
791.856480	2636.523462
792.178888	2611.317692
792.501249	2603.755962
792.823566	2563.426731
793.145836	2611.317692
793.468062	2588.632500
793.790241	2616.358846
794.112375	2596.194231
794.434464	2586.111923
794.756507	2611.317692
795.078505	2618.879423
795.400457	2613.838269
795.722364	2689.455577
796.044226	2613.838269
796.366042	2611.317692
796.687812	2558.385577
797.009538	2596.194231
797.331218	2634.002885
797.652852	2616.358846
797.974442	2596.194231
798.295986	2573.509038
798.617484	2649.126346
798.938938	2555.865000
799.260346	2623.920577
799.581709	2628.961731
799.903026	2651.646923
800.224299	2608.797115
800.545526	2613.838269
800.866708	2661.729231
801.187845	2623.920577
801.508936	2606.276538
801.829983	2583.591346
802.150984	2576.029615
802.471940	2621.400000
802.792851	2661.729231
803.113717	2644.085192
803.434538	2586.111923
803.755314	2558.385577
804.076045	2641.564615
804.396731	2707.099615
804.717372	2626.441154
805.037967	2608.797115
805.358518	2679.373269
805.679024	2586.111923
805.999485	2568.467885
806.319901	2588.632500
806.640272	2588.632500
806.960598	2623.920577
807.280879	2502.932885
807.601115	2654.167500
807.921306	2608.797115
808.241453	2603.755962
808.561554	2591.153077
808.881611	2606.276538
809.201623	2661.729231
809.521590	2623.920577
809.841513	2626.441154
810.161390	2611.317692
810.481223	2623.920577
810.801011	2671.811538
811.120755	2616.358846
811.440453	2578.550192
811.760107	2505.453462
812.079716	2611.317692
812.399281	2616.358846
812.718801	2639.044038
813.038276	2618.879423
813.357707	2548.303269
813.677093	2576.029615
813.996434	2613.838269
814.315731	2623.920577
814.634983	2593.673654
814.954191	2623.920577
815.273354	2669.290962
815.592473	2606.276538
815.911547	2515.535769
816.230577	2565.947308
816.549562	2596.194231
816.868502	2588.632500
817.187399	2598.714808
817.506250	2568.467885
817.825058	2603.755962
818.143821	2583.591346
818.462539	2583.591346
818.781213	2543.262115
819.099843	2613.838269
819.418429	2616.358846
819.736970	2535.700385
820.055466	2581.070769
820.373919	2616.358846
820.692327	2626.441154
821.010691	2613.838269
821.329011	2593.673654
821.647286	2712.140769
821.965517	2729.784808
822.283704	2654.167500
822.601847	2752.470000
822.919945	2702.058462
823.237999	2686.935000
823.556010	2729.784808
823.873976	2646.605769
824.191897	2656.688077
824.509775	2707.099615
824.827609	2593.673654
825.145398	2664.249808
825.463144	2684.414423
825.780845	2618.879423
826.098502	2699.537885
826.416116	2641.564615
826.733685	2631.482308
827.051210	2646.605769
827.368692	2649.126346
827.686129	2639.044038
828.003522	2555.865000
828.320872	2681.893846
828.638177	2623.920577
828.955439	2664.249808
829.272656	2558.385577
829.589830	2689.455577
829.906960	2631.482308
830.224046	2591.153077
830.541088	2661.729231
830.858086	2513.015192
831.175041	2689.455577
831.491952	2596.194231
831.808819	2702.058462
832.125642	2651.646923
832.442421	2641.564615
832.759157	2613.838269
833.075849	2644.085192
833.392497	2555.865000
833.709101	2611.317692
834.025662	2626.441154
834.342179	2651.646923
834.658653	2671.811538
834.975083	2628.961731
835.291469	2591.153077
835.607811	2623.920577
835.924110	2560.906154
836.240366	2611.317692
836.556578	2684.414423
836.872746	2545.782692
837.188871	2560.906154
837.504952	2591.153077
837.820990	2626.441154
838.136984	2560.906154
838.452935	2583.591346
838.768842	2565.947308
839.084706	2621.400000
839.400526	2603.755962
839.716303	2535.700385
840.032037	2616.358846
840.347727	2623.920577
840.663373	2646.605769
840.978977	2530.659231
841.294537	2684.414423
841.610054	2679.373269
841.925527	2697.017308
842.240957	2628.961731
842.556344	2596.194231
842.871687	2611.317692
843.186987	2608.797115
843.502244	2649.126346
843.817458	2593.673654
844.132629	2598.714808
844.447756	2596.194231
844.762840	2598.714808
845.077881	2558.385577
845.392879	2686.935000
845.707833	2618.879423
846.022745	2699.537885
846.337613	2628.961731
846.652438	2578.550192
846.967221	2644.085192
847.281960	2659.208654
847.596656	2578.550192
847.911309	2553.344423
848.225919	2598.714808
848.540485	2616.358846
848.855009	2694.496731
849.169490	2634.002885
849.483928	2596.194231
849.798323	2674.332115
850.112675	2578.550192
850.426984	2586.111923
850.741251	2606.276538
851.055474	2608.797115
851.369654	2596.194231
851.683792	2583.591346
851.997887	2618.879423
852.311938	2578.550192
852.625947	2588.632500
852.939914	2588.632500
853.253837	2485.288846
853.567718	2649.126346
853.881555	2543.262115
854.195350	2618.879423
854.509103	2628.961731
854.822812	2598.714808
855.136479	2598.714808
855.450103	2525.618077
855.763685	2649.126346
856.077224	2573.509038
856.390720	2568.467885
856.704173	2568.467885
857.017584	2563.426731
857.330953	2608.797115
857.644278	2611.317692
857.957561	2649.126346
858.270802	2588.632500
858.584000	2591.153077
858.897155	2598.714808
859.210268	2515.535769
859.523339	2634.002885
859.836367	2568.467885
860.149352	2636.523462
860.462295	2628.961731
860.775195	2593.673654
861.088054	2626.441154
861.400869	2639.044038
861.713642	2573.509038
862.026373	2588.632500
862.339062	2606.276538
862.651708	2578.550192
862.964312	2533.179808
863.276873	2565.947308
863.589392	2689.455577
863.901869	2618.879423
864.214303	2578.550192
864.526696	2530.659231
864.839045	2593.673654
865.151353	2669.290962
865.463619	2639.044038
865.775842	2618.879423
866.088023	2606.276538
866.400162	2636.523462
866.712258	2608.797115
867.024313	2558.385577
867.336325	2603.755962
867.648296	2664.249808
867.960224	2639.044038
868.272110	2608.797115
868.583954	2628.961731
868.895755	2596.194231
869.207515	2515.535769
869.519233	2563.426731
869.830909	2634.002885
870.142542	2639.044038
870.454134	2588.632500
870.765684	2613.838269
871.077191	2535.700385
871.388657	2550.823846
871.700081	2603.755962
872.011463	2568.467885
872.322803	2601.235385
872.634101	2583.591346
872.945357	2596.194231
873.256571	2576.029615
873.567744	2608.797115
873.878874	2636.523462
874.189963	2611.317692
874.501010	2613.838269
874.812015	2578.550192
875.122979	2623.920577
875.433900	2623.920577
875.744780	2686.935000
876.055618	2586.111923
876.366415	2573.509038
876.677169	2641.564615
876.987882	2646.605769
877.298554	2593.673654
877.609183	2588.632500
877.919771	2626.441154
878.230317	2591.153077
878.540822	2689.455577
878.851285	2636.523462
879.161707	2639.044038
879.472087	2649.126346
879.782425	2646.605769
880.092722	2654.167500
880.402977	2583.591346
880.713191	2618.879423
881.023363	2623.920577
881.333494	2583.591346
881.643583	2565.947308
881.953631	2555.865000
882.263637	2618.879423
882.573602	2676.852692
882.883526	2570.988462
883.193408	2608.797115
883.503248	2613.838269
883.813048	2618.879423
884.122806	2598.714808
884.432522	2611.317692
884.742197	2618.879423
885.051831	2616.358846
885.361424	2598.714808
885.670975	2618.879423
885.980485	2540.741538
886.289954	2689.455577
886.599382	2568.467885
886.908768	2573.509038
887.218113	2613.838269
887.527417	2535.700385
887.836680	2548.303269
888.145901	2588.632500
888.455082	2555.865000
888.764221	2591.153077
889.073319	2533.179808
889.382376	2497.891731
889.691392	2533.179808
890.000366	2528.138654
890.309300	2560.906154
890.618193	2601.235385
890.927044	2518.056346
891.235855	2606.276538
891.544625	2608.797115
891.853353	2626.441154
892.162041	2621.400000
892.470687	2588.632500
892.779293	2603.755962
893.087858	2709.620192
893.396381	2639.044038
893.704864	2636.523462
894.013306	2603.755962
894.321707	2616.358846
894.630068	2563.426731
894.938387	2583.591346
895.246665	2628.961731
895.554903	2631.482308
895.863100	2613.838269
896.171256	2545.782692
896.479371	2545.782692
896.787446	2644.085192
897.095480	2601.235385
897.403473	2586.111923
897.711425	2608.797115
898.019336	2634.002885
898.327207	2581.070769
898.635038	2586.111923
898.942827	2523.097500
899.250576	2618.879423
899.558284	2601.235385
899.865952	2601.235385
900.173579	2639.044038
900.481165	2661.729231
900.788711	2634.002885
901.096216	2576.029615
901.403681	2601.235385
901.711105	2588.632500
902.018489	2636.523462
902.325832	2636.523462
902.633135	2618.879423
902.940397	2636.523462
903.247619	2563.426731
903.554800	2608.797115
903.861941	2623.920577
904.169041	2588.632500
904.476101	2553.344423
904.783121	2596.194231
905.090100	2664.249808
905.397039	2596.194231
905.703938	2618.879423
906.010796	2691.976154
906.317614	2623.920577
906.624391	2626.441154
906.931129	2598.714808
907.237826	2628.961731
907.544483	2656.688077
907.851099	2586.111923
908.157675	2608.797115
908.464211	2623.920577
908.770707	2558.385577
909.077163	2654.167500
909.383578	2568.467885
909.689954	2578.550192
909.996289	2601.235385
910.302584	2568.467885
910.608839	2591.153077
910.915054	2533.179808
911.221229	2563.426731
911.527363	2570.988462
911.833458	2644.085192
912.139513	2550.823846
912.445527	2656.688077
912.751502	2636.523462
913.057436	2621.400000
913.363331	2565.947308
913.669186	2671.811538
913.975000	2563.426731
914.280775	2518.056346
914.586510	2545.782692
914.892205	2608.797115
915.197859	2540.741538
915.503475	2596.194231
915.809050	2613.838269
916.114585	2654.167500
916.420081	2528.138654
916.725536	2545.782692
917.030952	2659.208654
917.336328	2601.235385
917.641665	2596.194231
917.946961	2623.920577
918.252218	2598.714808
918.557435	2598.714808
918.862612	2586.111923
919.167750	2563.426731
919.472848	2570.988462
919.777906	2608.797115
920.082925	2598.714808
920.387904	2603.755962
920.692843	2606.276538
920.997743	2626.441154
921.302603	2523.097500
921.607423	2573.509038
921.912204	2601.235385
922.216946	2578.550192
922.521647	2492.850577
922.826310	2626.441154
923.130932	2555.865000
923.435516	2631.482308
923.740059	2684.414423
924.044564	2581.070769
924.349028	2588.632500
924.653454	2583.591346
924.957840	2611.317692
925.262186	2555.865000
925.566493	2641.564615
925.870761	2603.755962
926.174989	2530.659231
926.479178	2586.111923
926.783328	2573.509038
927.087438	2576.029615
927.391509	2646.605769
927.695541	2666.770385
927.999533	2628.961731
928.303486	2601.235385
928.607400	2573.509038
928.911275	2603.755962
929.215110	2639.044038
929.518906	2644.085192
929.822663	2606.276538
930.126381	2576.029615
930.430060	2661.729231
930.733699	2563.426731
931.037299	2540.741538
931.340861	2558.385577
931.644383	2669.290962
931.947866	2626.441154
932.251309	2596.194231
932.554714	2636.523462
932.858080	2613.838269
933.161407	2583.591346
933.464694	2598.714808
933.767943	2593.673654
934.071153	2487.809423
934.374323	2601.235385
934.677455	2555.865000
934.980548	2603.755962
935.283602	2570.988462
935.586617	2543.262115
935.889593	2540.741538
936.192530	2568.467885
936.495428	2520.576923
936.798287	2545.782692
937.101108	2535.700385
937.403890	2611.317692
937.706632	2583.591346
938.009336	2641.564615
938.312002	2513.015192
938.614628	2583.591346
938.917216	2515.535769
939.219765	2515.535769
939.522275	2611.317692
939.824747	2601.235385
940.127179	2616.358846
940.429573	2558.385577
940.731929	2583.591346
941.034246	2540.741538
941.336524	2540.741538
941.638763	2613.838269
941.940964	2568.467885
942.243126	2671.811538
942.545250	2626.441154
942.847335	2581.070769
943.149381	2555.865000
943.451389	2644.085192
943.753359	2707.099615
944.055290	2659.208654
944.357182	2631.482308
944.659036	2553.344423
944.960851	2606.276538
945.262628	2639.044038
945.564367	2593.673654
945.866067	2712.140769
946.167729	2606.276538
946.469352	2543.262115
946.770937	2618.879423
947.072484	2621.400000
947.373992	2636.523462
947.675462	2634.002885
947.976893	2611.317692
948.278286	2588.632500
948.579641	2641.564615
948.880958	2659.208654
949.182236	2550.823846
949.483476	2470.165385
949.784678	2543.262115
950.085841	2611.317692
950.386967	2563.426731
950.688054	2565.947308
950.989103	2666.770385
951.290114	2581.070769
951.591087	2535.700385
951.892021	2611.317692
952.192917	2598.714808
952.493776	2593.673654
952.794596	2586.111923
953.095378	2628.961731
953.396122	2570.988462
953.696828	2623.920577
953.997496	2591.153077
954.298126	2623.920577
954.598718	2608.797115
954.899272	2505.453462
955.199788	2596.194231
955.500266	2671.811538
955.800706	2570.988462
956.101108	2628.961731
956.401472	2553.344423
956.701798	2598.714808
957.002087	2656.688077
957.302337	2631.482308
957.602550	2543.262115
957.902724	2565.947308
958.202861	2558.385577
958.502960	2583.591346
958.803022	2540.741538
959.103045	2661.729231
959.403031	2563.426731
959.702979	2628.961731
960.002889	2535.700385
960.302762	2611.317692
960.602596	2591.153077
960.902393	2565.947308
961.202153	2553.344423
961.501875	2694.496731
961.801559	2560.906154
962.101205	2641.564615
962.400814	2563.426731
962.700385	2586.111923
962.999918	2666.770385
963.299414	2560.906154
963.598873	2565.947308
963.898293	2656.688077
964.197677	2654.167500
964.497022	2528.138654
964.796331	2570.988462
965.095601	2608.797115
965.394835	2613.838269
965.694030	2581.070769
965.993189	2618.879423
966.292309	2591.153077
966.591393	2583.591346
966.890439	2596.194231
967.189447	2570.988462
967.488419	2538.220962
967.787353	2596.194231
968.086249	2525.618077
968.385108	2553.344423
968.683930	2535.700385
968.982714	2578.550192
969.281462	2634.002885
969.580172	2613.838269
969.878844	2616.358846
970.177480	2628.961731
970.476078	2598.714808
970.774639	2606.276538
971.073162	2545.782692
971.371649	2603.755962
971.670098	2613.838269
971.968510	2563.426731
972.266885	2669.290962
972.565223	2628.961731
972.863524	2555.865000
973.161788	2545.782692
973.460014	2535.700385
973.758204	2588.632500
974.056356	2523.097500
974.354471	2558.385577
974.652550	2553.344423
974.950591	2553.344423
975.248595	2588.632500
975.546563	2576.029615
975.844493	2639.044038
976.142386	2661.729231
976.440243	2616.358846
976.738062	2654.167500
977.035845	2573.509038
977.333590	2618.879423
977.631299	2626.441154
977.928971	2553.344423
978.226606	2631.482308
978.524204	2651.646923
978.821765	2664.249808
979.119290	2573.509038
979.416777	2570.988462
979.714228	2576.029615
980.011642	2555.865000
980.309020	2646.605769
980.606360	2631.482308
980.903664	2606.276538
981.200931	2482.768269
981.498162	2628.961731
981.795356	2598.714808
982.092513	2581.070769
982.389633	2623.920577
982.686717	2570.988462
982.983764	2598.714808
983.280775	2644.085192
983.577749	2636.523462
983.874686	2545.782692
984.171587	2611.317692
984.468451	2588.632500
984.765279	2611.317692
985.062070	2482.768269
985.358824	2528.138654
985.655543	2555.865000
985.952224	2578.550192
986.248869	2550.823846
986.545478	2540.741538
986.842050	2603.755962
987.138586	2664.249808
987.435086	2568.467885
987.731549	2671.811538
988.027975	2621.400000
988.324366	2636.523462
988.620719	2535.700385
988.917037	2623.920577
989.213318	2591.153077
989.509563	2570.988462
989.805772	2639.044038
990.101944	2603.755962
990.398080	2586.111923
990.694180	2586.111923
990.990244	2626.441154
991.286271	2674.332115
991.582262	2596.194231
991.878217	2578.550192
992.174136	2654.167500
992.470019	2593.673654
992.765865	2540.741538
993.061676	2694.496731
993.357450	2543.262115
993.653188	2636.523462
993.948890	2581.070769
994.244556	2565.947308
994.540186	2565.947308
994.835780	2636.523462
995.131337	2623.920577
995.426859	2555.865000
995.722345	2593.673654
996.017795	2593.673654
996.313208	2654.167500
996.608586	2596.194231
996.903928	2654.167500
997.199234	2555.865000
997.494504	2530.659231
997.789738	2681.893846
998.084936	2538.220962
998.380099	2616.358846
998.675225	2618.879423
998.970316	2671.811538
999.265371	2611.317692
999.560390	2578.550192
999.855373	2548.303269
1000.150320	2583.591346
1000.445232	2565.947308
1000.740108	2631.482308
1001.034948	2639.044038
1001.329752	2623.920577
1001.624521	2621.400000
1001.919254	2548.303269
1002.213951	2530.659231
1002.508613	2507.974038
1002.803239	2570.988462
1003.097829	2581.070769
1003.392384	2608.797115
1003.686903	2490.330000
1003.981386	2644.085192
1004.275834	2646.605769
1004.570246	2586.111923
1004.864623	2513.015192
1005.158964	2621.400000
1005.453270	2530.659231
1005.747540	2573.509038
1006.041775	2548.303269
1006.335974	2611.317692
1006.630138	2626.441154
1006.924266	2596.194231
1007.218359	2530.659231
1007.512416	2553.344423
1007.806438	2611.317692
1008.100425	2618.879423
1008.394376	2618.879423
1008.688292	2636.523462
1008.982172	2591.153077
1009.276017	2651.646923
1009.569827	2538.220962
1009.863602	2608.797115
1010.157341	2628.961731
1010.451045	2495.371154
1010.744714	2596.194231
1011.038347	2533.179808
1011.331945	2568.467885
1011.625508	2523.097500
1011.919036	2613.838269
1012.212528	2497.891731
1012.505986	2601.235385
1012.799408	2639.044038
1013.092795	2550.823846
1013.386147	2626.441154
1013.679464	2608.797115
1013.972745	2611.317692
1014.265992	2523.097500
1014.559204	2581.070769
1014.852380	2603.755962
1015.145521	2623.920577
1015.438628	2621.400000
1015.731699	2540.741538
1016.024736	2666.770385
1016.317737	2520.576923
1016.610703	2641.564615
1016.903635	2545.782692
1017.196531	2565.947308
1017.489393	2513.015192
1017.782219	2586.111923
1018.075011	2641.564615
1018.367768	2588.632500
1018.660490	2588.632500
1018.953177	2588.632500
1019.245829	2588.632500
