Dividing Wavelength (nm)	Counts (n)	Blue Motor Position (mm): 0.000000	Red Motor Position (mm): 15.000000	
326.493990	2082.999728
326.888308	2082.999728
327.282561	2082.999728
327.676750	2059.636501
328.070874	2061.620195
328.464933	2067.593962
328.858929	2076.902453
329.252859	2091.357961
329.646726	2106.219283
330.040528	2121.597323
330.434265	2141.189767
330.827938	2157.944042
331.221547	2180.107475
331.615091	2199.117666
332.008571	2221.029041
332.401986	2240.588718
332.795338	2261.368354
333.188625	2280.134049
333.581847	2301.054838
333.975006	2317.544452
334.368100	2332.390650
334.761129	2354.705318
335.154095	2369.042359
335.546996	2385.370656
335.939833	2400.889848
336.332606	2416.056160
336.725315	2427.239960
337.117960	2433.816145
337.510540	2444.067331
337.903056	2450.086469
338.295508	2459.977213
338.687896	2466.092132
339.080220	2473.653863
339.472480	2479.655357
339.864676	2482.145687
340.256807	2481.013948
340.648875	2485.198105
341.040879	2486.057622
341.432818	2486.939824
341.824694	2487.080976
342.216506	2487.388487
342.608253	2488.467294
342.999937	2486.004690
343.391557	2487.075935
343.783113	2482.105357
344.174605	2483.975626
344.566033	2481.419761
344.957397	2480.257775
345.348697	2476.918010
345.739934	2480.582929
346.131106	2478.016982
346.522215	2474.702423
346.913260	2468.211938
347.304241	2472.660756
347.695159	2467.911989
348.086012	2469.220168
348.476802	2464.642801
348.867528	2466.651700
349.258191	2462.938891
349.648789	2463.218675
350.039324	2462.853191
350.429796	2464.541978
350.820203	2459.377315
351.210548	2461.988633
351.600828	2460.877059
351.991045	2458.974023
352.381198	2460.753550
352.771288	2458.462346
353.161314	2458.132150
353.551276	2458.437140
353.941175	2458.575772
354.331010	2459.291616
354.720782	2459.631894
355.110490	2460.781277
355.500135	2459.624332
355.889717	2460.887141
356.279235	2457.849846
356.668689	2461.560135
357.058080	2461.078705
357.447408	2459.795731
357.836672	2460.325052
358.225873	2464.073150
358.615010	2460.428396
359.004084	2467.085240
359.393095	2461.948304
359.782043	2470.329222
360.170927	2467.533902
360.559748	2468.678244
360.948505	2468.753862
361.337199	2467.987606
361.725830	2469.041207
362.114398	2470.460292
362.502903	2470.757720
362.891344	2473.109418
363.279722	2472.685962
363.668037	2473.661425
364.056289	2473.487505
364.444478	2477.354070
364.832603	2473.641260
365.220665	2477.938844
365.608665	2477.122177
365.996601	2478.760552
366.384474	2475.932465
366.772284	2478.427836
367.160031	2478.369863
367.547715	2480.066211
367.935336	2480.628299
368.322893	2482.778352
368.710388	2481.608804
369.097820	2484.567961
369.485189	2484.479741
369.872495	2485.379587
370.259738	2486.796151
370.646918	2487.580051
371.034035	2489.213384
371.421090	2493.279075
371.808081	2493.573982
372.195010	2499.837616
372.581875	2501.723008
372.968678	2508.095026
373.355418	2514.567868
373.742096	2524.337624
374.128710	2534.051927
374.515262	2542.856302
374.901751	2553.011707
375.288177	2568.598955
375.674540	2586.568147
376.060841	2605.343925
376.447079	2629.392749
376.833254	2650.076604
377.219367	2673.621313
377.605417	2704.687423
377.991404	2727.876731
378.377329	2760.818151
378.763191	2797.885755
379.148991	2841.133814
379.534727	2885.498488
379.920402	2927.599685
380.306013	2974.043835
380.691563	3033.758823
381.077049	3086.411154
381.462474	3139.098774
381.847835	3210.080740
382.233134	3274.108435
382.618371	3329.425017
383.003545	3411.522728
383.388657	3485.242041
383.773706	3571.965010
384.158693	3642.299189
384.543618	3733.861666
384.928480	3807.243222
385.313280	3901.752254
385.698017	4004.238912
386.082692	4117.075058
386.467305	4175.794418
386.851856	4293.843118
387.236344	4444.923978
387.620770	4505.281713
388.005133	4613.253146
388.389435	4753.949229
388.773674	4833.720448
389.157851	4958.645281
389.541965	5088.515487
389.926018	5115.316781
390.310008	5283.393891
390.693936	5400.628445
391.077802	5513.850239
391.461606	5640.741123
391.845348	5749.748513
392.229027	5865.337130
392.612645	6077.446198
392.996200	6193.702768
393.379694	6361.369024
393.763125	6576.885913
394.146494	6657.564539
394.529801	6789.978006
394.913047	7023.940477
395.296230	7020.451998
395.679351	7070.256078
396.062410	7315.669529
396.445408	7219.227215
396.828343	7369.524176
397.211217	7494.539750
397.594028	7388.035293
397.976778	7587.057526
398.359466	7748.760097
398.742092	7730.375009
399.124656	7864.552881
399.507158	8049.578350
399.889598	8067.091319
400.271977	8270.098584
400.654294	8298.200496
401.036549	8492.363057
401.418742	8509.291252
401.800874	8797.123493
402.182944	8873.991006
402.564952	9214.210918
402.946898	9036.565697
403.328783	9082.450280
403.710606	9252.367411
404.092367	9486.352567
404.474067	9808.343666
404.855705	9594.578578
405.237282	9523.062249
405.618797	9907.934181
406.000250	10105.537329
406.381642	10404.969265
406.762972	10316.318054
407.144240	10100.460887
407.525447	10288.178333
407.906593	10185.356439
408.287677	10372.589934
408.668700	10444.353279
409.049661	10366.636331
409.430560	10435.551425
409.811399	10339.678761
410.192176	10401.523636
410.572891	10391.050639
410.953545	10699.314676
411.334138	10177.290592
411.714669	10567.732999
412.095139	9926.571327
412.475547	10224.866482
412.855894	10010.095684
413.236180	10151.736984
413.616405	9797.865628
413.996568	9899.623839
414.376670	9758.632848
414.756711	9556.003669
415.136691	9636.936873
415.516609	9628.003949
415.896466	9553.876302
416.276262	9602.951935
416.655997	9759.656202
417.035670	9653.582763
417.415283	9903.714735
417.794834	9786.782651
418.174324	9472.065937
418.553753	9263.571376
418.933121	9387.911435
419.312428	9115.303479
419.691674	8901.833299
420.070859	8988.987287
420.449983	8637.397053
420.829045	8755.155887
421.208047	8467.197617
421.586988	8515.312910
421.965867	8454.246893
422.344686	8281.269781
422.723444	8353.615380
423.102141	7616.439891
423.480777	7942.421064
423.859352	7572.198725
424.237866	7830.257911
424.616319	7540.787296
424.994712	7596.557581
425.373044	7347.756474
425.751314	7394.543423
426.129524	6944.678415
426.507673	7099.411591
426.885762	6854.550146
427.263789	6725.428552
427.641756	6612.249607
428.019662	6465.995652
428.397508	6310.397917
428.775292	6215.455347
429.153016	6051.330501
429.530679	5912.754223
429.908282	5768.841883
430.285824	5572.574641
430.663305	5553.627464
431.040726	5344.225495
431.418086	5182.832954
431.795385	5152.858254
432.172624	5084.515331
432.549802	4900.165376
432.926920	4801.300787
433.303977	4662.714427
433.680974	4584.231223
434.057910	4503.177031
434.434786	4400.027462
434.811601	4287.796254
435.188355	4290.500833
435.565050	4160.761697
435.941683	4061.370308
436.318257	4038.188562
436.694770	3936.175773
437.071222	3888.660377
437.447614	3738.186976
437.823946	3664.941531
438.200218	3600.253445
438.576429	3520.567926
438.952580	3471.953559
439.328670	3407.704053
439.704700	3370.288610
440.080670	3298.288330
440.456580	3268.054010
440.832429	3224.569017
441.208218	3143.126656
441.583947	3116.408540
441.959616	3081.249013
442.335224	3053.270609
442.710773	3019.537728
443.086261	2999.935201
443.461689	2952.840742
443.837057	2928.746547
444.212365	2916.214239
444.587612	2894.940569
444.962800	2864.376054
445.337927	2853.005731
445.712995	2810.360090
446.088002	2822.395845
446.462949	2812.820173
446.837837	2800.318112
447.212664	2784.821605
447.587431	2808.988896
447.962139	2830.741475
448.336786	2845.844772
448.711374	2818.050370
449.085901	2770.855088
449.460369	2759.109200
449.834776	2747.854824
450.209124	2764.291506
450.583412	2756.308839
450.957640	2749.137797
451.331808	2734.851167
451.705917	2717.907849
452.079965	2715.770400
452.453954	2713.121274
452.827883	2707.601210
453.201752	2701.705581
453.575562	2699.903368
453.949311	2705.052907
454.323001	2705.050386
454.696632	2695.633511
455.070202	2706.988710
455.443713	2701.975282
455.817164	2703.918647
456.190556	2702.360931
456.563888	2698.207020
456.937160	2693.143181
457.310373	2687.885257
457.683526	2687.033302
458.056619	2685.284022
458.429653	2681.626665
458.802628	2685.132787
459.175542	2685.364681
459.548398	2688.825433
459.921194	2697.730631
460.293930	2705.496528
460.666607	2711.180429
461.039224	2723.223746
461.411782	2725.509909
461.784280	2715.770400
462.156719	2709.859647
462.529099	2708.856457
462.901419	2696.674509
463.273680	2692.823068
463.645882	2693.019673
464.018024	2688.908612
464.390106	2697.929757
464.762130	2713.146479
465.134094	2735.645149
465.505999	2765.861825
465.877845	2794.132616
466.249631	2799.816517
466.621358	2789.802265
466.993026	2779.500667
467.364634	2766.852412
467.736184	2758.186668
468.107674	2747.640575
468.479105	2743.791654
468.850477	2740.242681
469.221790	2734.694892
469.593043	2724.461349
469.964238	2719.831049
470.335373	2722.414641
470.706449	2731.516444
471.077467	2748.638723
471.448425	2776.896911
471.819324	2796.441464
472.190164	2786.616256
472.560945	2768.132865
472.931667	2748.111922
473.302330	2741.676890
473.672934	2736.703791
474.043479	2741.162692
474.413965	2740.414081
474.784393	2732.028121
475.154761	2742.516242
475.525070	2739.473905
475.895321	2741.402147
476.265513	2743.108577
476.635645	2753.490834
477.005719	2752.709455
477.375734	2760.631628
477.745691	2762.343100
478.115588	2774.313320
478.485427	2786.180196
478.855207	2811.554844
479.224928	2826.950527
479.594591	2838.157013
479.964194	2832.785663
480.333739	2832.062257
480.703226	2833.065447
481.072653	2840.770851
481.442022	2841.847137
481.811333	2843.672035
482.180584	2833.710715
482.549777	2829.219047
482.918912	2827.560507
483.287988	2823.482214
483.657005	2815.154227
484.025964	2809.961839
484.394864	2809.704740
484.763706	2806.715336
485.132489	2798.420117
485.501213	2797.311063
485.869879	2796.075981
486.238487	2792.181689
486.607036	2789.144394
486.975527	2787.687501
487.343959	2786.177675
487.712333	2783.279012
488.080648	2780.551747
488.448905	2781.622993
488.817104	2779.767848
489.185244	2783.911677
489.553326	2789.436781
489.921350	2806.163330
490.289315	2821.052377
490.657222	2823.772080
491.025070	2825.037410
491.392861	2816.417037
491.760593	2805.427321
492.128267	2796.801907
492.495883	2785.010648
492.863440	2775.104781
493.230939	2763.810076
493.598380	2759.147008
493.965763	2753.016965
494.333088	2747.925400
494.700354	2744.938516
495.067563	2741.792836
495.434713	2734.962073
495.801805	2739.063051
496.168839	2733.719428
496.535815	2732.998543
496.902733	2731.919736
497.269593	2731.738255
497.636395	2727.027297
498.003139	2730.349417
498.369825	2729.797411
498.736453	2729.603326
499.103023	2724.521843
499.469535	2725.925804
499.835989	2726.467728
500.202385	2721.880278
500.568723	2724.093345
500.935003	2721.890361
501.301226	2719.558827
501.667390	2726.293809
502.033497	2726.979406
502.399546	2722.792727
502.765537	2715.777962
503.131470	2720.138560
503.497345	2719.735267
503.863163	2715.914073
504.228923	2715.097406
504.594625	2717.023127
504.960269	2712.075234
505.325856	2716.869372
505.691385	2710.172199
506.056856	2711.074565
506.422270	2713.592622
506.787625	2714.812581
507.152924	2711.984493
507.518164	2710.855275
507.883347	2706.635829
508.248472	2707.613813
508.613540	2710.701520
508.978550	2710.517518
509.343503	2709.547096
509.708398	2706.255222
510.073236	2709.501725
510.438016	2706.582897
510.802738	2704.710108
511.167403	2705.748586
511.532010	2705.998123
511.896561	2708.546427
512.261053	2711.601366
512.625488	2705.501570
512.989866	2702.842361
513.354186	2700.946887
513.718449	2697.420600
514.082655	2703.785057
514.446803	2701.629963
514.810894	2705.307485
515.174927	2705.574666
515.538904	2700.263811
515.902822	2702.209696
516.266684	2699.169880
516.630488	2699.973944
516.994235	2699.331197
517.357925	2703.003678
517.721558	2697.788604
518.085133	2702.161805
518.448651	2697.173583
518.812112	2695.467153
519.175516	2695.633511
519.538863	2696.049406
519.902152	2694.617718
520.265385	2695.217616
520.628560	2692.366843
520.991678	2690.758715
521.354739	2691.645958
521.717743	2688.175124
522.080690	2687.731502
522.443580	2688.616225
522.806413	2687.592871
523.169189	2688.170083
523.531908	2687.363498
523.894569	2687.799558
524.257174	2685.601615
524.619722	2683.247396
524.982213	2683.370904
525.344647	2681.714885
525.707025	2683.685976
526.069345	2680.862930
526.431608	2680.157169
526.793815	2680.802436
527.155964	2679.731191
527.518057	2678.375121
527.880093	2676.386386
528.242072	2677.066941
528.603995	2675.171467
528.965860	2671.299861
529.327669	2674.465706
529.689421	2669.686692
530.051117	2669.041424
530.412755	2670.147958
530.774337	2669.001095
531.135862	2667.284582
531.497331	2664.106135
531.858743	2660.479025
532.220098	2661.923315
532.581396	2661.509941
532.942638	2657.391318
533.303824	2659.445588
533.664953	2658.996925
534.026025	2658.071874
534.387040	2662.515651
534.747999	2658.265958
535.108902	2661.101607
535.469748	2656.146153
535.830537	2657.882830
536.191270	2655.808396
536.551947	2654.628766
536.912567	2655.019455
537.273131	2654.051553
537.633638	2649.902684
537.994089	2651.369660
538.354483	2648.110554
538.714821	2650.961326
539.075103	2652.082983
539.435328	2649.743887
539.795497	2646.618372
540.155609	2648.070224
540.515665	2647.563588
540.875665	2646.729277
541.235609	2645.872281
541.595496	2646.204997
541.955328	2648.375214
542.315102	2643.313896
542.674821	2644.332209
543.034483	2644.186015
543.394090	2639.091929
543.753640	2641.645274
544.113134	2643.555871
544.472571	2639.104532
544.831953	2642.875315
545.191278	2640.503452
545.550548	2637.569501
545.909761	2637.153606
546.268918	2638.320633
546.628019	2637.723256
546.987064	2638.355921
547.346053	2636.427680
547.704986	2637.095632
548.063863	2636.064717
548.422684	2635.079171
548.781449	2635.066568
549.140158	2634.189407
549.498811	2633.884417
549.857408	2634.086064
550.215949	2629.488531
550.574434	2630.259828
550.932864	2629.788480
551.291237	2630.527009
551.649555	2630.383336
552.007817	2632.611526
552.366022	2630.597585
552.724173	2632.172946
553.082267	2633.551701
553.440305	2627.441823
553.798288	2628.926443
554.156215	2629.914509
554.514086	2629.917029
554.871902	2628.248407
555.229661	2628.334107
555.587365	2626.327728
555.945014	2629.009622
556.302606	2627.028448
556.660143	2628.858387
557.017625	2625.533746
557.375050	2625.165742
557.732421	2626.720938
558.089735	2626.852008
558.446994	2626.229425
558.804197	2628.520630
559.161345	2625.180865
559.518437	2625.072481
559.875474	2622.912346
560.232455	2626.042903
560.589381	2622.549383
560.946251	2626.297481
561.303065	2625.700104
561.659825	2624.142388
562.016528	2623.313118
562.373177	2621.092490
562.729770	2622.935031
563.086307	2623.565176
563.442789	2620.976543
563.799216	2621.445370
564.155587	2622.105762
564.511904	2623.154322
564.868164	2618.675256
565.224370	2620.091821
565.580520	2618.450925
565.936615	2624.175155
566.292654	2617.442694
566.648638	2622.725823
567.004567	2620.525360
567.360441	2621.659619
567.716260	2620.545524
568.072023	2621.818416
568.427732	2615.524535
568.783385	2614.077724
569.138982	2613.172837
569.494525	2614.523866
569.850013	2613.182919
570.205445	2619.045781
570.560823	2619.431429
570.916145	2615.658126
571.271412	2616.459669
571.626625	2614.788527
571.981782	2617.314145
572.336884	2616.404217
572.691931	2617.218363
573.046923	2612.640995
573.401860	2612.083948
573.756743	2611.751232
574.111570	2611.834411
574.466342	2610.228803
574.821059	2611.468927
575.175722	2613.346757
575.530330	2611.778958
575.884882	2608.875253
576.239380	2605.802670
576.593823	2610.178392
576.948211	2609.921293
577.302544	2609.384410
577.656823	2606.203442
578.011047	2607.814090
578.365216	2606.082454
578.719330	2604.738987
579.073389	2602.021805
579.427394	2606.352156
579.781344	2605.835437
580.135239	2605.227978
580.489080	2604.754110
580.842866	2605.152361
581.196597	2604.315530
581.550273	2607.231837
581.903895	2604.038266
582.257463	2605.142279
582.610975	2604.028184
582.964434	2601.149685
583.317837	2599.806217
583.671186	2602.291506
584.024481	2602.236054
584.377721	2600.275045
584.730906	2600.264962
585.084037	2602.846033
585.437113	2597.431834
585.790135	2597.948552
586.143103	2597.862853
586.496016	2599.090374
586.848874	2594.878490
587.201679	2599.418049
587.554428	2595.526278
587.907124	2594.661720
588.259765	2593.199785
588.612352	2595.864035
588.964884	2596.738675
589.317362	2597.164653
589.669786	2596.516865
590.022155	2593.950917
590.374470	2596.413521
590.726731	2595.856473
591.078937	2594.563417
591.431090	2594.981833
591.783188	2594.402101
592.135232	2592.977975
592.487222	2593.976123
592.839157	2594.949066
593.191038	2593.688777
593.542866	2590.636359
593.894639	2591.463108
594.246358	2588.607294
594.598022	2589.353385
594.949633	2588.750967
595.301190	2590.724579
595.652692	2586.822726
596.004141	2588.503951
596.355535	2590.467480
596.706876	2587.841039
597.058162	2586.235431
597.409395	2586.195102
597.760573	2591.097624
598.111698	2587.538570
598.462768	2585.703590
598.813785	2586.840370
599.164748	2586.762232
599.515657	2585.257447
599.866511	2586.855493
600.217312	2583.992118
600.568060	2582.605801
600.918753	2584.967581
601.269392	2586.694176
601.619978	2585.237283
601.970510	2583.621593
602.320988	2586.235431
602.671412	2583.636717
603.021783	2583.213260
603.372100	2582.336099
603.722363	2583.908939
604.072572	2583.838363
604.422728	2581.857189
604.772830	2578.656057
605.122878	2581.421129
605.472872	2578.000707
605.822813	2577.025243
606.172701	2579.318968
606.522534	2582.293249
606.872314	2582.643609
607.222041	2582.162179
607.571714	2582.119329
607.921333	2581.053125
608.270899	2582.386510
608.620411	2581.698393
608.969870	2580.581777
609.319276	2580.425502
609.668627	2582.189905
610.017926	2582.381469
610.367171	2585.519587
610.716362	2581.166551
611.065500	2582.323496
611.414585	2581.650502
611.763616	2581.942889
612.112594	2581.852148
612.461518	2580.475913
612.810389	2581.249730
613.159207	2581.136304
613.507971	2579.066911
613.856682	2584.675194
614.205340	2580.312076
614.553945	2581.789134
614.902496	2581.433732
615.250994	2578.562795
615.599439	2584.864237
615.947830	2582.913311
616.296169	2580.145717
616.644454	2582.348702
616.992686	2583.107395
617.340864	2583.432550
617.688990	2578.227558
618.037063	2582.197467
618.385082	2581.766448
618.733048	2582.913311
619.080961	2582.394072
619.428821	2579.881057
619.776628	2583.271233
620.124382	2585.214598
620.472083	2581.758887
620.819731	2580.183526
621.167326	2582.051274
621.514868	2582.252920
621.862357	2580.145717
622.209793	2580.037333
622.557176	2580.304514
622.904506	2575.288566
623.251783	2574.355952
623.599007	2575.553226
623.946179	2573.831672
624.293297	2576.110274
624.640363	2576.289235
624.987376	2574.441652
625.334336	2575.835531
625.681243	2574.247567
626.028097	2574.862588
626.374899	2573.950139
626.721647	2573.171281
627.068343	2571.563153
627.414987	2571.800087
627.761577	2574.514749
628.108115	2572.684810
628.454600	2571.081723
628.801032	2570.179356
629.147412	2573.660273
629.493739	2568.218347
629.840014	2572.886456
630.186236	2571.721949
630.532405	2573.188925
630.878521	2570.333112
631.224585	2570.108780
631.570597	2570.156671
631.916556	2569.022412
632.262462	2568.619119
632.608316	2568.145251
632.954117	2567.734397
633.299866	2567.116855
633.645562	2568.798080
633.991206	2567.701629
634.336797	2565.506207
634.682336	2567.421845
635.027823	2565.556618
635.373257	2563.887996
635.718639	2568.283882
636.063968	2567.230281
636.409245	2563.835064
636.754470	2563.676268
637.099642	2563.981258
637.444762	2561.571586
637.789829	2561.004456
638.134845	2564.036710
638.479808	2559.582851
638.824719	2562.544529
639.169577	2561.432954
639.514383	2558.899775
639.859137	2560.475135
640.203839	2560.422203
640.548489	2557.158056
640.893086	2557.599157
641.237632	2556.159908
641.582125	2558.544373
641.926566	2551.844680
642.270955	2560.512944
642.615292	2558.529250
642.959576	2556.364074
643.303809	2558.123437
643.647990	2559.166956
643.992118	2556.764846
644.336195	2556.343910
644.680219	2558.675443
645.024192	2559.464384
645.368112	2558.672923
645.711981	2559.388767
646.055797	2559.487069
646.399562	2561.367419
646.743274	2559.960937
647.086935	2560.344065
647.430544	2561.614436
647.774101	2562.501679
648.117606	2562.385732
648.461059	2562.441185
648.804460	2564.805486
649.147810	2561.274158
649.491108	2560.212995
649.834354	2554.380380
650.177548	2557.301729
650.520690	2557.541184
650.863781	2555.134033
651.206820	2560.359189
651.549807	2555.035730
651.892742	2559.368602
652.235626	2555.161759
652.578458	2552.772252
652.921238	2554.105637
653.263967	2554.254351
653.606644	2552.767211
653.949269	2551.491799
654.291843	2553.336861
654.634365	2552.754608
654.976836	2554.065308
655.319255	2555.295350
655.661622	2552.663867
656.003938	2551.126315
656.346203	2549.699669
656.688416	2550.352498
657.030577	2552.749567
657.372687	2550.239072
657.714746	2548.504915
658.056753	2550.415513
658.398708	2546.874102
658.740612	2549.046839
659.082465	2545.737322
659.424266	2548.978784
659.766016	2549.256047
660.107715	2551.857283
660.449362	2549.356870
660.790958	2550.138249
661.132503	2551.953065
661.473996	2549.888712
661.815438	2551.000287
662.156829	2549.787889
662.498168	2551.925338
662.839456	2550.866696
663.180693	2550.007179
663.521879	2553.213353
663.863013	2549.644216
664.204097	2551.154042
664.545129	2551.338044
664.886110	2551.317879
665.227040	2549.334185
665.567918	2551.206974
665.908746	2551.799309
666.249522	2551.254865
666.590248	2549.891233
666.930922	2551.985832
667.271545	2550.982642
667.612118	2551.872406
667.952639	2552.139587
668.293109	2550.677653
668.633528	2549.487940
668.973896	2551.340564
669.314213	2550.415513
669.654480	2552.726882
669.994695	2550.602035
670.334859	2549.122457
670.674973	2548.265461
671.015035	2551.229659
671.355047	2550.276881
671.695008	2549.268650
672.034918	2548.625903
672.374777	2549.351829
672.714585	2551.363250
673.054342	2553.072201
673.394049	2552.384083
673.733705	2552.704197
674.073310	2548.847714
674.412864	2547.305121
674.752368	2550.723023
675.091820	2548.943496
675.431223	2551.653116
675.770574	2547.746222
676.109875	2543.115922
676.449125	2546.420398
676.788324	2545.389482
677.127473	2547.897456
677.466571	2542.125335
677.805619	2544.267826
678.144616	2547.355532
678.483562	2546.269164
678.822458	2546.276725
679.161303	2545.238248
679.500098	2546.193546
679.838842	2544.459389
680.177535	2547.100954
680.516179	2546.478372
680.854771	2547.418547
681.193314	2547.738660
681.531805	2546.906870
681.870247	2550.453321
682.208638	2548.484751
682.546978	2549.649257
682.885268	2551.199412
683.223508	2547.373176
683.561697	2548.736808
683.899836	2549.165307
684.237925	2551.128836
684.575963	2548.164638
684.913951	2548.797302
685.251889	2551.285112
685.589776	2549.414844
685.927614	2548.333516
686.265401	2547.620193
686.603137	2550.002138
686.940824	2546.775800
687.278460	2551.330482
687.616046	2551.340564
687.953582	2553.669577
688.291068	2549.235883
688.628504	2553.961964
688.965889	2549.437529
689.303224	2548.918290
689.640510	2548.973743
689.977745	2548.101623
690.314930	2548.323434
690.652065	2545.986859
690.989150	2545.364277
691.326185	2546.985008
691.663170	2542.369831
692.000105	2544.015768
692.336990	2543.342774
692.673825	2543.675490
693.010610	2544.366128
693.347345	2539.536703
693.684030	2534.248532
694.020665	2537.976466
694.357251	2534.782895
694.693786	2537.162319
695.030272	2539.443441
695.366707	2540.219779
695.703093	2537.895807
696.039429	2540.670962
696.375716	2536.247350
696.711952	2537.994110
697.048139	2534.971938
697.384276	2534.833306
697.720363	2538.614172
698.056400	2539.272042
698.392388	2536.370858
698.728326	2537.270704
699.064214	2533.686444
699.400053	2535.541588
699.735842	2536.857329
700.071581	2535.382792
700.407270	2534.780374
700.742910	2534.994623
701.078501	2533.436907
701.414042	2533.056299
701.749533	2534.530837
702.084974	2534.561084
702.420366	2533.023532
702.755709	2535.223996
703.091002	2531.397760
703.426246	2533.827596
703.761440	2533.300795
704.096584	2533.071423
704.431679	2529.431710
704.766725	2533.227699
705.101721	2531.228881
705.436668	2529.903058
705.771565	2531.062523
706.106413	2532.668131
706.441212	2533.946063
706.775961	2534.427493
707.110661	2533.053779
707.445311	2533.605785
707.779913	2532.907585
708.114465	2533.751979
708.448967	2532.665610
708.783421	2535.428162
709.117825	2533.890610
709.452180	2534.525796
709.786485	2534.271218
710.120742	2536.635519
710.454949	2536.958153
710.789107	2535.617206
711.123216	2535.919675
711.457275	2536.290200
711.791286	2534.162833
712.125247	2536.716177
712.459159	2538.561239
712.793023	2540.799512
713.126837	2536.554860
713.460602	2538.142824
713.794318	2537.701723
714.127985	2538.525951
714.461602	2539.055272
714.795171	2536.917823
715.128691	2533.812472
715.462162	2537.628626
715.795584	2533.157123
716.128957	2532.665610
716.462281	2532.617719
716.795556	2532.751310
717.128782	2533.661238
717.461960	2530.762574
717.795088	2532.390867
718.128167	2531.314581
718.461198	2529.610671
718.794180	2530.409694
719.127113	2526.679240
719.459997	2530.467667
719.792833	2529.955990
720.125619	2529.955990
720.458357	2531.138140
720.791046	2530.129910
721.123686	2528.453726
721.456278	2531.954807
721.788821	2526.606143
722.121315	2529.920702
722.453761	2529.035979
722.786158	2527.095135
723.118506	2528.466329
723.450805	2526.114631
723.783056	2528.647810
724.115259	2530.500434
724.447412	2532.612678
724.779518	2528.582275
725.111574	2529.255269
725.443582	2528.761236
725.775542	2527.919364
726.107453	2527.790814
726.439315	2529.653521
726.771129	2534.500590
727.102895	2527.821061
727.434612	2531.425486
727.766281	2531.612009
728.097901	2526.044054
728.429473	2526.959024
728.760996	2528.914992
729.092471	2526.122192
729.423897	2529.872811
729.755276	2528.935156
730.086606	2533.462112
730.417887	2533.192411
730.749120	2533.071423
731.080305	2534.414890
731.411442	2532.955476
731.742530	2532.655528
732.073570	2531.939684
732.404562	2535.060158
732.735506	2531.138140
733.066401	2531.412883
733.397249	2534.301464
733.728048	2531.974972
734.058798	2531.377595
734.389501	2530.180321
734.720156	2528.100845
735.050762	2527.639580
735.381320	2529.088911
735.711831	2529.030938
736.042293	2525.245032
736.372707	2529.623274
736.703073	2526.550690
737.033391	2529.605630
737.363661	2526.520443
737.693883	2527.959693
738.024056	2530.117307
738.354182	2529.272913
738.684260	2529.519930
739.014290	2529.698891
739.344272	2525.960875
739.674207	2531.256607
740.004093	2532.166536
740.333931	2532.143851
740.663722	2530.107224
740.993464	2529.484642
741.323159	2531.168387
741.652806	2530.208048
741.982405	2527.621936
742.311956	2528.277286
742.641460	2530.273582
742.970915	2526.280989
743.300323	2525.648324
743.629683	2527.705115
743.958996	2528.930115
744.288260	2526.616225
744.617477	2523.568848
744.946647	2524.632531
745.275768	2525.081194
745.604842	2520.334948
745.933869	2521.355781
746.262847	2522.008611
746.591778	2525.194620
746.920662	2521.547345
747.249498	2524.370391
747.578286	2523.493231
747.907027	2529.162008
748.235720	2525.991122
748.564365	2527.253931
748.892963	2524.448529
749.221514	2525.933149
749.550017	2525.262676
749.878473	2523.944414
750.206881	2524.902233
750.535242	2523.457942
750.863555	2525.000536
751.191821	2523.694877
751.520039	2523.571368
751.848210	2526.336441
752.176334	2524.824095
752.504411	2524.839219
752.832440	2524.355268
753.160421	2525.290402
753.488356	2522.122037
753.816243	2522.537932
754.144082	2524.262007
754.471875	2526.845598
754.799620	2522.505164
755.127318	2524.602284
755.454969	2522.787469
755.782572	2523.379805
756.110129	2523.848632
756.437638	2524.390556
756.765100	2523.193282
757.092515	2522.553055
757.419882	2522.343848
757.747203	2524.161183
758.074477	2523.221008
758.401703	2523.619259
758.728882	2524.355268
759.056014	2526.268386
759.383099	2523.253776
759.710138	2526.840557
760.037129	2524.756040
760.364073	2526.018849
760.690970	2525.250073
761.017820	2526.190248
761.344623	2525.492048
761.671379	2527.856349
761.998088	2522.182531
762.324751	2528.272244
762.651366	2532.504293
762.977935	2540.875129
763.304456	2541.051569
763.630931	2545.707075
763.957359	2544.295552
764.283740	2541.144831
764.610074	2537.595858
764.936362	2536.007895
765.262602	2532.562266
765.588796	2528.577234
765.914943	2527.601771
766.241044	2528.766277
766.567097	2525.711338
766.893104	2524.292253
767.219064	2523.284023
767.544978	2522.313601
767.870845	2522.273271
768.196665	2522.863086
768.522438	2520.125740
768.848165	2520.581964
769.173846	2519.467869
769.499479	2521.567510
769.825066	2518.736902
770.150607	2520.032478
770.476101	2521.459125
770.801548	2522.457273
771.126949	2518.144566
771.452303	2521.638086
771.777611	2518.363857
772.102872	2517.708507
772.428087	2519.152797
772.753256	2519.019207
773.078378	2517.277488
773.403453	2517.592560
773.728482	2516.304545
774.053465	2516.909484
774.378401	2514.303207
774.703291	2517.411078
775.028135	2517.458969
775.352932	2516.284381
775.677683	2517.542148
776.002388	2517.025430
776.327046	2514.046108
776.651658	2515.631551
776.976224	2516.851510
777.300743	2514.870337
777.625216	2515.755059
777.949643	2515.218177
778.274024	2517.514422
778.598359	2514.993845
778.922647	2511.583505
779.246889	2515.014010
779.571086	2511.250788
779.895236	2516.357477
780.219339	2517.030471
780.543397	2517.126253
780.867409	2518.991480
781.191374	2514.068793
781.515294	2514.802281
781.839167	2514.842611
782.162995	2515.848321
782.486776	2517.360667
782.810511	2515.772703
783.134201	2516.201202
783.457844	2515.097189
783.781441	2515.535769
784.104993	2517.680780
784.428498	2514.862775
784.751958	2517.237159
785.075372	2513.645337
785.398739	2515.230779
785.722061	2516.932169
786.045337	2515.863444
786.368568	2517.179185
786.691752	2515.860924
787.014891	2515.127436
787.337983	2516.861593
787.661030	2515.946623
787.984031	2519.248579
788.306987	2519.238497
788.629897	2519.341840
788.952760	2520.133302
789.275579	2517.915194
789.598351	2521.118847
789.921078	2519.147756
790.243759	2516.231448
790.566395	2516.191119
790.888984	2516.503671
791.211529	2517.998373
791.534027	2514.812364
791.856480	2514.877899
792.178888	2514.530059
792.501249	2514.950995
792.823566	2517.393434
793.145836	2517.557272
793.468062	2516.047446
793.790241	2517.121212
794.112375	2514.623320
794.434464	2515.560975
794.756507	2516.271778
795.078505	2517.584998
795.400457	2514.721623
795.722364	2511.520490
796.044226	2517.756398
796.366042	2511.384379
796.687812	2514.313289
797.009538	2516.985101
797.331218	2517.864782
797.652852	2516.430574
797.974442	2515.654236
798.295986	2513.305059
798.617484	2514.963598
798.938938	2517.453928
799.260346	2515.581140
799.581709	2515.739936
799.903026	2517.143897
800.224299	2516.995183
800.545526	2513.294976
800.866708	2517.325379
801.187845	2510.973525
801.508936	2515.220697
801.829983	2514.898063
802.150984	2515.250944
802.471940	2516.526356
802.792851	2513.451252
803.113717	2514.900584
803.434538	2513.821777
803.755314	2514.154493
804.076045	2514.179699
804.396731	2514.106602
804.717372	2512.546365
805.037967	2514.537621
805.358518	2513.012672
805.679024	2513.579802
805.999485	2515.006448
806.319901	2514.696417
806.640272	2512.385048
806.960598	2515.830677
807.280879	2514.283043
807.601115	2519.442663
807.921306	2515.908815
808.241453	2515.200533
808.561554	2515.676922
808.881611	2517.458969
809.201623	2516.657426
809.521590	2514.638444
809.841513	2513.433608
810.161390	2513.940244
810.481223	2516.359998
810.801011	2513.476458
811.120755	2514.507374
811.440453	2513.466376
811.760107	2513.952847
812.079716	2510.247599
812.399281	2508.095026
812.718801	2509.819101
813.038276	2510.025788
813.357707	2514.673732
813.677093	2511.916221
813.996434	2517.353105
814.315731	2511.326406
814.634983	2516.735564
814.954191	2514.535100
815.273354	2515.591222
815.592473	2512.712723
815.911547	2516.909484
816.230577	2512.274143
816.549562	2513.660460
816.868502	2515.064421
817.187399	2515.061901
817.506250	2514.575429
817.825058	2516.359998
818.143821	2514.998886
818.462539	2517.360667
818.781213	2518.613394
819.099843	2519.351923
819.418429	2522.313601
819.736970	2522.568179
820.055466	2523.178158
820.373919	2527.231246
820.692327	2533.310878
821.010691	2540.451672
821.329011	2562.342883
821.647286	2594.515527
821.965517	2623.653396
822.283704	2642.441776
822.601847	2646.908238
822.919945	2634.154119
823.237999	2617.236007
823.556010	2602.334356
823.873976	2587.185689
824.191897	2575.530541
824.509775	2564.649211
824.827609	2554.665205
825.145398	2550.090358
825.463144	2546.964843
825.780845	2549.785368
826.098502	2553.034392
826.416116	2561.942111
826.733685	2565.097873
827.051210	2568.684654
827.368692	2563.741803
827.686129	2557.266441
828.003522	2548.094061
828.320872	2536.784233
828.638177	2530.155115
828.955439	2527.763088
829.272656	2525.224867
829.589830	2519.603980
829.906960	2520.955010
830.224046	2522.391738
830.541088	2520.168590
830.858086	2517.254803
831.175041	2518.968795
831.491952	2516.712879
831.808819	2517.814371
832.125642	2516.914525
832.442421	2519.689680
832.759157	2523.193282
833.075849	2531.637215
833.392497	2536.658204
833.709101	2542.095088
834.025662	2537.638708
834.342179	2536.380940
834.658653	2531.216278
834.975083	2525.867614
835.291469	2528.942718
835.607811	2520.798734
835.924110	2519.130112
836.240366	2518.545338
836.556578	2517.849659
836.872746	2516.702796
837.188871	2514.401510
837.504952	2514.482168
837.820990	2512.032167
838.136984	2510.797085
838.452935	2513.224400
838.768842	2515.641633
839.084706	2514.731705
839.400526	2517.902591
839.716303	2517.889988
840.032037	2519.782941
840.347727	2517.960564
840.663373	2522.071625
840.978977	2516.919566
841.294537	2516.775893
841.610054	2514.199863
841.925527	2515.157683
842.240957	2511.580984
842.556344	2510.456807
842.871687	2510.547548
843.186987	2511.369256
843.502244	2509.209121
843.817458	2512.407733
844.132629	2509.199039
844.447756	2507.525376
844.762840	2504.160406
845.077881	2507.379182
845.392879	2506.050838
845.707833	2507.837927
846.022745	2504.604027
846.337613	2507.202742
846.652438	2509.924965
846.967221	2508.095026
847.281960	2506.186949
847.596656	2509.161230
847.911309	2506.668380
848.225919	2507.908503
848.540485	2504.276352
848.855009	2507.583349
849.169490	2507.497649
849.483928	2508.087464
849.798323	2507.064110
850.112675	2512.339678
850.426984	2509.297341
850.741251	2507.394306
851.055474	2506.922958
851.369654	2508.210973
851.683792	2507.535458
851.997887	2508.836076
852.311938	2507.774913
852.625947	2506.746518
852.939914	2508.652074
853.253837	2508.289111
853.567718	2507.147289
853.881555	2507.280880
854.195350	2506.307937
854.509103	2508.626868
854.822812	2508.604183
855.136479	2506.010509
855.450103	2508.251302
855.763685	2505.874398
856.077224	2506.887670
856.390720	2508.800788
856.704173	2505.418173
857.017584	2508.778103
857.330953	2505.987824
857.644278	2508.082423
857.957561	2513.148783
858.270802	2509.715757
858.584000	2504.798112
858.897155	2507.013699
859.210268	2506.126456
859.523339	2509.549399
859.836367	2505.113184
860.149352	2506.880108
860.462295	2509.715757
860.775195	2503.598317
861.088054	2503.744510
861.400869	2504.770385
861.713642	2504.477998
862.026373	2505.080416
862.339062	2510.698782
862.651708	2508.021929
862.964312	2505.534120
863.276873	2507.449758
863.589392	2504.760303
863.901869	2508.105108
864.214303	2507.560664
864.526696	2508.949502
864.839045	2507.157372
865.151353	2507.971518
865.463619	2506.680982
865.775842	2508.432783
866.088023	2507.560664
866.400162	2506.771723
866.712258	2508.790705
867.024313	2508.042094
867.336325	2508.337002
867.648296	2509.524193
867.960224	2506.915396
868.272110	2507.137207
868.583954	2506.267608
868.895755	2509.965294
869.207515	2505.932371
869.519233	2510.504698
869.830909	2508.039573
870.142542	2508.793226
870.454134	2509.743483
870.765684	2509.073010
871.077191	2509.239368
871.388657	2511.160048
871.700081	2508.871364
872.011463	2508.889008
872.322803	2508.488236
872.634101	2510.529903
872.945357	2506.877587
873.256571	2514.214987
873.567744	2510.766838
873.878874	2510.487054
874.189963	2511.379338
874.501010	2509.040242
874.812015	2508.445386
875.122979	2508.805829
875.433900	2508.810870
875.744780	2509.350273
876.055618	2512.611900
876.366415	2511.076869
876.677169	2511.160048
876.987882	2509.181395
877.298554	2505.962618
877.609183	2509.743483
877.919771	2506.615448
878.230317	2510.121570
878.540822	2513.731036
878.851285	2513.642816
879.161707	2512.238855
879.472087	2518.883095
879.782425	2521.025586
880.092722	2523.949455
880.402977	2538.987217
880.713191	2552.759649
881.023363	2568.178018
881.333494	2571.313616
881.643583	2578.963567
881.953631	2574.837383
882.263637	2571.656414
882.573602	2563.797256
882.883526	2558.768705
883.193408	2553.543549
883.503248	2549.326623
883.813048	2543.204142
884.122806	2538.208359
884.432522	2536.869932
884.742197	2528.914992
885.051831	2526.853160
885.361424	2522.618590
885.670975	2523.067253
885.980485	2520.032478
886.289954	2518.560462
886.599382	2514.661129
886.908768	2516.019720
887.218113	2513.731036
887.527417	2513.978053
887.836680	2512.548886
888.145901	2510.608041
888.455082	2510.272805
888.764221	2510.424039
889.073319	2511.286077
889.382376	2511.076869
889.691392	2508.238699
890.000366	2515.838238
890.309300	2508.611744
890.618193	2512.130470
890.927044	2509.531755
891.235855	2510.529903
891.544625	2511.374297
891.853353	2507.870695
892.162041	2512.042250
892.470687	2511.845645
892.779293	2514.315810
893.087858	2511.477640
893.396381	2511.843124
893.704864	2515.308917
894.013306	2518.005935
894.321707	2526.517923
894.630068	2526.275947
894.938387	2528.776360
895.246665	2529.756864
895.554903	2523.276461
895.863100	2524.440968
896.171256	2523.462984
896.479371	2521.133971
896.787446	2519.004083
897.095480	2517.879906
897.403473	2518.772190
897.711425	2514.618279
898.019336	2514.756911
898.327207	2513.907477
898.635038	2514.278001
898.942827	2512.027126
899.250576	2510.441683
899.558284	2511.606190
899.865952	2510.504698
900.173579	2512.120388
900.481165	2508.694923
900.788711	2509.884636
901.096216	2510.645850
901.403681	2510.683659
901.711105	2509.367918
902.018489	2508.828514
902.325832	2510.882784
902.633135	2507.732063
902.940397	2511.505367
903.247619	2509.007475
903.554800	2521.915349
903.861941	2524.244362
904.169041	2528.015146
904.476101	2532.474046
904.783121	2527.652182
905.090100	2529.277955
905.397039	2524.778725
905.703938	2521.733868
906.010796	2522.217819
906.317614	2518.530215
906.624391	2519.805627
906.931129	2515.208094
907.237826	2514.333454
907.544483	2512.601818
907.851099	2512.831190
908.157675	2511.656601
908.464211	2509.493946
908.770707	2508.924296
909.077163	2501.856598
909.383578	2504.906496
909.689954	2502.907679
909.996289	2502.917761
910.302584	2506.161744
910.608839	2507.177536
910.915054	2505.329953
911.221229	2506.307937
911.527363	2507.474964
911.833458	2504.851044
912.139513	2505.334994
912.445527	2508.236178
912.751502	2508.122752
913.057436	2508.813391
913.363331	2505.788698
913.669186	2509.841786
913.975000	2507.739625
914.280775	2510.207270
914.586510	2511.419667
914.892205	2515.571057
915.197859	2520.120699
915.503475	2526.132275
915.809050	2531.506145
916.114585	2529.509848
916.420081	2531.780888
916.725536	2529.814838
917.030952	2529.721576
917.336328	2528.733510
917.641665	2526.386853
917.946961	2525.275278
918.252218	2520.264372
918.557435	2520.707993
918.862612	2520.289577
919.167750	2518.595750
919.472848	2517.269926
919.777906	2514.774555
920.082925	2512.967301
920.387904	2513.791530
920.692843	2510.640809
920.997743	2510.955881
921.302603	2508.029491
921.607423	2510.925634
921.912204	2507.038904
922.216946	2509.866992
922.521647	2507.963956
922.826310	2505.173678
923.130932	2507.301044
923.435516	2505.461023
923.740059	2506.053359
924.044564	2508.778102
924.349028	2505.191322
924.653454	2501.899448
924.957840	2505.408091
925.262186	2503.172339
925.566493	2504.304078
925.870761	2500.815600
926.174989	2506.829697
926.479178	2504.384737
926.783328	2503.111846
927.087438	2507.626199
927.391509	2502.988337
927.695541	2505.418173
927.999533	2505.307268
928.303486	2503.368944
928.607400	2502.428769
928.911275	2503.933554
929.215110	2505.224089
929.518906	2502.438852
929.822663	2504.167967
930.126381	2504.150323
930.430060	2503.323574
930.733699	2502.327946
931.037299	2504.936743
931.340861	2504.994717
931.644383	2505.123266
931.947866	2501.856598
932.251309	2503.815087
932.554714	2503.043790
932.858080	2505.370282
933.161407	2505.236692
933.464694	2503.817607
933.767943	2507.590911
934.071153	2503.240395
934.374323	2502.385919
934.677455	2504.949346
934.980548	2504.321723
935.283602	2503.366424
935.586617	2503.434479
935.889593	2503.013543
936.192530	2504.414984
936.495428	2503.373986
936.798287	2502.595127
937.101108	2506.005468
937.403890	2504.697288
937.706632	2504.762823
938.009336	2505.546723
938.312002	2504.820797
938.614628	2504.601507
938.917216	2505.715602
939.219765	2505.148472
939.522275	2506.416322
939.824747	2505.387927
940.127179	2502.834582
940.429573	2502.053203
940.731929	2500.528254
941.034246	2503.084119
941.336524	2504.656959
941.638763	2503.802484
941.940964	2503.353821
942.243126	2501.786022
942.545250	2502.370796
942.847335	2503.270642
943.149381	2504.480519
943.451389	2502.963132
943.753359	2506.312978
944.055290	2502.562360
944.357182	2503.169819
944.659036	2502.388440
944.960851	2503.590755
945.262628	2505.498832
945.564367	2506.489419
945.866067	2506.108812
946.167729	2503.104284
946.469352	2505.019922
946.770937	2506.204593
947.072484	2503.500014
947.373992	2501.975065
947.675462	2503.812566
947.976893	2503.278204
948.278286	2504.170488
948.579641	2503.096722
948.880958	2502.678306
949.182236	2505.287103
949.483476	2502.532113
949.784678	2505.385406
950.085841	2500.888697
950.386967	2505.788698
950.688054	2500.944149
950.989103	2506.340705
951.290114	2501.357524
951.591087	2502.736280
951.892021	2503.910868
952.192917	2501.604541
952.493776	2505.425735
952.794596	2503.416835
953.095378	2504.089829
953.396122	2502.756444
953.696828	2504.417504
953.997496	2504.258708
954.298126	2501.418018
954.598718	2506.980931
954.899272	2502.491784
955.199788	2505.559326
955.500266	2503.729387
955.800706	2498.443737
956.101108	2498.607575
956.401472	2500.235867
956.701798	2498.600013
957.002087	2500.921464
957.302337	2502.327946
957.602550	2500.929026
957.902724	2500.971876
958.202861	2502.159068
958.502960	2501.929695
958.803022	2502.272493
959.103045	2503.550426
959.403031	2502.327946
959.702979	2503.381547
960.002889	2501.332318
960.302762	2503.348780
960.602596	2502.295179
960.902393	2502.511948
961.202153	2499.330980
961.501875	2501.433141
961.801559	2499.951042
962.101205	2499.746875
962.400814	2499.434324
962.700385	2500.800477
962.999918	2500.805518
963.299414	2503.895745
963.598873	2502.060765
963.898293	2501.980107
964.197677	2502.322905
964.497022	2500.296361
964.796331	2499.517503
965.095601	2502.305261
965.394835	2501.319715
965.694030	2500.976917
965.993189	2504.036897
966.292309	2500.845847
966.591393	2500.593789
966.890439	2499.472133
967.189447	2500.671927
967.488419	2501.294510
967.787353	2501.213851
968.086249	2499.666217
968.385108	2502.832062
968.683930	2500.697133
968.982714	2501.171001
969.281462	2502.159067
969.580172	2499.933398
969.878844	2502.292658
970.177480	2498.809221
970.476078	2500.346773
970.774639	2501.662514
971.073162	2501.647390
971.371649	2499.956083
971.670098	2496.744868
971.968510	2497.911895
972.266885	2498.907523
972.565223	2501.544047
972.863524	2500.896258
973.161788	2500.871053
973.460014	2501.932216
973.758204	2502.370796
974.056356	2501.738131
974.354471	2500.878614
974.652550	2501.932216
974.950591	2503.189983
975.248595	2501.866681
975.546563	2501.110507
975.844493	2502.819459
976.142386	2500.152688
976.440243	2500.535816
976.738062	2499.467091
977.035845	2501.571773
977.333590	2499.388953
977.631299	2499.822493
977.928971	2498.761330
978.226606	2499.199910
978.524204	2501.158398
978.821765	2502.232164
979.119290	2500.825682
979.416777	2499.207472
979.714228	2501.181084
980.011642	2502.332987
980.309020	2503.298368
980.606360	2500.336690
980.903664	2501.390292
981.200931	2499.862822
981.498162	2501.067658
981.795356	2501.375168
982.092513	2504.883811
982.389633	2502.476660
982.686717	2505.372803
982.983764	2502.161588
983.280775	2504.243585
983.577749	2501.947339
983.874686	2505.077896
984.171587	2500.273676
984.468451	2505.234171
984.765279	2502.905158
985.062070	2501.602020
985.358824	2500.918944
985.655543	2503.363903
985.952224	2500.871053
986.248869	2501.181084
986.545478	2497.685043
986.842050	2499.401556
987.138586	2495.701349
987.435086	2498.809221
987.731549	2496.865856
988.027975	2502.096053
988.324366	2498.547081
988.620719	2501.516320
988.917037	2501.584376
989.213318	2499.963645
989.509563	2501.854078
989.805772	2500.676968
990.101944	2497.823675
990.398080	2501.775940
990.694180	2498.715959
990.990244	2499.772081
991.286271	2500.019098
991.582262	2500.314005
991.878217	2502.121259
992.174136	2498.859632
992.470019	2499.711587
992.765865	2498.521875
993.061676	2500.208141
993.357450	2501.932216
993.653188	2499.499859
993.948890	2501.707884
994.244556	2498.536998
994.540186	2499.260404
994.835780	2501.964983
995.131337	2500.712256
995.426859	2500.293841
995.722345	2500.719818
996.017795	2503.058913
996.313208	2504.112515
996.608586	2502.259891
996.903928	2503.091681
997.199234	2501.339880
997.494504	2501.216372
997.789738	2499.814931
998.084936	2501.924654
998.380099	2500.371978
998.675225	2500.760147
998.970316	2501.589417
999.265371	2501.249139
999.560390	2497.062461
999.855373	2502.839623
1000.150320	2500.891217
1000.445232	2501.861639
1000.740108	2498.721001
1001.034948	2499.547750
1001.329752	2500.613954
1001.624521	2504.639315
1001.919254	2497.523727
1002.213951	2498.542040
1002.508613	2497.269148
1002.803239	2497.092708
1003.097829	2495.272851
1003.392384	2501.176043
1003.686903	2499.207472
1003.981386	2501.985148
1004.275834	2497.947183
1004.570246	2502.272493
1004.864623	2499.976248
1005.158964	2502.471619
1005.453270	2497.990033
1005.747540	2500.301402
1006.041775	2497.848881
1006.335974	2499.635970
1006.630138	2498.244612
1006.924266	2500.533295
1007.218359	2498.778974
1007.512416	2500.228306
1007.806438	2498.539519
1008.100425	2498.037924
1008.394376	2495.882831
1008.688292	2500.397184
1008.982172	2499.091525
1009.276017	2500.082112
1009.569827	2498.801659
1009.863602	2498.274858
1010.157341	2498.841988
1010.451045	2499.275528
1010.744714	2499.300733
1011.038347	2497.775784
1011.331945	2496.729745
1011.625508	2498.473984
1011.919036	2498.605054
1012.212528	2499.457009
1012.505986	2497.543891
1012.799408	2500.747544
1013.092795	2496.218068
1013.386147	2499.588079
1013.679464	2498.547081
1013.972745	2498.075733
1014.265992	2500.404746
1014.559204	2497.634632
1014.852380	2501.309633
1015.145521	2501.826351
1015.438628	2499.106649
1015.731699	2500.543378
1016.024736	2498.751248
1016.317737	2500.230826
1016.610703	2501.239057
1016.903635	2496.964158
1017.196531	2496.165136
1017.489393	2495.081287
1017.782219	2497.886690
1018.075011	2501.803666
1018.367768	2499.209992
1018.660490	2496.616319
1018.953177	2496.616319
1019.245829	2496.616319
