Dividing Wavelength (nm)	Counts (n)	Blue Motor Position (mm): 0.000000	Red Motor Position (mm): 47.500000	
326.493990	2076.388255
326.888308	2076.388255
327.282561	2076.388255
327.676750	2054.348330
328.070874	2054.796993
328.464933	2064.024825
328.858929	2073.018243
329.252859	2085.404358
329.646726	2100.444641
330.040528	2114.327979
330.434265	2136.466206
330.827938	2154.725265
331.221547	2174.126146
331.615091	2193.668178
332.008571	2213.056456
332.401986	2236.391957
332.795338	2254.693866
333.188625	2275.866713
333.581847	2292.595782
333.975006	2313.330047
334.368100	2328.687923
334.761129	2346.589060
335.154095	2360.149764
335.546996	2407.110632
335.939833	2497.523727
336.332606	2508.221055
336.725315	2519.866120
337.117960	2528.604961
337.510540	2536.065868
337.903056	2549.016592
338.295508	2554.839125
338.687896	2557.470608
339.080220	2566.123748
339.472480	2570.653225
339.864676	2575.802763
340.256807	2575.656570
340.648875	2579.371900
341.040879	2582.464648
341.432818	2584.561768
341.824694	2585.665781
342.216506	2582.809967
342.608253	2583.230904
342.999937	2581.857189
343.391557	2584.491192
343.783113	2580.906932
344.174605	2578.577919
344.566033	2578.915676
344.957397	2575.855696
345.348697	2576.150603
345.739934	2572.226065
346.131106	2570.905282
346.522215	2567.870508
346.913260	2569.012329
347.304241	2568.392267
347.695159	2563.761968
348.086012	2565.614592
348.476802	2563.923284
348.867528	2562.892368
349.258191	2558.302398
349.648789	2560.828016
350.039324	2556.255689
350.429796	2558.292316
350.820203	2557.299208
351.210548	2556.278375
351.600828	2557.032027
351.991045	2551.537169
352.381198	2552.764690
352.771288	2553.019269
353.161314	2557.226112
353.551276	2554.745864
353.941175	2555.983467
354.331010	2554.992880
354.720782	2558.622511
355.110490	2561.473284
355.500135	2556.704352
355.889717	2556.275854
356.279235	2556.984136
356.668689	2557.936914
357.058080	2562.925136
357.447408	2558.357851
357.836672	2555.106306
358.225873	2559.509754
358.615010	2559.668551
359.004084	2562.650393
359.393095	2559.827347
359.782043	2562.053016
360.170927	2566.930333
360.559748	2566.027966
360.948505	2564.203068
361.337199	2568.099880
361.725830	2569.372772
362.114398	2568.573749
362.502903	2568.730025
362.891344	2573.241857
363.279722	2568.896383
363.668037	2571.643812
364.056289	2572.846127
364.444478	2573.461147
364.832603	2573.193966
365.220665	2574.207238
365.608665	2579.034143
365.996601	2578.426684
366.384474	2578.708989
366.772284	2580.523804
367.160031	2581.937848
367.547715	2581.703434
367.935336	2581.549679
368.322893	2580.405337
368.710388	2583.636717
369.097820	2587.432705
369.485189	2584.788620
369.872495	2588.940010
370.259738	2591.563931
370.646918	2592.463777
371.034035	2591.248859
371.421090	2597.845209
371.808081	2597.988882
372.195010	2601.507607
372.581875	2607.050356
372.968678	2613.508074
373.355418	2619.335648
373.742096	2627.555249
374.128710	2637.478760
374.515262	2650.880668
374.901751	2662.384581
375.288177	2675.620130
375.674540	2693.848942
376.060841	2711.011551
376.447079	2727.604509
376.833254	2754.204157
377.219367	2775.112342
377.605417	2805.361786
377.991404	2832.702484
378.377329	2869.510469
378.763191	2901.357958
379.148991	2946.153651
379.534727	2995.418327
379.920402	3036.080274
380.306013	3083.920824
380.691563	3142.458703
381.077049	3196.015921
381.462474	3243.470823
381.847835	3317.822801
382.233134	3382.001731
382.618371	3437.845112
383.003545	3520.638502
383.388657	3599.036007
383.773706	3684.967515
384.158693	3754.840428
384.543618	3839.862008
384.928480	3916.391765
385.313280	4009.711084
385.698017	4114.405767
386.082692	4227.478848
386.467305	4285.880615
386.851856	4406.520468
387.236344	4553.102098
387.620770	4611.965131
388.005133	4726.238007
388.389435	4868.290160
388.773674	4946.498621
389.157851	5074.148198
389.541965	5199.758628
389.926018	5224.503132
390.310008	5391.864399
390.693936	5508.783880
391.077802	5623.011385
391.461606	5753.443679
391.845348	5859.169278
392.229027	5981.208051
392.612645	6191.923240
392.996200	6308.494882
393.379694	6477.040820
393.763125	6690.957142
394.146494	6776.361850
394.529801	6913.259424
394.913047	7147.539487
395.296230	7148.971175
395.679351	7206.132818
396.062410	7456.620191
396.445408	7356.134871
396.828343	7505.315217
397.211217	7639.397306
397.594028	7529.931171
397.976778	7729.487766
398.359466	7891.951552
398.742092	7879.845221
399.124656	8013.708020
399.507158	8200.026546
399.889598	8223.031851
400.271977	8437.253163
400.654294	8470.683575
401.036549	8660.041917
401.418742	8697.424593
401.800874	8983.613417
402.182944	9072.781347
402.564952	9428.976674
402.946898	9263.147919
403.328783	9319.470210
403.710606	9512.064972
404.092367	9768.503427
404.474067	10124.565164
404.855705	9926.699876
405.237282	9879.144151
405.618797	10303.407659
406.000250	10544.548732
406.381642	10899.456046
406.762972	10850.990392
407.144240	10664.719758
407.525447	10921.206104
407.906593	10858.272339
408.287677	11122.307813
408.668700	11275.964703
409.049661	11260.488361
409.430560	11420.544995
409.811399	11392.985007
410.192176	11559.988352
410.572891	11639.439457
410.953545	12110.515119
411.334138	11599.470669
411.714669	12174.003411
412.095139	11527.319154
412.475547	12006.299346
412.855894	11872.580219
413.236180	12192.343128
413.616405	11896.041749
413.996568	12165.027636
414.376670	12141.961837
414.756711	12028.210721
415.136691	12307.299080
415.516609	12481.196203
415.896466	12562.573029
416.276262	12845.815299
416.655997	13307.947954
417.035670	13351.685005
417.415283	13971.414212
417.794834	14053.731213
418.174324	13804.045383
418.553753	13718.844842
418.933121	14202.047000
419.312428	14038.017936
419.691674	13944.330613
420.070859	14405.797836
420.449983	14059.430237
420.829045	14621.944869
421.208047	14375.916396
421.586988	14827.359285
421.965867	15069.881635
422.344686	15080.233644
422.723444	15654.859648
423.102141	14343.564792
423.480777	15532.566297
423.859352	15023.581157
424.237866	16138.981816
424.616319	15864.339755
424.994712	16496.694531
425.373044	16288.789785
425.751314	16982.986917
426.129524	16121.100843
426.507673	17188.461827
426.885762	16924.653205
427.263789	17099.064525
427.641756	17287.006302
428.019662	17349.665324
428.397508	17408.553562
428.775292	17689.723918
429.153016	17669.266916
429.530679	17744.707783
429.908282	17777.865973
430.285824	17502.256010
430.663305	18224.902893
431.040726	17839.796548
431.418086	17665.012182
431.795385	18311.482190
432.172624	18754.161032
432.549802	18305.699986
432.926920	18529.335653
433.303977	18403.490809
433.680974	18660.123348
434.057910	18963.938567
434.434786	19004.794599
434.811601	18941.991904
435.188355	19980.126798
435.565050	19644.660695
435.941683	19607.209963
436.318257	20505.646922
436.694770	20307.000254
437.071222	20917.093296
437.447614	19972.146651
437.823946	19999.361320
438.200218	20192.868531
438.576429	19965.522575
438.952580	20273.005233
439.328670	20235.277238
439.704700	20668.874442
440.080670	20227.087884
440.456580	20835.945842
440.832429	21015.589880
441.208218	20025.308139
441.583947	20463.679316
441.959616	20585.773542
442.335224	20822.077628
442.710773	20976.987245
443.086261	21527.423271
443.461689	20862.706808
443.837057	21022.965088
444.212365	21690.983508
444.587612	21694.555165
444.962800	21288.265892
445.337927	21720.189433
445.712995	20425.051475
446.088002	22335.000994
446.462949	22537.685626
446.837837	22721.392833
447.212664	22735.271130
447.587431	25686.133219
447.962139	28670.342541
448.336786	30998.536430
448.711374	29346.018473
449.085901	25598.974190
449.460369	25604.032988
449.834776	25593.325577
450.209124	28153.672163
450.583412	27645.269277
450.957640	28144.824938
451.331808	26788.930993
451.705917	25409.540231
452.079965	25457.683250
452.453954	25837.703071
452.827883	25758.604847
453.201752	25549.520470
453.575562	25708.843617
453.949311	26851.826949
454.323001	26925.503413
454.696632	26689.837032
455.070202	28306.315780
455.443713	28500.317024
455.817164	29085.365613
456.190556	29652.439968
456.563888	29056.305882
456.937160	29485.726490
457.310373	27778.486808
457.683526	28203.274596
458.056619	28222.478871
458.429653	28216.459734
458.802628	28822.048504
459.175542	28958.600759
459.548398	30334.876088
459.921194	31966.019553
460.293930	32706.537327
460.666607	34798.114578
461.039224	36613.124047
461.411782	36970.257029
461.784280	35682.191810
462.156719	35127.861492
462.529099	34569.979681
462.901419	33220.901377
463.273680	32165.601354
463.645882	32307.038487
464.018024	32303.580256
464.390106	33227.505288
464.762130	36148.203633
465.134094	40483.351445
465.505999	45989.035015
465.877845	50535.276103
466.249631	51575.460226
466.621358	49729.508155
466.993026	47493.741301
467.364634	45331.595457
467.736184	43367.582083
468.107674	42086.692947
468.479105	41299.103399
468.850477	40561.091079
469.221790	39115.721695
469.593043	37340.943154
469.964238	36425.809893
470.335373	36364.194391
470.706449	38217.877071
471.077467	40983.181849
471.448425	45679.036821
471.819324	48477.860231
472.190164	46483.282341
472.560945	42843.360057
472.931667	39658.598511
473.302330	38565.310874
473.672934	37708.017292
474.043479	38252.897967
474.413965	37439.149872
474.784393	37071.180929
475.154761	38004.578290
475.525070	38053.555621
475.895321	37563.910868
476.265513	38201.644556
476.635645	39197.756391
477.005719	39041.236126
477.375734	39541.810100
477.745691	40283.641094
478.115588	41658.489777
478.485427	43785.042554
478.855207	47263.831918
479.224928	49916.308111
479.594591	51484.048983
479.964194	50385.092568
480.333739	50517.009482
480.703226	50584.558423
481.072653	51247.956625
481.442022	51721.802402
481.811333	51938.191410
482.180584	50660.843684
482.549777	50123.731427
482.918912	49620.931783
483.287988	49299.341456
483.657005	48450.348134
484.025964	47788.336249
484.394864	47785.412380
484.763706	47334.665170
485.132489	46435.066225
485.501213	46284.350849
485.869879	46435.091431
486.238487	46030.601849
486.607036	46211.982565
486.975527	45658.020251
487.343959	45893.283339
487.712333	45952.985724
488.080648	45858.872423
488.448905	46316.752865
488.817104	46119.507639
489.185244	47138.962537
489.553326	48921.103683
489.921350	51667.357940
490.289315	54490.557849
490.657222	55015.064701
491.025070	55250.221925
491.392861	54337.274005
491.760593	53098.264254
492.128267	51399.191241
492.495883	49851.264623
492.863440	48438.022513
493.230939	47054.646718
493.598380	45960.958309
493.965763	45624.378111
494.333088	44809.659594
494.700354	44306.053366
495.067563	44008.897511
495.434713	43854.103841
495.801805	43934.101911
496.168839	43551.760639
496.535815	43214.305801
496.902733	43237.580808
497.269593	42801.851196
497.636395	42739.608069
498.003139	43150.714165
498.369825	42587.440840
498.736453	42897.192018
499.103023	42434.290587
499.469535	42301.262098
499.835989	42387.869121
500.202385	42046.013356
500.568723	42065.381469
500.935003	42256.582352
501.301226	42059.569018
501.667390	42670.496371
502.033497	42930.617388
502.399546	42354.201775
502.765537	41640.918835
503.131470	42024.744727
503.497345	42401.815473
503.863163	41018.911027
504.228923	41667.480675
504.594625	42095.157044
504.960269	41344.221726
505.325856	42044.526215
505.691385	41403.724985
506.056856	41552.560011
506.422270	41991.566373
506.787625	41531.271219
507.152924	41745.013621
507.518164	41836.039216
507.883347	41041.434902
508.248472	41280.342745
508.613540	41789.763944
508.978550	42078.183479
509.343503	41824.709222
509.708398	42019.317925
510.073236	42559.217941
510.438016	42550.395921
510.802738	41993.655932
511.167403	42638.081751
511.532010	42852.298022
511.896561	43151.732478
512.261053	44019.226835
512.625488	43548.153693
512.989866	43415.954475
513.354186	43256.767439
513.718449	43236.864964
514.082655	43923.102114
514.446803	43566.087598
514.810894	44134.656655
515.174927	44022.972412
515.538904	43913.937296
515.902822	44594.094814
516.266684	44021.873441
516.630488	44468.464219
516.994235	44297.743023
517.357925	44888.941820
517.721558	45065.949335
518.085133	45374.803187
518.448651	45484.014744
518.812112	45244.176808
519.175516	45348.107757
519.538863	45674.892993
519.902152	45623.372401
520.265385	46093.981756
520.628560	46121.637526
520.991678	45917.324602
521.354739	46140.642676
521.717743	46445.856815
522.080690	46324.375090
522.443580	46881.808238
522.806413	46925.784744
523.169189	46877.674492
523.531908	47043.341931
523.894569	46887.502221
524.257174	47054.780309
524.619722	47346.229577
524.982213	47319.745876
525.344647	47241.640758
525.707025	47298.184861
526.069345	47716.716576
526.431608	47597.102598
526.793815	47929.397816
527.155964	47454.430383
527.518057	47612.029455
527.880093	47391.690703
528.242072	47912.330990
528.603995	47611.603477
528.965860	47589.896269
529.327669	47698.439873
529.689421	47598.244420
530.051117	47549.748520
530.412755	47690.948718
530.774337	47757.229809
531.135862	47548.291626
531.497331	47747.455012
531.858743	47654.627205
532.220098	47980.356320
532.581396	47675.537911
532.942638	47354.295423
533.303824	47650.029673
533.664953	47630.119636
534.026025	47337.039554
534.387040	47803.240420
534.747999	47752.107997
535.108902	47900.983352
535.469748	47412.006553
535.830537	47516.335752
536.191270	47715.068119
536.551947	47348.006584
536.912567	47665.846293
537.273131	47785.727452
537.633638	47271.786858
537.994089	47619.762585
538.354483	47183.712860
538.714821	47776.000546
539.075103	48108.794837
539.435328	47881.509375
539.795497	47733.435563
540.155609	47746.550125
540.515665	48215.258965
540.875665	47643.289650
541.235609	47969.290987
541.595496	47953.005539
541.955328	48631.849837
542.315102	47972.502202
542.674821	47737.546624
543.034483	47769.827653
543.394090	47765.063762
543.753640	47697.156899
544.113134	48709.486127
544.472571	47694.631281
544.831953	48938.094892
545.191278	48156.350562
545.550548	47852.610961
545.909761	48324.473043
546.268918	48509.339716
546.628019	48816.212395
546.987064	48361.306233
547.346053	47623.931619
547.704986	48508.515487
548.063863	48063.114422
548.422684	48234.269157
548.781449	48065.133404
549.140158	48468.645002
549.498811	48291.519020
549.857408	47712.343375
550.215949	48577.133153
550.574434	48484.527157
550.932864	48238.387779
551.291237	48952.517633
551.649555	48567.076051
552.007817	48800.478954
552.366022	48439.003017
552.724173	48602.981669
553.082267	49001.215179
553.440305	49265.795098
553.798288	48563.413653
554.156215	48877.285974
554.514086	49093.438048
554.871902	48806.326692
555.229661	48826.014918
555.587365	48643.716713
555.945014	48748.686139
556.302606	48684.298002
556.660143	48882.372498
557.017625	48957.150453
557.375050	48737.272967
557.732421	49065.051310
558.089735	49043.059277
558.446994	48951.839598
558.804197	49417.246483
559.161345	49339.436273
559.518437	48570.141073
559.875474	48895.494621
560.232455	49069.842927
560.589381	49221.682481
560.946251	48915.800389
561.303065	49584.620352
561.659825	49351.509837
562.016528	49029.614519
562.373177	48737.265405
562.729770	49236.112784
563.086307	48733.023274
563.442789	49171.515438
563.799216	49192.814313
564.155587	48994.833078
564.511904	49024.795176
564.868164	49090.294888
565.224370	49324.476649
565.580520	49060.194159
565.936615	49252.690618
566.292654	48965.085230
566.648638	49213.568744
567.004567	49163.048821
567.360441	49227.041227
567.716260	49058.812882
568.072023	49344.328713
568.427732	49312.050205
568.783385	48838.108647
569.138982	49237.282332
569.494525	49194.006546
569.850013	48935.024829
570.205445	48917.489176
570.560823	48861.025732
570.916145	48718.179597
571.271412	48771.590622
571.626625	48493.636522
571.981782	48524.253970
572.336884	48198.570226
572.691931	48531.034322
573.046923	48126.088516
573.401860	47955.513513
573.756743	47904.789423
574.111570	48025.961118
574.466342	47862.194194
574.821059	47952.660220
575.175722	47474.605081
575.530330	47509.913322
575.884882	47197.853296
576.239380	47141.926735
576.593823	47110.326262
576.948211	47037.799182
577.302544	46542.644448
577.656823	46554.455872
578.011047	46774.867721
578.365216	46516.185953
578.719330	46268.566996
579.073389	46129.020296
579.427394	46204.468725
579.781344	46163.143866
580.135239	45812.128324
580.489080	45876.019908
580.842866	45335.837588
581.196597	45777.132634
581.550273	45729.115644
581.903895	45601.042610
582.257463	46005.426327
582.610975	45369.184821
582.964434	45634.742723
583.317837	45282.310617
583.671186	45097.940497
584.024481	45326.261916
584.377721	44832.997615
584.730906	45108.660511
585.084037	45153.438560
585.437113	44838.147154
585.790135	44855.808837
586.143103	44439.664107
586.496016	44546.014809
586.848874	44601.780053
587.201679	44589.885451
587.554428	44065.197117
587.907124	44252.281898
588.259765	44003.432900
588.612352	44244.939457
588.964884	43609.766676
589.317362	43889.505344
589.669786	43846.605125
590.022155	43603.097229
590.374470	44026.546591
590.726731	43525.836505
591.078937	43004.180426
591.431090	43123.411276
591.783188	42758.489711
592.135232	42429.496449
592.487222	42700.813870
592.839157	42771.702575
593.191038	42414.647731
593.542866	42163.063907
593.894639	41570.471231
594.246358	41842.547345
594.598022	41812.832264
594.949633	41396.513615
595.301190	41355.123221
595.652692	41176.729389
596.004141	41510.519309
596.355535	40507.833809
596.706876	40444.642945
597.058162	40273.372264
597.409395	40735.162121
597.760573	40812.632053
598.111698	40398.246686
598.462768	40396.625955
598.813785	40434.023755
599.164748	39874.692612
599.515657	40267.660637
599.866511	39746.168395
600.217312	40353.365293
600.568060	39325.058129
600.918753	40083.628274
601.269392	40017.505980
601.619978	39678.624495
601.970510	39881.052028
602.320988	40050.512935
602.671412	40365.670750
603.021783	40096.077404
603.372100	39732.897557
603.722363	39823.577833
604.072572	39893.833873
604.422728	39917.519735
604.772830	39721.723840
605.122878	39834.191982
605.472872	39745.066903
605.822813	40019.139314
606.172701	39844.450730
606.522534	40098.403896
606.872314	40333.288898
607.222041	40103.253486
607.571714	40482.794398
607.921333	39924.214387
608.270899	40215.005785
608.620411	40560.609648
608.969870	40339.653355
609.319276	40339.550011
609.668627	40389.293597
610.017926	40872.059695
610.367171	41024.242047
610.716362	41109.182969
611.065500	41055.098950
611.414585	41229.487585
611.763616	41511.525019
612.112594	41459.160033
612.461518	41674.460153
612.810389	41978.156904
613.159207	41828.474964
613.507971	41896.265881
613.856682	42374.573078
614.205340	42254.722166
614.553945	42948.337044
614.902496	42399.325143
615.250994	42870.831824
615.599439	42934.090743
615.947830	43135.767144
616.296169	43197.859036
616.644454	43317.886389
616.992686	43474.842714
617.340864	43988.712731
617.688990	43697.931415
618.037063	44324.695553
618.385082	44280.953461
618.733048	44568.271503
619.080961	44571.144961
619.428821	44595.768477
619.776628	44702.076329
620.124382	44526.954207
620.472083	44628.571265
620.819731	44769.635353
621.167326	44423.731540
621.514868	44394.175255
621.862357	43947.339981
622.209793	43986.363553
622.557176	43642.403106
622.904506	43371.642733
623.251783	43014.305583
623.599007	42793.462716
623.946179	42573.373501
624.293297	42516.302598
624.640363	41931.906838
624.987376	41909.599732
625.334336	41676.930318
625.681243	41317.922026
626.028097	41273.811930
626.374899	41143.876190
626.721647	41108.273041
627.068343	41005.511640
627.414987	40766.936514
627.761577	40536.225587
628.108115	40889.983517
628.454600	40319.019912
628.801032	40518.682372
629.147412	40483.991672
629.493739	40473.233849
629.840014	40114.081885
630.186236	40458.249020
630.532405	40053.875384
630.878521	40275.227409
631.224585	40139.597685
631.570597	39822.057925
631.916556	40000.439154
632.262462	39939.174011
632.608316	39966.071087
632.954117	39857.187205
633.299866	39837.977889
633.645562	39748.724260
633.991206	39273.484604
634.336797	38811.493101
634.682336	38818.780089
635.027823	38565.933456
635.373257	38382.475786
635.718639	38139.227510
636.063968	38006.332612
636.409245	37427.209899
636.754470	37474.987435
637.099642	37221.127530
637.444762	36746.283605
637.789829	36901.062152
638.134845	36555.085243
638.479808	36491.763309
638.824719	36402.156800
639.169577	36012.929311
639.514383	36083.283654
639.859137	35760.042349
640.203839	36016.763109
640.548489	35656.592831
640.893086	35707.102672
641.237632	35455.007171
641.582125	35564.984983
641.926566	35485.473384
642.270955	35464.323223
642.615292	35494.875136
642.959576	35456.083457
643.303809	35443.006704
643.647990	35595.085713
643.992118	35559.918624
644.336195	35540.479934
644.680219	35631.182895
645.024192	35943.071522
645.368112	36454.781405
645.711981	36457.987578
646.055797	37328.748603
646.399562	37262.775023
646.743274	38209.707882
647.086935	38655.522322
647.430544	38538.040752
647.774101	38637.906010
648.117606	38898.972244
648.461059	39173.276548
648.804460	38769.522975
649.147810	38144.122470
649.491108	37889.957575
649.834354	37537.359111
650.177548	36678.853131
650.520690	36264.634123
650.863781	36285.144057
651.206820	36114.017049
651.549807	35684.425041
651.892742	35196.663160
652.235626	35010.589130
652.578458	34888.555398
652.921238	34268.022127
653.263967	34588.430304
653.606644	34262.343268
653.949269	34215.997420
654.291843	33802.000222
654.634365	34210.381574
654.976836	33807.550532
655.319255	33820.609641
655.661622	33809.589679
656.003938	33587.176492
656.346203	33466.065291
656.688416	33687.613921
657.030577	33480.750172
657.372687	33303.283913
657.714746	33545.408012
658.056753	33700.320149
658.398708	33133.218067
658.740612	33188.748898
659.082465	33456.129177
659.424266	33309.197187
659.766016	33428.007100
660.107715	33280.041673
660.449362	33410.741148
660.790958	33380.012795
661.132503	33377.570356
661.473996	33431.505661
661.815438	33547.416912
662.156829	33745.889659
662.498168	33493.267358
662.839456	33518.926831
663.180693	33683.931358
663.521879	33837.177393
663.863013	33800.986950
664.204097	33776.502066
664.545129	34228.428905
664.886110	34190.983214
665.227040	34263.159935
665.567918	34384.074530
665.908746	34439.693581
666.249522	34614.641784
666.590248	34599.820791
666.930922	34703.335844
667.271545	34683.435890
667.612118	34740.753809
667.952639	34529.726068
668.293109	34587.424594
668.633528	34467.278774
668.973896	34396.528701
669.314213	34442.587203
669.654480	34170.879093
669.994695	34198.428999
670.334859	34087.871454
670.674973	33973.855677
671.015035	34123.804798
671.355047	34073.957869
671.695008	34009.010163
672.034918	33929.458235
672.374777	34029.510016
672.714585	33834.923998
673.054342	34068.430244
673.394049	33827.705065
673.733705	34110.753251
674.073310	33777.570790
674.412864	33817.214424
674.752368	33445.910758
675.091820	33751.228241
675.431223	33317.890656
675.770574	33026.683363
676.109875	32884.255644
676.449125	32601.303240
676.788324	32535.294372
677.127473	31997.836795
677.466571	31908.757086
677.805619	31585.651892
678.144616	31575.937589
678.483562	31489.063385
678.822458	31164.171102
679.161303	31099.692223
679.500098	31015.809944
679.838842	30905.343140
680.177535	31055.256973
680.516179	31350.166993
680.854771	31575.642681
681.193314	32447.137194
681.531805	33592.615897
681.870247	34333.605018
682.208638	35056.259463
682.546978	35267.284684
682.885268	35345.321746
683.223508	34818.639636
683.561697	34490.556302
683.899836	34295.693021
684.237925	33792.727019
684.575963	33633.774398
684.913951	33161.388035
685.251889	33315.599452
685.589776	33309.968483
685.927614	33323.370391
686.265401	33442.505459
686.603137	33555.621389
686.940824	34068.979730
687.278460	34448.165240
687.616046	34560.363680
687.953582	35172.899161
688.291068	35014.329666
688.628504	35288.921316
688.965889	35221.490842
689.303224	34861.617993
689.640510	34499.693394
689.977745	33734.975561
690.314930	32938.997533
690.652065	32423.370674
690.989150	31693.378829
691.326185	30783.831167
691.663170	30091.925240
692.000105	29347.624081
692.336990	28669.399845
692.673825	28205.717035
693.010610	27702.277165
693.347345	27125.697714
693.684030	26469.137837
694.020665	26190.677102
694.357251	25526.374012
694.693786	25476.907690
695.030272	25233.248560
695.366707	24692.073133
695.703093	24406.360698
696.039429	24409.418158
696.375716	24144.969309
696.711952	24117.686585
697.048139	23952.810607
697.384276	23781.068578
697.720363	23900.105343
698.056400	23702.131670
698.392388	23484.552950
698.728326	23446.535088
699.064214	23246.038317
699.400053	23185.083205
699.735842	22813.545126
700.071581	22535.414586
700.407270	22256.205239
700.742910	22056.051267
701.078501	21800.663892
701.414042	21518.301303
701.749533	21216.313503
702.084974	20869.424145
702.420366	21071.728169
702.755709	20637.888990
703.091002	20338.658701
703.426246	20356.380877
703.761440	20250.468755
704.096584	19979.965481
704.431679	19944.185892
704.766725	19849.447487
705.101721	19786.518764
705.436668	19894.407018
705.771565	19559.273631
706.106413	19910.770603
706.441212	19899.617050
706.775961	20028.453819
707.110661	20087.049671
707.445311	20452.583736
707.779913	20290.014087
708.114465	20540.957684
708.448967	20831.053402
708.783421	21510.674038
709.117825	21777.005757
709.452180	21994.738233
709.786485	22393.831259
710.120742	23191.014123
710.454949	23202.744888
710.789107	23678.327342
711.123216	24378.982191
711.457275	24487.056968
711.791286	25010.863100
712.125247	25083.453194
712.459159	24777.853407
712.793023	25426.105463
713.126837	24319.514220
713.460602	24583.784107
713.794318	24206.514236
714.127985	23828.863757
714.461602	22921.914810
714.795171	22869.020503
715.128691	21866.594623
715.462162	21326.835760
715.795584	20914.305538
716.128957	20648.777882
716.462281	20246.929865
716.795556	20009.957826
717.128782	19523.383136
717.461960	18971.792685
717.795088	18896.034225
718.128167	18491.032966
718.461198	18034.783337
718.794180	17907.022855
719.127113	17539.084159
719.459997	17340.883634
719.792833	16987.239130
720.125619	16958.433977
720.458357	16644.012170
720.791046	16467.347454
721.123686	16300.727237
721.456278	16071.642083
721.788821	16038.362906
722.121315	15778.176353
722.453761	15856.062180
722.786158	15784.208094
723.118506	15791.679084
723.450805	15657.365101
723.783056	15815.536344
724.115259	15721.806171
724.447412	15651.540048
724.779518	15880.726025
725.111574	15899.728655
725.443582	16116.339474
725.775542	16098.823985
726.107453	16555.681072
726.439315	16439.618587
726.771129	16842.772263
727.102895	17196.303342
727.434612	17411.742092
727.766281	17527.928086
728.097901	17789.342159
728.429473	17821.499680
728.760996	17806.875292
729.092471	17895.539106
729.423897	17759.309485
729.755276	17622.820245
730.086606	17763.055063
730.417887	18283.198796
730.749120	18782.462070
731.080305	18957.972362
731.411442	19289.851684
731.742530	19350.244707
732.073570	19445.830025
732.404562	19729.780577
732.735506	19548.480520
733.066401	19251.266693
733.397249	18719.818172
733.728048	18090.397347
734.058798	17260.265502
734.389501	16577.761326
734.720156	16127.621576
735.050762	15607.016577
735.381320	15261.057312
735.711831	15023.412279
736.042293	14680.202963
736.372707	14691.333831
736.703073	14475.791736
737.033391	14673.949412
737.363661	14642.588394
737.693883	14736.656324
738.024056	14911.879270
738.354182	15093.907774
738.684260	15369.444640
739.014290	15593.778507
739.344272	15776.159892
739.674207	16043.676282
740.004093	16154.556461
740.333931	16143.539019
740.663722	16188.947213
740.993464	16175.046231
741.323159	16002.101886
741.652806	15720.833228
741.982405	15513.896383
742.311956	15158.227856
742.641460	15056.515015
742.970915	14752.412451
743.300323	14421.034723
743.629683	14214.387745
743.958996	13934.611268
744.288260	13669.640660
744.617477	13368.587994
744.946647	13302.319506
745.275768	13031.496118
745.604842	12842.919156
745.933869	12674.980677
746.262847	12627.649284
746.591778	12550.897716
746.920662	12451.198817
747.249498	12452.259980
747.578286	12572.052918
747.907027	12714.803272
748.235720	12934.529524
748.564365	12966.485398
748.892963	12862.995551
749.221514	12916.537646
749.550017	12771.228907
749.878473	12733.455541
750.206881	12506.560768
750.535242	12415.273034
750.863555	12333.931496
751.191821	12237.632855
751.520039	12256.355700
751.848210	12158.577480
752.176334	12191.833972
752.504411	12101.340219
752.832440	11951.927981
753.160421	12005.051660
753.488356	11893.206100
753.816243	11801.373921
754.144082	11653.761375
754.471875	11595.493198
754.799620	11539.344827
755.127318	11512.233501
755.454969	11472.937707
755.782572	11424.648494
756.110129	11440.366812
756.437638	11349.013543
756.765100	11352.242402
757.092515	11348.895076
757.419882	11365.251099
757.747203	11372.424661
758.074477	11446.804366
758.401703	11398.530276
758.728882	11562.450955
759.056014	11603.745567
759.383099	11718.005840
759.710138	11815.037969
760.037129	11901.677759
760.364073	11921.222313
760.690970	11904.256310
761.017820	11908.233780
761.344623	12097.017430
761.671379	12421.214034
761.998088	13073.904825
762.324751	14660.968441
762.651366	17542.741516
762.977935	21138.924230
763.304456	23271.977574
763.630931	23674.758205
763.957359	22471.265903
764.283740	20573.059752
764.610074	18722.164829
764.936362	16613.125021
765.262602	15119.932731
765.588796	13666.852902
765.914943	12653.462512
766.241044	11815.249697
766.567097	11191.651405
766.893104	10656.439663
767.219064	10302.848091
767.544978	9927.849259
767.870845	9611.433676
768.196665	9435.988919
768.522438	9237.596830
768.848165	9072.219258
769.173846	8907.754134
769.499479	8791.747102
769.825066	8633.472515
770.150607	8446.382693
770.476101	8383.159062
770.801548	8278.056046
771.126949	8140.036815
771.452303	8048.197074
771.777611	7889.514154
772.102872	7869.737707
772.428087	7753.118175
772.753256	7630.761809
773.078378	7542.783593
773.403453	7402.616830
773.728482	7288.837988
774.053465	7229.841365
774.378401	7145.528067
774.703291	7050.673716
775.028135	6955.834488
775.352932	6919.757471
775.677683	6839.754359
776.002388	6750.193220
776.327046	6753.031390
776.651658	6663.563512
776.976224	6592.604230
777.300743	6574.632517
777.625216	6510.284709
777.949643	6465.778882
778.274024	6474.137115
778.598359	6407.349388
778.922647	6412.413227
779.246889	6363.622420
779.571086	6375.426282
779.895236	6381.515995
780.219339	6377.961982
780.543397	6381.087497
780.867409	6429.051556
781.191374	6428.401247
781.515294	6397.803963
781.839167	6446.052847
782.162995	6413.058495
782.486776	6369.157607
782.810511	6324.800494
783.134201	6249.954483
783.457844	6241.255972
783.781441	6189.299320
784.104993	6150.825234
784.428498	6117.417507
784.751958	6102.571309
785.075372	6077.116003
785.398739	6042.473193
785.722061	6063.888015
786.045337	6060.076903
786.368568	6172.411454
786.691752	6197.647471
787.014891	6452.455112
787.337983	6734.732001
787.661030	7163.514903
787.984031	7585.739264
788.306987	7831.364444
788.629897	7910.790344
788.952760	7827.618867
789.275579	7650.518091
789.598351	7354.229315
789.921078	7085.687050
790.243759	6809.774618
790.566395	6608.163752
790.888984	6422.107366
791.211529	6286.117200
791.534027	6124.893538
791.856480	5987.494370
792.178888	5931.711482
792.501249	5866.912490
792.823566	5761.890132
793.145836	5758.449545
793.468062	5735.212346
793.790241	5703.765628
794.112375	5744.853553
794.434464	5835.478375
794.756507	5871.081524
795.078505	5990.506459
795.400457	6204.495878
795.722364	6443.809533
796.044226	6633.407330
796.366042	6785.277130
796.687812	6727.230764
797.009538	6749.706749
797.331218	6667.082237
797.652852	6595.230672
797.974442	6474.825232
798.295986	6403.094654
798.617484	6276.241580
798.938938	6172.993708
799.260346	6103.559375
799.581709	5965.429239
799.903026	5916.305716
800.224299	5845.477504
800.545526	5734.614969
800.866708	5666.554351
801.187845	5616.828410
801.508936	5539.913005
801.829983	5513.867883
802.150984	5407.607922
802.471940	5382.581114
802.792851	5363.598649
803.113717	5344.104507
803.434538	5316.728521
803.755314	5286.408501
804.076045	5276.545484
804.396731	5241.438888
804.717372	5258.838431
805.037967	5260.905304
805.358518	5285.052431
805.679024	5343.078632
805.999485	5352.200600
806.319901	5371.440164
806.640272	5386.790477
806.960598	5432.899391
807.280879	5424.100057
807.601115	5461.021468
807.921306	5423.608544
808.241453	5418.501856
808.561554	5429.577271
808.881611	5397.603752
809.201623	5392.585284
809.521590	5347.698850
809.841513	5330.634544
810.161390	5343.194579
810.481223	5258.326754
810.801011	5241.736317
811.120755	5222.955498
811.440453	5166.759235
811.760107	5138.241428
812.079716	5114.984065
812.399281	5062.107402
812.718801	5057.600611
813.038276	5023.600548
813.357707	4987.397502
813.677093	5009.742417
813.996434	4950.982727
814.315731	4967.084173
814.634983	4968.808247
814.954191	4974.408969
815.273354	5034.184451
815.592473	5072.794648
815.911547	5148.139734
816.230577	5199.027661
816.549562	5285.715343
816.868502	5339.325493
817.187399	5392.388679
817.506250	5470.808868
817.825058	5503.778014
818.143821	5654.861395
818.462539	5826.081665
818.781213	6056.462395
819.099843	6422.263642
819.418429	7054.694036
819.736970	7668.015936
820.055466	8368.811938
820.373919	9284.766907
820.692327	10763.057546
821.010691	13515.635931
821.329011	19847.826756
821.647286	29336.213429
821.965517	39414.906614
822.283704	44502.663407
822.601847	45752.390651
822.919945	41147.669658
823.237999	36103.758301
823.556010	31037.318027
823.873976	26440.957787
824.191897	22353.139066
824.509775	19359.429689
824.827609	16654.102040
825.145398	15147.986752
825.463144	14443.341829
825.780845	14772.151089
826.098502	16050.622992
826.416116	18483.690526
826.733685	20671.158085
827.051210	21082.990107
827.368692	19610.448904
827.686129	17090.756703
828.003522	14666.387681
828.320872	12498.631033
828.638177	10898.835984
828.955439	9683.204583
829.272656	8643.300245
829.589830	7823.706932
829.906960	7094.786332
830.224046	6574.844245
830.541088	6177.737433
830.858086	5925.425163
831.175041	5725.777827
831.491952	5672.200443
831.808819	5710.956834
832.125642	5964.927644
832.442421	6529.045363
832.759157	7652.690829
833.075849	9417.407226
833.392497	11220.322967
833.709101	12265.207966
834.025662	11959.910648
834.342179	10895.617207
834.658653	9624.235686
834.975083	8541.872229
835.291469	7668.381420
835.607811	6944.827129
835.924110	6431.698161
836.240366	5955.077230
836.556578	5507.601729
836.872746	5161.962578
837.188871	4895.459459
837.504952	4677.124565
837.820990	4512.921582
838.136984	4398.880599
838.452935	4357.694372
838.768842	4392.490937
839.084706	4687.831976
839.400526	5440.589671
839.716303	6326.549774
840.032037	6852.914292
840.347727	6678.354257
840.663373	6076.276651
840.978977	5515.171022
841.294537	5089.438018
841.610054	4764.961630
841.925527	4533.297925
842.240957	4327.588602
842.556344	4148.678052
842.871687	3992.107375
843.186987	3839.350331
843.502244	3727.779514
843.817458	3640.943118
844.132629	3572.461564
844.447756	3521.808050
844.762840	3477.334991
845.077881	3438.203034
845.392879	3404.918816
845.707833	3380.529714
846.022745	3350.968388
846.337613	3342.910103
846.652438	3317.850527
846.967221	3308.335349
847.281960	3291.717186
847.596656	3281.544137
847.911309	3270.083074
848.225919	3254.715117
848.540485	3246.951740
848.855009	3239.291706
849.169490	3228.390211
849.483928	3220.478120
849.798323	3215.235320
850.112675	3202.486242
850.426984	3204.850543
850.741251	3198.917105
851.055474	3194.498534
851.369654	3200.316025
851.683792	3194.001980
851.997887	3198.347455
852.311938	3199.378371
852.625947	3197.397197
852.939914	3189.112061
853.253837	3197.137578
853.567718	3194.899306
853.881555	3190.521063
854.195350	3194.125488
854.509103	3191.045343
854.822812	3190.289170
855.136479	3183.231555
855.450103	3188.444108
855.763685	3181.860361
856.077224	3186.523428
856.390720	3191.562062
856.704173	3203.164277
857.017584	3207.355997
857.330953	3212.808005
857.644278	3220.450394
857.957561	3221.027606
858.270802	3221.793861
858.584000	3218.534755
858.897155	3215.144579
859.210268	3202.382898
859.523339	3190.170703
859.836367	3192.164480
860.149352	3181.857841
860.462295	3181.706606
860.775195	3171.528516
861.088054	3169.280162
861.400869	3169.451561
861.713642	3167.185562
862.026373	3174.318795
862.339062	3181.220135
862.651708	3187.062832
862.964312	3205.160574
863.276873	3212.790361
863.589392	3244.602562
863.901869	3267.668361
864.214303	3290.756846
864.526696	3308.766368
864.839045	3326.798575
865.151353	3337.634536
865.463619	3337.682427
865.775842	3340.767613
866.088023	3345.387830
866.400162	3338.466326
866.712258	3335.018177
867.024313	3337.332066
867.336325	3333.931808
867.648296	3336.258301
867.960224	3333.165553
868.272110	3338.408353
868.583954	3338.088239
868.895755	3345.680217
869.207515	3341.430524
869.519233	3361.083463
869.830909	3365.106303
870.142542	3380.202039
870.454134	3383.536762
870.765684	3398.546798
871.077191	3414.474323
871.388657	3428.650048
871.700081	3446.231072
872.011463	3469.196048
872.322803	3484.178357
872.634101	3502.371882
872.945357	3526.115716
873.256571	3550.340981
873.567744	3565.484607
873.878874	3573.351328
874.189963	3587.978236
874.501010	3586.927155
874.812015	3584.106629
875.122979	3600.397118
875.433900	3598.879731
875.744780	3601.917026
876.055618	3610.325671
876.366415	3608.601596
876.677169	3617.499232
876.987882	3634.142602
877.298554	3653.203205
877.609183	3686.805016
877.919771	3737.317377
878.230317	3806.635763
878.540822	3915.065941
878.851285	4067.137388
879.161707	4289.326244
879.472087	4673.016025
879.782425	5316.229447
880.092722	6515.593044
880.402977	8462.683264
880.713191	10804.331993
881.023363	13113.679529
881.333494	14372.639646
881.643583	14780.348005
881.953631	14349.893960
882.263637	13522.426365
882.573602	12512.058147
882.883526	11583.374264
883.193408	10650.206276
883.503248	9750.065407
883.813048	8933.900079
884.122806	8177.056528
884.432522	7421.319511
884.742197	6774.350429
885.051831	6220.350307
885.361424	5732.837963
885.670975	5342.899671
885.980485	5023.358573
886.289954	4763.313172
886.599382	4544.751427
886.908768	4370.345148
887.218113	4205.063357
887.527417	4076.836568
887.836680	3955.216211
888.145901	3852.469934
888.455082	3777.031587
888.764221	3710.725291
889.073319	3652.530211
889.382376	3619.152731
889.691392	3598.037858
890.000366	3592.611056
890.309300	3581.830548
890.618193	3588.081579
890.927044	3580.353490
891.235855	3586.745673
891.544625	3604.646811
891.853353	3634.114876
892.162041	3694.986808
892.470687	3788.512815
892.779293	3910.065117
893.087858	4083.874019
893.396381	4365.092266
893.704864	4782.666162
894.013306	5350.915106
894.321707	5910.228605
894.630068	6248.777373
894.938387	6269.083141
895.246665	6090.845585
895.554903	5773.119302
895.863100	5441.242501
896.171256	5178.817675
896.479371	4939.909833
896.787446	4718.918251
897.095480	4525.184188
897.403473	4379.058782
897.711425	4241.084922
898.019336	4118.345429
898.327207	3999.490145
898.635038	3893.411665
898.942827	3790.188999
899.250576	3700.272458
899.558284	3619.772793
899.865952	3565.222467
900.173579	3499.279134
900.481165	3456.328503
900.788711	3415.827873
901.096216	3383.952657
901.403681	3356.629603
901.711105	3349.103161
902.018489	3346.784230
902.325832	3377.149620
902.633135	3437.565328
902.940397	3615.694499
903.247619	4032.648334
903.554800	4796.035302
903.861941	5748.581486
904.169041	6418.197951
904.476101	6597.209324
904.783121	6315.302960
905.090100	5913.344038
905.397039	5510.686915
905.703938	5162.476775
906.010796	4848.601934
906.317614	4596.493830
906.624391	4363.758880
906.931129	4172.368954
907.237826	3992.578723
907.544483	3825.585460
907.851099	3651.151455
908.157675	3495.243690
908.464211	3353.002493
908.770707	3252.587750
909.077163	3174.583456
909.383578	3116.027933
909.689954	3072.880697
909.996289	3042.656459
910.302584	3023.603418
910.608839	3010.874505
910.915054	2997.772546
911.221229	2994.082422
911.527363	2997.621312
911.833458	3005.724966
912.139513	3020.097296
912.445527	3032.929553
912.751502	3063.725962
913.057436	3112.489043
913.363331	3166.608350
913.669186	3258.337186
913.975000	3376.287583
914.280775	3567.125503
914.586510	3840.575331
914.892205	4215.725398
915.197859	4718.767017
915.503475	5294.174399
915.809050	5774.235918
916.114585	6044.903030
916.420081	6099.055104
916.725536	6028.962901
917.030952	5796.303569
917.336328	5591.405871
917.641665	5385.310899
917.946961	5164.067259
918.252218	4963.066373
918.557435	4739.740737
918.862612	4549.875760
919.167750	4375.030900
919.472848	4187.638609
919.777906	4019.742980
920.082925	3865.861759
920.387904	3712.388871
920.692843	3596.863269
920.997743	3503.327180
921.302603	3408.067017
921.607423	3344.528313
921.912204	3280.808129
922.216946	3227.918863
922.521647	3180.930268
922.826310	3139.348311
923.130932	3102.189966
923.435516	3064.887948
923.740059	3035.147661
924.044564	3006.483660
924.349028	2980.443580
924.653454	2954.433747
924.957840	2925.558017
925.262186	2905.973135
925.566493	2884.389434
925.870761	2860.325487
926.174989	2847.646985
926.479178	2834.242557
926.783328	2815.628096
927.087438	2806.359935
927.391509	2792.610187
927.695541	2780.498815
927.999533	2771.694440
928.303486	2764.780498
928.607400	2756.318921
928.911275	2750.904722
929.215110	2743.917682
929.518906	2739.962897
929.822663	2740.464492
930.126381	2740.905593
930.430060	2747.111253
930.733699	2746.632344
931.037299	2751.078642
931.340861	2748.971439
931.644383	2751.723909
931.947866	2753.657192
932.251309	2748.686614
932.554714	2748.890781
932.858080	2747.958167
933.161407	2742.354925
933.464694	2737.505335
933.767943	2734.780591
934.071153	2731.163563
934.374323	2728.965620
934.677455	2725.114179
934.980548	2723.364898
935.283602	2720.607387
935.586617	2717.781820
935.889593	2723.445557
936.192530	2725.497306
936.495428	2729.416803
936.798287	2738.735376
937.101108	2752.308683
937.403890	2772.969852
937.706632	2798.737710
938.009336	2828.974551
938.312002	2862.442771
938.614628	2885.604353
938.917216	2904.654873
939.219765	2913.489495
939.522275	2923.685229
939.824747	2923.768408
940.127179	2917.630803
940.429573	2909.083527
940.731929	2908.402971
941.034246	2901.819224
941.336524	2900.385016
941.638763	2891.570558
941.940964	2889.659961
942.243126	2869.144985
942.545250	2858.984540
942.847335	2846.694207
943.149381	2833.204079
943.451389	2822.486586
943.753359	2806.206179
944.055290	2797.696712
944.357182	2787.468211
944.659036	2782.404372
944.960851	2780.365225
945.262628	2774.376334
945.564367	2774.456992
945.866067	2772.165788
946.167729	2773.042949
946.469352	2773.862136
946.770937	2770.277876
947.072484	2762.892586
947.373992	2763.842843
947.675462	2761.506268
947.976893	2753.132912
948.278286	2752.414547
948.579641	2747.423805
948.880958	2746.284504
949.182236	2745.336767
949.483476	2744.545306
949.784678	2740.439286
950.085841	2740.855182
950.386967	2746.342477
950.688054	2749.558734
950.989103	2759.464601
951.290114	2765.735796
951.591087	2780.166099
951.892021	2790.001390
952.192917	2801.139820
952.493776	2812.008547
952.794596	2816.827891
953.095378	2818.504074
953.396122	2814.917293
953.696828	2812.885708
953.997496	2806.982517
954.298126	2799.327525
954.598718	2790.107255
954.899272	2780.377828
955.199788	2768.846188
955.500266	2757.790938
955.800706	2743.123701
956.101108	2725.504868
956.401472	2717.164279
956.701798	2703.096939
957.002087	2688.147397
957.302337	2677.750018
957.602550	2668.512103
957.902724	2658.402069
958.202861	2649.481747
958.502960	2639.863226
958.803022	2637.012453
959.103045	2628.213119
959.403031	2622.496451
959.702979	2614.012189
960.002889	2612.739298
960.302762	2605.918617
960.602596	2602.967021
960.902393	2597.502410
961.202153	2596.630291
961.501875	2592.481421
961.801559	2592.985536
962.101205	2588.342634
962.400814	2583.243507
962.700385	2581.905080
962.999918	2582.290728
963.299414	2580.309555
963.598873	2579.792837
963.898293	2576.188412
964.197677	2577.589853
964.497022	2576.006930
964.796331	2576.188412
965.095601	2573.020047
965.394835	2572.405026
965.694030	2574.713874
965.993189	2573.352763
966.292309	2571.752196
966.591393	2569.488718
966.890439	2571.535427
967.189447	2572.263873
967.488419	2571.298492
967.787353	2572.805797
968.086249	2573.352763
968.385108	2573.725808
968.683930	2572.228585
968.982714	2569.246743
969.281462	2576.513566
969.580172	2576.369893
969.878844	2577.375603
970.177480	2583.561099
970.476078	2583.825760
970.774639	2586.900864
971.073162	2590.154928
971.371649	2588.652665
971.670098	2590.238107
971.968510	2593.222471
972.266885	2592.652820
972.565223	2596.688264
972.863524	2599.574324
973.161788	2600.315374
973.460014	2598.994592
973.758204	2602.881321
974.056356	2604.623040
974.354471	2603.519027
974.652550	2601.976434
974.950591	2601.963831
975.248595	2603.728235
975.546563	2602.483070
975.844493	2600.121290
976.142386	2597.905703
976.440243	2593.212388
976.738062	2593.330855
977.035845	2590.684250
977.333590	2590.157449
977.631299	2589.121492
977.928971	2584.798702
978.226606	2582.648650
978.524204	2580.639751
978.821765	2579.606314
979.119290	2581.234607
979.416777	2578.953485
979.714228	2579.260995
980.011642	2580.014648
980.309020	2585.779207
980.606360	2589.522264
980.903664	2597.875456
981.200931	2611.526900
981.498162	2630.587503
981.795356	2659.856442
982.092513	2699.202648
982.389633	2741.906262
982.686717	2780.599638
982.983764	2811.012920
983.280775	2829.292143
983.577749	2827.913388
983.874686	2819.426605
984.171587	2803.002526
984.468451	2788.234466
984.765279	2768.145468
985.062070	2752.230545
985.358824	2733.923595
985.655543	2713.937941
985.952224	2691.671164
986.248869	2666.394819
986.545478	2635.525313
986.842050	2617.790534
987.138586	2599.927205
987.435086	2584.786100
987.731549	2575.719584
988.027975	2570.590210
988.324366	2566.708522
988.620719	2559.489590
988.917037	2556.021276
989.213318	2553.674619
989.509563	2550.816284
989.805772	2550.670091
990.101944	2548.754453
990.398080	2550.758311
990.694180	2543.841848
990.990244	2548.630944
991.286271	2547.100954
991.582262	2548.880481
991.878217	2549.505584
992.174136	2548.520039
992.470019	2552.608415
992.765865	2552.469783
993.061676	2552.772252
993.357450	2555.469269
993.653188	2560.840619
993.948890	2563.759447
994.244556	2571.686661
994.540186	2582.651171
994.835780	2593.179621
995.131337	2606.999944
995.426859	2623.890330
995.722345	2643.094606
996.017795	2660.723521
996.313208	2675.221879
996.608586	2684.847962
996.903928	2687.451718
997.199234	2685.213446
997.494504	2681.261181
997.789738	2674.138031
998.084936	2669.454799
998.380099	2654.003662
998.675225	2643.422281
998.970316	2630.315281
999.265371	2616.852879
999.560390	2604.212186
999.855373	2591.805906
1000.150320	2581.138825
1000.445232	2572.457958
1000.740108	2567.424366
1001.034948	2559.850032
1001.329752	2556.762325
1001.624521	2550.274360
1001.919254	2546.082641
1002.213951	2541.777496
1002.508613	2538.830941
1002.803239	2541.328833
1003.097829	2534.392205
1003.392384	2539.178781
1003.686903	2537.565612
1003.981386	2533.782226
1004.275834	2534.435055
1004.570246	2532.650487
1004.864623	2532.196783
1005.158964	2528.889786
1005.453270	2532.322812
1005.747540	2531.685106
1006.041775	2529.313243
1006.335974	2526.419620
1006.630138	2528.584796
1006.924266	2528.546987
1007.218359	2528.494055
1007.512416	2528.869621
1007.806438	2528.771319
1008.100425	2528.002543
1008.394376	2528.582275
1008.688292	2528.423479
1008.982172	2523.959537
1009.276017	2527.780732
1009.569827	2525.708818
1009.863602	2527.357275
1010.157341	2523.362161
1010.451045	2523.243693
1010.744714	2525.315608
1011.038347	2524.594723
1011.331945	2524.708149
1011.625508	2524.806451
1011.919036	2523.788138
1012.212528	2525.106400
1012.505986	2522.215298
1012.799408	2521.605318
1013.092795	2523.057171
1013.386147	2523.596574
1013.679464	2523.251255
1013.972745	2521.622963
1014.265992	2521.370905
1014.559204	2522.782428
1014.852380	2521.675895
1015.145521	2522.835360
1015.438628	2519.835873
1015.731699	2520.753363
1016.024736	2522.101872
1016.317737	2524.685463
1016.610703	2523.125226
1016.903635	2520.617252
1017.196531	2518.313445
1017.489393	2525.005577
1017.782219	2521.562469
1018.075011	2524.529188
1018.367768	2522.280833
1018.660490	2525.134126
1018.953177	2525.134126
1019.245829	2525.134126
