Dividing Wavelength (nm)	Counts (n)	Blue Motor Position (mm): 0.000000	Red Motor Position (mm): 40.500000	
326.493990	2137.444190
326.888308	2137.444190
327.282561	2137.444190
327.676750	2115.389142
328.070874	2114.748915
328.464933	2121.088166
328.858929	2128.609568
329.252859	2140.047946
329.646726	2156.474545
330.040528	2170.788902
330.434265	2190.320852
330.827938	2208.073276
331.221547	2229.495659
331.615091	2248.117681
332.008571	2266.928747
332.401986	2288.819957
332.795338	2309.839048
333.188625	2326.984013
333.581847	2346.377331
333.975006	2362.672861
334.368100	2385.242107
334.761129	2404.504356
335.154095	2417.414751
335.546996	2435.825045
335.939833	2458.558128
336.332606	2473.316106
336.725315	2486.576861
337.117960	2494.667913
337.510540	2502.804335
337.903056	2511.001251
338.295508	2516.788496
338.687896	2524.241842
339.080220	2531.644776
339.472480	2537.416897
339.864676	2539.498894
340.256807	2543.695655
340.648875	2546.619524
341.040879	2546.286808
341.432818	2548.507436
341.824694	2548.504915
342.216506	2552.147149
342.608253	2549.636654
342.999937	2552.152190
343.391557	2546.480892
343.783113	2547.945347
344.174605	2545.954092
344.566033	2543.173895
344.957397	2543.262115
345.348697	2540.350849
345.739934	2540.847403
346.131106	2538.606610
346.522215	2537.525282
346.913260	2534.661907
347.304241	2534.588810
347.695159	2529.000691
348.086012	2529.782070
348.476802	2530.681916
348.867528	2525.590351
349.258191	2525.096318
349.648789	2526.033972
350.039324	2524.259486
350.429796	2523.137829
350.820203	2525.282840
351.210548	2521.171779
351.600828	2518.598270
351.991045	2520.491223
352.381198	2518.517612
352.771288	2518.739423
353.161314	2519.079700
353.551276	2520.052643
353.941175	2519.344361
354.331010	2519.621624
354.720782	2518.699093
355.110490	2517.741274
355.500135	2519.730009
355.889717	2520.718075
356.279235	2518.968795
356.668689	2520.587005
357.058080	2518.943589
357.447408	2517.050636
357.836672	2520.337468
358.225873	2517.708507
358.615010	2516.125584
359.004084	2522.313601
359.393095	2523.536080
359.782043	2524.415762
360.170927	2523.135309
360.559748	2524.138498
360.948505	2524.758560
361.337199	2524.176307
361.725830	2526.903571
362.114398	2529.749302
362.502903	2529.403983
362.891344	2527.672347
363.279722	2526.896009
363.668037	2528.894827
364.056289	2529.013294
364.444478	2529.850126
364.832603	2529.668644
365.220665	2528.824251
365.608665	2532.317770
365.996601	2533.535209
366.384474	2532.254756
366.772284	2532.801721
367.160031	2532.365661
367.547715	2533.396577
367.935336	2531.768285
368.322893	2534.205683
368.710388	2533.779705
369.097820	2536.696013
369.485189	2533.472195
369.872495	2537.033770
370.259738	2535.919675
370.646918	2533.028573
371.034035	2534.959335
371.421090	2535.844057
371.808081	2537.333718
372.195010	2537.968904
372.581875	2539.879501
372.968678	2538.392361
373.355418	2541.671631
373.742096	2540.658359
374.128710	2541.318751
374.515262	2543.715819
374.901751	2543.637681
375.288177	2546.811088
375.674540	2545.102137
376.060841	2547.363094
376.447079	2548.943496
376.833254	2551.922818
377.219367	2549.200595
377.605417	2551.829556
377.991404	2554.587068
378.377329	2557.163097
378.763191	2560.507903
379.148991	2566.123748
379.534727	2569.932340
379.920402	2575.051632
380.306013	2576.921900
380.691563	2582.255440
381.077049	2586.437078
381.462474	2590.326328
381.847835	2595.097780
382.233134	2600.970724
382.618371	2605.054059
383.003545	2612.343567
383.388657	2616.414299
383.773706	2622.688015
384.158693	2629.359982
384.543618	2639.865747
384.928480	2642.219965
385.313280	2651.006697
385.698017	2657.895433
386.082692	2669.394305
386.467305	2673.286076
386.851856	2681.568692
387.236344	2693.254086
387.620770	2699.696681
388.005133	2708.097764
388.389435	2721.088817
388.773674	2728.453943
389.157851	2733.563152
389.541965	2744.240316
389.926018	2747.585122
390.310008	2759.162132
390.693936	2767.830396
391.077802	2777.002775
391.461606	2788.660443
391.845348	2797.822741
392.229027	2807.559729
392.612645	2820.336534
392.996200	2829.428255
393.379694	2844.322344
393.763125	2857.275588
394.146494	2867.914944
394.529801	2881.531100
394.913047	2895.656413
395.296230	2897.105745
395.679351	2900.967269
396.062410	2920.375711
396.445408	2915.014444
396.828343	2932.053544
397.211217	2939.075871
397.594028	2931.277206
397.976778	2942.569391
398.359466	2957.216463
398.742092	2957.075311
399.124656	2969.685758
399.507158	2986.215701
399.889598	2991.277019
400.271977	3006.955008
400.654294	3008.270749
401.036549	3021.342461
401.418742	3026.615508
401.800874	3047.803478
402.182944	3059.710683
402.564952	3086.035588
402.946898	3077.795822
403.328783	3085.163469
403.710606	3102.605861
404.092367	3125.270889
404.474067	3153.234169
404.855705	3138.468629
405.237282	3142.476347
405.618797	3173.660924
406.000250	3193.999460
406.381642	3229.554718
406.762972	3228.831312
407.144240	3222.378635
407.525447	3241.300606
407.906593	3240.063003
408.287677	3263.942949
408.668700	3281.564302
409.049661	3282.159158
409.430560	3295.155253
409.811399	3296.844039
410.192176	3321.893533
410.572891	3329.732527
410.953545	3368.453630
411.334138	3333.248732
411.714669	3386.289232
412.095139	3334.078002
412.475547	3385.434756
412.855894	3372.446223
413.236180	3404.296233
413.616405	3385.769993
413.996568	3408.818148
414.376670	3412.147831
414.756711	3406.869743
415.136691	3433.560132
415.516609	3453.359263
415.896466	3461.110037
416.276262	3487.500478
416.655997	3517.313862
417.035670	3525.057074
417.415283	3591.663319
417.794834	3612.614354
418.174324	3599.555245
418.553753	3598.945266
418.933121	3642.213489
419.312428	3635.271820
419.691674	3625.998618
420.070859	3664.011438
420.449983	3645.535610
420.829045	3691.717620
421.208047	3677.980476
421.586988	3722.942527
421.965867	3755.526025
422.344686	3763.720420
422.723444	3800.246101
423.102141	3705.356462
423.480777	3807.800270
423.859352	3774.856329
424.237866	3875.550857
424.616319	3859.088969
424.994712	3918.188936
425.373044	3907.594951
425.751314	3974.296978
426.129524	3906.422883
426.507673	4005.105990
426.885762	3985.382476
427.263789	4002.582892
427.641756	4010.570601
428.019662	4041.424983
428.397508	4045.258780
428.775292	4082.084409
429.153016	4086.623968
429.530679	4099.622583
429.908282	4111.746558
430.285824	4085.298145
430.663305	4157.237931
431.040726	4116.215541
431.418086	4105.808079
431.795385	4179.862629
432.172624	4217.336046
432.549802	4181.798432
432.926920	4203.631670
433.303977	4193.778734
433.680974	4237.374633
434.057910	4256.183178
434.434786	4266.494858
434.811601	4260.536214
435.188355	4364.268037
435.565050	4335.503213
435.941683	4331.016586
436.318257	4421.822890
436.694770	4426.982511
437.071222	4481.661387
437.447614	4419.206532
437.823946	4423.763735
438.200218	4439.683698
438.576429	4418.198301
438.952580	4448.475471
439.328670	4449.042601
439.704700	4496.716793
440.080670	4457.020227
440.456580	4516.959546
440.832429	4551.012540
441.208218	4455.281028
441.583947	4507.532588
441.959616	4523.460114
442.335224	4548.902817
442.710773	4570.942742
443.086261	4626.163541
443.461689	4574.446344
443.837057	4589.506791
444.212365	4665.754243
444.587612	4669.640972
444.962800	4634.184017
445.337927	4674.747661
445.712995	4564.593408
446.088002	4757.273870
446.462949	4776.770533
446.837837	4794.434736
447.212664	4779.971665
447.587431	5006.765615
447.962139	5305.590092
448.336786	5640.305063
448.711374	5630.810050
449.085901	5276.704280
449.460369	5212.149785
449.834776	5142.944825
450.209124	5377.285382
450.583412	5388.728801
450.957640	5511.294374
451.331808	5371.304053
451.705917	5228.629317
452.079965	5217.763109
452.453954	5255.354994
452.827883	5223.303338
453.201752	5227.300972
453.575562	5256.305251
453.949311	5392.300458
454.323001	5396.897991
454.696632	5389.885746
455.070202	5541.725300
455.443713	5568.435853
455.817164	5662.902035
456.190556	5736.951544
456.563888	5711.440785
456.937160	5785.449965
457.310373	5630.787365
457.683526	5688.921951
458.056619	5681.982802
458.429653	5664.038815
458.802628	5708.524478
459.175542	5739.527574
459.548398	5878.144181
459.921194	6063.366256
460.293930	6127.950998
460.666607	6372.943513
461.039224	6584.344300
461.411782	6719.258180
461.784280	6631.963039
462.156719	6641.793289
462.529099	6598.847699
462.901419	6454.133817
463.273680	6325.105484
463.645882	6313.140305
464.018024	6318.166336
464.390106	6382.299895
464.762130	6636.812629
465.134094	7026.554315
465.505999	7647.700086
465.877845	8354.401800
466.249631	8714.710709
466.621358	8644.353846
466.993026	8449.122560
467.364634	8231.473263
467.736184	7954.358516
468.107674	7800.752038
468.479105	7714.651651
468.850477	7646.613718
469.221790	7476.494940
469.593043	7251.483038
469.964238	7149.893706
470.335373	7125.928060
470.706449	7280.028572
471.077467	7460.839637
471.448425	8112.630582
471.819324	8699.872073
472.190164	8743.344463
472.560945	8261.667254
472.931667	7799.592572
473.302330	7603.864733
473.672934	7477.906463
474.043479	7558.254894
474.413965	7458.044317
474.784393	7406.445587
475.154761	7565.161274
475.525070	7575.823315
475.895321	7528.799432
476.265513	7619.807382
476.635645	7786.009183
477.005719	7773.683562
477.375734	7862.551543
477.745691	7974.250909
478.115588	8174.851023
478.485427	8406.986076
478.855207	8880.872181
479.224928	9308.483015
479.594591	9691.756901
479.964194	9701.516575
480.333739	9789.779617
480.703226	9791.065111
481.072653	9889.191171
481.442022	9996.353499
481.811333	10159.288632
482.180584	9997.911215
482.549777	9935.731103
482.918912	9875.562411
483.287988	9864.242500
483.657005	9776.503738
484.025964	9686.834214
484.394864	9747.403678
484.763706	9705.753665
485.132489	9618.652608
485.501213	9608.461916
485.869879	9669.270834
486.238487	9605.709446
486.607036	9683.139048
486.975527	9629.339855
487.343959	9684.386734
487.712333	9724.721006
488.080648	9773.199262
488.448905	9874.972596
488.817104	9875.824551
489.185244	10038.855467
489.553326	10254.062324
489.921350	10717.888808
490.289315	11343.435506
490.657222	11638.121195
491.025070	11815.975623
491.392861	11733.620814
491.760593	11572.581154
492.128267	11327.187867
492.495883	11084.947822
492.863440	10850.536689
493.230939	10630.754984
493.598380	10454.196132
493.965763	10427.359550
494.333088	10285.015009
494.700354	10219.727026
495.067563	10190.223673
495.434713	10200.961330
495.801805	10246.359441
496.168839	10202.302277
496.535815	10173.013173
496.902733	10218.237365
497.269593	10170.333800
497.636395	10184.885091
498.003139	10287.835535
498.369825	10218.252488
498.736453	10309.855295
499.103023	10261.064487
499.469535	10258.727912
499.835989	10305.318256
500.202385	10280.770357
500.568723	10301.968409
500.935003	10360.216422
501.301226	10332.800106
501.667390	10500.831846
502.033497	10600.329100
502.399546	10526.844200
502.765537	10434.023955
503.131470	10539.217712
503.497345	10625.837338
503.863163	10396.492565
504.228923	10533.107834
504.594625	10646.790894
504.960269	10550.472088
505.325856	10701.898267
505.691385	10584.497356
506.056856	10647.315174
506.422270	10752.203942
506.787625	10690.180105
507.152924	10743.820503
507.518164	10803.152363
507.883347	10675.913640
508.248472	10746.010884
508.613540	10856.686896
508.978550	10920.394478
509.343503	10906.062478
509.708398	10962.392331
510.073236	11089.089130
510.438016	11101.351737
510.802738	11014.031390
511.167403	11134.580502
511.532010	11196.896725
511.896561	11292.008175
512.261053	11490.927065
512.625488	11409.625856
512.989866	11392.334698
513.354186	11369.442819
513.718449	11386.721373
514.082655	11521.715912
514.446803	11478.273768
514.810894	11580.074829
515.174927	11581.635066
515.538904	11566.370452
515.902822	11726.480019
516.266684	11594.293404
516.630488	11701.564116
516.994235	11690.571880
517.357925	11798.664301
517.721558	11859.019516
518.085133	11921.625605
518.448651	11953.730193
518.812112	11914.048751
519.175516	11923.206007
519.538863	12010.039882
519.902152	12013.178000
520.265385	12119.077519
520.628560	12146.617342
520.991678	12092.883684
521.354739	12138.485961
521.717743	12224.009136
522.080690	12187.488497
522.443580	12321.293323
522.806413	12338.012310
523.169189	12324.905310
523.531908	12381.640976
523.894569	12351.290709
524.257174	12358.555012
524.619722	12457.291051
524.982213	12434.283225
525.344647	12429.421032
525.707025	12445.489710
526.069345	12538.314996
526.431608	12518.561235
526.793815	12608.379473
527.155964	12503.198319
527.518057	12534.985314
527.880093	12483.252993
528.242072	12604.162548
528.603995	12529.981969
528.965860	12540.555789
529.327669	12572.370511
529.689421	12517.074095
530.051117	12536.379193
530.412755	12579.957448
530.774337	12577.333527
531.135862	12539.779452
531.497331	12594.002102
531.858743	12555.225547
532.220098	12639.311993
532.581396	12552.394939
532.942638	12479.361223
533.303824	12550.186914
533.664953	12539.169472
534.026025	12486.522182
534.387040	12586.523551
534.747999	12563.175447
535.108902	12611.767128
535.469748	12488.556287
535.830537	12511.836336
536.191270	12556.879045
536.551947	12480.603867
536.912567	12542.224411
537.273131	12576.204309
537.633638	12456.794498
537.994089	12510.407169
538.354483	12427.331474
538.714821	12556.458109
539.075103	12638.921304
539.435328	12570.696848
539.795497	12552.949466
540.155609	12548.127602
540.515665	12650.894044
540.875665	12504.138494
541.235609	12608.250924
541.595496	12573.235069
541.955328	12740.016603
542.315102	12587.927512
542.674821	12520.890248
543.034483	12532.270653
543.394090	12535.900284
543.753640	12504.506498
544.113134	12752.344745
544.472571	12519.299764
544.831953	12791.645580
545.191278	12606.834359
545.550548	12544.603836
545.909761	12661.304027
546.268918	12697.222248
546.628019	12766.580963
546.987064	12659.582473
547.346053	12508.892302
547.704986	12699.735263
548.063863	12587.476329
548.422684	12651.776246
548.781449	12596.520159
549.140158	12694.414325
549.498811	12648.189465
549.857408	12519.294723
550.215949	12714.054661
550.574434	12684.150536
550.932864	12627.833286
551.291237	12821.189262
551.649555	12715.211605
552.007817	12778.334413
552.366022	12693.857278
552.724173	12736.177764
553.082267	12825.559943
553.440305	12916.441864
553.798288	12735.106519
554.156215	12804.177888
554.514086	12852.593130
554.871902	12801.846355
555.229661	12816.929487
555.587365	12770.013989
555.945014	12787.877317
556.302606	12768.388217
556.660143	12836.837004
557.017625	12857.805683
557.375050	12822.373933
557.732421	12922.544181
558.089735	12910.077407
558.446994	12893.015622
558.804197	12998.330367
559.161345	12991.623112
559.518437	12816.107779
559.875474	12913.039085
560.232455	12936.777879
560.589381	12980.668685
560.946251	12924.641301
561.303065	13102.450359
561.659825	13049.659396
562.016528	12958.873256
562.373177	12899.261612
562.729770	13024.733410
563.086307	12902.503074
563.442789	13017.292667
563.799216	13045.860886
564.155587	12993.926919
564.511904	13017.885003
564.868164	13024.549408
565.224370	13086.074170
565.580520	13030.482846
565.936615	13099.821397
566.292654	13030.031663
566.648638	13104.038322
567.004567	13102.548661
567.360441	13100.643105
567.716260	13063.388978
568.072023	13148.138336
568.427732	13124.626394
568.783385	13030.291282
569.138982	13139.283549
569.494525	13140.238848
569.850013	13093.532557
570.205445	13073.844331
570.560823	13095.574225
570.916145	13040.900391
571.271412	13056.192731
571.626625	13013.209333
571.981782	13011.810413
572.336884	12952.425620
572.691931	13038.281511
573.046923	12934.723608
573.401860	12915.350454
573.756743	12904.867375
574.111570	12936.548506
574.466342	12903.009710
574.821059	12963.886683
575.175722	12832.645284
575.530330	12855.509437
575.884882	12783.773818
576.239380	12774.150256
576.593823	12754.822472
576.948211	12752.317018
577.302544	12629.411167
577.656823	12644.726192
578.011047	12698.621168
578.365216	12639.110347
578.719330	12580.000298
579.073389	12555.157491
579.427394	12562.447000
579.781344	12552.233622
580.135239	12479.512457
580.489080	12490.348418
580.842866	12375.077394
581.196597	12466.216414
581.550273	12453.953807
581.903895	12415.676326
582.257463	12520.184487
582.610975	12369.980787
582.964434	12438.895881
583.317837	12366.336033
583.671186	12309.401241
584.024481	12361.985517
584.377721	12249.303126
584.730906	12314.334010
585.084037	12330.851351
585.437113	12239.324162
585.790135	12267.599994
586.143103	12170.005776
586.496016	12190.087212
586.848874	12201.293697
587.201679	12194.175588
587.554428	12069.429715
587.907124	12111.727517
588.259765	12054.749875
588.612352	12119.352262
588.964884	11975.606281
589.317362	12024.102181
589.669786	12013.258659
590.022155	11961.178498
590.374470	12056.199207
590.726731	11937.215373
591.078937	11828.732263
591.431090	11847.452588
591.783188	11782.550253
592.135232	11698.015144
592.487222	11754.934812
592.839157	11758.607293
593.191038	11693.553723
593.542866	11643.691670
593.894639	11490.319606
594.246358	11549.182638
594.598022	11548.799511
594.949633	11451.603544
595.301190	11449.219078
595.652692	11392.478371
596.004141	11474.112296
596.355535	11259.528021
596.706876	11237.175545
597.058162	11205.373426
597.409395	11289.525407
597.760573	11310.121041
598.111698	11205.345699
598.462768	11196.475789
598.813785	11202.608353
599.164748	11070.794783
599.515657	11140.312294
599.866511	11009.335555
600.217312	11131.374328
600.568060	10895.740715
600.918753	11053.601927
601.269392	11043.988447
601.619978	10940.223857
601.970510	10976.399177
602.320988	11013.144147
602.671412	11077.950700
603.021783	10999.064204
603.372100	10917.384909
603.722363	10924.674418
604.072572	10928.341857
604.422728	10933.188927
604.772830	10868.344565
605.122878	10870.363547
605.472872	10832.627990
605.822813	10881.333098
606.172701	10829.502474
606.522534	10869.060408
606.872314	10903.514174
607.222041	10836.771818
607.571714	10905.069370
607.921333	10767.324883
608.270899	10802.416355
608.620411	10851.209683
608.969870	10790.834304
609.319276	10767.405541
609.668627	10770.800758
610.017926	10837.238125
610.367171	10855.431649
610.716362	10840.950935
611.065500	10806.734103
611.414585	10799.648761
611.763616	10857.027174
612.112594	10809.781480
612.461518	10823.891670
612.810389	10854.466268
613.159207	10793.221290
613.507971	10774.168249
613.856682	10856.313851
614.205340	10803.595985
614.553945	10924.422360
614.902496	10785.911617
615.250994	10834.977167
615.599439	10809.587396
615.947830	10827.526342
616.296169	10784.802563
616.644454	10780.610844
616.992686	10779.327870
617.340864	10841.336583
617.688990	10731.492361
618.037063	10831.481127
618.385082	10789.054776
618.733048	10813.758951
619.080961	10776.184711
619.428821	10752.181257
619.776628	10745.499207
620.124382	10680.445637
620.472083	10683.339260
620.819731	10688.355208
621.167326	10611.056675
621.514868	10574.805738
621.862357	10466.786414
622.209793	10451.216810
622.557176	10360.995280
622.904506	10300.932452
623.251783	10219.364063
623.599007	10143.910592
623.946179	10092.092572
624.293297	10058.584022
624.640363	9921.983877
624.987376	9901.040403
625.334336	9821.178444
625.681243	9736.809693
626.028097	9698.817037
626.374899	9644.947267
626.721647	9610.037277
627.068343	9554.461076
627.414987	9486.395417
627.761577	9411.161237
628.108115	9433.919526
628.454600	9309.536616
628.801032	9306.234661
629.147412	9277.878170
629.493739	9233.352179
629.840014	9148.232296
630.186236	9173.196090
630.532405	9062.084018
630.878521	9074.490298
631.224585	9013.036112
631.570597	8931.553422
631.916556	8912.061800
632.262462	8883.894353
632.608316	8849.309517
632.954117	8809.141603
633.299866	8780.220504
633.645562	8744.347653
633.991206	8648.389289
634.336797	8551.019403
634.682336	8526.474025
635.027823	8468.636867
635.373257	8415.114936
635.718639	8340.067279
636.063968	8299.029766
636.409245	8195.207203
636.754470	8171.082761
637.099642	8111.067824
637.444762	8014.575099
637.789829	8009.191146
638.134845	7927.330370
638.479808	7892.380050
638.824719	7855.733382
639.169577	7767.777850
639.514383	7749.758246
639.859137	7678.128491
640.203839	7685.841456
640.548489	7609.359591
640.893086	7596.305523
641.237632	7520.524378
641.582125	7507.553489
641.926566	7481.813357
642.270955	7451.097607
642.615292	7432.213445
642.959576	7392.398412
643.303809	7368.362190
643.647990	7364.135182
643.992118	7320.947617
644.336195	7292.825541
644.680219	7279.332892
645.024192	7280.315917
645.368112	7311.790362
645.711981	7278.788448
646.055797	7354.229315
646.399562	7305.695607
646.743274	7397.227837
647.086935	7423.908144
647.430544	7388.920015
647.774101	7379.183027
648.117606	7378.739405
648.461059	7403.438538
648.804460	7334.432704
649.147810	7235.673980
649.491108	7191.793256
649.834354	7135.949874
650.177548	7017.628952
650.520690	6941.613393
650.863781	6914.900319
651.206820	6879.609722
651.549807	6805.091386
651.892742	6730.076496
652.235626	6679.735533
652.578458	6637.389841
652.921238	6548.302570
653.263967	6548.594957
653.606644	6489.517675
653.949269	6462.038346
654.291843	6392.614096
654.634365	6415.397590
654.976836	6350.820410
655.319255	6328.651936
655.661622	6301.996835
656.003938	6259.641060
656.346203	6223.203600
656.688416	6225.908179
657.030577	6179.327917
657.372687	6142.698894
657.714746	6143.119830
658.056753	6134.759076
658.398708	6058.982972
658.740612	6029.434249
659.082465	6044.915632
659.424266	5996.190360
659.766016	5988.621068
660.107715	5960.693075
660.449362	5952.317198
660.790958	5932.097130
661.132503	5909.674078
661.473996	5892.811418
661.815438	5883.644080
662.156829	5884.337238
662.498168	5831.878992
662.839456	5817.022711
663.180693	5809.244211
663.521879	5807.867976
663.863013	5784.005674
664.204097	5758.502477
664.545129	5782.654645
664.886110	5756.470892
665.227040	5742.511937
665.567918	5734.529270
665.908746	5721.964194
666.249522	5708.978181
666.590248	5696.624834
666.930922	5686.280386
667.271545	5662.960008
667.612118	5654.410212
667.952639	5623.044152
668.293109	5605.881544
668.633528	5572.388118
668.973896	5549.004726
669.314213	5531.383372
669.654480	5493.118494
669.994695	5475.892872
670.334859	5447.594354
670.674973	5418.907668
671.015035	5416.613943
671.355047	5393.996807
671.695008	5367.409761
672.034918	5341.140309
672.374777	5326.780582
672.714585	5302.114216
673.054342	5297.569616
673.394049	5264.371097
673.733705	5269.588692
674.073310	5231.628803
674.412864	5215.111463
674.752368	5168.475748
675.091820	5179.730124
675.431223	5130.649450
675.770574	5094.007824
676.109875	5059.097833
676.449125	5026.957957
676.788324	5001.923587
677.127473	4951.998520
677.466571	4926.306279
677.805619	4885.966966
678.144616	4871.085480
678.483562	4845.758723
678.822458	4810.601716
679.161303	4785.816883
679.500098	4763.560189
679.838842	4744.388681
680.177535	4731.352257
680.516179	4730.664140
680.854771	4724.438315
681.193314	4755.794292
681.531805	4807.841684
681.870247	4845.680585
682.208638	4900.719903
682.546978	4914.696502
682.885268	4908.770626
683.223508	4868.605232
683.561697	4829.049819
683.899836	4802.097290
684.237925	4756.003499
684.575963	4732.998194
684.913951	4688.716698
685.251889	4681.225544
685.589776	4666.916229
685.927614	4645.992920
686.265401	4643.174915
686.603137	4628.986587
686.940824	4648.364782
687.278460	4660.080424
687.616046	4651.901152
687.953582	4681.701933
688.291068	4667.889171
688.628504	4679.670348
688.965889	4672.017876
689.303224	4636.981857
689.640510	4608.680819
689.977745	4555.002613
690.314930	4495.393490
690.652065	4455.046615
690.989150	4393.302563
691.326185	4327.737316
691.663170	4274.578348
692.000105	4218.601376
692.336990	4165.883510
692.673825	4125.642499
693.010610	4082.812856
693.347345	4033.472563
693.684030	3986.776355
694.020665	3957.033547
694.357251	3910.864139
694.693786	3898.281419
695.030272	3873.610012
695.366707	3834.563755
695.703093	3805.672903
696.039429	3792.840646
696.375716	3770.354579
696.711952	3758.361674
697.048139	3743.147472
697.384276	3728.215574
697.720363	3726.594843
698.056400	3712.512380
698.392388	3691.394986
698.728326	3684.536496
699.064214	3666.794155
699.400053	3657.100017
699.735842	3630.611274
700.071581	3605.927264
700.407270	3584.426743
700.742910	3566.858322
701.078501	3547.316289
701.414042	3522.201260
701.749533	3500.428517
702.084974	3477.798777
702.420366	3477.677789
702.755709	3453.384469
703.091002	3429.600305
703.426246	3423.497988
703.761440	3410.466606
704.096584	3391.632855
704.431679	3380.711195
704.766725	3370.737272
705.101721	3358.867876
705.436668	3359.142618
705.771565	3339.351048
706.106413	3346.675845
706.441212	3339.164526
706.775961	3338.206707
707.110661	3331.028103
707.445311	3340.167715
707.779913	3327.116168
708.114465	3333.939370
708.448967	3338.622602
708.783421	3362.437013
709.117825	3365.890203
709.452180	3370.959083
709.786485	3382.291597
710.120742	3411.802512
710.454949	3411.863005
710.789107	3426.384049
711.123216	3456.283132
711.457275	3460.724389
711.791286	3484.962257
712.125247	3487.001403
712.459159	3477.813901
712.793023	3502.495390
713.126837	3460.096765
713.460602	3459.459059
713.794318	3436.746141
714.127985	3415.427101
714.461602	3371.972355
714.795171	3360.962475
715.128691	3318.445383
715.462162	3288.568985
715.795584	3262.304574
716.128957	3244.715988
716.462281	3221.841752
716.795556	3206.226778
717.128782	3181.636030
717.461960	3156.823471
717.795088	3144.843168
718.128167	3128.446816
718.461198	3109.461830
718.794180	3097.705859
719.127113	3083.104157
719.459997	3070.362641
719.792833	3054.228428
720.125619	3050.508057
720.458357	3033.196734
720.791046	3027.021321
721.123686	3019.094106
721.456278	3006.095491
721.788821	3000.043586
722.121315	2988.209477
722.453761	2989.953717
722.786158	2980.962819
723.118506	2980.690596
723.450805	2973.174236
723.783056	2972.050059
724.115259	2970.509986
724.447412	2964.833647
724.779518	2967.427321
725.111574	2966.691312
725.443582	2967.283648
725.775542	2966.779532
726.107453	2976.511480
726.439315	2969.721046
726.771129	2981.565237
727.102895	2989.270640
727.434612	2995.998060
727.766281	2998.995026
728.097901	3007.360821
728.429473	3003.733711
728.760996	3002.707836
729.092471	2998.783298
729.423897	2994.896568
729.755276	2985.910711
730.086606	2984.847028
730.417887	2991.594612
730.749120	3000.386384
731.080305	3003.332939
731.411442	3007.191942
731.742530	3005.916530
732.073570	3004.492404
732.404562	3009.354597
732.735506	3004.225223
733.066401	2998.052330
733.397249	2983.894250
733.728048	2963.671661
734.058798	2938.473453
734.389501	2916.675504
734.720156	2901.277300
735.050762	2883.915566
735.381320	2869.160109
735.711831	2859.329859
736.042293	2847.508353
736.372707	2846.187571
736.703073	2840.816221
737.033391	2839.273628
737.363661	2837.642815
737.693883	2841.688341
738.024056	2842.588187
738.354182	2844.007272
738.684260	2852.889785
739.014290	2857.915815
739.344272	2862.634335
739.674207	2868.038452
740.004093	2876.273177
740.333931	2871.383257
740.663722	2873.167826
740.993464	2872.320912
741.323159	2863.433358
741.652806	2854.487830
741.982405	2849.144207
742.311956	2840.435614
742.641460	2835.777588
742.970915	2824.467759
743.300323	2814.667756
743.629683	2807.378248
743.958996	2801.381795
744.288260	2790.865948
744.617477	2782.510236
744.946647	2772.427928
745.275768	2767.797628
745.604842	2761.027359
745.933869	2757.370002
746.262847	2755.663571
746.591778	2753.594177
746.920662	2750.972777
747.249498	2749.644433
747.578286	2749.256264
747.907027	2753.142994
748.235720	2756.074425
748.564365	2754.657861
748.892963	2752.412027
749.221514	2753.163159
749.550017	2748.517735
749.878473	2748.409351
750.206881	2745.785430
750.535242	2740.862743
750.863555	2738.105232
751.191821	2734.359655
751.520039	2733.779922
751.848210	2730.253635
752.176334	2728.189282
752.504411	2727.607029
752.832440	2725.643500
753.160421	2723.342213
753.488356	2721.658468
753.816243	2723.173334
754.144082	2718.981615
754.471875	2717.171841
754.799620	2715.722509
755.127318	2710.363762
755.454969	2709.032898
755.782572	2711.795450
756.110129	2709.408464
756.437638	2709.083309
756.765100	2706.111549
757.092515	2707.281097
757.419882	2706.991231
757.747203	2705.922506
758.074477	2706.489636
758.401703	2705.499049
758.728882	2706.388813
759.056014	2711.074565
759.383099	2711.112374
759.710138	2712.440718
760.037129	2715.631768
760.364073	2711.704709
760.690970	2711.278732
761.017820	2711.435008
761.344623	2711.561037
761.671379	2713.910214
761.998088	2712.846531
762.324751	2730.664489
762.651366	2759.267996
762.977935	2807.171560
763.304456	2842.855368
763.630931	2862.659541
763.957359	2850.023889
764.283740	2831.621157
764.610074	2805.921354
764.936362	2777.209462
765.262602	2756.190372
765.588796	2735.355283
765.914943	2716.766028
766.241044	2705.196580
766.567097	2693.143181
766.893104	2682.360153
767.219064	2675.526869
767.544978	2671.188956
767.870845	2666.651917
768.196665	2662.548418
768.522438	2660.763850
768.848165	2657.802172
769.173846	2653.098775
769.499479	2649.970739
769.825066	2648.382776
770.150607	2646.036119
770.476101	2645.380769
770.801548	2643.240799
771.126949	2639.727115
771.452303	2638.658390
771.777611	2633.917185
772.102872	2635.515231
772.428087	2635.167391
772.753256	2633.070271
773.078378	2629.249077
773.403453	2628.742441
773.728482	2625.606843
774.053465	2625.574075
774.378401	2623.802110
774.703291	2624.394445
775.028135	2622.156173
775.352932	2622.693056
775.677683	2620.613580
776.002388	2617.203239
776.327046	2617.878754
776.651658	2620.064094
776.976224	2613.765173
777.300743	2615.814402
777.625216	2612.761983
777.949643	2614.004627
778.274024	2616.789865
778.598359	2611.083279
778.922647	2612.767024
779.246889	2609.374328
779.571086	2606.586569
779.895236	2609.689400
780.219339	2611.962960
780.543397	2611.637806
780.867409	2613.230810
781.191374	2612.603187
781.515294	2609.573453
781.839167	2609.591097
782.162995	2611.882302
782.486776	2611.655450
782.810511	2609.276025
783.134201	2608.421549
783.457844	2608.847527
783.781441	2610.838783
784.104993	2607.536827
784.428498	2607.831734
784.751958	2607.287290
785.075372	2609.480192
785.398739	2605.568256
785.722061	2605.026332
786.045337	2606.460541
786.368568	2607.672938
786.691752	2605.525407
787.014891	2608.199739
787.337983	2612.015892
787.661030	2615.915225
787.984031	2620.147273
788.306987	2622.559465
788.629897	2623.565176
788.952760	2623.129116
789.275579	2622.821605
789.598351	2618.052674
789.921078	2614.884309
790.243759	2615.161572
790.566395	2610.551437
790.888984	2608.076230
791.211529	2606.208483
791.534027	2605.669079
791.856480	2601.000971
792.178888	2602.074737
792.501249	2600.847216
792.823566	2602.145313
793.145836	2601.467278
793.468062	2600.844695
793.790241	2601.033738
794.112375	2601.890735
794.434464	2599.428131
794.756507	2599.788573
795.078505	2600.670775
795.400457	2601.918461
795.722364	2598.586258
796.044226	2605.633791
796.366042	2605.268308
796.687812	2604.247474
797.009538	2611.027826
797.331218	2609.581015
797.652852	2609.533124
797.974442	2605.805191
798.295986	2604.557505
798.617484	2603.839141
798.938938	2604.560026
799.260346	2601.255549
799.581709	2601.646239
799.903026	2601.144644
800.224299	2596.161463
800.545526	2600.164139
800.866708	2597.083994
801.187845	2598.346803
801.508936	2595.186000
801.829983	2599.198758
802.150984	2595.569128
802.471940	2595.095259
802.792851	2594.195413
803.113717	2596.458891
803.434538	2595.516196
803.755314	2593.824888
804.076045	2594.712132
804.396731	2593.897985
804.717372	2595.773294
805.037967	2595.654827
805.358518	2593.746751
805.679024	2598.021649
805.999485	2593.774477
806.319901	2596.869745
806.640272	2593.739189
806.960598	2595.188521
807.280879	2595.732965
807.601115	2595.745568
807.921306	2593.540063
808.241453	2594.059302
808.561554	2592.032758
808.881611	2593.923191
809.201623	2597.570466
809.521590	2594.439909
809.841513	2594.981833
810.161390	2594.563417
810.481223	2591.271544
810.801011	2593.847574
811.120755	2591.211050
811.440453	2593.477049
811.760107	2592.168869
812.079716	2589.388673
812.399281	2590.144846
812.718801	2588.249372
813.038276	2585.915318
813.357707	2590.646441
813.677093	2589.875144
813.996434	2591.498396
814.315731	2591.044692
814.634983	2589.544949
814.954191	2590.502768
815.273354	2590.906060
815.592473	2589.305494
815.911547	2590.633838
816.230577	2591.175762
816.549562	2591.301791
816.868502	2597.424272
817.187399	2593.282964
817.506250	2596.237081
817.825058	2593.981164
818.143821	2597.358737
818.462539	2598.540888
818.781213	2596.355548
819.099843	2599.962493
819.418429	2605.969028
819.736970	2613.371962
820.055466	2616.444546
820.373919	2623.968468
820.692327	2631.590692
821.010691	2646.578043
821.329011	2687.454239
821.647286	2766.038266
821.965517	2863.367823
822.283704	2935.728545
822.601847	2973.068372
822.919945	2939.043104
823.237999	2900.879049
823.556010	2860.108717
823.873976	2821.291832
824.191897	2787.697583
824.509775	2759.144488
824.827609	2730.062071
825.145398	2706.209852
825.463144	2692.722245
825.780845	2684.984073
826.098502	2691.202337
826.416116	2699.409335
826.733685	2715.883826
827.051210	2726.555949
827.368692	2721.403889
827.686129	2705.541899
828.003522	2684.174968
828.320872	2665.835251
828.638177	2650.966367
828.955439	2641.746097
829.272656	2633.027421
829.589830	2624.228087
829.906960	2620.338837
830.224046	2612.814915
830.541088	2608.043463
830.858086	2603.519027
831.175041	2602.447782
831.491952	2596.733634
831.808819	2598.114910
832.125642	2598.223295
832.442421	2600.348142
832.759157	2607.456168
833.075849	2621.092490
833.392497	2634.459109
833.709101	2645.726088
834.025662	2650.119453
834.342179	2647.114926
834.658653	2638.315592
834.975083	2630.463995
835.291469	2621.858745
835.607811	2615.466562
835.924110	2607.700664
836.240366	2605.414501
836.556578	2600.454006
836.872746	2599.569283
837.188871	2592.899837
837.504952	2594.281113
837.820990	2587.586461
838.136984	2584.647468
838.452935	2585.514546
838.768842	2582.552868
839.084706	2582.996490
839.400526	2589.323138
839.716303	2597.615836
840.032037	2602.044490
840.347727	2605.114553
840.663373	2602.457864
840.978977	2598.069540
841.294537	2597.361258
841.610054	2590.533015
841.925527	2589.802048
842.240957	2588.536718
842.556344	2589.567634
842.871687	2582.605801
843.186987	2583.722416
843.502244	2580.753177
843.817458	2579.230748
844.132629	2578.966087
844.447756	2577.912486
844.762840	2572.314285
845.077881	2573.383010
845.392879	2572.284038
845.707833	2572.689851
846.022745	2571.747155
846.337613	2575.296127
846.652438	2575.318813
846.967221	2574.217321
847.281960	2572.755386
847.596656	2575.926272
847.911309	2574.792012
848.225919	2575.207907
848.540485	2574.479461
848.855009	2574.744121
849.169490	2578.749318
849.483928	2575.528021
849.798323	2573.430901
850.112675	2573.599779
850.426984	2575.427197
850.741251	2572.609192
851.055474	2573.723287
851.369654	2574.141703
851.683792	2573.503997
851.997887	2574.741601
852.311938	2574.287897
852.625947	2574.106415
852.939914	2573.798905
853.253837	2573.128431
853.567718	2572.392423
853.881555	2572.934347
854.195350	2574.275294
854.509103	2571.137176
854.822812	2573.498956
855.136479	2574.938206
855.450103	2573.004923
855.763685	2573.909810
856.077224	2572.589028
856.390720	2574.950808
856.704173	2572.135324
857.017584	2574.005592
857.330953	2574.048442
857.644278	2575.369224
857.957561	2573.874522
858.270802	2575.132290
858.584000	2573.410736
858.897155	2573.514080
859.210268	2575.505335
859.523339	2571.525344
859.836367	2572.813359
860.149352	2573.811508
860.462295	2576.553895
860.775195	2570.053327
861.088054	2572.145406
861.400869	2571.366548
861.713642	2570.459140
862.026373	2572.941909
862.339062	2571.611044
862.651708	2574.333267
862.964312	2573.377968
863.276873	2573.675397
863.589392	2573.897207
863.901869	2575.253278
864.214303	2574.799574
864.526696	2573.824111
864.839045	2575.449883
865.151353	2575.102043
865.463619	2574.620613
865.775842	2576.642116
866.088023	2577.012640
866.400162	2574.512228
866.712258	2576.644636
867.024313	2576.382496
867.336325	2574.877712
867.648296	2576.863926
867.960224	2575.417115
868.272110	2575.248237
868.583954	2576.364852
868.895755	2574.073648
869.207515	2579.611355
869.519233	2576.803432
869.830909	2573.572053
870.142542	2578.542631
870.454134	2573.577094
870.765684	2575.036508
871.077191	2578.277970
871.388657	2577.075655
871.700081	2575.777558
872.011463	2577.088258
872.322803	2578.015830
872.634101	2578.154462
872.945357	2575.893504
873.256571	2579.933989
873.567744	2579.112281
873.878874	2579.175295
874.189963	2579.061869
874.501010	2580.806109
874.812015	2576.879050
875.122979	2577.887281
875.433900	2577.052970
875.744780	2579.858372
876.055618	2579.848289
876.366415	2580.440625
876.677169	2580.871644
876.987882	2575.918710
877.298554	2576.170768
877.609183	2574.650860
877.919771	2577.267219
878.230317	2577.783937
878.540822	2585.345668
878.851285	2584.292067
879.161707	2586.205184
879.472087	2588.967737
879.782425	2593.865218
880.092722	2605.669079
880.402977	2618.788682
880.713191	2643.681900
881.023363	2667.566887
881.333494	2685.326872
881.643583	2696.717359
881.953631	2698.242308
882.263637	2692.644107
882.573602	2687.106399
882.883526	2678.354956
883.193408	2671.937567
883.503248	2664.637977
883.813048	2656.917449
884.122806	2649.937972
884.432522	2643.802888
884.742197	2632.089767
885.051831	2624.747326
885.361424	2613.850872
885.670975	2609.470109
885.980485	2603.491301
886.289954	2601.963831
886.599382	2597.590630
886.908768	2595.851432
887.218113	2591.508478
887.527417	2590.729620
887.836680	2588.277099
888.145901	2587.684763
888.455082	2583.160327
888.764221	2583.873651
889.073319	2581.567323
889.382376	2581.930286
889.691392	2579.266036
890.000366	2583.412385
890.309300	2581.574885
890.618193	2578.058680
890.927044	2581.811819
891.235855	2581.146387
891.544625	2580.304514
891.853353	2580.753177
892.162041	2586.038826
892.470687	2583.006572
892.779293	2584.506316
893.087858	2581.811819
893.396381	2586.164855
893.704864	2585.454052
894.013306	2595.241453
894.321707	2605.364090
894.630068	2607.831734
894.938387	2611.385748
895.246665	2612.010851
895.554903	2609.812908
895.863100	2608.275356
896.171256	2603.634974
896.479371	2602.253698
896.787446	2600.806887
897.095480	2597.457040
897.403473	2594.462594
897.711425	2593.000660
898.019336	2591.596698
898.327207	2591.014445
898.635038	2587.110072
898.942827	2587.939341
899.250576	2585.002869
899.558284	2582.958681
899.865952	2581.123701
900.173579	2580.054977
900.481165	2579.744946
900.788711	2579.029102
901.096216	2578.860223
901.403681	2579.114802
901.711105	2576.722774
902.018489	2575.275963
902.325832	2581.035481
902.633135	2579.618917
902.940397	2579.702096
903.247619	2582.600759
903.554800	2589.426482
903.861941	2597.184817
904.169041	2611.773917
904.476101	2615.317848
904.783121	2618.488734
905.090100	2616.318517
905.397039	2610.558999
905.703938	2608.008175
906.010796	2604.605396
906.317614	2599.932246
906.624391	2601.840323
906.931129	2592.315063
907.237826	2592.683067
907.544483	2589.421441
907.851099	2587.548652
908.157675	2584.024885
908.464211	2580.503639
908.770707	2578.071283
909.077163	2575.006261
909.383578	2576.400140
909.689954	2572.268915
909.996289	2571.424521
910.302584	2573.501477
910.608839	2571.593400
910.915054	2575.268401
911.221229	2571.285890
911.527363	2573.483833
911.833458	2574.479461
912.139513	2574.265212
912.445527	2573.998030
912.751502	2575.885942
913.057436	2573.186405
913.363331	2578.814853
913.669186	2577.809143
913.975000	2578.822415
914.280775	2579.268557
914.586510	2582.600759
914.892205	2588.231728
915.197859	2594.253387
915.503475	2600.595158
915.809050	2607.395675
916.114585	2611.358022
916.420081	2615.607714
916.725536	2618.140894
917.030952	2614.659977
917.336328	2612.320882
917.641665	2611.854575
917.946961	2607.947681
918.252218	2605.374172
918.557435	2604.796960
918.862612	2600.176742
919.167750	2597.394025
919.472848	2595.997626
919.777906	2591.964703
920.082925	2590.585947
920.387904	2588.115782
920.692843	2585.300297
920.997743	2582.946078
921.302603	2583.548496
921.607423	2580.231417
921.912204	2579.969277
922.216946	2580.428022
922.521647	2579.571026
922.826310	2575.177660
923.130932	2577.259657
923.435516	2574.282856
923.740059	2574.124059
924.044564	2575.036508
924.349028	2573.942578
924.653454	2570.950653
924.957840	2570.055848
925.262186	2570.323029
925.566493	2571.832855
925.870761	2568.457802
926.174989	2569.191290
926.479178	2569.995354
926.783328	2570.002916
927.087438	2569.065261
927.391509	2570.983420
927.695541	2570.698595
927.999533	2569.708008
928.303486	2569.503842
928.607400	2571.101887
928.911275	2570.958215
929.215110	2568.992165
929.518906	2566.947977
929.822663	2567.678944
930.126381	2567.676423
930.430060	2568.402350
930.733699	2567.767164
931.037299	2568.601475
931.340861	2565.954869
931.644383	2568.664490
931.947866	2568.185580
932.251309	2569.370251
932.554714	2567.636094
932.858080	2571.222875
933.161407	2566.922771
933.464694	2569.992834
933.767943	2569.269428
934.071153	2570.514593
934.374323	2568.830848
934.677455	2569.362689
934.980548	2566.383368
935.283602	2567.656259
935.586617	2569.254305
935.889593	2563.222564
936.192530	2566.884962
936.495428	2566.645508
936.798287	2568.069633
937.101108	2566.287586
937.403890	2570.043245
937.706632	2566.670713
938.009336	2569.418142
938.312002	2570.958215
938.614628	2570.900241
938.917216	2570.476784
939.219765	2570.837227
939.522275	2570.038204
939.824747	2572.689851
940.127179	2567.426886
940.429573	2566.085939
940.731929	2567.865467
941.034246	2570.300344
941.336524	2568.530899
941.638763	2572.473081
941.940964	2570.449058
942.243126	2572.846127
942.545250	2571.084243
942.847335	2571.774882
943.149381	2568.747669
943.451389	2570.169274
943.753359	2568.903944
944.055290	2570.706157
944.357182	2570.078533
944.659036	2569.440827
944.960851	2570.355797
945.262628	2566.824468
945.564367	2568.457802
945.866067	2569.758420
946.167729	2566.421176
946.469352	2569.279510
946.770937	2569.392936
947.072484	2566.688357
947.373992	2570.615416
947.675462	2567.827658
947.976893	2568.891342
948.278286	2566.532082
948.579641	2567.789849
948.880958	2567.278172
949.182236	2566.388409
949.483476	2566.905127
949.784678	2568.901424
950.085841	2569.382854
950.386967	2568.772874
950.688054	2569.458471
950.989103	2570.237330
951.290114	2569.413101
951.591087	2564.618964
951.892021	2567.956207
952.192917	2570.171795
952.493776	2566.801783
952.794596	2570.398647
953.095378	2567.192473
953.396122	2569.231619
953.696828	2571.497618
953.997496	2571.139696
954.298126	2568.097360
954.598718	2569.410580
954.899272	2568.765313
955.199788	2566.222051
955.500266	2569.395457
955.800706	2567.074006
956.101108	2564.014025
956.401472	2564.475291
956.701798	2564.082081
957.002087	2564.150136
957.302337	2561.901782
957.602550	2565.027297
957.902724	2566.612740
958.202861	2564.253480
958.502960	2564.422359
958.803022	2568.591393
959.103045	2566.320353
959.403031	2566.363203
959.702979	2564.228274
960.002889	2566.673234
960.302762	2566.300188
960.602596	2561.990002
960.902393	2564.495455
961.202153	2564.727348
961.501875	2562.660475
961.801559	2566.905127
962.101205	2563.346072
962.400814	2567.305899
962.700385	2565.544015
962.999918	2564.868501
963.299414	2564.729869
963.598873	2563.719118
963.898293	2561.488407
964.197677	2561.685012
964.497022	2560.399518
964.796331	2562.985630
965.095601	2563.235167
965.394835	2562.310115
965.694030	2559.781977
965.993189	2564.863460
966.292309	2562.874724
966.591393	2562.993192
966.890439	2563.474622
967.189447	2562.282389
967.488419	2562.428582
967.787353	2562.695763
968.086249	2563.341031
968.385108	2563.290620
968.683930	2561.566545
968.982714	2561.695094
969.281462	2564.687019
969.580172	2560.951524
969.878844	2560.825495
970.177480	2564.228274
970.476078	2563.116700
970.774639	2563.149467
971.073162	2563.363716
971.371649	2560.830537
971.670098	2559.915567
971.968510	2559.156873
972.266885	2560.828016
972.565223	2563.678788
972.863524	2563.053685
973.161788	2564.455126
973.460014	2563.242729
973.758204	2563.978737
974.056356	2562.156360
974.354471	2562.325239
974.652550	2564.203068
974.950591	2562.705846
975.248595	2562.690722
975.546563	2563.666186
975.844493	2560.608726
976.142386	2562.448747
976.440243	2562.315156
976.738062	2562.181566
977.035845	2563.167111
977.333590	2561.818603
977.631299	2560.737275
977.928971	2562.481514
978.226606	2561.301884
978.524204	2563.182235
978.821765	2563.298181
979.119290	2563.580486
979.416777	2561.566545
979.714228	2562.673078
980.011642	2562.229457
980.309020	2568.036866
980.606360	2561.526216
980.903664	2563.547718
981.200931	2564.346741
981.498162	2563.431772
981.795356	2562.577296
982.092513	2563.767009
982.389633	2564.833213
982.686717	2564.666855
982.983764	2569.581980
983.280775	2568.271280
983.577749	2568.863615
983.874686	2567.699109
984.171587	2569.700447
984.468451	2569.869325
984.765279	2567.215158
985.062070	2566.698440
985.358824	2565.150805
985.655543	2564.293809
985.952224	2566.847154
986.248869	2564.419838
986.545478	2557.805844
986.842050	2563.484704
987.138586	2561.337173
987.435086	2555.958261
987.731549	2558.708211
988.027975	2561.863973
988.324366	2562.012687
988.620719	2560.260886
988.917037	2561.364899
989.213318	2562.143757
989.509563	2559.366081
989.805772	2560.785166
990.101944	2557.142932
990.398080	2560.938921
990.694180	2559.502193
990.990244	2558.872048
991.286271	2560.417162
991.582262	2559.683674
991.878217	2561.047306
992.174136	2559.199723
992.470019	2561.785835
992.765865	2562.191648
993.061676	2562.116031
993.357450	2559.681153
993.653188	2560.424724
993.948890	2562.254663
994.244556	2560.454971
994.540186	2560.162584
994.835780	2562.998233
995.131337	2562.131154
995.426859	2561.450598
995.722345	2560.613767
996.017795	2561.332131
996.313208	2562.952862
996.608586	2561.949673
996.903928	2562.700805
997.199234	2562.320197
997.494504	2566.965621
997.789738	2563.051165
998.084936	2562.156360
998.380099	2561.821123
998.675225	2563.630898
998.970316	2561.909343
999.265371	2563.991340
999.560390	2563.116700
999.855373	2561.392625
1000.150320	2560.107131
1000.445232	2562.310115
1000.740108	2559.547563
1001.034948	2560.114693
1001.329752	2561.362378
1001.624521	2559.834909
1001.919254	2555.625545
1002.213951	2557.518498
1002.508613	2554.985319
1002.803239	2555.068498
1003.097829	2554.317366
1003.392384	2555.020607
1003.686903	2562.063099
1003.981386	2561.833726
1004.275834	2558.226781
1004.570246	2559.935732
1004.864623	2556.704352
1005.158964	2559.136709
1005.453270	2558.859445
1005.747540	2556.744681
1006.041775	2556.656461
1006.335974	2556.754764
1006.630138	2558.867007
1006.924266	2559.222408
1007.218359	2559.328273
1007.512416	2558.025134
1007.806438	2558.990515
1008.100425	2555.779300
1008.394376	2556.351471
1008.688292	2555.892726
1008.982172	2558.219219
1009.276017	2558.302398
1009.569827	2557.770556
1009.863602	2558.607388
1010.157341	2559.839950
1010.451045	2559.116544
1010.744714	2557.342058
1011.038347	2558.410783
1011.331945	2559.194682
1011.625508	2558.201575
1011.919036	2557.964641
1012.212528	2556.747202
1012.505986	2557.478169
1012.799408	2559.613098
1013.092795	2555.784342
1013.386147	2555.814588
1013.679464	2558.942624
1013.972745	2558.410783
1014.265992	2558.158725
1014.559204	2561.279199
1014.852380	2559.136709
1015.145521	2557.858776
1015.438628	2556.601008
1015.731699	2558.345248
1016.024736	2557.037068
1016.317737	2556.752243
1016.610703	2559.035886
1016.903635	2555.819630
1017.196531	2553.238559
1017.489393	2553.881306
1017.782219	2554.466080
1018.075011	2552.822664
1018.367768	2556.653941
1018.660490	2558.725855
1018.953177	2558.725855
1019.245829	2558.725855
