Dividing Wavelength (nm)	Counts (n)	Blue Motor Position (mm): 0.000000	Red Motor Position (mm): 1.900000	
326.493990	2114.764038
326.888308	2114.764038
327.282561	2114.764038
327.676750	2061.831923
328.070874	2034.105577
328.464933	2074.434808
328.858929	2039.146731
329.252859	2102.161154
329.646726	2079.475962
330.040528	2099.640577
330.434265	2210.545962
330.827938	2213.066538
331.221547	2165.175577
331.615091	2197.943077
332.008571	2238.272308
332.401986	2192.901923
332.795338	2225.669423
333.188625	2245.834038
333.581847	2313.889615
333.975006	2278.601538
334.368100	2311.369038
334.761129	2326.492500
335.154095	2376.904038
335.546996	2371.862885
335.939833	2460.083077
336.332606	2364.301154
336.725315	2366.821731
337.117960	2462.603654
337.510540	2480.247692
337.903056	2424.795000
338.295508	2462.603654
338.687896	2417.233269
339.080220	2450.000769
339.472480	2399.589231
339.864676	2482.768269
340.256807	2505.453462
340.648875	2422.274423
341.040879	2515.535769
341.432818	2450.000769
341.824694	2490.330000
342.216506	2467.644808
342.608253	2480.247692
342.999937	2392.027500
343.391557	2414.712692
343.783113	2399.589231
344.174605	2376.904038
344.566033	2439.918462
344.957397	2535.700385
345.348697	2492.850577
345.739934	2394.548077
346.131106	2482.768269
346.522215	2505.453462
346.913260	2407.150962
347.304241	2470.165385
347.695159	2432.356731
348.086012	2485.288846
348.476802	2482.768269
348.867528	2462.603654
349.258191	2475.206538
349.648789	2450.000769
350.039324	2422.274423
350.429796	2414.712692
350.820203	2434.877308
351.210548	2437.397885
351.600828	2444.959615
351.991045	2394.548077
352.381198	2437.397885
352.771288	2432.356731
353.161314	2422.274423
353.551276	2311.369038
353.941175	2462.603654
354.331010	2452.521346
354.720782	2500.412308
355.110490	2450.000769
355.500135	2495.371154
355.889717	2475.206538
356.279235	2480.247692
356.668689	2444.959615
357.058080	2465.124231
357.447408	2457.562500
357.836672	2477.727115
358.225873	2404.630385
358.615010	2376.904038
359.004084	2397.068654
359.393095	2442.439038
359.782043	2321.451346
360.170927	2497.891731
360.559748	2407.150962
360.948505	2427.315577
361.337199	2429.836154
361.725830	2550.823846
362.114398	2432.356731
362.502903	2457.562500
362.891344	2457.562500
363.279722	2444.959615
363.668037	2485.288846
364.056289	2550.823846
364.444478	2452.521346
364.832603	2518.056346
365.220665	2467.644808
365.608665	2417.233269
365.996601	2500.412308
366.384474	2485.288846
366.772284	2457.562500
367.160031	2417.233269
367.547715	2447.480192
367.935336	2439.918462
368.322893	2482.768269
368.710388	2487.809423
369.097820	2523.097500
369.485189	2482.768269
369.872495	2450.000769
370.259738	2419.753846
370.646918	2492.850577
371.034035	2439.918462
371.421090	2419.753846
371.808081	2510.494615
372.195010	2505.453462
372.581875	2470.165385
372.968678	2520.576923
373.355418	2394.548077
373.742096	2369.342308
374.128710	2452.521346
374.515262	2490.330000
374.901751	2444.959615
375.288177	2437.397885
375.674540	2460.083077
376.060841	2444.959615
376.447079	2470.165385
376.833254	2422.274423
377.219367	2477.727115
377.605417	2424.795000
377.991404	2467.644808
378.377329	2409.671538
378.763191	2495.371154
379.148991	2366.821731
379.534727	2366.821731
379.920402	2467.644808
380.306013	2485.288846
380.691563	2452.521346
381.077049	2477.727115
381.462474	2518.056346
381.847835	2497.891731
382.233134	2507.974038
382.618371	2465.124231
383.003545	2533.179808
383.388657	2513.015192
383.773706	2492.850577
384.158693	2477.727115
384.543618	2427.315577
384.928480	2510.494615
385.313280	2394.548077
385.698017	2444.959615
386.082692	2392.027500
386.467305	2402.109808
386.851856	2480.247692
387.236344	2447.480192
387.620770	2437.397885
388.005133	2530.659231
388.389435	2455.041923
388.773674	2424.795000
389.157851	2513.015192
389.541965	2467.644808
389.926018	2394.548077
390.310008	2533.179808
390.693936	2497.891731
391.077802	2384.465769
391.461606	2462.603654
391.845348	2402.109808
392.229027	2460.083077
392.612645	2472.685962
392.996200	2492.850577
393.379694	2465.124231
393.763125	2434.877308
394.146494	2465.124231
394.529801	2495.371154
394.913047	2510.494615
395.296230	2452.521346
395.679351	2603.755962
396.062410	2492.850577
396.445408	2487.809423
396.828343	2465.124231
397.211217	2555.865000
397.594028	2485.288846
397.976778	2414.712692
398.359466	2447.480192
398.742092	2427.315577
399.124656	2538.220962
399.507158	2497.891731
399.889598	2477.727115
400.271977	2472.685962
400.654294	2402.109808
401.036549	2457.562500
401.418742	2397.068654
401.800874	2492.850577
402.182944	2379.424615
402.564952	2581.070769
402.946898	2417.233269
403.328783	2472.685962
403.710606	2439.918462
404.092367	2520.576923
404.474067	2444.959615
404.855705	2533.179808
405.237282	2450.000769
405.618797	2470.165385
406.000250	2434.877308
406.381642	2518.056346
406.762972	2444.959615
407.144240	2515.535769
407.525447	2545.782692
407.906593	2467.644808
408.287677	2467.644808
408.668700	2523.097500
409.049661	2402.109808
409.430560	2487.809423
409.811399	2442.439038
410.192176	2548.303269
410.572891	2490.330000
410.953545	2460.083077
411.334138	2502.932885
411.714669	2475.206538
412.095139	2427.315577
412.475547	2480.247692
412.855894	2450.000769
413.236180	2576.029615
413.616405	2457.562500
413.996568	2402.109808
414.376670	2470.165385
414.756711	2409.671538
415.136691	2452.521346
415.516609	2487.809423
415.896466	2565.947308
416.276262	2475.206538
416.655997	2475.206538
417.035670	2520.576923
417.415283	2482.768269
417.794834	2548.303269
418.174324	2528.138654
418.553753	2502.932885
418.933121	2470.165385
419.312428	2485.288846
419.691674	2442.439038
420.070859	2502.932885
420.449983	2419.753846
420.829045	2434.877308
421.208047	2543.262115
421.586988	2545.782692
421.965867	2419.753846
422.344686	2525.618077
422.723444	2402.109808
423.102141	2520.576923
423.480777	2538.220962
423.859352	2530.659231
424.237866	2452.521346
424.616319	2500.412308
424.994712	2475.206538
425.373044	2442.439038
425.751314	2530.659231
426.129524	2475.206538
426.507673	2520.576923
426.885762	2497.891731
427.263789	2510.494615
427.641756	2434.877308
428.019662	2487.809423
428.397508	2424.795000
428.775292	2563.426731
429.153016	2409.671538
429.530679	2507.974038
429.908282	2432.356731
430.285824	2502.932885
430.663305	2500.412308
431.040726	2540.741538
431.418086	2467.644808
431.795385	2485.288846
432.172624	2455.041923
432.549802	2495.371154
432.926920	2419.753846
433.303977	2523.097500
433.680974	2477.727115
434.057910	2427.315577
434.434786	2477.727115
434.811601	2465.124231
435.188355	2450.000769
435.565050	2422.274423
435.941683	2513.015192
436.318257	2437.397885
436.694770	2492.850577
437.071222	2439.918462
437.447614	2540.741538
437.823946	2535.700385
438.200218	2477.727115
438.576429	2576.029615
438.952580	2480.247692
439.328670	2515.535769
439.704700	2513.015192
440.080670	2482.768269
440.456580	2492.850577
440.832429	2475.206538
441.208218	2513.015192
441.583947	2530.659231
441.959616	2495.371154
442.335224	2460.083077
442.710773	2543.262115
443.086261	2384.465769
443.461689	2560.906154
443.837057	2452.521346
444.212365	2470.165385
444.587612	2480.247692
444.962800	2467.644808
445.337927	2384.465769
445.712995	2520.576923
446.088002	2500.412308
446.462949	2450.000769
446.837837	2452.521346
447.212664	2492.850577
447.587431	2515.535769
447.962139	2570.988462
448.336786	2475.206538
448.711374	2490.330000
449.085901	2480.247692
449.460369	2477.727115
449.834776	2515.535769
450.209124	2376.904038
450.583412	2565.947308
450.957640	2455.041923
451.331808	2497.891731
451.705917	2427.315577
452.079965	2497.891731
452.453954	2482.768269
452.827883	2487.809423
453.201752	2513.015192
453.575562	2513.015192
453.949311	2518.056346
454.323001	2460.083077
454.696632	2452.521346
455.070202	2485.288846
455.443713	2576.029615
455.817164	2492.850577
456.190556	2444.959615
456.563888	2399.589231
456.937160	2543.262115
457.310373	2457.562500
457.683526	2545.782692
458.056619	2442.439038
458.429653	2530.659231
458.802628	2444.959615
459.175542	2457.562500
459.548398	2507.974038
459.921194	2455.041923
460.293930	2475.206538
460.666607	2603.755962
461.039224	2507.974038
461.411782	2533.179808
461.784280	2538.220962
462.156719	2608.797115
462.529099	2455.041923
462.901419	2507.974038
463.273680	2485.288846
463.645882	2583.591346
464.018024	2507.974038
464.390106	2518.056346
464.762130	2472.685962
465.134094	2518.056346
465.505999	2565.947308
465.877845	2492.850577
466.249631	2548.303269
466.621358	2419.753846
466.993026	2538.220962
467.364634	2583.591346
467.736184	2510.494615
468.107674	2397.068654
468.479105	2444.959615
468.850477	2523.097500
469.221790	2455.041923
469.593043	2490.330000
469.964238	2422.274423
470.335373	2518.056346
470.706449	2409.671538
471.077467	2538.220962
471.448425	2475.206538
471.819324	2429.836154
472.190164	2578.550192
472.560945	2515.535769
472.931667	2497.891731
473.302330	2528.138654
473.672934	2525.618077
474.043479	2457.562500
474.413965	2477.727115
474.784393	2513.015192
475.154761	2482.768269
475.525070	2442.439038
475.895321	2427.315577
476.265513	2467.644808
476.635645	2500.412308
477.005719	2495.371154
477.375734	2455.041923
477.745691	2523.097500
478.115588	2487.809423
478.485427	2525.618077
478.855207	2538.220962
479.224928	2502.932885
479.594591	2384.465769
479.964194	2467.644808
480.333739	2497.891731
480.703226	2548.303269
481.072653	2460.083077
481.442022	2528.138654
481.811333	2507.974038
482.180584	2487.809423
482.549777	2447.480192
482.918912	2540.741538
483.287988	2492.850577
483.657005	2492.850577
484.025964	2452.521346
484.394864	2502.932885
484.763706	2424.795000
485.132489	2404.630385
485.501213	2545.782692
485.869879	2434.877308
486.238487	2495.371154
486.607036	2477.727115
486.975527	2513.015192
487.343959	2462.603654
487.712333	2518.056346
488.080648	2477.727115
488.448905	2492.850577
488.817104	2525.618077
489.185244	2530.659231
489.553326	2538.220962
489.921350	2528.138654
490.289315	2490.330000
490.657222	2467.644808
491.025070	2560.906154
491.392861	2492.850577
491.760593	2553.344423
492.128267	2485.288846
492.495883	2538.220962
492.863440	2480.247692
493.230939	2490.330000
493.598380	2470.165385
493.965763	2538.220962
494.333088	2437.397885
494.700354	2555.865000
495.067563	2520.576923
495.434713	2490.330000
495.801805	2568.467885
496.168839	2523.097500
496.535815	2437.397885
496.902733	2495.371154
497.269593	2450.000769
497.636395	2533.179808
498.003139	2555.865000
498.369825	2558.385577
498.736453	2518.056346
499.103023	2429.836154
499.469535	2455.041923
499.835989	2482.768269
500.202385	2462.603654
500.568723	2583.591346
500.935003	2444.959615
501.301226	2492.850577
501.667390	2530.659231
502.033497	2480.247692
502.399546	2520.576923
502.765537	2472.685962
503.131470	2510.494615
503.497345	2480.247692
503.863163	2394.548077
504.228923	2485.288846
504.594625	2510.494615
504.960269	2545.782692
505.325856	2535.700385
505.691385	2523.097500
506.056856	2487.809423
506.422270	2399.589231
506.787625	2523.097500
507.152924	2482.768269
507.518164	2465.124231
507.883347	2502.932885
508.248472	2444.959615
508.613540	2611.317692
508.978550	2490.330000
509.343503	2497.891731
509.708398	2505.453462
510.073236	2462.603654
510.438016	2455.041923
510.802738	2545.782692
511.167403	2507.974038
511.532010	2427.315577
511.896561	2470.165385
512.261053	2482.768269
512.625488	2487.809423
512.989866	2487.809423
513.354186	2558.385577
513.718449	2505.453462
514.082655	2444.959615
514.446803	2472.685962
514.810894	2507.974038
515.174927	2462.603654
515.538904	2482.768269
515.902822	2437.397885
516.266684	2520.576923
516.630488	2472.685962
516.994235	2555.865000
517.357925	2495.371154
517.721558	2422.274423
518.085133	2525.618077
518.448651	2525.618077
518.812112	2528.138654
519.175516	2563.426731
519.538863	2515.535769
519.902152	2502.932885
520.265385	2452.521346
520.628560	2417.233269
520.991678	2550.823846
521.354739	2432.356731
521.717743	2465.124231
522.080690	2495.371154
522.443580	2392.027500
522.806413	2505.453462
523.169189	2460.083077
523.531908	2507.974038
523.894569	2507.974038
524.257174	2485.288846
524.619722	2467.644808
524.982213	2525.618077
525.344647	2553.344423
525.707025	2588.632500
526.069345	2518.056346
526.431608	2528.138654
526.793815	2482.768269
527.155964	2550.823846
527.518057	2437.397885
527.880093	2472.685962
528.242072	2487.809423
528.603995	2495.371154
528.965860	2485.288846
529.327669	2497.891731
529.689421	2485.288846
530.051117	2563.426731
530.412755	2497.891731
530.774337	2497.891731
531.135862	2593.673654
531.497331	2432.356731
531.858743	2505.453462
532.220098	2452.521346
532.581396	2568.467885
532.942638	2485.288846
533.303824	2500.412308
533.664953	2528.138654
534.026025	2485.288846
534.387040	2523.097500
534.747999	2482.768269
535.108902	2429.836154
535.469748	2477.727115
535.830537	2548.303269
536.191270	2581.070769
536.551947	2495.371154
536.912567	2570.988462
537.273131	2528.138654
537.633638	2548.303269
537.994089	2500.412308
538.354483	2518.056346
538.714821	2515.535769
539.075103	2558.385577
539.435328	2593.673654
539.795497	2485.288846
540.155609	2518.056346
540.515665	2502.932885
540.875665	2487.809423
541.235609	2475.206538
541.595496	2477.727115
541.955328	2467.644808
542.315102	2444.959615
542.674821	2462.603654
543.034483	2513.015192
543.394090	2533.179808
543.753640	2412.192115
544.113134	2608.797115
544.472571	2505.453462
544.831953	2661.729231
545.191278	2480.247692
545.550548	2465.124231
545.909761	2427.315577
546.268918	2528.138654
546.628019	2505.453462
546.987064	2450.000769
547.346053	2543.262115
547.704986	2467.644808
548.063863	2447.480192
548.422684	2447.480192
548.781449	2555.865000
549.140158	2485.288846
549.498811	2472.685962
549.857408	2447.480192
550.215949	2507.974038
550.574434	2462.603654
550.932864	2492.850577
551.291237	2550.823846
551.649555	2528.138654
552.007817	2553.344423
552.366022	2520.576923
552.724173	2475.206538
553.082267	2419.753846
553.440305	2477.727115
553.798288	2510.494615
554.156215	2550.823846
554.514086	2457.562500
554.871902	2490.330000
555.229661	2543.262115
555.587365	2515.535769
555.945014	2560.906154
556.302606	2553.344423
556.660143	2485.288846
557.017625	2485.288846
557.375050	2533.179808
557.732421	2535.700385
558.089735	2434.877308
558.446994	2497.891731
558.804197	2462.603654
559.161345	2520.576923
559.518437	2462.603654
559.875474	2477.727115
560.232455	2538.220962
560.589381	2465.124231
560.946251	2535.700385
561.303065	2450.000769
561.659825	2513.015192
562.016528	2548.303269
562.373177	2477.727115
562.729770	2487.809423
563.086307	2545.782692
563.442789	2545.782692
563.799216	2447.480192
564.155587	2457.562500
564.511904	2528.138654
564.868164	2492.850577
565.224370	2507.974038
565.580520	2467.644808
565.936615	2598.714808
566.292654	2533.179808
566.648638	2510.494615
567.004567	2502.932885
567.360441	2563.426731
567.716260	2523.097500
568.072023	2540.741538
568.427732	2419.753846
568.783385	2555.865000
569.138982	2480.247692
569.494525	2530.659231
569.850013	2505.453462
570.205445	2490.330000
570.560823	2422.274423
570.916145	2505.453462
571.271412	2565.947308
571.626625	2497.891731
571.981782	2515.535769
572.336884	2505.453462
572.691931	2543.262115
573.046923	2548.303269
573.401860	2507.974038
573.756743	2472.685962
574.111570	2422.274423
574.466342	2510.494615
574.821059	2593.673654
575.175722	2487.809423
575.530330	2565.947308
575.884882	2485.288846
576.239380	2495.371154
576.593823	2490.330000
576.948211	2507.974038
577.302544	2578.550192
577.656823	2437.397885
578.011047	2538.220962
578.365216	2384.465769
578.719330	2548.303269
579.073389	2492.850577
579.427394	2513.015192
579.781344	2487.809423
580.135239	2507.974038
580.489080	2472.685962
580.842866	2515.535769
581.196597	2576.029615
581.550273	2487.809423
581.903895	2533.179808
582.257463	2480.247692
582.610975	2507.974038
582.964434	2472.685962
583.317837	2502.932885
583.671186	2460.083077
584.024481	2505.453462
584.377721	2482.768269
584.730906	2596.194231
585.084037	2495.371154
585.437113	2470.165385
585.790135	2568.467885
586.143103	2434.877308
586.496016	2467.644808
586.848874	2462.603654
587.201679	2510.494615
587.554428	2467.644808
587.907124	2502.932885
588.259765	2598.714808
588.612352	2444.959615
588.964884	2495.371154
589.317362	2432.356731
589.669786	2530.659231
590.022155	2452.521346
590.374470	2528.138654
590.726731	2487.809423
591.078937	2465.124231
591.431090	2429.836154
591.783188	2470.165385
592.135232	2427.315577
592.487222	2563.426731
592.839157	2507.974038
593.191038	2545.782692
593.542866	2586.111923
593.894639	2578.550192
594.246358	2460.083077
594.598022	2513.015192
594.949633	2492.850577
595.301190	2507.974038
595.652692	2507.974038
596.004141	2510.494615
596.355535	2515.535769
596.706876	2581.070769
597.058162	2533.179808
597.409395	2472.685962
597.760573	2510.494615
598.111698	2482.768269
598.462768	2480.247692
598.813785	2439.918462
599.164748	2450.000769
599.515657	2560.906154
599.866511	2485.288846
600.217312	2455.041923
600.568060	2450.000769
600.918753	2555.865000
601.269392	2520.576923
601.619978	2507.974038
601.970510	2432.356731
602.320988	2560.906154
602.671412	2523.097500
603.021783	2480.247692
603.372100	2422.274423
603.722363	2505.453462
604.072572	2485.288846
604.422728	2480.247692
604.772830	2465.124231
605.122878	2490.330000
605.472872	2538.220962
605.822813	2538.220962
606.172701	2394.548077
606.522534	2497.891731
606.872314	2404.630385
607.222041	2467.644808
607.571714	2502.932885
607.921333	2492.850577
608.270899	2518.056346
608.620411	2507.974038
608.969870	2543.262115
609.319276	2530.659231
609.668627	2510.494615
610.017926	2497.891731
610.367171	2482.768269
610.716362	2515.535769
611.065500	2565.947308
611.414585	2460.083077
611.763616	2482.768269
612.112594	2485.288846
612.461518	2497.891731
612.810389	2462.603654
613.159207	2510.494615
613.507971	2424.795000
613.856682	2533.179808
614.205340	2457.562500
614.553945	2596.194231
614.902496	2525.618077
615.250994	2533.179808
615.599439	2439.918462
615.947830	2507.974038
616.296169	2533.179808
616.644454	2467.644808
616.992686	2520.576923
617.340864	2510.494615
617.688990	2482.768269
618.037063	2545.782692
618.385082	2462.603654
618.733048	2515.535769
619.080961	2586.111923
619.428821	2470.165385
619.776628	2467.644808
620.124382	2510.494615
620.472083	2477.727115
620.819731	2563.426731
621.167326	2414.712692
621.514868	2437.397885
621.862357	2530.659231
622.209793	2487.809423
622.557176	2439.918462
622.904506	2523.097500
623.251783	2492.850577
623.599007	2525.618077
623.946179	2447.480192
624.293297	2570.988462
624.640363	2500.412308
624.987376	2565.947308
625.334336	2452.521346
625.681243	2482.768269
626.028097	2485.288846
626.374899	2490.330000
626.721647	2518.056346
627.068343	2545.782692
627.414987	2455.041923
627.761577	2523.097500
628.108115	2450.000769
628.454600	2553.344423
628.801032	2492.850577
629.147412	2538.220962
629.493739	2434.877308
629.840014	2505.453462
630.186236	2490.330000
630.532405	2505.453462
630.878521	2502.932885
631.224585	2412.192115
631.570597	2563.426731
631.916556	2576.029615
632.262462	2502.932885
632.608316	2535.700385
632.954117	2485.288846
633.299866	2515.535769
633.645562	2447.480192
633.991206	2535.700385
634.336797	2502.932885
634.682336	2608.797115
635.027823	2492.850577
635.373257	2462.603654
635.718639	2472.685962
636.063968	2460.083077
636.409245	2528.138654
636.754470	2500.412308
637.099642	2379.424615
637.444762	2540.741538
637.789829	2510.494615
638.134845	2598.714808
638.479808	2490.330000
638.824719	2545.782692
639.169577	2550.823846
639.514383	2470.165385
639.859137	2528.138654
640.203839	2560.906154
640.548489	2518.056346
640.893086	2530.659231
641.237632	2515.535769
641.582125	2437.397885
641.926566	2510.494615
642.270955	2507.974038
642.615292	2460.083077
642.959576	2497.891731
643.303809	2543.262115
643.647990	2515.535769
643.992118	2533.179808
644.336195	2545.782692
644.680219	2467.644808
645.024192	2530.659231
645.368112	2467.644808
645.711981	2439.918462
646.055797	2578.550192
646.399562	2462.603654
646.743274	2470.165385
647.086935	2447.480192
647.430544	2475.206538
647.774101	2467.644808
648.117606	2480.247692
648.461059	2550.823846
648.804460	2563.426731
649.147810	2528.138654
649.491108	2487.809423
649.834354	2485.288846
650.177548	2550.823846
650.520690	2500.412308
650.863781	2492.850577
651.206820	2583.591346
651.549807	2442.439038
651.892742	2409.671538
652.235626	2515.535769
652.578458	2535.700385
652.921238	2596.194231
653.263967	2470.165385
653.606644	2379.424615
653.949269	2543.262115
654.291843	2457.562500
654.634365	2568.467885
654.976836	2581.070769
655.319255	2490.330000
655.661622	2570.988462
656.003938	2432.356731
656.346203	2381.945192
656.688416	2510.494615
657.030577	2581.070769
657.372687	2439.918462
657.714746	2510.494615
658.056753	2500.412308
658.398708	2480.247692
658.740612	2475.206538
659.082465	2475.206538
659.424266	2505.453462
659.766016	2490.330000
660.107715	2480.247692
660.449362	2513.015192
660.790958	2502.932885
661.132503	2492.850577
661.473996	2490.330000
661.815438	2500.412308
662.156829	2570.988462
662.498168	2576.029615
662.839456	2550.823846
663.180693	2591.153077
663.521879	2374.383462
663.863013	2455.041923
664.204097	2538.220962
664.545129	2455.041923
664.886110	2485.288846
665.227040	2558.385577
665.567918	2467.644808
665.908746	2507.974038
666.249522	2502.932885
666.590248	2573.509038
666.930922	2482.768269
667.271545	2533.179808
667.612118	2553.344423
667.952639	2510.494615
668.293109	2525.618077
668.633528	2576.029615
668.973896	2465.124231
669.314213	2485.288846
669.654480	2555.865000
669.994695	2513.015192
670.334859	2618.879423
670.674973	2507.974038
671.015035	2558.385577
671.355047	2492.850577
671.695008	2480.247692
672.034918	2518.056346
672.374777	2427.315577
672.714585	2578.550192
673.054342	2434.877308
673.394049	2455.041923
673.733705	2492.850577
674.073310	2523.097500
674.412864	2523.097500
674.752368	2447.480192
675.091820	2447.480192
675.431223	2495.371154
675.770574	2500.412308
676.109875	2510.494615
676.449125	2523.097500
676.788324	2467.644808
677.127473	2507.974038
677.466571	2490.330000
677.805619	2555.865000
678.144616	2444.959615
678.483562	2523.097500
678.822458	2502.932885
679.161303	2510.494615
679.500098	2437.397885
679.838842	2513.015192
680.177535	2460.083077
680.516179	2424.795000
680.854771	2444.959615
681.193314	2412.192115
681.531805	2520.576923
681.870247	2460.083077
682.208638	2492.850577
682.546978	2502.932885
682.885268	2429.836154
683.223508	2480.247692
683.561697	2560.906154
683.899836	2510.494615
684.237925	2349.177692
684.575963	2550.823846
684.913951	2465.124231
685.251889	2525.618077
685.589776	2555.865000
685.927614	2505.453462
686.265401	2429.836154
686.603137	2472.685962
686.940824	2402.109808
687.278460	2507.974038
687.616046	2487.809423
687.953582	2495.371154
688.291068	2530.659231
688.628504	2555.865000
688.965889	2462.603654
689.303224	2543.262115
689.640510	2497.891731
689.977745	2535.700385
690.314930	2487.809423
690.652065	2535.700385
690.989150	2485.288846
691.326185	2497.891731
691.663170	2457.562500
692.000105	2548.303269
692.336990	2492.850577
692.673825	2583.591346
693.010610	2502.932885
693.347345	2457.562500
693.684030	2422.274423
694.020665	2419.753846
694.357251	2480.247692
694.693786	2460.083077
695.030272	2492.850577
695.366707	2510.494615
695.703093	2510.494615
696.039429	2535.700385
696.375716	2570.988462
696.711952	2535.700385
697.048139	2475.206538
697.384276	2540.741538
697.720363	2432.356731
698.056400	2444.959615
698.392388	2558.385577
698.728326	2417.233269
699.064214	2465.124231
699.400053	2465.124231
699.735842	2432.356731
700.071581	2573.509038
700.407270	2543.262115
700.742910	2442.439038
701.078501	2568.467885
701.414042	2434.877308
701.749533	2510.494615
702.084974	2444.959615
702.420366	2404.630385
702.755709	2477.727115
703.091002	2376.904038
703.426246	2581.070769
703.761440	2467.644808
704.096584	2502.932885
704.431679	2538.220962
704.766725	2538.220962
705.101721	2490.330000
705.436668	2548.303269
705.771565	2550.823846
706.106413	2593.673654
706.441212	2437.397885
706.775961	2525.618077
707.110661	2442.439038
707.445311	2540.741538
707.779913	2480.247692
708.114465	2598.714808
708.448967	2533.179808
708.783421	2570.988462
709.117825	2555.865000
709.452180	2515.535769
709.786485	2548.303269
710.120742	2490.330000
710.454949	2576.029615
710.789107	2422.274423
711.123216	2437.397885
711.457275	2452.521346
711.791286	2470.165385
712.125247	2477.727115
712.459159	2535.700385
712.793023	2588.632500
713.126837	2581.070769
713.460602	2525.618077
713.794318	2538.220962
714.127985	2573.509038
714.461602	2487.809423
714.795171	2490.330000
715.128691	2543.262115
715.462162	2533.179808
715.795584	2424.795000
716.128957	2568.467885
716.462281	2404.630385
716.795556	2540.741538
717.128782	2470.165385
717.461960	2553.344423
717.795088	2507.974038
718.128167	2533.179808
718.461198	2450.000769
718.794180	2460.083077
719.127113	2384.465769
719.459997	2538.220962
719.792833	2419.753846
720.125619	2530.659231
720.458357	2450.000769
720.791046	2507.974038
721.123686	2437.397885
721.456278	2555.865000
721.788821	2576.029615
722.121315	2510.494615
722.453761	2518.056346
722.786158	2502.932885
723.118506	2442.439038
723.450805	2543.262115
723.783056	2500.412308
724.115259	2563.426731
724.447412	2490.330000
724.779518	2490.330000
725.111574	2460.083077
725.443582	2444.959615
725.775542	2475.206538
726.107453	2480.247692
726.439315	2450.000769
726.771129	2480.247692
727.102895	2588.632500
727.434612	2492.850577
727.766281	2520.576923
728.097901	2530.659231
728.429473	2520.576923
728.760996	2523.097500
729.092471	2515.535769
729.423897	2480.247692
729.755276	2535.700385
730.086606	2460.083077
730.417887	2515.535769
730.749120	2462.603654
731.080305	2475.206538
731.411442	2497.891731
731.742530	2434.877308
732.073570	2457.562500
732.404562	2475.206538
732.735506	2533.179808
733.066401	2573.509038
733.397249	2568.467885
733.728048	2482.768269
734.058798	2533.179808
734.389501	2439.918462
734.720156	2444.959615
735.050762	2558.385577
735.381320	2389.506923
735.711831	2455.041923
736.042293	2384.465769
736.372707	2502.932885
736.703073	2447.480192
737.033391	2510.494615
737.363661	2513.015192
737.693883	2472.685962
738.024056	2510.494615
738.354182	2533.179808
738.684260	2525.618077
739.014290	2470.165385
739.344272	2525.618077
739.674207	2555.865000
740.004093	2460.083077
740.333931	2432.356731
740.663722	2555.865000
740.993464	2437.397885
741.323159	2518.056346
741.652806	2530.659231
741.982405	2429.836154
742.311956	2492.850577
742.641460	2477.727115
742.970915	2427.315577
743.300323	2555.865000
743.629683	2455.041923
743.958996	2535.700385
744.288260	2513.015192
744.617477	2528.138654
744.946647	2482.768269
745.275768	2538.220962
745.604842	2518.056346
745.933869	2500.412308
746.262847	2467.644808
746.591778	2510.494615
746.920662	2457.562500
747.249498	2558.385577
747.578286	2470.165385
747.907027	2538.220962
748.235720	2510.494615
748.564365	2583.591346
748.892963	2462.603654
749.221514	2470.165385
749.550017	2452.521346
749.878473	2510.494615
750.206881	2560.906154
750.535242	2490.330000
750.863555	2535.700385
751.191821	2465.124231
751.520039	2530.659231
751.848210	2505.453462
752.176334	2550.823846
752.504411	2472.685962
752.832440	2518.056346
753.160421	2525.618077
753.488356	2578.550192
753.816243	2480.247692
754.144082	2470.165385
754.471875	2507.974038
754.799620	2507.974038
755.127318	2467.644808
755.454969	2500.412308
755.782572	2485.288846
756.110129	2482.768269
756.437638	2457.562500
756.765100	2497.891731
757.092515	2475.206538
757.419882	2538.220962
757.747203	2475.206538
758.074477	2523.097500
758.401703	2482.768269
758.728882	2528.138654
759.056014	2528.138654
759.383099	2513.015192
759.710138	2505.453462
760.037129	2455.041923
760.364073	2462.603654
760.690970	2523.097500
761.017820	2470.165385
761.344623	2502.932885
761.671379	2528.138654
761.998088	2550.823846
762.324751	2429.836154
762.651366	2540.741538
762.977935	2505.453462
763.304456	2462.603654
763.630931	2540.741538
763.957359	2596.194231
764.283740	2510.494615
764.610074	2437.397885
764.936362	2586.111923
765.262602	2470.165385
765.588796	2533.179808
765.914943	2455.041923
766.241044	2412.192115
766.567097	2578.550192
766.893104	2475.206538
767.219064	2525.618077
767.544978	2497.891731
767.870845	2500.412308
768.196665	2482.768269
768.522438	2477.727115
768.848165	2482.768269
769.173846	2457.562500
769.499479	2505.453462
769.825066	2450.000769
770.150607	2573.509038
770.476101	2505.453462
770.801548	2507.974038
771.126949	2507.974038
771.452303	2475.206538
771.777611	2510.494615
772.102872	2558.385577
772.428087	2487.809423
772.753256	2472.685962
773.078378	2487.809423
773.403453	2565.947308
773.728482	2593.673654
774.053465	2507.974038
774.378401	2500.412308
774.703291	2507.974038
775.028135	2472.685962
775.352932	2500.412308
775.677683	2548.303269
776.002388	2515.535769
776.327046	2442.439038
776.651658	2515.535769
776.976224	2535.700385
777.300743	2543.262115
777.625216	2497.891731
777.949643	2540.741538
778.274024	2432.356731
778.598359	2487.809423
778.922647	2460.083077
779.246889	2518.056346
779.571086	2495.371154
779.895236	2545.782692
780.219339	2568.467885
780.543397	2555.865000
780.867409	2507.974038
781.191374	2447.480192
781.515294	2482.768269
781.839167	2412.192115
782.162995	2513.015192
782.486776	2457.562500
782.810511	2518.056346
783.134201	2490.330000
783.457844	2515.535769
783.781441	2455.041923
784.104993	2467.644808
784.428498	2507.974038
784.751958	2505.453462
785.075372	2523.097500
785.398739	2487.809423
785.722061	2477.727115
786.045337	2507.974038
786.368568	2593.673654
786.691752	2505.453462
787.014891	2452.521346
787.337983	2518.056346
787.661030	2497.891731
787.984031	2565.947308
788.306987	2507.974038
788.629897	2510.494615
788.952760	2462.603654
789.275579	2482.768269
789.598351	2472.685962
789.921078	2452.521346
790.243759	2485.288846
790.566395	2495.371154
790.888984	2475.206538
791.211529	2470.165385
791.534027	2485.288846
791.856480	2477.727115
792.178888	2553.344423
792.501249	2487.809423
792.823566	2515.535769
793.145836	2452.521346
793.468062	2482.768269
793.790241	2455.041923
794.112375	2533.179808
794.434464	2482.768269
794.756507	2455.041923
795.078505	2530.659231
795.400457	2447.480192
795.722364	2560.906154
796.044226	2601.235385
796.366042	2472.685962
796.687812	2535.700385
797.009538	2528.138654
797.331218	2460.083077
797.652852	2550.823846
797.974442	2490.330000
798.295986	2543.262115
798.617484	2437.397885
798.938938	2485.288846
799.260346	2495.371154
799.581709	2475.206538
799.903026	2525.618077
800.224299	2457.562500
800.545526	2553.344423
800.866708	2447.480192
801.187845	2467.644808
801.508936	2497.891731
801.829983	2538.220962
802.150984	2495.371154
802.471940	2412.192115
802.792851	2472.685962
803.113717	2497.891731
803.434538	2513.015192
803.755314	2513.015192
804.076045	2510.494615
804.396731	2525.618077
804.717372	2513.015192
805.037967	2510.494615
805.358518	2465.124231
805.679024	2591.153077
805.999485	2583.591346
806.319901	2530.659231
806.640272	2475.206538
806.960598	2507.974038
807.280879	2495.371154
807.601115	2510.494615
807.921306	2465.124231
808.241453	2487.809423
808.561554	2422.274423
808.881611	2538.220962
809.201623	2465.124231
809.521590	2432.356731
809.841513	2553.344423
810.161390	2465.124231
810.481223	2487.809423
810.801011	2518.056346
811.120755	2560.906154
811.440453	2510.494615
811.760107	2417.233269
812.079716	2538.220962
812.399281	2538.220962
812.718801	2515.535769
813.038276	2485.288846
813.357707	2513.015192
813.677093	2502.932885
813.996434	2472.685962
814.315731	2533.179808
814.634983	2442.439038
814.954191	2515.535769
815.273354	2404.630385
815.592473	2535.700385
815.911547	2525.618077
816.230577	2485.288846
816.549562	2507.974038
816.868502	2482.768269
817.187399	2447.480192
817.506250	2533.179808
817.825058	2482.768269
818.143821	2583.591346
818.462539	2581.070769
818.781213	2528.138654
819.099843	2540.741538
819.418429	2550.823846
819.736970	2465.124231
820.055466	2475.206538
820.373919	2462.603654
820.692327	2439.918462
821.010691	2460.083077
821.329011	2548.303269
821.647286	2538.220962
821.965517	2560.906154
822.283704	2550.823846
822.601847	2470.165385
822.919945	2568.467885
823.237999	2447.480192
823.556010	2515.535769
823.873976	2500.412308
824.191897	2525.618077
824.509775	2573.509038
824.827609	2467.644808
825.145398	2462.603654
825.463144	2465.124231
825.780845	2533.179808
826.098502	2475.206538
826.416116	2528.138654
826.733685	2465.124231
827.051210	2533.179808
827.368692	2505.453462
827.686129	2533.179808
828.003522	2543.262115
828.320872	2452.521346
828.638177	2500.412308
828.955439	2497.891731
829.272656	2439.918462
829.589830	2540.741538
829.906960	2530.659231
830.224046	2550.823846
830.541088	2472.685962
830.858086	2550.823846
831.175041	2505.453462
831.491952	2490.330000
831.808819	2520.576923
832.125642	2490.330000
832.442421	2500.412308
832.759157	2533.179808
833.075849	2490.330000
833.392497	2515.535769
833.709101	2490.330000
834.025662	2510.494615
834.342179	2455.041923
834.658653	2560.906154
834.975083	2507.974038
835.291469	2520.576923
835.607811	2424.795000
835.924110	2553.344423
836.240366	2565.947308
836.556578	2447.480192
836.872746	2500.412308
837.188871	2447.480192
837.504952	2505.453462
837.820990	2558.385577
838.136984	2412.192115
838.452935	2424.795000
838.768842	2487.809423
839.084706	2452.521346
839.400526	2568.467885
839.716303	2495.371154
840.032037	2427.315577
840.347727	2523.097500
840.663373	2424.795000
840.978977	2417.233269
841.294537	2528.138654
841.610054	2407.150962
841.925527	2500.412308
842.240957	2553.344423
842.556344	2472.685962
842.871687	2402.109808
843.186987	2563.426731
843.502244	2465.124231
843.817458	2505.453462
844.132629	2495.371154
844.447756	2465.124231
844.762840	2419.753846
845.077881	2442.439038
845.392879	2427.315577
845.707833	2507.974038
846.022745	2457.562500
846.337613	2485.288846
846.652438	2455.041923
846.967221	2563.426731
847.281960	2593.673654
847.596656	2568.467885
847.911309	2477.727115
848.225919	2563.426731
848.540485	2465.124231
848.855009	2450.000769
849.169490	2553.344423
849.483928	2533.179808
849.798323	2525.618077
850.112675	2437.397885
850.426984	2460.083077
850.741251	2560.906154
851.055474	2570.988462
851.369654	2518.056346
851.683792	2573.509038
851.997887	2450.000769
852.311938	2555.865000
852.625947	2480.247692
852.939914	2583.591346
853.253837	2515.535769
853.567718	2515.535769
853.881555	2472.685962
854.195350	2450.000769
854.509103	2485.288846
854.822812	2513.015192
855.136479	2477.727115
855.450103	2535.700385
855.763685	2570.988462
856.077224	2487.809423
856.390720	2540.741538
856.704173	2442.439038
857.017584	2412.192115
857.330953	2525.618077
857.644278	2482.768269
857.957561	2540.741538
858.270802	2550.823846
858.584000	2505.453462
858.897155	2558.385577
859.210268	2576.029615
859.523339	2485.288846
859.836367	2565.947308
860.149352	2518.056346
860.462295	2523.097500
860.775195	2568.467885
861.088054	2472.685962
861.400869	2497.891731
861.713642	2548.303269
862.026373	2500.412308
862.339062	2447.480192
862.651708	2475.206538
862.964312	2507.974038
863.276873	2523.097500
863.589392	2495.371154
863.901869	2502.932885
864.214303	2472.685962
864.526696	2477.727115
864.839045	2505.453462
865.151353	2482.768269
865.463619	2520.576923
865.775842	2560.906154
866.088023	2442.439038
866.400162	2497.891731
866.712258	2485.288846
867.024313	2505.453462
867.336325	2510.494615
867.648296	2525.618077
867.960224	2432.356731
868.272110	2402.109808
868.583954	2497.891731
868.895755	2515.535769
869.207515	2497.891731
869.519233	2545.782692
869.830909	2480.247692
870.142542	2502.932885
870.454134	2518.056346
870.765684	2482.768269
871.077191	2538.220962
871.388657	2465.124231
871.700081	2490.330000
872.011463	2427.315577
872.322803	2510.494615
872.634101	2492.850577
872.945357	2477.727115
873.256571	2419.753846
873.567744	2502.932885
873.878874	2460.083077
874.189963	2560.906154
874.501010	2467.644808
874.812015	2460.083077
875.122979	2475.206538
875.433900	2505.453462
875.744780	2581.070769
876.055618	2472.685962
876.366415	2505.453462
876.677169	2482.768269
876.987882	2502.932885
877.298554	2444.959615
877.609183	2525.618077
877.919771	2462.603654
878.230317	2465.124231
878.540822	2444.959615
878.851285	2477.727115
879.161707	2472.685962
879.472087	2444.959615
879.782425	2558.385577
880.092722	2507.974038
880.402977	2477.727115
880.713191	2490.330000
881.023363	2477.727115
881.333494	2392.027500
881.643583	2528.138654
881.953631	2543.262115
882.263637	2616.358846
882.573602	2437.397885
882.883526	2500.412308
883.193408	2507.974038
883.503248	2505.453462
883.813048	2477.727115
884.122806	2447.480192
884.432522	2500.412308
884.742197	2437.397885
885.051831	2518.056346
885.361424	2528.138654
885.670975	2462.603654
885.980485	2601.235385
886.289954	2507.974038
886.599382	2568.467885
886.908768	2502.932885
887.218113	2495.371154
887.527417	2490.330000
887.836680	2447.480192
888.145901	2563.426731
888.455082	2530.659231
888.764221	2462.603654
889.073319	2480.247692
889.382376	2397.068654
889.691392	2586.111923
890.000366	2515.535769
890.309300	2455.041923
890.618193	2490.330000
890.927044	2487.809423
891.235855	2452.521346
891.544625	2497.891731
891.853353	2467.644808
892.162041	2510.494615
892.470687	2553.344423
892.779293	2450.000769
893.087858	2548.303269
893.396381	2523.097500
893.704864	2465.124231
894.013306	2596.194231
894.321707	2470.165385
894.630068	2573.509038
894.938387	2490.330000
895.246665	2538.220962
895.554903	2432.356731
895.863100	2525.618077
896.171256	2429.836154
896.479371	2500.412308
896.787446	2573.509038
897.095480	2465.124231
897.403473	2553.344423
897.711425	2495.371154
898.019336	2480.247692
898.327207	2520.576923
898.635038	2497.891731
898.942827	2374.383462
899.250576	2533.179808
899.558284	2419.753846
899.865952	2540.741538
900.173579	2447.480192
900.481165	2583.591346
900.788711	2475.206538
901.096216	2444.959615
901.403681	2550.823846
901.711105	2553.344423
902.018489	2510.494615
902.325832	2518.056346
902.633135	2462.603654
902.940397	2500.412308
903.247619	2495.371154
903.554800	2439.918462
903.861941	2472.685962
904.169041	2485.288846
904.476101	2510.494615
904.783121	2502.932885
905.090100	2465.124231
905.397039	2525.618077
905.703938	2462.603654
906.010796	2444.959615
906.317614	2490.330000
906.624391	2472.685962
906.931129	2502.932885
907.237826	2475.206538
907.544483	2502.932885
907.851099	2505.453462
908.157675	2444.959615
908.464211	2379.424615
908.770707	2452.521346
909.077163	2470.165385
909.383578	2467.644808
909.689954	2507.974038
909.996289	2495.371154
910.302584	2515.535769
910.608839	2565.947308
910.915054	2578.550192
911.221229	2497.891731
911.527363	2427.315577
911.833458	2457.562500
912.139513	2513.015192
912.445527	2386.986346
912.751502	2548.303269
913.057436	2492.850577
913.363331	2497.891731
913.669186	2510.494615
913.975000	2462.603654
914.280775	2457.562500
914.586510	2560.906154
914.892205	2477.727115
915.197859	2495.371154
915.503475	2450.000769
915.809050	2523.097500
916.114585	2520.576923
916.420081	2452.521346
916.725536	2563.426731
917.030952	2424.795000
917.336328	2555.865000
917.641665	2515.535769
917.946961	2515.535769
918.252218	2535.700385
918.557435	2457.562500
918.862612	2482.768269
919.167750	2518.056346
919.472848	2528.138654
919.777906	2457.562500
920.082925	2497.891731
920.387904	2470.165385
920.692843	2437.397885
920.997743	2487.809423
921.302603	2457.562500
921.607423	2533.179808
921.912204	2475.206538
922.216946	2518.056346
922.521647	2523.097500
922.826310	2492.850577
923.130932	2465.124231
923.435516	2538.220962
923.740059	2452.521346
924.044564	2510.494615
924.349028	2581.070769
924.653454	2487.809423
924.957840	2507.974038
925.262186	2444.959615
925.566493	2510.494615
925.870761	2475.206538
926.174989	2507.974038
926.479178	2513.015192
926.783328	2507.974038
927.087438	2500.412308
927.391509	2518.056346
927.695541	2608.797115
927.999533	2520.576923
928.303486	2442.439038
928.607400	2475.206538
928.911275	2477.727115
929.215110	2437.397885
929.518906	2530.659231
929.822663	2505.453462
930.126381	2482.768269
930.430060	2518.056346
930.733699	2472.685962
931.037299	2510.494615
931.340861	2492.850577
931.644383	2450.000769
931.947866	2623.920577
932.251309	2530.659231
932.554714	2455.041923
932.858080	2515.535769
933.161407	2555.865000
933.464694	2465.124231
933.767943	2500.412308
934.071153	2492.850577
934.374323	2477.727115
934.677455	2568.467885
934.980548	2442.439038
935.283602	2525.618077
935.586617	2470.165385
935.889593	2523.097500
936.192530	2462.603654
936.495428	2485.288846
936.798287	2593.673654
937.101108	2460.083077
937.403890	2500.412308
937.706632	2485.288846
938.009336	2502.932885
938.312002	2505.453462
938.614628	2465.124231
938.917216	2525.618077
939.219765	2502.932885
939.522275	2540.741538
939.824747	2502.932885
940.127179	2538.220962
940.429573	2543.262115
940.731929	2429.836154
941.034246	2505.453462
941.336524	2399.589231
941.638763	2548.303269
941.940964	2424.795000
942.243126	2460.083077
942.545250	2457.562500
942.847335	2490.330000
943.149381	2533.179808
943.451389	2397.068654
943.753359	2515.535769
944.055290	2462.603654
944.357182	2520.576923
944.659036	2525.618077
944.960851	2492.850577
945.262628	2457.562500
945.564367	2570.988462
945.866067	2520.576923
946.167729	2462.603654
946.469352	2520.576923
946.770937	2472.685962
947.072484	2545.782692
947.373992	2475.206538
947.675462	2444.959615
947.976893	2475.206538
948.278286	2510.494615
948.579641	2487.809423
948.880958	2407.150962
949.182236	2528.138654
949.483476	2422.274423
949.784678	2515.535769
950.085841	2467.644808
950.386967	2502.932885
950.688054	2528.138654
950.989103	2550.823846
951.290114	2487.809423
951.591087	2518.056346
951.892021	2460.083077
952.192917	2502.932885
952.493776	2616.358846
952.794596	2573.509038
953.095378	2487.809423
953.396122	2515.535769
953.696828	2530.659231
953.997496	2472.685962
954.298126	2520.576923
954.598718	2457.562500
954.899272	2523.097500
955.199788	2485.288846
955.500266	2485.288846
955.800706	2480.247692
956.101108	2492.850577
956.401472	2414.712692
956.701798	2417.233269
957.002087	2487.809423
957.302337	2565.947308
957.602550	2460.083077
957.902724	2492.850577
958.202861	2518.056346
958.502960	2507.974038
958.803022	2482.768269
959.103045	2465.124231
959.403031	2565.947308
959.702979	2502.932885
960.002889	2497.891731
960.302762	2424.795000
960.602596	2553.344423
960.902393	2472.685962
961.202153	2480.247692
961.501875	2487.809423
961.801559	2492.850577
962.101205	2475.206538
962.400814	2535.700385
962.700385	2429.836154
962.999918	2568.467885
963.299414	2510.494615
963.598873	2361.780577
963.898293	2507.974038
964.197677	2510.494615
964.497022	2462.603654
964.796331	2475.206538
965.095601	2450.000769
965.394835	2538.220962
965.694030	2495.371154
965.993189	2465.124231
966.292309	2467.644808
966.591393	2485.288846
966.890439	2477.727115
967.189447	2538.220962
967.488419	2553.344423
967.787353	2533.179808
968.086249	2472.685962
968.385108	2507.974038
968.683930	2513.015192
968.982714	2555.865000
969.281462	2455.041923
969.580172	2505.453462
969.878844	2492.850577
970.177480	2455.041923
970.476078	2487.809423
970.774639	2507.974038
971.073162	2457.562500
971.371649	2465.124231
971.670098	2497.891731
971.968510	2593.673654
972.266885	2487.809423
972.565223	2543.262115
972.863524	2427.315577
973.161788	2497.891731
973.460014	2475.206538
973.758204	2528.138654
974.056356	2510.494615
974.354471	2533.179808
974.652550	2452.521346
974.950591	2482.768269
975.248595	2477.727115
975.546563	2429.836154
975.844493	2485.288846
976.142386	2470.165385
976.440243	2520.576923
976.738062	2518.056346
977.035845	2535.700385
977.333590	2422.274423
977.631299	2576.029615
977.928971	2465.124231
978.226606	2518.056346
978.524204	2573.509038
978.821765	2444.959615
979.119290	2462.603654
979.416777	2523.097500
979.714228	2477.727115
980.011642	2450.000769
980.309020	2518.056346
980.606360	2500.412308
980.903664	2510.494615
981.200931	2513.015192
981.498162	2525.618077
981.795356	2422.274423
982.092513	2404.630385
982.389633	2490.330000
982.686717	2510.494615
982.983764	2497.891731
983.280775	2424.795000
983.577749	2492.850577
983.874686	2455.041923
984.171587	2505.453462
984.468451	2507.974038
984.765279	2492.850577
985.062070	2480.247692
985.358824	2548.303269
985.655543	2482.768269
985.952224	2457.562500
986.248869	2444.959615
986.545478	2455.041923
986.842050	2502.932885
987.138586	2550.823846
987.435086	2518.056346
987.731549	2492.850577
988.027975	2523.097500
988.324366	2495.371154
988.620719	2500.412308
988.917037	2482.768269
989.213318	2495.371154
989.509563	2485.288846
989.805772	2502.932885
990.101944	2444.959615
990.398080	2394.548077
990.694180	2548.303269
990.990244	2523.097500
991.286271	2520.576923
991.582262	2533.179808
991.878217	2507.974038
992.174136	2397.068654
992.470019	2540.741538
992.765865	2485.288846
993.061676	2510.494615
993.357450	2573.509038
993.653188	2402.109808
993.948890	2424.795000
994.244556	2548.303269
994.540186	2414.712692
994.835780	2475.206538
995.131337	2485.288846
995.426859	2528.138654
995.722345	2427.315577
996.017795	2492.850577
996.313208	2467.644808
996.608586	2528.138654
996.903928	2568.467885
997.199234	2583.591346
997.494504	2520.576923
997.789738	2462.603654
998.084936	2442.439038
998.380099	2523.097500
998.675225	2540.741538
998.970316	2495.371154
999.265371	2475.206538
999.560390	2540.741538
999.855373	2495.371154
1000.150320	2460.083077
1000.445232	2432.356731
1000.740108	2523.097500
1001.034948	2510.494615
1001.329752	2497.891731
1001.624521	2545.782692
1001.919254	2434.877308
1002.213951	2465.124231
1002.508613	2480.247692
1002.803239	2518.056346
1003.097829	2457.562500
1003.392384	2442.439038
1003.686903	2563.426731
1003.981386	2540.741538
1004.275834	2533.179808
1004.570246	2467.644808
1004.864623	2475.206538
1005.158964	2485.288846
1005.453270	2520.576923
1005.747540	2369.342308
1006.041775	2528.138654
1006.335974	2528.138654
1006.630138	2422.274423
1006.924266	2545.782692
1007.218359	2520.576923
1007.512416	2518.056346
1007.806438	2492.850577
1008.100425	2500.412308
1008.394376	2402.109808
1008.688292	2475.206538
1008.982172	2472.685962
1009.276017	2475.206538
1009.569827	2455.041923
1009.863602	2495.371154
1010.157341	2482.768269
1010.451045	2490.330000
1010.744714	2407.150962
1011.038347	2543.262115
1011.331945	2381.945192
1011.625508	2480.247692
1011.919036	2500.412308
1012.212528	2523.097500
1012.505986	2535.700385
1012.799408	2510.494615
1013.092795	2535.700385
1013.386147	2495.371154
1013.679464	2540.741538
1013.972745	2563.426731
1014.265992	2490.330000
1014.559204	2437.397885
1014.852380	2422.274423
1015.145521	2570.988462
1015.438628	2565.947308
1015.731699	2470.165385
1016.024736	2477.727115
1016.317737	2450.000769
1016.610703	2510.494615
1016.903635	2442.439038
1017.196531	2465.124231
1017.489393	2588.632500
1017.782219	2505.453462
1018.075011	2480.247692
1018.367768	2545.782692
1018.660490	2437.397885
1018.953177	2437.397885
1019.245829	2437.397885
