Dividing Wavelength (nm)	Counts (n)	Blue Motor Position (mm): 0.000000	Red Motor Position (mm): 19.500000	
326.493990	2083.791189
326.888308	2083.791189
327.282561	2083.791189
327.676750	2061.211861
328.070874	2062.865360
328.464933	2067.142779
328.858929	2079.322206
329.252859	2087.756057
329.646726	2102.297265
330.040528	2119.611108
330.434265	2139.591721
330.827938	2162.470998
331.221547	2179.749553
331.615091	2198.684127
332.008571	2222.180945
332.401986	2241.085272
332.795338	2260.765936
333.188625	2280.955757
333.581847	2300.891000
333.975006	2317.950265
334.368100	2334.528099
334.761129	2355.698425
335.154095	2367.683768
335.546996	2388.037427
335.939833	2406.235992
336.332606	2418.070101
336.725315	2427.202151
337.117960	2438.819490
337.510540	2441.887032
337.903056	2457.817078
338.295508	2463.458129
338.687896	2468.365693
339.080220	2479.120994
339.472480	2479.776344
339.864676	2482.528814
340.256807	2488.056440
340.648875	2488.920998
341.040879	2493.359733
341.432818	2493.092552
341.824694	2495.582882
342.216506	2488.936121
342.608253	2492.177583
342.999937	2491.469301
343.391557	2487.103662
343.783113	2490.448467
344.174605	2485.997128
344.566033	2487.738847
344.957397	2483.322796
345.348697	2482.117960
345.739934	2479.806591
346.131106	2480.018320
346.522215	2475.967753
346.913260	2479.347846
347.304241	2473.631178
347.695159	2473.835345
348.086012	2471.415591
348.476802	2468.892493
348.867528	2469.714201
349.258191	2465.824951
349.648789	2465.761937
350.039324	2464.484004
350.429796	2467.309571
350.820203	2461.502162
351.210548	2462.762450
351.600828	2462.921247
351.991045	2463.579117
352.381198	2462.578448
352.771288	2462.691874
353.161314	2463.662296
353.551276	2465.575414
353.941175	2464.486525
354.331010	2464.108438
354.720782	2463.110290
355.110490	2465.063737
355.500135	2464.252111
355.889717	2463.959724
356.279235	2464.826803
356.668689	2467.949797
357.058080	2465.487194
357.447408	2464.300002
357.836672	2463.001905
358.225873	2465.245218
358.615010	2464.975517
359.004084	2467.092801
359.393095	2469.036166
359.782043	2468.211937
360.170927	2471.332412
360.559748	2472.176805
360.948505	2474.241158
361.337199	2475.798874
361.725830	2474.946919
362.114398	2475.168730
362.502903	2476.507156
362.891344	2478.531179
363.279722	2475.786271
363.668037	2477.951447
364.056289	2475.808956
364.444478	2479.050418
364.832603	2480.903042
365.220665	2479.045377
365.608665	2483.252220
365.996601	2481.913794
366.384474	2484.086531
366.772284	2482.899339
367.160031	2483.383290
367.547715	2485.417396
367.935336	2486.004690
368.322893	2486.176089
368.710388	2486.241624
369.097820	2488.368991
369.485189	2483.952940
369.872495	2491.590288
370.259738	2494.632625
370.646918	2493.274034
371.034035	2494.012563
371.421090	2498.683192
371.808081	2503.550426
372.195010	2506.333143
372.581875	2510.877743
372.968678	2516.097858
373.355418	2518.547859
373.742096	2530.417255
374.128710	2537.830272
374.515262	2549.500543
374.901751	2562.458829
375.288177	2576.785788
375.674540	2595.042327
376.060841	2612.164606
376.447079	2634.935498
376.833254	2657.308139
377.219367	2676.164575
377.605417	2712.433156
377.991404	2734.190776
378.377329	2770.058586
378.763191	2801.109573
379.148991	2848.231758
379.534727	2891.588202
379.920402	2934.503545
380.306013	2980.841831
380.691563	3040.839123
381.077049	3090.691094
381.462474	3143.209835
381.847835	3215.172306
382.233134	3281.957512
382.618371	3335.817200
383.003545	3416.994900
383.388657	3492.798730
383.773706	3578.702513
384.158693	3645.465033
384.543618	3735.565576
384.928480	3809.852019
385.313280	3907.904982
385.698017	4007.326618
386.082692	4120.271150
386.467305	4179.333308
386.851856	4298.342348
387.236344	4442.968010
387.620770	4507.799769
388.005133	4617.684320
388.389435	4758.093058
388.773674	4836.097352
389.157851	4961.642247
389.541965	5085.558850
389.926018	5115.231081
390.310008	5284.026556
390.693936	5397.729781
391.077802	5512.829406
391.461606	5637.870186
391.845348	5746.622998
392.229027	5869.790989
392.612645	6078.759419
392.996200	6190.229413
393.379694	6359.090422
393.763125	6572.356436
394.146494	6660.238871
394.529801	6793.615199
394.913047	7025.626743
395.296230	7020.119282
395.679351	7074.893939
396.062410	7323.632032
396.445408	7226.146199
396.828343	7376.531380
397.211217	7507.026688
397.594028	7396.854792
397.976778	7601.538241
398.359466	7763.346676
398.742092	7746.123574
399.124656	7884.074749
399.507158	8073.289418
399.889598	8094.762212
400.271977	8304.373389
400.654294	8326.209147
401.036549	8532.939305
401.418742	8558.533243
401.800874	8846.035288
402.182944	8934.661293
402.564952	9281.346484
402.946898	9125.882341
403.328783	9174.531996
403.710606	9375.101863
404.092367	9626.035378
404.474067	9976.451023
404.855705	9773.214385
405.237282	9738.490918
405.618797	10153.869392
406.000250	10389.303879
406.381642	10750.608417
406.762972	10698.460201
407.144240	10514.947077
407.525447	10764.789182
407.906593	10704.650738
408.287677	10963.342588
408.668700	11112.091915
409.049661	11097.853176
409.430560	11258.156827
409.811399	11239.776780
410.192176	11390.020809
410.572891	11464.650050
410.953545	11936.290322
411.334138	11430.113105
411.714669	11999.027481
412.095139	11355.168792
412.475547	11823.804535
412.855894	11689.777899
413.236180	12006.674912
413.616405	11697.309383
413.996568	11977.489152
414.376670	11948.951180
414.756711	11836.150321
415.136691	12099.192688
415.516609	12267.726023
415.896466	12344.248217
416.276262	12630.646250
416.655997	13065.506263
417.035670	13107.466307
417.415283	13709.143142
417.794834	13780.470427
418.174324	13521.259338
418.553753	13422.256118
418.933121	13888.104103
419.312428	13693.233260
419.691674	13590.461777
420.070859	14018.581768
420.449983	13665.431297
420.829045	14168.311599
421.208047	13907.036157
421.586988	14316.370287
421.965867	14508.922199
422.344686	14478.302231
422.723444	14974.659280
423.102141	13690.959700
423.480777	14776.247026
423.859352	14241.892280
424.237866	15220.065170
424.616319	14894.522578
424.994712	15417.393575
425.373044	15157.784234
425.751314	15698.775659
426.129524	14833.123844
426.507673	15704.711618
426.885762	15362.281161
427.263789	15417.718730
427.641756	15473.478932
428.019662	15415.810653
428.397508	15349.988307
428.775292	15467.968951
429.153016	15320.502598
429.530679	15256.376601
429.908282	15150.507329
430.285824	14809.377489
430.663305	15223.420057
431.040726	14774.921203
431.418086	14502.865253
431.795385	14839.153064
432.172624	15009.102963
432.549802	14522.699673
432.926920	14516.582233
433.303977	14252.748405
433.680974	14268.570066
434.057910	14315.392303
434.434786	14165.581814
434.811601	13922.903188
435.188355	14448.483806
435.565050	14045.846848
435.941683	13819.194051
436.318257	14203.453482
436.694770	13872.748749
437.071222	14037.309654
437.447614	13258.844595
437.823946	13063.865367
438.200218	12949.035444
438.576429	12605.347219
438.952580	12570.154924
439.328670	12338.380314
439.704700	12352.666944
440.080670	11924.183991
440.456580	12021.589165
440.832429	11897.160886
441.208218	11204.193796
441.583947	11205.854856
441.959616	11053.889273
442.335224	10956.678183
442.710773	10809.423558
443.086261	10840.053609
443.461689	10359.082162
443.837057	10212.881139
444.212365	10266.377863
444.587612	10060.691225
444.962800	9697.198827
445.337927	9656.501592
445.712995	9007.148044
446.088002	9457.663360
446.462949	9330.096962
446.837837	9179.984004
447.212664	8984.278850
447.587431	9666.553652
447.962139	10337.246404
448.336786	10791.978646
448.711374	10092.858827
449.085901	8855.525260
449.460369	8601.420859
449.834776	8386.584526
450.209124	8786.587481
450.583412	8483.374680
450.957640	8388.318683
451.331808	7889.980461
451.705917	7392.395891
452.079965	7208.434105
452.453954	7099.550223
452.827883	6905.680049
453.201752	6704.848041
453.575562	6568.378966
453.949311	6585.166008
454.323001	6437.855931
454.696632	6244.966261
455.070202	6327.081616
455.443713	6201.763573
455.817164	6117.823320
456.190556	6036.237286
456.563888	5815.976672
456.937160	5720.328339
457.310373	5388.191918
457.683526	5295.172547
458.056619	5164.520963
458.429653	5034.867527
458.802628	4976.155729
459.175542	4869.724368
459.548398	4871.934914
459.921194	4902.423813
460.293930	4867.120613
460.666607	4923.949540
461.039224	4942.773208
461.411782	4842.976006
461.784280	4642.146519
462.156719	4484.930575
462.529099	4343.596786
462.901419	4166.243952
463.273680	4024.779093
463.645882	3949.728915
464.018024	3868.883931
464.390106	3840.083819
464.762130	3899.939959
465.134094	4032.771842
465.505999	4195.933828
465.877845	4289.676604
466.249631	4234.176021
466.621358	4069.945311
466.993026	3905.727204
467.364634	3768.983385
467.736184	3652.081548
468.107674	3565.522416
468.479105	3499.148064
468.850477	3438.061882
469.221790	3362.681508
469.593043	3291.104686
469.964238	3241.252715
470.335373	3208.633929
470.706449	3216.898901
471.077467	3244.569794
471.448425	3305.434165
471.819324	3337.432889
472.190164	3279.948612
472.560945	3201.840974
472.931667	3130.347331
473.302330	3093.221753
473.672934	3069.024215
474.043479	3060.146743
474.413965	3038.016077
474.784393	3020.125022
475.154761	3025.045188
475.525070	3014.539424
475.895321	3000.028463
476.265513	3000.623319
476.635645	3010.055318
477.005719	3002.483504
477.375734	3002.400325
477.745691	3005.354442
478.115588	3017.480937
478.485427	3038.343752
478.855207	3079.656008
479.224928	3104.655090
479.594591	3121.840383
479.964194	3103.319184
480.333739	3102.336159
480.703226	3102.358844
481.072653	3109.534927
481.442022	3109.234978
481.811333	3111.175823
482.180584	3090.975919
482.549777	3077.896645
482.918912	3072.467323
483.287988	3064.643452
483.657005	3053.265568
484.025964	3041.436500
484.394864	3041.002961
484.763706	3036.289482
485.132489	3022.328007
485.501213	3020.162831
485.869879	3019.688963
486.238487	3011.429032
486.607036	3012.528003
486.975527	3006.317302
487.343959	3006.022394
487.712333	3003.726149
488.080648	3003.196828
488.448905	3004.225223
488.817104	3001.787825
489.185244	3012.870802
489.553326	3023.555528
489.921350	3054.107440
490.289315	3081.871595
490.657222	3089.438367
491.025070	3089.065322
491.392861	3078.206676
491.760593	3058.765467
492.128267	3035.916437
492.495883	3017.859024
492.863440	3000.794718
493.230939	2984.612614
493.598380	2969.627784
493.965763	2955.880558
494.333088	2946.942592
494.700354	2934.634615
495.067563	2932.058585
495.434713	2927.879469
495.801805	2928.607915
496.168839	2920.658016
496.535815	2914.989238
496.902733	2911.657036
497.269593	2905.620254
497.636395	2901.050448
498.003139	2904.070099
498.369825	2892.556104
498.736453	2894.035682
499.103023	2886.738612
499.469535	2884.099568
499.835989	2881.566388
500.202385	2875.902652
500.568723	2875.842158
500.935003	2873.939122
501.301226	2868.129193
501.667390	2872.320912
502.033497	2877.230996
502.399546	2865.510313
502.765537	2857.066381
503.131470	2859.133254
503.497345	2861.028727
503.863163	2850.578416
504.228923	2850.371728
504.594625	2853.051102
504.960269	2844.040039
505.325856	2850.394413
505.691385	2841.688341
506.056856	2842.983917
506.422270	2846.560616
506.787625	2842.285717
507.152924	2840.680110
507.518164	2839.956704
507.883347	2832.203410
508.248472	2835.525530
508.613540	2838.779595
508.978550	2838.880418
509.343503	2837.499142
509.708398	2837.915037
510.073236	2840.417970
510.438016	2839.366889
510.802738	2835.129800
511.167403	2841.189267
511.532010	2839.525686
511.896561	2841.713547
512.261053	2848.196470
512.625488	2843.898887
512.989866	2839.142558
513.354186	2841.025429
513.718449	2835.064265
514.082655	2843.082220
514.446803	2841.953001
514.810894	2844.095492
515.174927	2845.333095
515.538904	2839.177846
515.902822	2844.944926
516.266684	2838.237671
516.630488	2842.053824
516.994235	2838.812362
517.357925	2842.366376
517.721558	2845.295286
518.085133	2845.827128
518.448651	2846.273270
518.812112	2843.666994
519.175516	2843.790502
519.538863	2841.428721
519.902152	2845.005420
520.265385	2843.367045
520.628560	2843.344360
520.991678	2842.540296
521.354739	2842.956191
521.717743	2843.566171
522.080690	2840.541478
522.443580	2844.279494
522.806413	2843.354442
523.169189	2843.419977
523.531908	2843.309072
523.894569	2841.141376
524.257174	2842.961232
524.619722	2841.761437
524.982213	2841.821931
525.344647	2841.012826
525.707025	2838.492249
526.069345	2837.047959
526.431608	2838.522496
526.793815	2838.542661
527.155964	2835.245746
527.518057	2833.375478
527.880093	2830.882627
528.242072	2832.543688
528.603995	2832.221054
528.965860	2827.976402
529.327669	2827.575631
529.689421	2825.561690
530.051117	2825.286947
530.412755	2823.043633
530.774337	2824.291319
531.135862	2821.916935
531.497331	2819.121616
531.858743	2815.686069
532.220098	2818.428457
532.581396	2813.483085
532.942638	2810.241623
533.303824	2813.369659
533.664953	2811.590132
534.026025	2806.354893
534.387040	2810.997796
534.747999	2807.484112
535.108902	2810.188691
535.469748	2802.170736
535.830537	2805.550829
536.191270	2802.831127
536.551947	2800.970941
536.912567	2801.870787
537.273131	2802.284162
537.633638	2796.438944
537.994089	2797.288378
538.354483	2790.586164
538.714821	2795.299643
539.075103	2797.893317
539.435328	2793.343675
539.795497	2792.607667
540.155609	2790.298818
540.515665	2793.729324
540.875665	2789.774538
541.235609	2789.172121
541.595496	2786.565844
541.955328	2789.532563
542.315102	2783.833539
542.674821	2783.863786
543.034483	2782.245575
543.394090	2781.219700
543.753640	2779.387241
544.113134	2784.877057
544.472571	2776.823814
544.831953	2784.178858
545.191278	2779.251130
545.550548	2774.867847
545.909761	2775.276180
546.268918	2776.201232
546.628019	2778.129473
546.987064	2773.400871
547.346053	2769.136055
547.704986	2773.673093
548.063863	2769.602361
548.422684	2770.751744
548.781449	2769.609923
549.140158	2772.349790
549.498811	2767.900972
549.857408	2764.110024
550.215949	2765.224119
550.574434	2762.028028
550.932864	2761.234046
551.291237	2760.256062
551.649555	2764.472987
552.007817	2763.928543
552.366022	2760.213212
552.724173	2759.802358
553.082267	2761.604571
553.440305	2765.461053
553.798288	2759.976278
554.156215	2759.623397
554.514086	2758.005187
554.871902	2757.642224
555.229661	2757.906884
555.587365	2754.219280
555.945014	2756.041657
556.302606	2756.298756
556.660143	2751.849938
557.017625	2751.088724
557.375050	2751.973446
557.732421	2754.557038
558.089735	2753.062336
558.446994	2752.222983
558.804197	2752.492685
559.161345	2749.331882
559.518437	2745.886253
559.875474	2747.537231
560.232455	2747.259967
560.589381	2749.301635
560.946251	2748.719382
561.303065	2745.356932
561.659825	2745.490522
562.016528	2742.352404
562.373177	2743.466499
562.729770	2739.791498
563.086307	2740.035994
563.442789	2739.408370
563.799216	2739.824266
564.155587	2738.011971
564.511904	2739.524317
564.868164	2734.813359
565.224370	2737.875860
565.580520	2735.778740
565.936615	2735.357803
566.292654	2732.655745
566.648638	2734.682289
567.004567	2733.681620
567.360441	2733.671537
567.716260	2727.662482
568.072023	2731.781105
568.427732	2728.209447
568.783385	2727.453274
569.138982	2725.426730
569.494525	2725.898078
569.850013	2724.783983
570.205445	2729.169787
570.560823	2724.257182
570.916145	2723.264075
571.271412	2723.216184
571.626625	2725.764487
571.981782	2723.097717
572.336884	2721.724003
572.691931	2721.436657
573.046923	2715.725030
573.401860	2716.894577
573.756743	2714.767210
574.111570	2715.339381
574.466342	2714.326109
574.821059	2715.077241
575.175722	2713.912735
575.530330	2713.887529
575.884882	2709.796633
576.239380	2709.778989
576.593823	2707.374358
576.948211	2707.465099
577.302544	2704.329501
577.656823	2705.458720
578.011047	2704.611806
578.365216	2702.484439
578.719330	2701.708101
579.073389	2701.418235
579.427394	2700.445292
579.781344	2698.690971
580.135239	2696.482945
580.489080	2694.821885
580.842866	2695.225178
581.196597	2695.575538
581.550273	2698.292720
581.903895	2691.640917
582.257463	2694.736186
582.610975	2690.804086
582.964434	2693.977492
583.317837	2690.917512
583.671186	2690.612522
584.024481	2690.216791
584.377721	2687.423992
584.730906	2687.678570
585.084037	2687.993642
585.437113	2683.507015
585.790135	2685.059691
586.143103	2684.152283
586.496016	2680.643640
586.848874	2679.597601
587.201679	2680.530214
587.554428	2678.947292
587.907124	2680.663805
588.259765	2674.551406
588.612352	2678.740604
588.964884	2676.721622
589.317362	2677.540810
589.669786	2675.269770
590.022155	2673.810356
590.374470	2677.248423
590.726731	2675.761282
591.078937	2673.659121
591.431090	2674.120387
591.783188	2671.519152
592.135232	2670.384892
592.487222	2668.948163
592.839157	2669.467402
593.191038	2667.375323
593.542866	2668.013029
593.894639	2663.816268
594.246358	2664.990857
594.598022	2663.712925
594.949633	2662.931546
595.301190	2661.958603
595.652692	2660.027841
596.004141	2661.704025
596.355535	2659.344765
596.706876	2659.546411
597.058162	2653.965854
597.409395	2658.656647
597.760573	2657.744199
598.111698	2657.252686
598.462768	2659.175886
598.813785	2658.376863
599.164748	2654.906029
599.515657	2653.746564
599.866511	2652.531646
600.217312	2654.757315
600.568060	2647.871099
600.918753	2652.065339
601.269392	2648.907056
601.619978	2650.714310
601.970510	2649.307828
602.320988	2652.907212
602.671412	2650.767242
603.021783	2649.653147
603.372100	2648.571819
603.722363	2648.634834
604.072572	2647.566109
604.422728	2649.360760
604.772830	2645.395892
605.122878	2642.464461
605.472872	2643.175264
605.822813	2641.499080
606.172701	2645.083341
606.522534	2646.900677
606.872314	2645.978146
607.222041	2645.592497
607.571714	2647.243475
607.921333	2645.605100
608.270899	2643.497898
608.620411	2641.829276
608.969870	2643.896149
609.319276	2641.519245
609.668627	2644.075110
610.017926	2644.405306
610.367171	2645.221972
610.716362	2641.294914
611.065500	2643.702065
611.414585	2640.647125
611.763616	2644.024698
612.112594	2644.732981
612.461518	2645.151396
612.810389	2641.317599
613.159207	2644.105357
613.507971	2643.883546
613.856682	2642.802219
614.205340	2643.026550
614.553945	2646.169709
614.902496	2642.688793
615.250994	2643.792805
615.599439	2644.090233
615.947830	2644.894297
616.296169	2642.164513
616.644454	2644.911942
616.992686	2645.171561
617.340864	2644.430511
617.688990	2644.049904
618.037063	2643.059317
618.385082	2642.409009
618.733048	2644.117960
619.080961	2641.657877
619.428821	2642.968577
619.776628	2642.182157
620.124382	2644.783392
620.472083	2642.285500
620.819731	2642.650984
621.167326	2641.385654
621.514868	2639.394399
621.862357	2640.052269
622.209793	2638.623102
622.557176	2635.361476
622.904506	2633.549181
623.251783	2631.177318
623.599007	2629.992647
623.946179	2630.373254
624.293297	2629.869138
624.640363	2629.919550
624.987376	2629.372585
625.334336	2626.300002
625.681243	2625.387553
626.028097	2624.223046
626.374899	2626.776391
626.721647	2623.169445
627.068343	2625.402676
627.414987	2622.685494
627.761577	2622.357819
628.108115	2621.760442
628.454600	2622.292284
628.801032	2622.166255
629.147412	2622.103241
629.493739	2621.725154
629.840014	2621.868827
630.186236	2619.726337
630.532405	2617.966974
630.878521	2621.112654
631.224585	2622.357819
631.570597	2616.525204
631.916556	2616.341202
632.262462	2618.156018
632.608316	2618.760956
632.954117	2617.029320
633.299866	2613.782817
633.645562	2616.860441
633.991206	2615.776593
634.336797	2613.404730
634.682336	2612.174688
635.027823	2614.173506
635.373257	2608.257712
635.718639	2609.696961
636.063968	2609.986828
636.409245	2606.024481
636.754470	2608.252671
637.099642	2607.907352
637.444762	2608.837445
637.789829	2602.558688
638.134845	2603.919799
638.479808	2604.078595
638.824719	2603.579521
639.169577	2602.707402
639.514383	2605.220417
639.859137	2598.964345
640.203839	2601.182452
640.548489	2603.425766
640.893086	2597.189859
641.237632	2593.905547
641.582125	2596.307657
641.926566	2593.149374
642.270955	2599.281937
642.615292	2598.926536
642.959576	2598.770260
643.303809	2596.226998
643.647990	2596.584920
643.992118	2596.723552
644.336195	2599.740682
644.680219	2597.804879
645.024192	2595.372523
645.368112	2597.451999
645.711981	2600.282607
646.055797	2601.008533
646.399562	2598.243460
646.743274	2603.118256
647.086935	2600.758996
647.430544	2600.058275
647.774101	2601.913420
648.117606	2601.805035
648.461059	2603.640015
648.804460	2600.234716
649.147810	2601.018615
649.491108	2600.043152
649.834354	2597.915785
650.177548	2593.509816
650.520690	2592.322625
650.863781	2596.078284
651.206820	2594.260948
651.549807	2593.582913
651.892742	2593.169538
652.235626	2591.677357
652.578458	2590.245669
652.921238	2589.010587
653.263967	2589.391194
653.606644	2586.888261
653.949269	2587.614187
654.291843	2585.786769
654.634365	2589.965885
654.976836	2586.792479
655.319255	2587.367170
655.661622	2585.690987
656.003938	2586.794999
656.346203	2583.510688
656.688416	2586.490010
657.030577	2586.608477
657.372687	2585.506985
657.714746	2583.382138
658.056753	2585.690987
658.398708	2580.851479
658.740612	2582.532704
659.082465	2583.062025
659.424266	2582.477251
659.766016	2581.038002
660.107715	2587.846080
660.449362	2583.520770
660.790958	2586.961357
661.132503	2585.617890
661.473996	2582.935996
661.815438	2585.900195
662.156829	2586.053950
662.498168	2583.339288
662.839456	2584.622262
663.180693	2584.806264
663.521879	2583.538414
663.863013	2586.348857
664.204097	2582.096644
664.545129	2584.080338
664.886110	2581.348033
665.227040	2584.430698
665.567918	2588.451018
665.908746	2584.980184
666.249522	2586.033785
666.590248	2584.571851
666.930922	2583.256109
667.271545	2583.634196
667.612118	2587.528487
667.952639	2586.490010
668.293109	2583.233424
668.633528	2584.458425
668.973896	2583.142683
669.314213	2582.142014
669.654480	2581.804257
669.994695	2584.559248
670.334859	2584.551686
670.674973	2582.812488
671.015035	2584.123188
671.355047	2581.748804
671.695008	2580.972467
672.034918	2583.251068
672.374777	2581.403485
672.714585	2580.864082
673.054342	2582.870461
673.394049	2582.313414
673.733705	2582.351222
674.073310	2581.088413
674.412864	2583.561099
674.752368	2577.733525
675.091820	2577.529359
675.431223	2579.596232
675.770574	2580.100347
676.109875	2575.359142
676.449125	2575.011302
676.788324	2575.689337
677.127473	2576.168247
677.466571	2572.107598
677.805619	2576.347208
678.144616	2576.216138
678.483562	2573.597259
678.822458	2576.715212
679.161303	2577.577250
679.500098	2574.693710
679.838842	2573.773699
680.177535	2573.940057
680.516179	2578.472054
680.854771	2573.622464
681.193314	2577.264698
681.531805	2578.134297
681.870247	2583.412385
682.208638	2582.109247
682.546978	2582.552868
682.885268	2579.429874
683.223508	2583.840883
683.561697	2582.192426
683.899836	2579.490368
684.237925	2579.528176
684.575963	2578.396437
684.913951	2577.370562
685.251889	2578.603124
685.589776	2578.537589
685.927614	2576.788309
686.265401	2580.581777
686.603137	2578.892991
686.940824	2579.253433
687.278460	2581.673187
687.616046	2582.308372
687.953582	2581.330389
688.291068	2582.139494
688.628504	2582.686459
688.965889	2584.070256
689.303224	2582.371387
689.640510	2579.482806
689.977745	2575.835531
690.314930	2574.497105
690.652065	2577.534400
690.989150	2574.625654
691.326185	2573.589697
691.663170	2568.535940
692.000105	2572.203380
692.336990	2568.838409
692.673825	2563.867832
693.010610	2571.689182
693.347345	2562.829354
693.684030	2562.269786
694.020665	2560.792728
694.357251	2560.265927
694.693786	2561.014539
695.030272	2559.592933
695.366707	2560.835578
695.703093	2556.981616
696.039429	2560.477656
696.375716	2558.655279
696.711952	2559.610577
697.048139	2559.149312
697.384276	2556.351471
697.720363	2559.953376
698.056400	2559.048489
698.392388	2556.903478
698.728326	2558.652758
699.064214	2557.962120
699.400053	2557.521019
699.735842	2556.482541
700.071581	2556.263251
700.407270	2554.060267
700.742910	2554.755946
701.078501	2553.440205
701.414042	2555.716286
701.749533	2551.839639
702.084974	2556.565720
702.420366	2551.741336
702.755709	2552.356357
703.091002	2550.329813
703.426246	2551.466593
703.761440	2551.128836
704.096584	2551.159083
704.431679	2547.892415
704.766725	2554.720658
705.101721	2548.731767
705.436668	2551.781665
705.771565	2550.967519
706.106413	2551.070863
706.441212	2550.569268
706.775961	2552.530277
707.110661	2549.243444
707.445311	2549.215718
707.779913	2551.154042
708.114465	2552.132026
708.448967	2553.294012
708.783421	2553.382232
709.117825	2554.637479
709.452180	2554.705535
709.786485	2555.958261
710.120742	2559.426575
710.454949	2557.276523
710.789107	2553.876265
711.123216	2555.660833
711.457275	2560.424724
711.791286	2559.217367
712.125247	2561.352296
712.459159	2561.453119
712.793023	2563.509910
713.126837	2557.848694
713.460602	2560.326421
713.794318	2559.068653
714.127985	2560.396997
714.461602	2556.240566
714.795171	2557.677295
715.128691	2553.147818
715.462162	2555.799465
715.795584	2555.789383
716.128957	2553.087324
716.462281	2549.437529
716.795556	2551.706048
717.128782	2548.701520
717.461960	2547.053063
717.795088	2546.070038
718.128167	2548.308310
718.461198	2546.599359
718.794180	2547.277394
719.127113	2545.845707
719.459997	2547.083310
719.792833	2544.376210
720.125619	2545.452497
720.458357	2543.504091
720.791046	2543.476364
721.123686	2540.887732
721.456278	2546.617003
721.788821	2541.722043
722.121315	2544.154400
722.453761	2540.474357
722.786158	2540.522248
723.118506	2539.030067
723.450805	2542.637012
723.783056	2540.902855
724.115259	2540.655839
724.447412	2541.865716
724.779518	2543.947712
725.111574	2541.719522
725.443582	2544.204811
725.775542	2544.477033
726.107453	2543.496529
726.439315	2542.745397
726.771129	2550.596994
727.102895	2543.370500
727.434612	2549.533311
727.766281	2545.560882
728.097901	2546.359904
728.429473	2543.662887
728.760996	2545.361756
729.092471	2540.978473
729.423897	2550.289484
729.755276	2546.460728
730.086606	2548.031047
730.417887	2547.060625
730.749120	2550.385266
731.080305	2549.056922
731.411442	2552.363919
731.742530	2552.270657
732.073570	2549.397200
732.404562	2556.127140
732.735506	2550.460883
733.066401	2551.585060
733.397249	2551.421223
733.728048	2549.021634
734.058798	2548.489792
734.389501	2544.068700
734.720156	2546.037271
735.050762	2543.756148
735.381320	2541.598535
735.711831	2540.098791
736.042293	2543.718340
736.372707	2539.861857
736.703073	2539.660211
737.033391	2541.064172
737.363661	2541.301107
737.693883	2541.137269
738.024056	2542.483257
738.354182	2543.335212
738.684260	2542.868905
739.014290	2544.643392
739.344272	2542.372352
739.674207	2545.074410
740.004093	2547.184133
740.333931	2543.105840
740.663722	2547.312682
740.993464	2544.535007
741.323159	2546.327137
741.652806	2543.617517
741.982405	2545.596170
742.311956	2544.441745
742.641460	2545.787733
742.970915	2542.465613
743.300323	2543.557023
743.629683	2540.189532
743.958996	2542.868905
744.288260	2542.579039
744.617477	2538.919161
744.946647	2534.485467
745.275768	2535.491177
745.604842	2533.923378
745.933869	2536.746424
746.262847	2532.889941
746.591778	2534.959335
746.920662	2537.492515
747.249498	2536.895138
747.578286	2535.476053
747.907027	2539.340098
748.235720	2537.931095
748.564365	2537.479912
748.892963	2538.336908
749.221514	2538.929244
749.550017	2538.160468
749.878473	2536.610313
750.206881	2536.552340
750.535242	2535.662576
750.863555	2538.152906
751.191821	2535.927237
751.520039	2537.863040
751.848210	2534.868594
752.176334	2535.160981
752.504411	2537.883204
752.832440	2534.303985
753.160421	2537.164840
753.488356	2538.841023
753.816243	2534.457740
754.144082	2535.140817
754.471875	2532.597554
754.799620	2536.580066
755.127318	2533.973789
755.454969	2533.041176
755.782572	2535.339942
756.110129	2535.665097
756.437638	2536.960673
756.765100	2533.709129
757.092515	2535.531506
757.419882	2530.182842
757.747203	2534.251053
758.074477	2535.029911
758.401703	2534.238450
758.728882	2537.432021
759.056014	2536.882535
759.383099	2537.016126
759.710138	2536.305323
760.037129	2536.229706
760.364073	2537.618544
760.690970	2538.200797
761.017820	2536.716177
761.344623	2541.117104
761.671379	2539.992927
761.998088	2538.099974
762.324751	2542.891591
762.651366	2551.020451
762.977935	2562.736093
763.304456	2566.423697
763.630931	2572.896538
763.957359	2568.268759
764.283740	2562.431103
764.610074	2557.092521
764.936362	2552.333672
765.262602	2548.068856
765.588796	2545.568443
765.914943	2540.555016
766.241044	2538.626774
766.567097	2535.967566
766.893104	2531.780888
767.219064	2533.343645
767.544978	2531.866587
767.870845	2530.175280
768.196665	2530.233253
768.522438	2529.968593
768.848165	2530.429858
769.173846	2529.784591
769.499479	2530.427338
769.825066	2526.094466
770.150607	2526.782583
770.476101	2524.181348
770.801548	2528.080681
771.126949	2525.005577
771.452303	2524.740916
771.777611	2525.633200
772.102872	2527.498427
772.428087	2526.802748
772.753256	2525.860052
773.078378	2525.313087
773.403453	2524.569517
773.728482	2526.114631
774.053465	2525.151770
774.378401	2525.905423
774.703291	2523.951976
775.028135	2521.113806
775.352932	2523.495751
775.677683	2520.443333
776.002388	2524.204033
776.327046	2521.595236
776.651658	2524.630011
776.976224	2523.349558
777.300743	2523.422654
777.625216	2522.553055
777.949643	2522.598426
778.274024	2522.197654
778.598359	2519.165400
778.922647	2519.853518
779.246889	2523.468025
779.571086	2519.881244
779.895236	2520.405524
780.219339	2522.172448
780.543397	2520.939886
780.867409	2521.118847
781.191374	2521.484331
781.515294	2520.198837
781.839167	2524.715710
782.162995	2522.684125
782.486776	2521.277643
782.810511	2523.183200
783.134201	2521.444002
783.457844	2520.753363
783.781441	2522.842922
784.104993	2522.127078
784.428498	2520.458456
784.751958	2520.229083
785.075372	2520.773528
785.398739	2520.728158
785.722061	2518.419309
786.045337	2521.779238
786.368568	2521.186903
786.691752	2519.074659
787.014891	2524.289733
787.337983	2521.625483
787.661030	2524.998015
787.984031	2526.361647
788.306987	2530.142513
788.629897	2528.864580
788.952760	2528.725948
789.275579	2528.259642
789.598351	2527.372398
789.921078	2522.472397
790.243759	2526.283509
790.566395	2523.873838
790.888984	2522.006090
791.211529	2521.683456
791.534027	2520.932324
791.856480	2520.019876
792.178888	2520.866789
792.501249	2518.482324
792.823566	2522.583302
793.145836	2518.391583
793.468062	2520.995339
793.790241	2519.966943
794.112375	2521.050792
794.434464	2519.346882
794.756507	2522.850483
795.078505	2523.107582
795.400457	2520.690349
795.722364	2518.000893
796.044226	2524.902233
796.366042	2520.690349
796.687812	2522.996677
797.009538	2524.803931
797.331218	2523.702438
797.652852	2524.942562
797.974442	2521.824609
798.295986	2522.837881
798.617484	2524.153622
798.938938	2519.951820
799.260346	2523.193282
799.581709	2521.302849
799.903026	2520.987777
800.224299	2521.181862
800.545526	2521.542304
800.866708	2519.800585
801.187845	2520.997859
801.508936	2523.238652
801.829983	2520.889475
802.150984	2517.889988
802.471940	2520.337468
802.792851	2517.784124
803.113717	2516.574247
803.434538	2519.427540
803.755314	2520.264372
804.076045	2519.349402
804.396731	2520.413086
804.717372	2521.852335
805.037967	2517.466531
805.358518	2516.586850
805.679024	2519.979546
805.999485	2523.241173
806.319901	2519.475431
806.640272	2518.522653
806.960598	2520.171110
807.280879	2519.765297
807.601115	2520.241686
807.921306	2523.175638
808.241453	2520.574403
808.561554	2517.373270
808.881611	2521.136491
809.201623	2519.057015
809.521590	2520.609691
809.841513	2520.551717
810.161390	2520.793693
810.481223	2519.520801
810.801011	2517.234638
811.120755	2519.314114
811.440453	2519.031809
811.760107	2521.166738
812.079716	2517.448887
812.399281	2515.288753
812.718801	2517.438805
813.038276	2511.918741
813.357707	2518.746984
813.677093	2518.449556
813.996434	2517.088445
814.315731	2517.191788
814.634983	2517.335461
814.954191	2519.200688
815.273354	2519.389731
815.592473	2518.822602
815.911547	2521.058353
816.230577	2521.227232
816.549562	2522.704290
816.868502	2520.924763
817.187399	2521.184382
817.506250	2521.126409
817.825058	2523.142870
818.143821	2520.589526
818.462539	2523.601615
818.781213	2523.626821
819.099843	2525.643283
819.418429	2527.470701
819.736970	2534.508152
820.055466	2534.520755
820.373919	2539.088040
820.692327	2548.799823
821.010691	2564.311453
821.329011	2595.299426
821.647286	2643.772641
821.965517	2692.334076
822.283704	2720.146122
822.601847	2725.812378
822.919945	2704.647094
823.237999	2680.031140
823.556010	2659.405259
823.873976	2634.191928
824.191897	2614.889350
824.509775	2599.667586
824.827609	2584.851635
825.145398	2575.051632
825.463144	2576.221179
825.780845	2571.880746
826.098502	2579.334092
826.416116	2590.228025
826.733685	2602.185642
827.051210	2607.446086
827.368692	2601.575662
827.686129	2585.809454
828.003522	2574.338308
828.320872	2557.969682
828.638177	2551.723692
828.955439	2543.798998
829.272656	2538.762886
829.589830	2531.536392
829.906960	2532.446320
830.224046	2525.978519
830.541088	2529.409025
830.858086	2525.290402
831.175041	2525.330731
831.491952	2524.040196
831.808819	2525.197141
832.125642	2525.247552
832.442421	2529.464477
832.759157	2534.556043
833.075849	2546.979966
833.392497	2555.534804
833.709101	2563.767009
834.025662	2558.499003
834.342179	2555.547407
834.658653	2546.758156
834.975083	2540.814635
835.291469	2540.287835
835.607811	2533.026052
835.924110	2529.479601
836.240366	2527.851308
836.556578	2524.047757
836.872746	2521.307890
837.188871	2521.494413
837.504952	2521.343178
837.820990	2517.842097
838.136984	2516.561644
838.452935	2515.500481
838.768842	2518.653723
839.084706	2518.381501
839.400526	2523.062212
839.716303	2528.146216
840.032037	2531.435568
840.347727	2527.495907
840.663373	2528.831813
840.978977	2526.096987
841.294537	2522.888292
841.610054	2519.150277
841.925527	2519.004083
842.240957	2517.466531
842.556344	2518.525173
842.871687	2513.728516
843.186987	2515.676922
843.502244	2513.237003
843.817458	2515.354288
844.132629	2511.039060
844.447756	2514.958557
844.762840	2506.464213
845.077881	2511.379338
845.392879	2505.483708
845.707833	2506.728873
846.022745	2506.991013
846.337613	2509.965294
846.652438	2510.177023
846.967221	2510.784482
847.281960	2509.665346
847.596656	2510.096364
847.911309	2510.968484
848.225919	2509.587208
848.540485	2509.307424
848.855009	2511.880933
849.169490	2510.542506
849.483928	2511.608710
849.798323	2510.315654
850.112675	2511.759945
850.426984	2509.214162
850.741251	2510.860099
851.055474	2509.884636
851.369654	2511.354132
851.683792	2509.272136
851.997887	2508.369769
852.311938	2509.519152
852.625947	2510.688700
852.939914	2509.584687
853.253837	2510.091323
853.567718	2507.706857
853.881555	2508.768020
854.195350	2507.477485
854.509103	2509.269615
854.822812	2509.660304
855.136479	2511.777589
855.450103	2509.942609
855.763685	2509.052845
856.077224	2511.596108
856.390720	2510.361025
856.704173	2509.100736
857.017584	2507.275839
857.330953	2512.253978
857.644278	2509.365397
857.957561	2510.539986
858.270802	2512.397651
858.584000	2511.754904
858.897155	2509.766169
859.210268	2511.170130
859.523339	2509.854389
859.836367	2509.940088
860.149352	2508.536127
860.462295	2508.621827
860.775195	2507.737104
861.088054	2506.000427
861.400869	2507.807680
861.713642	2503.966321
862.026373	2507.520335
862.339062	2509.307424
862.651708	2512.170799
862.964312	2507.979080
863.276873	2509.778772
863.589392	2509.645181
863.901869	2511.911180
864.214303	2509.378000
864.526696	2510.819770
864.839045	2508.122752
865.151353	2511.303721
865.463619	2507.575787
865.775842	2513.133659
866.088023	2508.984790
866.400162	2511.149965
866.712258	2508.808349
867.024313	2512.821108
867.336325	2511.565861
867.648296	2509.970335
867.960224	2510.413957
868.272110	2510.487054
868.583954	2509.536796
868.895755	2513.451252
869.207515	2512.861437
869.519233	2511.510408
869.830909	2513.468896
870.142542	2510.129132
870.454134	2512.919410
870.765684	2511.613752
871.077191	2514.373783
871.388657	2513.075686
871.700081	2512.372445
872.011463	2514.083917
872.322803	2515.392096
872.634101	2512.097702
872.945357	2515.944103
873.256571	2512.687517
873.567744	2512.722805
873.878874	2515.071983
874.189963	2514.489730
874.501010	2515.603825
874.812015	2515.588701
875.122979	2511.442352
875.433900	2515.535769
875.744780	2513.294976
876.055618	2513.594925
876.366415	2512.831190
876.677169	2514.071314
876.987882	2510.610562
877.298554	2508.868843
877.609183	2511.820439
877.919771	2509.592249
878.230317	2512.899246
878.540822	2519.636748
878.851285	2521.411234
879.161707	2521.416275
879.472087	2526.124713
879.782425	2532.030425
880.092722	2542.286652
880.402977	2556.757284
880.713191	2580.193608
881.023363	2598.193048
881.333494	2610.886674
881.643583	2615.292642
881.953631	2614.975049
882.263637	2607.826693
882.573602	2599.672627
882.883526	2590.613673
883.193408	2584.188723
883.503248	2574.446693
883.813048	2566.330435
884.122806	2557.437840
884.432522	2549.838301
884.742197	2545.434853
885.051831	2541.006199
885.361424	2538.455375
885.670975	2535.163502
885.980485	2528.539426
886.289954	2527.876514
886.599382	2524.879548
886.908768	2522.255627
887.218113	2521.491893
887.527417	2519.669515
887.836680	2517.179185
888.145901	2519.828312
888.455082	2515.376973
888.764221	2516.861593
889.073319	2514.063752
889.382376	2514.908146
889.691392	2514.177178
890.000366	2515.591222
890.309300	2513.983094
890.618193	2515.545852
890.927044	2513.400841
891.235855	2513.970491
891.544625	2513.378155
891.853353	2518.149607
892.162041	2515.419823
892.470687	2518.436953
892.779293	2518.116840
893.087858	2518.149608
893.396381	2519.840915
893.704864	2523.084897
894.013306	2528.700743
894.321707	2536.685930
894.630068	2541.800181
894.938387	2543.499050
895.246665	2539.130890
895.554903	2538.987217
895.863100	2534.664428
896.171256	2534.742565
896.479371	2529.184693
896.787446	2528.849457
897.095480	2524.546832
897.403473	2522.968951
897.711425	2520.478621
898.019336	2521.214629
898.327207	2518.620955
898.635038	2519.961902
898.942827	2515.941582
899.250576	2515.911335
899.558284	2517.201871
899.865952	2515.780265
900.173579	2514.777076
900.481165	2514.635923
900.788711	2512.914369
901.096216	2514.025944
901.403681	2511.470079
901.711105	2514.267919
902.018489	2511.235665
902.325832	2517.451408
902.633135	2513.693227
902.940397	2515.649195
903.247619	2520.987777
903.554800	2528.897347
903.861941	2539.982845
904.169041	2545.994421
904.476101	2549.520708
904.783121	2545.560882
905.090100	2543.194060
905.397039	2538.505787
905.703938	2533.462112
906.010796	2529.754344
906.317614	2528.549508
906.624391	2524.272089
906.931129	2523.188241
907.237826	2520.677746
907.544483	2518.164731
907.851099	2516.392765
908.157675	2516.105420
908.464211	2511.374297
908.770707	2508.878926
909.077163	2510.471930
909.383578	2505.599655
909.689954	2507.255674
909.996289	2504.659480
910.302584	2510.000582
910.608839	2508.478154
910.915054	2508.914214
911.221229	2509.738442
911.527363	2508.299193
911.833458	2506.817094
912.139513	2510.348422
912.445527	2507.807680
912.751502	2509.193998
913.057436	2510.136693
913.363331	2512.047291
913.669186	2512.473268
913.975000	2513.113495
914.280775	2515.497961
914.586510	2521.292767
914.892205	2523.687315
915.197859	2531.445651
915.503475	2536.257432
915.809050	2542.795809
916.114585	2544.318237
916.420081	2546.614483
916.725536	2546.488454
917.030952	2544.885367
917.336328	2541.036446
917.641665	2539.456044
917.946961	2537.439583
918.252218	2535.455889
918.557435	2531.954807
918.862612	2530.024045
919.167750	2524.375433
919.472848	2524.027593
919.777906	2523.273940
920.082925	2520.501306
920.387904	2518.270595
920.692843	2515.991994
920.997743	2516.596932
921.302603	2514.872858
921.607423	2512.448063
921.912204	2512.130470
922.216946	2512.669873
922.521647	2510.965963
922.826310	2510.663494
923.130932	2509.625016
923.435516	2508.420181
923.740059	2508.077382
924.044564	2509.746004
924.349028	2507.958915
924.653454	2507.737104
924.957840	2505.650067
925.262186	2503.235354
925.566493	2504.142762
925.870761	2502.317864
926.174989	2503.621002
926.479178	2505.070334
926.783328	2506.640653
927.087438	2506.083606
927.391509	2507.880777
927.695541	2504.583863
927.999533	2505.372803
928.303486	2503.961280
928.607400	2505.176198
928.911275	2504.944305
929.215110	2506.295334
929.518906	2504.147803
929.822663	2504.409943
930.126381	2504.853564
930.430060	2504.914058
930.733699	2504.198214
931.037299	2506.716271
931.340861	2504.422546
931.644383	2505.062772
931.947866	2506.582680
932.251309	2505.085457
932.554714	2503.008502
932.858080	2506.307937
933.161407	2504.979593
933.464694	2508.389934
933.767943	2504.775426
934.071153	2505.516476
934.374323	2505.483708
934.677455	2505.680313
934.980548	2505.793739
935.283602	2504.956908
935.586617	2504.309120
935.889593	2503.568070
936.192530	2505.614778
936.495428	2505.720643
936.798287	2505.322392
937.101108	2507.560664
937.403890	2504.626712
937.706632	2505.874398
938.009336	2507.623678
938.312002	2508.773061
938.614628	2504.961949
938.917216	2505.309789
939.219765	2506.166785
939.522275	2507.467403
939.824747	2508.150479
940.127179	2503.535303
940.429573	2502.827020
940.731929	2509.105778
941.034246	2504.548574
941.336524	2506.786847
941.638763	2505.458503
941.940964	2509.125942
942.243126	2505.861795
942.545250	2504.679644
942.847335	2506.655777
943.149381	2505.745848
943.451389	2506.587721
943.753359	2504.641836
944.055290	2505.030005
944.357182	2506.812052
944.659036	2503.873060
944.960851	2504.825838
945.262628	2503.159737
945.564367	2503.119407
945.866067	2505.962618
946.167729	2503.477329
946.469352	2505.526558
946.770937	2506.275170
947.072484	2500.515651
947.373992	2505.415653
947.675462	2503.820128
947.976893	2508.006806
948.278286	2505.284583
948.579641	2504.989675
948.880958	2505.829028
949.182236	2505.355159
949.483476	2503.709222
949.784678	2507.772392
950.085841	2506.353307
950.386967	2506.081085
950.688054	2505.639984
950.989103	2506.065962
951.290114	2505.592093
951.591087	2507.638802
951.892021	2503.585714
952.192917	2504.442710
952.493776	2507.336332
952.794596	2505.438338
953.095378	2506.318019
953.396122	2505.897083
953.696828	2507.563184
953.997496	2506.456651
954.298126	2504.283914
954.598718	2505.387927
954.899272	2504.777947
955.199788	2504.248626
955.500266	2504.989675
955.800706	2502.605210
956.101108	2500.997082
956.401472	2501.851557
956.701798	2498.738645
957.002087	2502.027998
957.302337	2502.237205
957.602550	2502.948008
957.902724	2502.237205
958.202861	2502.874911
958.502960	2502.025477
958.803022	2500.931547
959.103045	2500.855929
959.403031	2499.956083
959.702979	2502.479181
960.002889	2501.584376
960.302762	2503.530261
960.602596	2499.734273
960.902393	2504.183091
961.202153	2500.742503
961.501875	2499.782163
961.801559	2504.046980
962.101205	2501.607061
962.400814	2499.827534
962.700385	2501.017246
962.999918	2503.247957
963.299414	2500.830723
963.598873	2502.920282
963.898293	2502.340549
964.197677	2502.428769
964.497022	2501.322236
964.796331	2502.209479
965.095601	2503.099243
965.394835	2503.326095
965.694030	2500.767709
965.993189	2502.012874
966.292309	2501.506238
966.591393	2500.465240
966.890439	2501.339880
967.189447	2504.987155
967.488419	2498.887359
967.787353	2501.702843
968.086249	2500.061947
968.385108	2499.681340
968.683930	2502.915241
968.982714	2502.237205
969.281462	2500.891217
969.580172	2500.218223
969.878844	2502.060765
970.177480	2503.590755
970.476078	2499.550270
970.774639	2500.548419
971.073162	2502.585045
971.371649	2496.984323
971.670098	2498.037924
971.968510	2501.019767
972.266885	2496.328973
972.565223	2498.862153
972.863524	2500.724859
973.161788	2501.072699
973.460014	2501.775940
973.758204	2503.489932
974.056356	2501.788543
974.354471	2500.538337
974.652550	2503.774757
974.950591	2501.367606
975.248595	2502.814418
975.546563	2499.628408
975.844493	2501.012205
976.142386	2502.257370
976.440243	2501.435662
976.738062	2500.797956
977.035845	2500.646721
977.333590	2502.700992
977.631299	2498.690754
977.928971	2501.869201
978.226606	2498.713439
978.524204	2501.932216
978.821765	2500.336690
979.119290	2502.532113
979.416777	2500.475322
979.714228	2501.491115
980.011642	2501.929695
980.309020	2504.311640
980.606360	2500.860970
980.903664	2502.784171
981.200931	2501.937257
981.498162	2502.879952
981.795356	2499.280569
982.092513	2506.701147
982.389633	2503.963801
982.686717	2506.156702
982.983764	2506.615448
983.280775	2506.459172
983.577749	2505.274501
983.874686	2506.375993
984.171587	2503.437000
984.468451	2508.883967
984.765279	2503.411794
985.062070	2506.466733
985.358824	2503.124448
985.655543	2504.382216
985.952224	2503.321053
986.248869	2503.144613
986.545478	2498.237050
986.842050	2500.442555
987.138586	2499.928357
987.435086	2495.892913
987.731549	2496.092039
988.027975	2502.698471
988.324366	2499.499859
988.620719	2502.141423
988.917037	2500.729900
989.213318	2501.632267
989.509563	2500.881135
989.805772	2497.916937
990.101944	2501.823831
990.398080	2501.665034
990.694180	2501.065137
990.990244	2498.194200
991.286271	2502.983296
991.582262	2498.128665
991.878217	2499.275527
992.174136	2499.073881
992.470019	2499.787205
992.765865	2501.365086
993.061676	2500.014057
993.357450	2501.279386
993.653188	2496.979282
993.948890	2502.574963
994.244556	2500.240908
994.540186	2500.308964
994.835780	2501.044973
995.131337	2498.748727
995.426859	2501.907010
995.722345	2503.517658
996.017795	2502.695950
996.313208	2505.690396
996.608586	2504.692247
996.903928	2504.346928
997.199234	2502.259891
997.494504	2502.695950
997.789738	2504.004130
998.084936	2502.537154
998.380099	2505.309789
998.675225	2503.807525
998.970316	2500.986999
999.265371	2502.385919
999.560390	2499.840137
999.855373	2501.491115
1000.150320	2502.716115
1000.445232	2503.805004
1000.740108	2501.344921
1001.034948	2498.983141
1001.329752	2499.174704
1001.624521	2498.642863
1001.919254	2495.048520
1002.213951	2498.105980
1002.508613	2495.522388
1002.803239	2500.369458
1003.097829	2494.856956
1003.392384	2500.233347
1003.686903	2500.334170
1003.981386	2500.130003
1004.275834	2497.508603
1004.570246	2500.916423
1004.864623	2501.241577
1005.158964	2498.204282
1005.453270	2500.303923
1005.747540	2498.652945
1006.041775	2498.002636
1006.335974	2499.928357
1006.630138	2500.233347
1006.924266	2500.203100
1007.218359	2501.682678
1007.512416	2500.908861
1007.806438	2499.678820
1008.100425	2500.124962
1008.394376	2499.230157
1008.688292	2497.947183
1008.982172	2499.404077
1009.276017	2498.988182
1009.569827	2497.717811
1009.863602	2500.172853
1010.157341	2499.126813
1010.451045	2496.339055
1010.744714	2499.391474
1011.038347	2498.751248
1011.331945	2499.719149
1011.625508	2500.800477
1011.919036	2498.917606
1012.212528	2501.428100
1012.505986	2500.286279
1012.799408	2501.644870
1013.092795	2498.494149
1013.386147	2500.177894
1013.679464	2498.083295
1013.972745	2498.274858
1014.265992	2499.378871
1014.559204	2500.810559
1014.852380	2498.819303
1015.145521	2500.495487
1015.438628	2496.898623
1015.731699	2500.654283
1016.024736	2496.765033
1016.317737	2499.683861
1016.610703	2499.502379
1016.903635	2494.698160
1017.196531	2498.809221
1017.489393	2496.084477
1017.782219	2494.899806
1018.075011	2497.828716
1018.367768	2498.597492
1018.660490	2500.256032
1018.953177	2500.256032
1019.245829	2500.256032
