Dividing Wavelength (nm)	Counts (n)	Blue Motor Position (mm): 0.000000	Red Motor Position (mm): 44.600000	
326.493990	2127.286265
326.888308	2127.286265
327.282561	2127.286265
327.676750	2093.984402
328.070874	2094.962386
328.464933	2095.958014
328.858929	2104.878336
329.252859	2111.348657
329.646726	2124.193517
330.040528	2137.056021
330.434265	2155.879689
330.827938	2170.932575
331.221547	2188.891685
331.615091	2208.907587
332.008571	2228.247973
332.401986	2248.155490
332.795338	2265.343304
333.188625	2287.847015
333.581847	2305.475930
333.975006	2324.733137
334.368100	2341.726867
334.761129	2357.470390
335.154095	2375.716847
335.546996	2397.182080
335.939833	2421.692170
336.332606	2436.742535
336.725315	2447.913732
337.117960	2454.983950
337.510540	2464.443675
337.903056	2479.504122
338.295508	2484.875472
338.687896	2492.648931
339.080220	2503.505056
339.472480	2508.803308
339.864676	2513.375635
340.256807	2515.722292
340.648875	2519.319155
341.040879	2520.879392
341.432818	2522.537932
341.824694	2526.059178
342.216506	2525.600433
342.608253	2525.194620
342.999937	2523.732685
343.391557	2524.887110
343.783113	2524.415762
344.174605	2524.990453
344.566033	2518.492406
344.957397	2520.130781
345.348697	2519.540966
345.739934	2516.629700
346.131106	2516.498630
346.522215	2516.380163
346.913260	2512.654750
347.304241	2511.649040
347.695159	2506.970849
348.086012	2508.667197
348.476802	2506.015550
348.867528	2504.462875
349.258191	2501.314674
349.648789	2500.984479
350.039324	2498.789056
350.429796	2502.302740
350.820203	2497.183449
351.210548	2495.880310
351.600828	2499.199910
351.991045	2495.822337
352.381198	2492.006184
352.771288	2496.482728
353.161314	2494.809065
353.551276	2493.516009
353.941175	2495.088849
354.331010	2493.205978
354.720782	2496.039107
355.110490	2495.819817
355.500135	2494.955259
355.889717	2495.910557
356.279235	2495.393839
356.668689	2497.584220
357.058080	2496.054230
357.447408	2494.032727
357.836672	2493.649600
358.225873	2495.734117
358.615010	2494.143633
359.004084	2498.163953
359.393095	2500.805518
359.782043	2499.953563
360.170927	2500.097236
360.559748	2501.128152
360.948505	2501.110508
361.337199	2502.060765
361.725830	2502.292658
362.114398	2502.794253
362.502903	2501.896928
362.891344	2502.665703
363.279722	2505.743328
363.668037	2506.310458
364.056289	2509.093175
364.444478	2507.679131
364.832603	2507.114522
365.220665	2510.542506
365.608665	2507.512773
365.996601	2508.095026
366.384474	2509.136024
366.772284	2511.792712
367.160031	2513.489061
367.547715	2517.458969
367.935336	2517.642972
368.322893	2521.370905
368.710388	2523.205885
369.097820	2532.993285
369.485189	2532.279962
369.872495	2539.322454
370.259738	2549.427447
370.646918	2553.989691
371.034035	2561.105279
371.421090	2570.927968
371.808081	2582.159658
372.195010	2589.053436
372.581875	2603.846702
372.968678	2614.569237
373.355418	2624.815382
373.742096	2641.985552
374.128710	2659.974909
374.515262	2673.422187
374.901751	2688.033972
375.288177	2700.833461
375.674540	2725.983778
376.060841	2742.821232
376.447079	2765.307298
376.833254	2784.872016
377.219367	2796.091104
377.605417	2831.636280
377.991404	2843.866119
378.377329	2864.610467
378.763191	2882.204094
379.148991	2920.257244
379.534727	2946.594752
379.920402	2972.733135
380.306013	2986.001452
380.691563	3036.221427
381.077049	3057.091803
381.462474	3073.737693
381.847835	3114.414764
382.233134	3136.805049
382.618371	3135.713639
383.003545	3204.167467
383.388657	3210.426059
383.773706	3243.322109
384.158693	3259.501692
384.543618	3282.466668
384.928480	3320.716423
385.313280	3366.858104
385.698017	3367.198382
386.082692	3419.417174
386.467305	3423.077052
386.851856	3456.028554
387.236344	3480.301710
387.620770	3511.019981
388.005133	3537.206255
388.389435	3562.623752
388.773674	3576.771751
389.157851	3617.340436
389.541965	3630.785193
389.926018	3596.152467
390.310008	3666.683250
390.693936	3685.600180
391.077802	3728.200450
391.461606	3717.593863
391.845348	3779.595014
392.229027	3775.335239
392.612645	3791.136736
392.996200	3871.623798
393.379694	3909.911361
393.763125	3975.126248
394.146494	3941.703398
394.529801	4005.887369
394.913047	4051.187177
395.296230	4019.967312
395.679351	4072.922112
396.062410	4094.888940
396.445408	4080.047783
396.828343	4111.469295
397.211217	4135.051813
397.594028	4049.654667
397.976778	4121.843990
398.359466	4149.744256
398.742092	4178.788863
399.124656	4099.453705
399.507158	4178.627547
399.889598	4203.364488
400.271977	4263.810444
400.654294	4240.830344
401.036549	4250.824431
401.418742	4214.533165
401.800874	4317.423115
402.182944	4337.920446
402.564952	4400.894540
402.946898	4392.223756
403.328783	4388.475658
403.710606	4302.019869
404.092367	4491.156400
404.474067	4458.618272
404.855705	4468.554387
405.237282	4393.504209
405.618797	4502.163759
406.000250	4538.848236
406.381642	4618.090133
406.762972	4580.531016
407.144240	4592.324796
407.525447	4586.978652
407.906593	4649.403260
408.287677	4693.168037
408.668700	4618.720277
409.049661	4676.053320
409.430560	4720.347418
409.811399	4638.894975
410.192176	4798.676867
410.572891	4741.774843
410.953545	4845.153785
411.334138	4725.905290
411.714669	4791.911638
412.095139	4683.511707
412.475547	4830.181558
412.855894	4808.852436
413.236180	4815.778981
413.616405	4771.820120
413.996568	4858.023850
414.376670	4801.608298
414.756711	4759.376031
415.136691	4788.115649
415.516609	4862.752453
415.896466	4905.640069
416.276262	4934.704842
416.655997	4913.516872
417.035670	5100.349595
417.415283	5188.060631
417.794834	5137.225636
418.174324	5086.675465
418.553753	4996.713554
418.933121	5180.040155
419.312428	5248.567080
419.691674	5187.697668
420.070859	5308.806348
420.449983	5222.960539
420.829045	5342.085525
421.208047	5250.575980
421.586988	5320.451413
421.965867	5328.086241
422.344686	5463.531962
422.723444	5317.812369
423.102141	5135.940141
423.480777	5431.422333
423.859352	5201.044123
424.237866	5461.777641
424.616319	5453.492504
424.994712	5560.942178
425.373044	5437.050781
425.751314	5585.439665
426.129524	5384.297627
426.507673	5581.729376
426.885762	5661.190563
427.263789	5593.583649
427.641756	5473.977233
428.019662	5597.425008
428.397508	5604.785093
428.775292	5553.075457
429.153016	5650.848636
429.530679	5578.193007
429.908282	5665.863713
430.285824	5532.958733
430.663305	5806.963089
431.040726	5542.660434
431.418086	5545.478439
431.795385	5648.817051
432.172624	5660.257950
432.549802	5654.004399
432.926920	5670.310011
433.303977	5677.866700
433.680974	5713.109407
434.057910	5735.376183
434.434786	5738.136215
434.811601	5706.684456
435.188355	5940.084838
435.565050	5810.693543
435.941683	5797.188291
436.318257	6014.751888
436.694770	5993.881512
437.071222	6033.129415
437.447614	5956.473629
437.823946	5871.028592
438.200218	6030.230751
438.576429	5894.074227
438.952580	5991.101315
439.328670	6031.405340
439.704700	5942.136588
440.080670	5930.756183
440.456580	6197.294590
440.832429	6082.867959
441.208218	5930.768786
441.583947	6084.455923
441.959616	6089.227375
442.335224	6016.788515
442.710773	6156.057951
443.086261	6182.095511
443.461689	5976.734027
443.837057	6123.887828
444.212365	6284.594772
444.587612	6172.008162
444.962800	6325.758313
445.337927	6303.206712
445.712995	5915.267238
446.088002	6493.636298
446.462949	6325.967521
446.837837	6248.797538
447.212664	6427.645074
447.587431	6566.188584
447.962139	7110.739064
448.336786	8041.938482
448.711374	7771.528469
449.085901	6853.667944
449.460369	6772.263392
449.834776	6706.844338
450.209124	7099.237671
450.583412	7246.696462
450.957640	7392.930253
451.331808	7162.607496
451.705917	6712.051850
452.079965	6637.956971
452.453954	6849.685433
452.827883	6721.819086
453.201752	6813.021121
453.575562	6616.660617
453.949311	6820.232491
454.323001	6712.349278
454.696632	6779.459639
455.070202	6922.822493
455.443713	7077.137253
455.817164	7177.221801
456.190556	7258.238184
456.563888	7339.783889
456.937160	7382.371557
457.310373	7032.023967
457.683526	7065.106539
458.056619	6948.300484
458.429653	6932.483864
458.802628	6872.337857
459.175542	6978.151677
459.548398	7337.860689
459.921194	7499.966552
460.293930	7502.613158
460.666607	8034.260804
461.039224	8341.660284
461.411782	8467.454716
461.784280	8479.157755
462.156719	8379.854586
462.529099	8253.266172
462.901419	7844.720982
463.273680	7735.476657
463.645882	7749.100375
464.018024	7614.804037
464.390106	7780.226980
464.762130	8165.678644
465.134094	8630.510837
465.505999	9662.432509
465.877845	10880.458457
466.249631	11536.244517
466.621358	11147.223716
466.993026	10522.496205
467.364634	10267.985991
467.736184	9899.331452
468.107674	9563.855266
468.479105	9595.906922
468.850477	9364.961582
469.221790	9132.975244
469.593043	8805.393505
469.964238	8666.872680
470.335373	8681.247530
470.706449	8736.128052
471.077467	8719.217501
471.448425	10028.752994
471.819324	11103.060688
472.190164	11126.859975
472.560945	9877.591476
472.931667	9090.115354
473.302330	8955.655178
473.672934	8598.781815
474.043479	8955.118295
474.413965	8899.756344
474.784393	8777.445348
475.154761	8934.275645
475.525070	9022.198409
475.895321	8850.325310
476.265513	9025.051702
476.635645	9191.931538
477.005719	9192.027320
477.375734	9305.100401
477.745691	9547.955467
478.115588	9682.448410
478.485427	9921.217621
478.855207	10466.665426
479.224928	11275.702563
479.594591	11909.468863
479.964194	11715.087012
480.333739	11655.190542
480.703226	11569.006976
481.072653	11661.491984
481.442022	11906.424006
481.811333	12097.690424
482.180584	11895.434290
482.549777	11600.272212
482.918912	11422.826117
483.287988	11447.827720
483.657005	11465.733898
484.025964	11143.652058
484.394864	11276.879672
484.763706	11239.255021
485.132489	11003.434885
485.501213	10968.035903
485.869879	11036.973681
486.238487	10881.015505
486.607036	10992.737556
486.975527	10770.682291
487.343959	10968.131684
487.712333	11012.365289
488.080648	10947.314240
488.448905	10985.712708
488.817104	10921.974880
489.185244	11184.160250
489.553326	11339.856287
489.921350	11878.876621
490.289315	12943.381790
490.657222	13290.313998
491.025070	13192.588710
491.392861	13068.346953
491.760593	12693.015405
492.128267	12340.643792
492.495883	12013.278823
492.863440	11678.044613
493.230939	11339.014414
493.598380	11267.097313
493.965763	11141.106276
494.333088	11041.835874
494.700354	10959.226486
495.067563	11021.623368
495.434713	10859.704027
495.801805	10971.393311
496.168839	10900.844883
496.535815	10832.176806
496.902733	10839.446150
497.269593	10774.032138
497.636395	10866.522187
498.003139	10859.905673
498.369825	10729.042360
498.736453	10882.061544
499.103023	10810.207458
499.469535	10835.224184
499.835989	10826.959212
500.202385	10786.577049
500.568723	10644.688733
500.935003	10860.066990
501.301226	10671.227888
501.667390	10924.140055
502.033497	11021.963646
502.399546	10881.156657
502.765537	10795.038626
503.131470	10876.478466
503.497345	11043.786801
503.863163	10657.067286
504.228923	10958.755138
504.594625	11027.834069
504.960269	10779.499269
505.325856	10999.623773
505.691385	10793.458224
506.056856	10947.200814
506.422270	10973.374484
506.787625	10861.047494
507.152924	10983.411422
507.518164	10956.499222
507.883347	10881.902748
508.248472	10794.973091
508.613540	11024.085972
508.978550	10910.042469
509.343503	10892.469006
509.708398	11005.509320
510.073236	11113.258942
510.438016	11123.638678
510.802738	11069.867210
511.167403	11128.959616
511.532010	11022.182936
511.896561	11254.406208
512.261053	11317.879377
512.625488	11191.696775
512.989866	11178.756133
513.354186	11168.792293
513.718449	11063.343957
514.082655	11258.476940
514.446803	11154.742597
514.810894	11276.110896
515.174927	11140.506378
515.538904	11176.376709
515.902822	11320.117649
516.266684	11204.478621
516.630488	11148.179015
516.994235	11196.009482
517.357925	11270.825247
517.721558	11357.840603
518.085133	11371.242511
518.448651	11375.240146
518.812112	11268.216449
519.175516	11278.026535
519.538863	11404.383056
519.902152	11313.188583
520.265385	11471.233797
520.628560	11395.770245
520.991678	11362.874195
521.354739	11428.658732
521.717743	11362.906963
522.080690	11342.782677
522.443580	11477.673871
522.806413	11427.373238
523.169189	11457.652929
523.531908	11512.495641
523.894569	11337.723879
524.257174	11345.545229
524.619722	11469.993673
524.982213	11407.067470
525.344647	11458.023453
525.707025	11407.259034
526.069345	11507.005825
526.431608	11424.719071
526.793815	11529.917869
527.155964	11324.589152
527.518057	11380.177956
527.880093	11321.322485
528.242072	11394.061293
528.603995	11295.650409
528.965860	11220.146527
529.327669	11279.271700
529.689421	11222.994779
530.051117	11188.712412
530.412755	11291.710747
530.774337	11185.024808
531.135862	11168.552838
531.497331	11197.428567
531.858743	11043.764116
532.220098	11205.812006
532.581396	11079.352141
532.942638	11064.437888
533.303824	11028.572598
533.664953	11039.922756
534.026025	10952.882194
534.387040	11052.303830
534.747999	11053.372555
535.108902	11113.397574
535.469748	10869.536798
535.830537	10970.722838
536.191270	10947.500762
536.551947	10974.579320
536.912567	10976.774743
537.273131	10895.841538
537.633638	10870.166942
537.994089	10862.519511
538.354483	10816.145937
538.714821	10952.708274
539.075103	10963.299738
539.435328	10931.240521
539.795497	10755.702503
540.155609	10909.157746
540.515665	10998.358443
540.875665	10739.129709
541.235609	10803.417024
541.595496	10798.421240
541.955328	10957.250354
542.315102	10834.636889
542.674821	10791.270363
543.034483	10790.468820
543.394090	10801.619852
543.753640	10721.924251
544.113134	10948.541761
544.472571	10800.041971
544.831953	10939.150091
545.191278	10750.253015
545.550548	10775.093301
545.909761	10914.715618
546.268918	10883.024405
546.628019	10974.120575
546.987064	10832.141518
547.346053	10762.777762
547.704986	10857.690086
548.063863	10848.023673
548.422684	10842.982520
548.781449	10751.916596
549.140158	10852.810249
549.498811	10732.303987
549.857408	10591.312996
550.215949	10817.988479
550.574434	10666.358133
550.932864	10766.412434
551.291237	10825.406537
551.649555	10775.375605
552.007817	10788.459920
552.366022	10749.816955
552.724173	10740.715152
553.082267	10724.772503
553.440305	10867.714420
553.798288	10658.375466
554.156215	10819.115177
554.514086	10786.357759
554.871902	10647.289968
555.229661	10679.311378
555.587365	10656.132152
555.945014	10550.966121
556.302606	10676.069916
556.660143	10567.221322
557.017625	10725.833666
557.375050	10624.569488
557.732421	10760.834397
558.089735	10669.670171
558.446994	10676.122848
558.804197	10710.732890
559.161345	10711.915040
559.518437	10563.105220
559.875474	10648.794753
560.232455	10678.603096
560.589381	10621.385999
560.946251	10629.875303
561.303065	10725.488347
561.659825	10663.933338
562.016528	10595.852555
562.373177	10481.443569
562.729770	10587.592625
563.086307	10508.328042
563.442789	10597.521177
563.799216	10474.743875
564.155587	10523.504436
564.511904	10476.067178
564.868164	10467.582916
565.224370	10482.116563
565.580520	10405.619574
565.936615	10412.830944
566.292654	10284.929309
566.648638	10415.212889
567.004567	10370.893585
567.360441	10354.293066
567.716260	10264.880641
568.072023	10361.028047
568.427732	10308.816817
568.783385	10220.026974
569.138982	10293.952975
569.494525	10304.708277
569.850013	10186.649495
570.205445	10259.214384
570.560823	10167.218367
570.916145	10080.402136
571.271412	10148.740018
571.626625	10088.460421
571.981782	10073.311753
572.336884	10052.491788
572.691931	10049.724194
573.046923	9997.717131
573.401860	9953.654926
573.756743	9891.752077
574.111570	9937.069529
574.466342	9916.715871
574.821059	9944.159912
575.175722	9837.284930
575.530330	9846.321198
575.884882	9837.332821
576.239380	9766.852449
576.593823	9747.396116
576.948211	9764.929249
577.302544	9643.787802
577.656823	9657.479575
578.011047	9662.051902
578.365216	9629.125606
578.719330	9555.315552
579.073389	9562.355523
579.427394	9516.755766
579.781344	9490.302311
580.135239	9439.502604
580.489080	9452.728071
580.842866	9351.413481
581.196597	9354.501188
581.550273	9392.468638
581.903895	9366.864618
582.257463	9429.294267
582.610975	9302.163929
582.964434	9332.975461
583.317837	9251.207946
583.671186	9235.948373
584.024481	9228.661385
584.377721	9151.405703
584.730906	9129.446436
585.084037	9158.082711
585.437113	9098.881921
585.790135	9115.003531
586.143103	9011.811111
586.496016	8988.432760
586.848874	9041.256491
587.201679	9033.377168
587.554428	8919.779807
587.907124	8964.053740
588.259765	8938.611037
588.612352	8942.391902
588.964884	8819.788520
589.317362	8831.005087
589.669786	8839.995985
590.022155	8881.310762
590.374470	8897.145026
590.726731	8837.936674
591.078937	8690.679529
591.431090	8800.412845
591.783188	8672.455758
592.135232	8664.636928
592.487222	8668.594234
592.839157	8719.267912
593.191038	8649.440370
593.542866	8598.746527
593.894639	8497.159715
594.246358	8545.630409
594.598022	8562.974499
594.949633	8458.138664
595.301190	8436.040766
595.652692	8461.342317
596.004141	8571.481446
596.355535	8352.987756
596.706876	8325.689908
597.058162	8262.831761
597.409395	8339.515273
597.760573	8401.763440
598.111698	8310.145510
598.462768	8296.103376
598.813785	8259.975947
599.164748	8232.075681
599.515657	8223.256183
599.866511	8127.005432
600.217312	8258.168694
600.568060	8115.204091
600.918753	8222.084114
601.269392	8187.859721
601.619978	8098.527954
601.970510	8171.218872
602.320988	8164.899786
602.671412	8217.325265
603.021783	8152.886716
603.372100	8129.175649
603.722363	8130.294785
604.072572	8107.828883
604.422728	8115.894729
604.772830	8050.823515
605.122878	8056.547746
605.472872	8048.189512
605.822813	8078.088596
606.172701	8020.765636
606.522534	8094.626101
606.872314	8098.283458
607.222041	8063.665855
607.571714	8123.632900
607.921333	8073.937206
608.270899	8086.343485
608.620411	8179.965274
608.969870	8089.141326
609.319276	8075.646157
609.668627	8088.405317
610.017926	8125.692212
610.367171	8173.689037
610.716362	8145.670304
611.065500	8135.351062
611.414585	8165.141761
611.763616	8149.433526
612.112594	8135.083881
612.461518	8153.393352
612.810389	8215.752425
613.159207	8152.768249
613.507971	8097.456709
613.856682	8220.105462
614.205340	8170.503028
614.553945	8248.340964
614.902496	8146.489492
615.250994	8199.225002
615.599439	8179.637599
615.947830	8192.598406
616.296169	8165.240064
616.644454	8187.786624
616.992686	8180.950820
617.340864	8245.827949
617.688990	8145.831621
618.037063	8235.463337
618.385082	8175.050149
618.733048	8266.892410
619.080961	8206.940488
619.428821	8221.605205
619.776628	8223.165442
620.124382	8180.378649
620.472083	8164.725866
620.819731	8187.504320
621.167326	8085.002538
621.514868	8086.295594
621.862357	7980.343143
622.209793	7997.057089
622.557176	7930.612161
622.904506	7899.752738
623.251783	7832.755803
623.599007	7787.324924
623.946179	7791.378012
624.293297	7751.194975
624.640363	7667.234558
624.987376	7649.315776
625.334336	7602.153261
625.681243	7547.350878
626.028097	7531.504011
626.374899	7506.391503
626.721647	7503.026533
627.068343	7433.650173
627.414987	7405.591111
627.761577	7363.689040
628.108115	7397.671458
628.454600	7291.514841
628.801032	7345.256061
629.147412	7298.990872
629.493739	7293.576673
629.840014	7227.126703
630.186236	7286.133409
630.532405	7165.937178
630.878521	7218.055147
631.224585	7173.826584
631.570597	7093.578976
631.916556	7128.625078
632.262462	7124.939994
632.608316	7090.909685
632.954117	7061.280303
633.299866	7049.514250
633.645562	7040.334309
633.991206	6964.903524
634.336797	6901.453041
634.682336	6858.106680
635.027823	6831.260015
635.373257	6816.960782
635.718639	6747.735658
636.063968	6768.147290
636.409245	6659.487739
636.754470	6658.749210
637.099642	6617.724300
637.444762	6559.322533
637.789829	6569.099851
638.134845	6505.994687
638.479808	6498.674931
638.824719	6499.544530
639.169577	6425.129538
639.514383	6449.692560
639.859137	6378.841663
640.203839	6382.496500
640.548489	6368.303131
640.893086	6343.883782
641.237632	6320.218085
641.582125	6336.100240
641.926566	6305.639068
642.270955	6322.892417
642.615292	6314.687939
642.959576	6332.321896
643.303809	6315.633156
643.647990	6322.663045
643.992118	6316.916129
644.336195	6260.669455
644.680219	6285.280368
645.024192	6272.932062
645.368112	6369.041660
645.711981	6390.794239
646.055797	6465.252081
646.399562	6423.985196
646.743274	6547.833743
647.086935	6596.049859
647.430544	6592.742862
647.774101	6614.089628
648.117606	6620.028107
648.461059	6610.220543
648.804460	6569.939203
649.147810	6476.541745
649.491108	6448.344051
649.834354	6425.109373
650.177548	6341.784141
650.520690	6251.852477
650.863781	6230.009158
651.206820	6255.199803
651.549807	6175.307597
651.892742	6115.191838
652.235626	6115.396004
652.578458	6105.981650
652.921238	6011.820458
653.263967	6046.256579
653.606644	5990.942519
653.949269	5989.394885
654.291843	5930.713333
654.634365	5980.754347
654.976836	5932.712151
655.319255	5930.151245
655.661622	5907.347585
656.003938	5899.329630
656.346203	5860.840420
656.688416	5889.297734
657.030577	5846.059757
657.372687	5815.018853
657.714746	5800.369259
658.056753	5841.767215
658.398708	5778.606598
658.740612	5773.353716
659.082465	5816.947094
659.424266	5810.827133
659.766016	5809.594571
660.107715	5781.880828
660.449362	5793.936747
660.790958	5786.211179
661.132503	5771.969919
661.473996	5802.995701
661.815438	5792.205111
662.156829	5784.426610
662.498168	5781.900992
662.839456	5757.070789
663.180693	5789.984483
663.521879	5787.572290
663.863013	5777.953769
664.204097	5789.752589
664.545129	5832.428477
664.886110	5830.757335
665.227040	5853.583679
665.567918	5819.792825
665.908746	5843.670250
666.249522	5845.661506
666.590248	5833.948385
666.930922	5855.837075
667.271545	5867.988777
667.612118	5866.380648
667.952639	5844.454150
668.293109	5856.038721
668.633528	5809.415610
668.973896	5817.007588
669.314213	5808.291433
669.654480	5782.959635
669.994695	5775.607112
670.334859	5768.136122
670.674973	5757.176653
671.015035	5759.120018
671.355047	5753.920068
671.695008	5738.224435
672.034918	5713.104366
672.374777	5718.223657
672.714585	5700.682963
673.054342	5701.255134
673.394049	5693.214493
673.733705	5720.784564
674.073310	5702.084403
674.412864	5669.808416
674.752368	5648.602802
675.091820	5653.112114
675.431223	5592.323361
675.770574	5591.181539
676.109875	5537.757912
676.449125	5542.438623
676.788324	5510.694477
677.127473	5452.038132
677.466571	5446.591165
677.805619	5432.158341
678.144616	5417.266773
678.483562	5394.637033
678.822458	5360.142938
679.161303	5350.557184
679.500098	5339.398590
679.838842	5326.039532
680.177535	5319.980065
680.516179	5340.091749
680.854771	5350.363100
681.193314	5416.681999
681.531805	5516.290158
681.870247	5650.155478
682.208638	5747.190127
682.546978	5755.986941
682.885268	5734.723354
683.223508	5646.760261
683.561697	5598.773517
683.899836	5565.849741
684.237925	5519.493811
684.575963	5485.929809
684.913951	5443.246359
685.251889	5489.342670
685.589776	5462.828721
685.927614	5433.053146
686.265401	5488.331919
686.603137	5475.550073
686.940824	5535.779259
687.278460	5558.678700
687.616046	5554.648297
687.953582	5617.879490
688.291068	5595.136325
688.628504	5643.523840
688.965889	5615.386640
689.303224	5559.233227
689.640510	5511.957286
689.977745	5437.459115
690.314930	5348.576011
690.652065	5298.116581
690.989150	5212.119538
691.326185	5138.196058
691.663170	5085.145475
692.000105	5015.108725
692.336990	4948.333601
692.673825	4915.603910
693.010610	4854.275752
693.347345	4796.310045
693.684030	4767.366260
694.020665	4731.816043
694.357251	4653.274866
694.693786	4660.322399
695.030272	4625.886277
695.366707	4589.284980
695.703093	4559.174168
696.039429	4573.304522
696.375716	4548.862488
696.711952	4526.709137
697.048139	4524.286863
697.384276	4497.001618
697.720363	4503.900437
698.056400	4503.565200
698.392388	4455.936378
698.728326	4443.426755
699.064214	4423.907408
699.400053	4414.641767
699.735842	4373.611816
700.071581	4351.067776
700.407270	4327.144980
700.742910	4314.287517
701.078501	4263.533180
701.414042	4255.192591
701.749533	4227.231831
702.084974	4170.148326
702.420366	4216.249678
702.755709	4166.188499
703.091002	4113.432824
703.426246	4148.201663
703.761440	4119.809884
704.096584	4086.717230
704.431679	4096.323148
704.766725	4081.164399
705.101721	4063.797624
705.436668	4085.409050
705.771565	4049.256415
706.106413	4067.954055
706.441212	4080.700612
706.775961	4083.654729
707.110661	4078.631219
707.445311	4099.839353
707.779913	4103.930249
708.114465	4121.017240
708.448967	4146.399450
708.783421	4187.005944
709.117825	4212.594841
709.452180	4216.721026
709.786485	4258.781893
710.120742	4324.140452
710.454949	4315.270542
710.789107	4357.444835
711.123216	4419.756017
711.457275	4412.474071
711.791286	4466.069098
712.125247	4469.678564
712.459159	4406.475098
712.793023	4470.051609
713.126837	4403.964603
713.460602	4400.319849
713.794318	4351.196325
714.127985	4345.194831
714.461602	4263.525618
714.795171	4253.879371
715.128691	4191.427036
715.462162	4141.171773
715.795584	4092.696038
716.128957	4075.523347
716.462281	4047.371024
716.795556	4014.595962
717.128782	3974.047441
717.461960	3913.755241
717.795088	3920.283535
718.128167	3885.244996
718.461198	3844.494828
718.794180	3838.127851
719.127113	3811.724808
719.459997	3789.536169
719.792833	3760.998197
720.125619	3758.966612
720.458357	3717.545972
720.791046	3718.581929
721.123686	3695.569062
721.456278	3665.317097
721.788821	3672.583921
722.121315	3653.881240
722.453761	3637.305926
722.786158	3633.769557
723.118506	3648.976197
723.450805	3621.033081
723.783056	3640.554950
724.115259	3636.756440
724.447412	3638.067140
724.779518	3641.099394
725.111574	3640.587717
725.443582	3660.066736
725.775542	3644.935712
726.107453	3676.417718
726.439315	3677.239426
726.771129	3697.182231
727.102895	3722.564440
727.434612	3748.281887
727.766281	3760.320162
728.097901	3765.999022
728.429473	3763.740585
728.760996	3766.626646
729.092471	3763.667488
729.423897	3744.511104
729.755276	3744.309458
730.086606	3744.788367
730.417887	3781.016619
730.749120	3826.760049
731.080305	3855.802137
731.411442	3882.595869
731.742530	3865.224053
732.073570	3866.222202
732.404562	3893.681367
732.735506	3886.124677
733.066401	3857.269112
733.397249	3812.798574
733.728048	3755.576436
734.058798	3677.148685
734.389501	3620.884367
734.720156	3580.784509
735.050762	3547.270918
735.381320	3527.910367
735.711831	3497.489524
736.042293	3475.421873
736.372707	3481.715754
736.703073	3465.221098
737.033391	3461.901498
737.363661	3470.078250
737.693883	3481.367914
738.024056	3490.426867
738.354182	3492.977691
738.684260	3531.363557
739.014290	3545.488870
739.344272	3545.307389
739.674207	3570.432500
740.004093	3576.668407
740.333931	3567.448137
740.663722	3565.187179
740.993464	3557.383473
741.323159	3544.662121
741.652806	3519.020292
741.982405	3495.677229
742.311956	3473.659990
742.641460	3461.846046
742.970915	3441.076492
743.300323	3410.695978
743.629683	3388.590519
743.958996	3377.472254
744.288260	3354.751773
744.617477	3326.019717
744.946647	3322.453101
745.275768	3297.522074
745.604842	3289.259623
745.933869	3265.132661
746.262847	3255.010024
746.591778	3268.414452
746.920662	3254.140425
747.249498	3240.050400
747.578286	3258.213677
747.907027	3275.376286
748.235720	3282.872481
748.564365	3292.412865
748.892963	3280.989610
749.221514	3273.455606
749.550017	3259.088317
749.878473	3256.582864
750.206881	3232.503793
750.535242	3226.222515
750.863555	3226.582957
751.191821	3221.998028
751.520039	3214.418653
751.848210	3201.919112
752.176334	3214.300186
752.504411	3211.444372
752.832440	3193.737320
753.160421	3186.354550
753.488356	3182.409847
753.816243	3184.486802
754.144082	3162.575427
754.471875	3152.029333
754.799620	3158.955879
755.127318	3156.889006
755.454969	3153.314827
755.782572	3154.093686
756.110129	3145.672438
756.437638	3138.198928
756.765100	3137.888897
757.092515	3142.748569
757.419882	3145.874084
757.747203	3131.179121
758.074477	3135.955614
758.401703	3142.090698
758.728882	3151.368942
759.056014	3150.582522
759.383099	3158.958399
759.710138	3162.462001
760.037129	3175.100174
760.364073	3178.087057
760.690970	3170.051458
761.017820	3162.225067
761.344623	3172.236798
761.671379	3198.075232
761.998088	3222.166907
762.324751	3303.039617
762.651366	3472.734938
762.977935	3801.677788
763.304456	4077.502000
763.630931	4111.350828
763.957359	3887.725243
764.283740	3662.781397
764.610074	3523.264944
764.936362	3385.659088
765.262602	3295.369502
765.588796	3222.776886
765.914943	3164.246570
766.241044	3115.571709
766.567097	3091.437185
766.893104	3062.382494
767.219064	3036.919626
767.544978	3020.097296
767.870845	2992.270127
768.196665	2980.567088
768.522438	2978.089361
768.848165	2970.515027
769.173846	2950.574743
769.499479	2941.160388
769.825066	2931.120931
770.150607	2918.797830
770.476101	2919.468303
770.801548	2914.898498
771.126949	2898.552556
771.452303	2885.349774
771.777611	2882.793909
772.102872	2883.638302
772.428087	2871.040459
772.753256	2863.062833
773.078378	2860.184334
773.403453	2839.934019
773.728482	2830.635611
774.053465	2837.713391
774.378401	2831.328770
774.703291	2818.723364
775.028135	2812.268167
775.352932	2810.839000
775.677683	2802.296765
776.002388	2800.529840
776.327046	2800.645787
776.651658	2796.890127
776.976224	2786.596091
777.300743	2787.110289
777.625216	2782.515277
777.949643	2776.904473
778.274024	2780.579474
778.598359	2772.090171
778.922647	2771.165119
779.246889	2769.904831
779.571086	2761.339910
779.895236	2763.217740
780.219339	2767.651435
780.543397	2772.485901
780.867409	2771.437341
781.191374	2772.904317
781.515294	2766.529778
781.839167	2768.329470
782.162995	2762.998450
782.486776	2766.275200
782.810511	2764.092380
783.134201	2756.959147
783.457844	2756.921339
783.781441	2750.869434
784.104993	2743.400964
784.428498	2742.937178
784.751958	2747.874988
785.075372	2745.974473
785.398739	2737.046590
785.722061	2741.576067
786.045337	2748.852972
786.368568	2746.080337
786.691752	2742.440624
787.014891	2758.582399
787.337983	2779.964453
787.661030	2804.620737
787.984031	2842.179853
788.306987	2862.528471
788.629897	2859.037472
788.952760	2844.750842
789.275579	2827.295847
789.598351	2798.553708
789.921078	2776.700306
790.243759	2764.775457
790.566395	2756.757501
790.888984	2743.900038
791.211529	2737.565829
791.534027	2728.877400
791.856480	2722.061760
792.178888	2716.584546
792.501249	2712.833928
792.823566	2709.718495
793.145836	2710.073896
793.468062	2707.023998
793.790241	2702.736497
794.112375	2705.874615
794.434464	2713.166644
794.756507	2714.926007
795.078505	2718.311142
795.400457	2728.126268
795.722364	2744.971284
796.044226	2760.550970
796.366042	2762.063316
796.687812	2758.489138
797.009538	2761.397883
797.331218	2756.689446
797.652852	2748.684093
797.974442	2737.777557
798.295986	2734.520972
798.617484	2730.881259
798.938938	2724.975547
799.260346	2714.696634
799.581709	2712.647405
799.903026	2706.708926
800.224299	2703.699357
800.545526	2698.360775
800.866708	2693.115455
801.187845	2689.379960
801.508936	2685.793179
801.829983	2685.402489
802.150984	2680.008455
802.471940	2676.421674
802.792851	2676.595593
803.113717	2676.025943
803.434538	2674.639626
803.755314	2674.697599
804.076045	2670.707526
804.396731	2671.045283
804.717372	2674.110305
805.037967	2671.284738
805.358518	2673.764986
805.679024	2677.641633
805.999485	2675.403361
806.319901	2678.831345
806.640272	2677.392096
806.960598	2679.123732
807.280879	2679.249761
807.601115	2682.145904
807.921306	2679.269926
808.241453	2677.581139
808.561554	2678.919565
808.881611	2678.768331
809.201623	2677.523166
809.521590	2673.394461
809.841513	2670.531085
810.161390	2673.691889
810.481223	2668.764161
810.801011	2666.349448
811.120755	2664.441372
811.440453	2664.532112
811.760107	2661.903151
812.079716	2656.120947
812.399281	2651.896460
812.718801	2651.604073
813.038276	2646.872950
813.357707	2651.193219
813.677093	2652.506440
813.996434	2649.937972
814.315731	2649.766573
814.634983	2644.271715
814.954191	2646.293218
815.273354	2650.996614
815.592473	2654.212870
815.911547	2656.357881
816.230577	2659.659837
816.549562	2662.954231
816.868502	2663.216371
817.187399	2664.446413
817.506250	2669.359017
817.825058	2665.699139
818.143821	2676.570388
818.462539	2679.743794
818.781213	2691.204857
819.099843	2705.151209
819.418429	2732.081053
819.736970	2760.742533
820.055466	2794.218316
820.373919	2829.924808
820.692327	2881.468086
821.010691	2964.838688
821.329011	3197.447609
821.647286	3720.001014
821.965517	4500.192668
822.283704	4920.836627
822.601847	4882.574270
822.919945	4471.233760
823.237999	4101.354220
823.556010	3765.343672
823.873976	3489.096003
824.191897	3291.709624
824.509775	3152.099909
824.827609	3036.470964
825.145398	2984.988180
825.463144	2977.139103
825.780845	3010.700585
826.098502	3071.179308
826.416116	3210.620144
826.733685	3369.562683
827.051210	3399.996129
827.368692	3322.226249
827.686129	3174.984227
828.003522	3028.868904
828.320872	2918.749939
828.638177	2840.576766
828.955439	2783.735236
829.272656	2748.598394
829.589830	2720.955227
829.906960	2700.009232
830.224046	2684.190092
830.541088	2674.286745
830.858086	2665.061433
831.175041	2656.415855
831.491952	2659.372491
831.808819	2658.023983
832.125642	2667.760971
832.442421	2682.516429
832.759157	2723.453118
833.075849	2799.062864
833.392497	2914.356573
833.709101	2992.542349
834.025662	2971.429997
834.342179	2900.170767
834.658653	2825.218891
834.975083	2766.144130
835.291469	2728.320352
835.607811	2691.761905
835.924110	2672.635767
836.240366	2653.096255
836.556578	2636.357103
836.872746	2628.707152
837.188871	2623.973509
837.504952	2616.442025
837.820990	2607.730911
838.136984	2605.124635
838.452935	2601.676486
838.768842	2606.568925
839.084706	2611.799122
839.400526	2640.415232
839.716303	2695.998995
840.032037	2730.515775
840.347727	2719.846173
840.663373	2693.117975
840.978977	2658.729744
841.294537	2633.040024
841.610054	2618.307252
841.925527	2605.716970
842.240957	2596.746237
842.556344	2592.960331
842.871687	2586.691656
843.186987	2583.419947
843.502244	2579.157651
843.817458	2575.747311
844.132629	2574.381158
844.447756	2570.905282
844.762840	2566.663152
845.077881	2568.321691
845.392879	2563.537636
845.707833	2565.536454
846.022745	2560.946483
846.337613	2565.097873
846.652438	2562.070660
846.967221	2563.096535
847.281960	2561.069991
847.596656	2565.995199
847.911309	2563.593089
848.225919	2563.177194
848.540485	2561.158212
848.855009	2560.800290
849.169490	2559.895402
849.483928	2559.066133
849.798323	2558.390618
850.112675	2559.618139
850.426984	2562.085784
850.741251	2558.400700
851.055474	2561.122923
851.369654	2562.484035
851.683792	2561.460681
851.997887	2559.328273
852.311938	2560.550752
852.625947	2560.631411
852.939914	2560.396997
853.253837	2560.757440
853.567718	2561.604354
853.881555	2557.379867
854.195350	2560.553273
854.509103	2560.701987
854.822812	2560.938921
855.136479	2560.588561
855.450103	2557.102603
855.763685	2559.308108
856.077224	2559.454302
856.390720	2559.096380
856.704173	2558.894733
857.017584	2562.766340
857.330953	2561.001936
857.644278	2561.657286
857.957561	2565.803635
858.270802	2561.269117
858.584000	2560.109652
858.897155	2561.183417
859.210268	2560.414641
859.523339	2559.734086
859.836367	2558.511606
860.149352	2559.867676
860.462295	2560.407080
860.775195	2555.696121
861.088054	2553.200750
861.400869	2554.226625
861.713642	2553.863662
862.026373	2555.749053
862.339062	2560.754919
862.651708	2559.371123
862.964312	2560.966648
863.276873	2561.039744
863.589392	2559.691236
863.901869	2562.393294
864.214303	2561.092677
864.526696	2562.867163
864.839045	2564.871021
865.151353	2564.112328
865.463619	2566.184242
865.775842	2562.174004
866.088023	2563.227605
866.400162	2564.190466
866.712258	2565.569221
867.024313	2565.692729
867.336325	2564.059396
867.648296	2563.162070
867.960224	2562.960424
868.272110	2567.439489
868.583954	2561.372461
868.895755	2565.526371
869.207515	2561.858932
869.519233	2562.491597
869.830909	2564.596278
870.142542	2564.412276
870.454134	2562.980589
870.765684	2565.004612
871.077191	2564.215671
871.388657	2567.686506
871.700081	2566.191804
872.011463	2566.632905
872.322803	2567.736917
872.634101	2568.951835
872.945357	2572.226065
873.256571	2572.402505
873.567744	2570.058369
873.878874	2573.408215
874.189963	2574.124059
874.501010	2573.718246
874.812015	2572.727660
875.122979	2573.743452
875.433900	2571.285890
875.744780	2573.453586
876.055618	2571.316137
876.366415	2571.941240
876.677169	2574.040880
876.987882	2571.792526
877.298554	2568.321691
877.609183	2573.015005
877.919771	2576.150603
878.230317	2576.571539
878.540822	2580.216294
878.851285	2584.103023
879.161707	2591.168200
879.472087	2601.595827
879.782425	2616.714247
880.092722	2651.427633
880.402977	2716.403065
880.713191	2829.314829
881.023363	2984.355515
881.333494	3086.028027
881.643583	3133.046868
881.953631	3101.834564
882.263637	3020.782893
882.573602	2934.521189
882.883526	2871.156406
883.193408	2819.356029
883.503248	2776.715429
883.813048	2737.097001
884.122806	2701.922350
884.432522	2675.710871
884.742197	2652.738333
885.051831	2636.853657
885.361424	2625.445526
885.670975	2613.084617
885.980485	2607.614965
886.289954	2602.374685
886.599382	2595.014601
886.908768	2592.451174
887.218113	2587.241142
887.527417	2583.873651
887.836680	2580.702765
888.145901	2576.516087
888.455082	2574.187074
888.764221	2571.154820
889.073319	2571.505180
889.382376	2570.731363
889.691392	2566.985785
890.000366	2571.187587
890.309300	2567.174829
890.618193	2571.220355
890.927044	2571.916034
891.235855	2572.228585
891.544625	2572.546178
891.853353	2571.207752
892.162041	2571.195149
892.470687	2579.649164
892.779293	2581.685790
893.087858	2584.808785
893.396381	2591.427820
893.704864	2610.430449
894.013306	2626.597430
894.321707	2660.438695
894.630068	2679.320337
894.938387	2683.282684
895.246665	2679.869823
895.554903	2661.376350
895.863100	2644.095275
896.171256	2629.155815
896.479371	2612.860285
896.787446	2602.591455
897.095480	2595.284303
897.403473	2588.440936
897.711425	2583.896336
898.019336	2582.121850
898.327207	2579.543300
898.635038	2579.802919
898.942827	2572.294120
899.250576	2572.268915
899.558284	2569.861764
899.865952	2571.187587
900.173579	2565.642318
900.481165	2566.456464
900.788711	2562.078222
901.096216	2565.264231
901.403681	2562.058058
901.711105	2562.405897
902.018489	2559.325752
902.325832	2566.322874
902.633135	2563.509910
902.940397	2566.350600
903.247619	2579.220666
903.554800	2600.958121
903.861941	2645.955460
904.169041	2691.593026
904.476101	2713.559854
904.783121	2710.396530
905.090100	2686.995494
905.397039	2659.803510
905.703938	2634.842237
906.010796	2614.251644
906.317614	2597.651124
906.624391	2589.224836
906.931129	2579.686972
907.237826	2574.630695
907.544483	2567.036197
907.851099	2561.274158
908.157675	2559.416493
908.464211	2557.100083
908.770707	2550.198743
909.077163	2552.890719
909.383578	2546.342260
909.689954	2548.567930
909.996289	2545.770089
910.302584	2552.026161
910.608839	2550.455842
910.915054	2550.087838
911.221229	2551.123795
911.527363	2549.377035
911.833458	2550.944834
912.139513	2553.407438
912.445527	2548.512477
912.751502	2553.530946
913.057436	2554.478683
913.363331	2555.118909
913.669186	2558.640155
913.975000	2566.645507
914.280775	2567.527709
914.586510	2579.813001
914.892205	2592.196596
915.197859	2610.833742
915.503475	2635.555560
915.809050	2657.618170
916.114585	2669.568225
916.420081	2674.984945
916.725536	2672.716426
917.030952	2661.777122
917.336328	2641.703247
917.641665	2630.668161
917.946961	2614.604525
918.252218	2605.429625
918.557435	2593.003180
918.862612	2590.603591
919.167750	2582.071438
919.472848	2574.865109
919.777906	2570.819583
920.082925	2565.622153
920.387904	2563.993861
920.692843	2563.015877
920.997743	2559.824826
921.302603	2558.380536
921.607423	2555.716286
921.912204	2558.302398
922.216946	2555.907850
922.521647	2556.331307
922.826310	2551.857283
923.130932	2550.196222
923.435516	2546.473330
923.740059	2548.567930
924.044564	2546.932075
924.349028	2546.977446
924.653454	2542.488298
924.957840	2543.385624
925.262186	2541.061652
925.566493	2543.367980
925.870761	2536.388502
926.174989	2543.151210
926.479178	2542.826056
926.783328	2543.272198
927.087438	2543.168854
927.391509	2542.032074
927.695541	2541.018802
927.999533	2541.409491
928.303486	2541.220448
928.607400	2542.289173
928.911275	2541.469985
929.215110	2540.474357
929.518906	2543.698175
929.822663	2539.052752
930.126381	2540.376055
930.430060	2541.994265
930.733699	2540.844882
931.037299	2541.653987
931.340861	2538.341949
931.644383	2542.730274
931.947866	2540.567619
932.251309	2542.493339
932.554714	2541.931251
932.858080	2543.017619
933.161407	2539.755993
933.464694	2541.762372
933.767943	2538.329346
934.071153	2541.918648
934.374323	2538.140303
934.677455	2543.025181
934.980548	2537.101825
935.283602	2540.131559
935.586617	2539.375386
935.889593	2539.072917
936.192530	2539.982845
936.495428	2538.702392
936.798287	2538.480581
937.101108	2541.835469
937.403890	2540.053421
937.706632	2542.009389
938.009336	2544.524924
938.312002	2543.171375
938.614628	2542.896632
938.917216	2545.245809
939.219765	2545.089534
939.522275	2545.586087
939.824747	2548.394010
940.127179	2544.751776
940.429573	2541.815304
940.731929	2544.386293
941.034246	2540.930582
941.336524	2541.858154
941.638763	2545.265974
941.940964	2542.173226
942.243126	2540.000489
942.545250	2540.912938
942.847335	2541.570808
943.149381	2541.071734
943.451389	2542.160623
943.753359	2541.863195
944.055290	2539.289686
944.357182	2542.510983
944.659036	2539.226672
944.960851	2540.169367
945.262628	2540.000489
945.564367	2541.522917
945.866067	2542.447969
946.167729	2543.955274
946.469352	2536.892618
946.770937	2538.422608
947.072484	2542.082485
947.373992	2540.973432
947.675462	2541.583411
947.976893	2538.611651
948.278286	2539.660211
948.579641	2538.243647
948.880958	2538.299099
949.182236	2536.776671
949.483476	2541.182639
949.784678	2539.130890
950.085841	2541.994265
950.386967	2539.783719
950.688054	2541.152393
950.989103	2538.067206
951.290114	2538.851106
951.591087	2540.607948
951.892021	2540.222300
952.192917	2540.839841
952.493776	2539.355221
952.794596	2540.844882
953.095378	2542.009389
953.396122	2544.025850
953.696828	2540.083668
953.997496	2537.401774
954.298126	2539.501415
954.598718	2537.653832
954.899272	2535.390354
955.199788	2539.327495
955.500266	2536.935467
955.800706	2534.556043
956.101108	2530.674354
956.401472	2535.266845
956.701798	2531.768285
957.002087	2532.945394
957.302337	2533.376413
957.602550	2536.002854
957.902724	2534.984541
958.202861	2534.218285
958.502960	2533.409180
958.803022	2536.403626
959.103045	2533.903213
959.403031	2535.087884
959.702979	2533.835158
960.002889	2535.002185
960.302762	2531.707791
960.602596	2532.917668
960.902393	2535.355066
961.202153	2530.981865
961.501875	2531.410363
961.801559	2533.918337
962.101205	2534.044366
962.400814	2532.889941
962.700385	2533.792308
962.999918	2534.440096
963.299414	2531.541433
963.598873	2535.097967
963.898293	2532.070754
964.197677	2536.103677
964.497022	2533.620909
964.796331	2534.268697
965.095601	2534.220806
965.394835	2534.306506
965.694030	2532.375744
965.993189	2530.926412
966.292309	2533.721732
966.591393	2535.649973
966.890439	2531.614529
967.189447	2533.623429
967.488419	2532.489170
967.787353	2534.949253
968.086249	2533.951104
968.385108	2534.364479
968.683930	2534.538399
968.982714	2532.516896
969.281462	2533.618388
969.580172	2533.232740
969.878844	2532.355579
970.177480	2532.766433
970.476078	2532.035466
970.774639	2534.808100
971.073162	2532.247194
971.371649	2529.711494
971.670098	2525.998684
971.968510	2530.029087
972.266885	2529.038500
972.565223	2533.424304
972.863524	2531.964890
973.161788	2532.930271
973.460014	2532.350538
973.758204	2531.604447
974.056356	2534.414890
974.354471	2531.246525
974.652550	2531.465815
974.950591	2530.538243
975.248595	2531.175949
975.546563	2533.167205
975.844493	2532.897503
976.142386	2532.337935
976.440243	2530.684437
976.738062	2534.480425
977.035845	2532.733666
977.333590	2531.796011
977.631299	2530.684437
977.928971	2530.674354
978.226606	2532.078316
978.524204	2531.223840
978.821765	2528.247039
979.119290	2532.584952
979.416777	2528.546987
979.714228	2531.123017
980.011642	2531.284334
980.309020	2530.944056
980.606360	2532.209386
980.903664	2532.317770
981.200931	2530.823068
981.498162	2530.326515
981.795356	2532.035466
982.092513	2534.366999
982.389633	2534.243491
982.686717	2534.765251
982.983764	2537.185004
983.280775	2536.118800
983.577749	2536.680889
983.874686	2535.027391
984.171587	2536.622916
984.468451	2532.995806
984.765279	2533.477236
985.062070	2535.418080
985.358824	2534.271217
985.655543	2531.155784
985.952224	2530.452543
986.248869	2531.639735
986.545478	2525.648324
986.842050	2531.060002
987.138586	2525.923067
987.435086	2526.575896
987.731549	2527.972296
988.027975	2531.317101
988.324366	2530.326515
988.620719	2530.664272
988.917037	2532.000178
989.213318	2529.794673
989.509563	2528.834333
989.805772	2529.504807
990.101944	2527.952131
990.398080	2531.964890
990.694180	2528.219312
990.990244	2529.625794
991.286271	2527.747964
991.582262	2530.205527
991.878217	2528.481452
992.174136	2530.686957
992.470019	2529.207378
992.765865	2528.914992
993.061676	2526.769981
993.357450	2528.655372
993.653188	2528.985568
993.948890	2530.240815
994.244556	2530.359282
994.540186	2529.721576
994.835780	2530.699560
995.131337	2530.916330
995.426859	2531.664941
995.722345	2528.776360
996.017795	2528.854498
996.313208	2531.208717
996.608586	2529.950949
996.903928	2530.507996
997.199234	2533.255425
997.494504	2529.343490
997.789738	2533.993954
998.084936	2530.543284
998.380099	2531.465815
998.675225	2527.377440
998.970316	2530.457585
999.265371	2528.299971
999.560390	2529.716535
999.855373	2530.596216
1000.150320	2530.316432
1000.445232	2529.310722
1000.740108	2527.407687
1001.034948	2532.252235
1001.329752	2529.550177
1001.624521	2530.424817
1001.919254	2522.611029
1002.213951	2527.964734
1002.508613	2527.619415
1002.803239	2528.277286
1003.097829	2525.416431
1003.392384	2530.336597
1003.686903	2526.676719
1003.981386	2533.268028
1004.275834	2528.720907
1004.570246	2533.351207
1004.864623	2528.385670
1005.158964	2529.159487
1005.453270	2524.428365
1005.747540	2529.625794
1006.041775	2527.765608
1006.335974	2530.006401
1006.630138	2530.351720
1006.924266	2525.146729
1007.218359	2528.519261
1007.512416	2527.019518
1007.806438	2527.213602
1008.100425	2530.223171
1008.394376	2528.761236
1008.688292	2526.437264
1008.982172	2528.070598
1009.276017	2526.338962
1009.569827	2530.056813
1009.863602	2528.562111
1010.157341	2527.536236
1010.451045	2526.245701
1010.744714	2528.569672
1011.038347	2529.898017
1011.331945	2526.119672
1011.625508	2525.915505
1011.919036	2527.876514
1012.212528	2527.044723
1012.505986	2528.287368
1012.799408	2529.018335
1013.092795	2524.927439
1013.386147	2529.245187
1013.679464	2525.981040
1013.972745	2525.643283
1014.265992	2527.422810
1014.559204	2528.829292
1014.852380	2526.240659
1015.145521	2530.805424
1015.438628	2528.148736
1015.731699	2526.396935
1016.024736	2528.446164
1016.317737	2527.798376
1016.610703	2530.313912
1016.903635	2527.604292
1017.196531	2525.383663
1017.489393	2524.577079
1017.782219	2522.467356
1018.075011	2529.643438
1018.367768	2527.463139
1018.660490	2526.996832
1018.953177	2526.996832
1019.245829	2526.996832
