Dividing Wavelength (nm)	Counts (n)	Blue Motor Position (mm): 0.000000	Red Motor Position (mm): 48.500000	
326.493990	2126.303240
326.888308	2126.303240
327.282561	2126.303240
327.676750	2095.940370
328.070874	2094.848960
328.464933	2099.048241
328.858929	2105.231217
329.252859	2113.670108
329.646726	2127.767695
330.040528	2138.906124
330.434265	2154.775677
330.827938	2172.802843
331.221547	2190.817406
331.615091	2208.847093
332.008571	2229.949363
332.401986	2248.248751
332.795338	2266.409508
333.188625	2286.276695
333.581847	2308.354428
333.975006	2326.268169
334.368100	2341.255519
334.761129	2360.721935
335.154095	2376.742722
335.546996	2399.944632
335.939833	2424.452202
336.332606	2439.404264
336.725315	2451.069494
337.117960	2461.716411
337.510540	2467.624643
337.903056	2481.460090
338.295508	2486.423106
338.687896	2497.377533
339.080220	2504.006650
339.472480	2512.427898
339.864676	2516.087776
340.256807	2520.082890
340.648875	2526.328880
341.040879	2524.637573
341.432818	2525.081194
341.824694	2525.897861
342.216506	2529.474560
342.608253	2527.453057
342.999937	2529.978675
343.391557	2528.310053
343.783113	2529.280475
344.174605	2525.839888
344.566033	2526.112110
344.957397	2524.141019
345.348697	2523.110103
345.739934	2518.086593
346.131106	2518.187416
346.522215	2518.079031
346.913260	2513.952847
347.304241	2514.214987
347.695159	2514.232631
348.086012	2512.619462
348.476802	2510.628206
348.867528	2509.627537
349.258191	2501.967504
349.648789	2505.186280
350.039324	2503.560508
350.429796	2503.973883
350.820203	2500.505569
351.210548	2501.528923
351.600828	2499.885507
351.991045	2500.921464
352.381198	2498.514313
352.771288	2499.852740
353.161314	2498.758809
353.551276	2500.314005
353.941175	2497.828716
354.331010	2502.539675
354.720782	2498.410970
355.110490	2499.298213
355.500135	2497.443068
355.889717	2495.209837
356.279235	2498.506752
356.668689	2497.622029
357.058080	2497.127996
357.447408	2496.139930
357.836672	2496.465084
358.225873	2495.953407
358.615010	2498.005157
359.004084	2500.301402
359.393095	2502.637977
359.782043	2503.063955
360.170927	2502.096053
360.559748	2506.076044
360.948505	2505.690396
361.337199	2505.077896
361.725830	2504.551095
362.114398	2507.802639
362.502903	2505.602176
362.891344	2509.698113
363.279722	2507.447238
363.668037	2510.996210
364.056289	2510.434122
364.444478	2511.961591
364.832603	2510.751714
365.220665	2511.026457
365.608665	2509.856909
365.996601	2512.564009
366.384474	2511.359173
366.772284	2514.401510
367.160031	2514.830008
367.547715	2518.126922
367.935336	2519.518281
368.322893	2525.126564
368.710388	2527.841226
369.097820	2534.147709
369.485189	2534.959335
369.872495	2545.770089
370.259738	2550.982643
370.646918	2558.753581
371.034035	2563.840105
371.421090	2574.759245
371.808081	2585.534711
372.195010	2591.379929
372.581875	2605.318719
372.968678	2618.826491
373.355418	2632.140178
373.742096	2647.324134
374.128710	2661.005825
374.515262	2678.816222
374.901751	2692.223170
375.288177	2705.231868
375.674540	2729.515106
376.060841	2743.337950
376.447079	2766.086157
376.833254	2787.226235
377.219367	2798.853657
377.605417	2837.368072
377.991404	2846.364011
378.377329	2866.175746
378.763191	2883.683673
379.148991	2923.012235
379.534727	2945.437808
379.920402	2976.415698
380.306013	2987.067656
380.691563	3037.028011
381.077049	3058.024417
381.462474	3075.260122
381.847835	3117.633541
382.233134	3138.826551
382.618371	3136.096767
383.003545	3204.318702
383.388657	3212.583673
383.773706	3246.331678
384.158693	3264.212650
384.543618	3286.517236
384.928480	3323.831856
385.313280	3369.567725
385.698017	3367.674771
386.082692	3421.632762
386.467305	3427.324224
386.851856	3455.713482
387.236344	3482.164416
387.620770	3510.989734
388.005133	3538.794218
388.389435	3566.848239
388.773674	3577.275866
389.157851	3617.721043
389.541965	3632.597488
389.926018	3599.885441
390.310008	3671.918488
390.693936	3688.095551
391.077802	3731.094073
391.461606	3718.579408
391.845348	3783.259933
392.229027	3783.149027
392.612645	3797.405410
392.996200	3875.134962
393.379694	3912.315992
393.763125	3979.542299
394.146494	3942.792287
394.529801	4007.558511
394.913047	4054.504257
395.296230	4022.936551
395.679351	4074.126948
396.062410	4097.780042
396.445408	4079.309254
396.828343	4116.452476
397.211217	4139.190600
397.594028	4058.675811
397.976778	4121.861634
398.359466	4148.920027
398.742092	4182.670552
399.124656	4101.427317
399.507158	4179.411446
399.889598	4208.299778
400.271977	4267.888737
400.654294	4238.244232
401.036549	4249.952312
401.418742	4216.264801
401.800874	4317.599555
402.182944	4339.994881
402.564952	4400.781114
402.946898	4391.394486
403.328783	4385.350142
403.710606	4299.272440
404.092367	4494.072707
404.474067	4460.904436
404.855705	4467.836022
405.237282	4399.440167
405.618797	4502.650231
406.000250	4537.144326
406.381642	4619.607520
406.762972	4584.712653
407.144240	4592.584415
407.525447	4590.900670
407.906593	4655.629085
408.287677	4693.052091
408.668700	4620.865288
409.049661	4675.834030
409.430560	4710.814596
409.811399	4638.680726
410.192176	4803.118123
410.572891	4740.547322
410.953545	4847.321481
411.334138	4724.415629
411.714669	4792.871978
412.095139	4686.695196
412.475547	4832.389583
412.855894	4811.592303
413.236180	4819.708561
413.616405	4771.784832
413.996568	4860.146176
414.376670	4805.295902
414.756711	4757.306638
415.136691	4785.368221
415.516609	4865.194892
415.896466	4902.776694
416.276262	4939.471253
416.655997	4919.488119
417.035670	5098.330613
417.415283	5195.251837
417.794834	5133.666581
418.174324	5090.940282
418.553753	4996.579964
418.933121	5182.659035
419.312428	5249.693778
419.691674	5188.491650
420.070859	5311.145443
420.449983	5226.456579
420.829045	5344.457388
421.208047	5249.688737
421.586988	5313.882790
421.965867	5333.082024
422.344686	5460.852589
422.723444	5316.718439
423.102141	5139.562210
423.480777	5433.131284
423.859352	5207.103590
424.237866	5467.234690
424.616319	5454.911589
424.994712	5564.405451
425.373044	5444.962872
425.751314	5583.584521
426.129524	5385.883070
426.507673	5582.230971
426.885762	5661.573691
427.263789	5596.378969
427.641756	5478.597451
428.019662	5598.781079
428.397508	5611.638542
428.775292	5552.969593
429.153016	5656.882897
429.530679	5580.617802
429.908282	5662.166027
430.285824	5537.538621
430.663305	5807.157173
431.040726	5545.256628
431.418086	5544.099683
431.795385	5650.468029
432.172624	5661.498074
432.549802	5655.627650
432.926920	5669.289177
433.303977	5676.187996
433.680974	5715.635025
434.057910	5732.767386
434.434786	5737.962295
434.811601	5707.354930
435.188355	5946.063647
435.565050	5817.967928
435.941683	5797.284073
436.318257	6012.841291
436.694770	5992.207848
437.071222	6028.499115
437.447614	5959.473116
437.823946	5877.045209
438.200218	6028.322675
438.576429	5897.111522
438.952580	5995.933261
439.328670	6035.939858
439.704700	5943.976609
440.080670	5926.627478
440.456580	6208.032247
440.832429	6083.112455
441.208218	5931.141831
441.583947	6086.729483
441.959616	6088.254432
442.335224	6018.063927
442.710773	6152.587117
443.086261	6180.946128
443.461689	5974.094983
443.837057	6123.976048
444.212365	6279.815758
444.587612	6168.630589
444.962800	6325.823848
445.337927	6304.383821
445.712995	5915.075674
446.088002	6496.174519
446.462949	6322.554660
446.837837	6253.226192
447.212664	6428.229847
447.587431	6572.888278
447.962139	7115.394569
448.336786	8036.889766
448.711374	7783.191178
449.085901	6858.126845
449.460369	6776.185409
449.834776	6709.233845
450.209124	7101.866633
450.583412	7246.651092
450.957640	7396.703557
451.331808	7163.857702
451.705917	6714.015380
452.079965	6636.011086
452.453954	6851.475042
452.827883	6722.986113
453.201752	6819.335166
453.575562	6617.706656
453.949311	6823.171484
454.323001	6713.370112
454.696632	6787.210413
455.070202	6923.198058
455.443713	7077.769918
455.817164	7184.420568
456.190556	7258.091991
456.563888	7335.355235
456.937160	7379.067080
457.310373	7032.613782
457.683526	7063.006899
458.056619	6951.720907
458.429653	6941.149607
458.802628	6877.646192
459.175542	6987.334138
459.548398	7336.492015
459.921194	7501.486460
460.293930	7504.672469
460.666607	8034.764920
461.039224	8337.813883
461.411782	8465.269376
461.784280	8486.797623
462.156719	8378.465748
462.529099	8255.171728
462.901419	7846.999583
463.273680	7732.328457
463.645882	7748.913853
464.018024	7617.256558
464.390106	7788.517157
464.762130	8172.978235
465.134094	8639.451324
465.505999	9659.095265
465.877845	10879.218333
466.249631	11525.118691
466.621358	11145.383695
466.993026	10517.049238
467.364634	10260.620866
467.736184	9902.262883
468.107674	9566.524557
468.479105	9598.608981
468.850477	9365.957210
469.221790	9137.464392
469.593043	8805.948032
469.964238	8668.831168
470.335373	8679.319289
470.706449	8739.412363
471.077467	8717.929486
471.448425	10028.657213
471.819324	11099.234452
472.190164	11134.051181
472.560945	9884.986848
472.931667	9090.150642
473.302330	8950.871123
473.672934	8597.362730
474.043479	8958.868914
474.413965	8895.010097
474.784393	8779.577757
475.154761	8939.571377
475.525070	9026.861476
475.895321	8852.182975
476.265513	9028.101600
476.635645	9198.611067
477.005719	9193.872383
477.375734	9308.276328
477.745691	9546.352380
478.115588	9683.849851
478.485427	9925.527808
478.855207	10458.723088
479.224928	11274.144846
479.594591	11900.437636
479.964194	11715.255890
480.333739	11662.112046
480.703226	11575.247924
481.072653	11667.067501
481.442022	11903.028789
481.811333	12090.882346
482.180584	11895.640978
482.549777	11605.109199
482.918912	11429.467838
483.287988	11457.831890
483.657005	11461.506891
484.025964	11146.099539
484.394864	11275.677357
484.763706	11247.199879
485.132489	11000.584112
485.501213	10960.428801
485.869879	11042.518951
486.238487	10882.099353
486.607036	10995.369039
486.975527	10772.842426
487.343959	10960.776641
487.712333	11016.315033
488.080648	10940.987592
488.448905	10983.781947
488.817104	10922.279870
489.185244	11193.196518
489.553326	11345.333500
489.921350	11885.336859
490.289315	12942.711317
490.657222	13284.093214
491.025070	13193.249101
491.392861	13064.871077
491.760593	12690.015918
492.128267	12341.163031
492.495883	12018.098166
492.863440	11679.625015
493.230939	11339.881493
493.598380	11271.934300
493.965763	11136.755760
494.333088	11040.018538
494.700354	10959.105498
495.067563	11027.362722
495.434713	10864.785510
495.801805	10987.104067
496.168839	10909.170349
496.535815	10840.817344
496.902733	10845.142654
497.269593	10770.485686
497.636395	10877.574917
498.003139	10857.168327
498.369825	10729.866589
498.736453	10885.607996
499.103023	10814.978910
499.469535	10843.206851
499.835989	10830.679584
500.202385	10795.883019
500.568723	10644.988682
500.935003	10864.314162
501.301226	10672.740234
501.667390	10926.471589
502.033497	11030.480675
502.399546	10882.716894
502.765537	10796.215735
503.131470	10865.703000
503.497345	11046.037676
503.863163	10653.687193
504.228923	10964.552465
504.594625	11027.082937
504.960269	10782.990268
505.325856	10992.430046
505.691385	10791.721547
506.056856	10938.842581
506.422270	10964.900305
506.787625	10867.409431
507.152924	10976.573097
507.518164	10955.501073
507.883347	10880.085412
508.248472	10793.997628
508.613540	11035.670543
508.978550	10916.265773
509.343503	10887.614375
509.708398	11008.665082
510.073236	11121.838986
510.438016	11121.261774
510.802738	11075.110010
511.167403	11120.450148
511.532010	11020.801660
511.896561	11256.100036
512.261053	11327.858341
512.625488	11197.647857
512.989866	11175.055926
513.354186	11166.307004
513.718449	11068.473331
514.082655	11265.647982
514.446803	11158.180664
514.810894	11282.364448
515.174927	11148.882256
515.538904	11172.308497
515.902822	11324.737866
516.266684	11207.029445
516.630488	11146.833027
516.994235	11215.135620
517.357925	11271.034454
517.721558	11361.676921
518.085133	11380.248532
518.448651	11381.705425
518.812112	11266.941038
519.175516	11283.813779
519.538863	11406.497820
519.902152	11319.101856
520.265385	11486.939512
520.628560	11394.875440
520.991678	11367.824608
521.354739	11429.089751
521.717743	11365.160358
522.080690	11346.193017
522.443580	11475.037348
522.806413	11428.139493
523.169189	11467.775566
523.531908	11520.490911
523.894569	11338.590957
524.257174	11347.644869
524.619722	11462.678959
524.982213	11413.900754
525.344647	11460.153341
525.707025	11410.913871
526.069345	11506.484065
526.431608	11431.938003
526.793815	11534.384331
527.155964	11320.110087
527.518057	11373.644620
527.880093	11318.363327
528.242072	11387.984182
528.603995	11296.209977
528.965860	11223.393030
529.327669	11272.244331
529.689421	11225.044008
530.051117	11193.846827
530.412755	11300.268106
530.774337	11189.889522
531.135862	11169.054433
531.497331	11188.712412
531.858743	11052.480271
532.220098	11207.014321
532.581396	11083.541340
532.942638	11060.442773
533.303824	11028.723833
533.664953	11038.319669
534.026025	10952.604931
534.387040	11050.022708
534.747999	11057.667618
535.108902	11114.189035
535.469748	10876.755730
535.830537	10981.420166
536.191270	10960.658174
536.551947	10975.259876
536.912567	10973.750050
537.273131	10907.418548
537.633638	10880.120700
537.994089	10866.504543
538.354483	10813.027983
538.714821	10964.784358
539.075103	10970.110337
539.435328	10938.789648
539.795497	10769.227918
540.155609	10920.419684
540.515665	11010.966369
540.875665	10745.211861
541.235609	10811.752572
541.595496	10813.605196
541.955328	10964.426436
542.315102	10848.573159
542.674821	10798.670777
543.034483	10803.384256
543.394090	10808.291819
543.753640	10720.361493
544.113134	10956.587442
544.472571	10810.593106
544.831953	10951.137955
545.191278	10755.175702
545.550548	10790.123501
545.909761	10929.619790
546.268918	10904.262786
546.628019	10980.739610
546.987064	10846.007212
547.346053	10769.306056
547.704986	10862.002793
548.063863	10852.812770
548.422684	10838.952117
548.781449	10763.498647
549.140158	10857.778306
549.498811	10746.857798
549.857408	10597.221228
550.215949	10821.870167
550.574434	10676.873980
550.932864	10771.753536
551.291237	10830.009110
551.649555	10780.502459
552.007817	10797.675149
552.366022	10757.572771
552.724173	10753.711247
553.082267	10738.633156
553.440305	10876.806141
553.798288	10672.740234
554.156215	10827.823770
554.514086	10801.070367
554.871902	10653.697275
555.229661	10686.515187
555.587365	10663.177165
555.945014	10560.874509
556.302606	10687.742708
556.660143	10579.390667
557.017625	10738.308001
557.375050	10633.832608
557.732421	10762.651733
558.089735	10679.361789
558.446994	10683.840854
558.804197	10718.392923
559.161345	10719.945598
559.518437	10562.953985
559.875474	10653.677110
560.232455	10689.257574
560.589381	10631.871599
560.946251	10637.550459
561.303065	10738.620553
561.659825	10675.817858
562.016528	10609.176325
562.373177	10482.093878
562.729770	10598.186609
563.086307	10519.098467
563.442789	10605.400501
563.799216	10478.643208
564.155587	10535.812413
564.511904	10489.529579
564.868164	10476.667075
565.224370	10493.756587
565.580520	10416.505945
565.936615	10418.739177
566.292654	10283.106932
566.648638	10419.996944
567.004567	10377.978927
567.360441	10361.249858
567.716260	10277.231468
568.072023	10366.348985
568.427732	10316.519700
568.783385	10226.338499
569.138982	10303.891610
569.494525	10317.348970
569.850013	10194.143170
570.205445	10275.154512
570.560823	10171.311784
570.916145	10084.513197
571.271412	10159.588581
571.626625	10102.081618
571.981782	10074.435931
572.336884	10049.550275
572.691931	10058.589063
573.046923	10003.411114
573.401860	9965.673036
573.756743	9896.984795
574.111570	9939.970713
574.466342	9920.282487
574.821059	9956.795564
575.175722	9846.633750
575.530330	9851.684986
575.884882	9852.365542
576.239380	9773.103480
576.593823	9751.358463
576.948211	9771.770095
577.302544	9654.331375
577.656823	9660.416047
578.011047	9661.888064
578.365216	9640.490887
578.719330	9553.188185
579.073389	9568.737624
579.427394	9522.275829
579.781344	9498.138785
580.135239	9442.156771
580.489080	9455.084810
580.842866	9351.657977
581.196597	9358.919759
581.550273	9401.827540
581.903895	9370.952994
582.257463	9434.504300
582.610975	9315.505343
582.964434	9339.196245
583.317837	9265.018187
583.671186	9241.380216
584.024481	9242.814425
584.377721	9155.418461
584.730906	9134.341397
585.084037	9166.186366
585.437113	9103.658414
585.790135	9118.867575
586.143103	9020.829736
586.496016	8996.904419
586.848874	9052.410044
587.201679	9041.783292
587.554428	8926.446733
587.907124	8974.214186
588.259765	8941.965925
588.612352	8945.023385
588.964884	8818.240886
589.317362	8836.212599
589.669786	8836.666303
590.022155	8883.806133
590.374470	8903.204493
590.726731	8839.343156
591.078937	8692.363274
591.431090	8804.702867
591.783188	8679.672170
592.135232	8665.057865
592.487222	8668.390067
592.839157	8718.577274
593.191038	8656.399683
593.542866	8604.062424
593.894639	8502.057196
594.246358	8544.541520
594.598022	8564.577586
594.949633	8462.219478
595.301190	8435.995396
595.652692	8468.294068
596.004141	8577.702230
596.355535	8354.608487
596.706876	8333.097884
597.058162	8268.515662
597.409395	8343.954009
597.760573	8409.940192
598.111698	8317.268661
598.462768	8306.606620
598.813785	8267.825024
599.164748	8237.106753
599.515657	8224.347592
599.866511	8135.683779
600.217312	8263.298068
600.568060	8124.114331
600.918753	8228.199034
601.269392	8195.910444
601.619978	8105.648584
601.970510	8171.286928
602.320988	8169.005806
602.671412	8223.576296
603.021783	8162.263262
603.372100	8134.957852
603.722363	8135.530023
604.072572	8110.956919
604.422728	8123.070812
604.772830	8051.627579
605.122878	8057.208137
605.472872	8058.677633
605.822813	8084.800892
606.172701	8026.683950
606.522534	8107.874253
606.872314	8104.675641
607.222041	8075.462155
607.571714	8126.972665
607.921333	8088.851459
608.270899	8092.554187
608.620411	8188.789814
608.969870	8086.149401
609.319276	8081.599760
609.668627	8098.323787
610.017926	8136.326526
610.367171	8179.095675
610.716362	8155.124988
611.065500	8144.074779
611.414585	8174.782968
611.763616	8162.941298
612.112594	8141.171075
612.461518	8155.535843
612.810389	8222.207623
613.159207	8156.060122
613.507971	8105.436856
613.856682	8224.032520
614.205340	8179.680449
614.553945	8259.262624
614.902496	8159.974578
615.250994	8215.349133
615.599439	8198.095784
615.947830	8200.306330
616.296169	8177.545520
616.644454	8193.473046
616.992686	8187.504320
617.340864	8241.522804
617.688990	8151.235738
618.037063	8246.304338
618.385082	8186.755708
618.733048	8277.443545
619.080961	8216.327117
619.428821	8237.217658
619.776628	8239.362669
620.124382	8187.146398
620.472083	8171.617123
620.819731	8204.682051
621.167326	8094.177438
621.514868	8098.638860
621.862357	7989.323959
622.209793	8006.894901
622.557176	7936.550640
622.904506	7912.698421
623.251783	7844.239551
623.599007	7808.785116
623.946179	7805.364693
624.293297	7763.205524
624.640363	7678.859458
624.987376	7661.802714
625.334336	7610.839169
625.681243	7554.395890
626.028097	7548.432205
626.374899	7525.179883
626.721647	7513.842328
627.068343	7449.721372
627.414987	7419.635766
627.761577	7370.597942
628.108115	7406.543889
628.454600	7305.803991
628.801032	7354.735951
629.147412	7315.538459
629.493739	7303.613610
629.840014	7241.930052
630.186236	7299.575646
630.532405	7180.241452
630.878521	7233.236582
631.224585	7191.662186
631.570597	7109.153621
631.916556	7142.541183
632.262462	7143.768704
632.608316	7101.675069
632.954117	7077.782521
633.299866	7068.254740
633.645562	7060.166208
633.991206	6979.537994
634.336797	6923.039262
634.682336	6877.394135
635.027823	6845.395411
635.373257	6838.728485
635.718639	6767.930520
636.063968	6781.498786
636.409245	6674.555748
636.754470	6676.184041
637.099642	6632.300796
637.444762	6576.396921
637.789829	6587.636173
638.134845	6528.843717
638.479808	6513.591706
638.824719	6519.852819
639.169577	6447.779442
639.514383	6467.578574
639.859137	6394.166771
640.203839	6408.080356
640.548489	6392.651904
640.893086	6368.527462
641.237632	6334.582853
641.582125	6360.017995
641.926566	6329.592111
642.270955	6339.881106
642.615292	6333.214180
642.959576	6356.272417
643.303809	6343.198185
643.647990	6347.876376
643.992118	6339.001424
644.336195	6288.529392
644.680219	6312.038813
645.024192	6300.018182
645.368112	6401.126084
645.711981	6415.294247
646.055797	6496.794581
646.399562	6453.206244
646.743274	6575.214770
647.086935	6629.210569
647.430544	6629.646629
647.774101	6648.596326
648.117606	6658.466905
648.461059	6641.523587
648.804460	6607.397496
649.147810	6518.834506
649.491108	6487.791080
649.834354	6461.125897
650.177548	6377.694801
650.520690	6295.879394
650.863781	6269.425940
651.206820	6288.705832
651.549807	6210.429316
651.892742	6150.033772
652.235626	6156.297406
652.578458	6146.905737
652.921238	6049.417383
653.263967	6090.926244
653.606644	6031.211256
653.949269	6032.748808
654.291843	5974.704962
654.634365	6024.178846
654.976836	5978.561445
655.319255	5976.875179
655.661622	5953.242250
656.003938	5953.325429
656.346203	5912.484521
656.688416	5941.536691
657.030577	5899.291821
657.372687	5866.700762
657.714746	5851.118555
658.056753	5896.138580
658.398708	5840.474159
658.740612	5826.169885
659.082465	5877.483790
659.424266	5870.400969
659.766016	5867.093972
660.107715	5841.280743
660.449362	5859.040728
660.790958	5849.686868
661.132503	5835.352347
661.473996	5881.526795
661.815438	5864.517942
662.156829	5860.240523
662.498168	5855.189287
662.839456	5831.180792
663.180693	5866.524321
663.521879	5867.746801
663.863013	5853.298854
664.204097	5872.122523
664.545129	5912.292957
664.886110	5908.000415
665.227040	5946.353513
665.567918	5911.158698
665.908746	5938.446463
666.249522	5939.578202
666.590248	5928.369197
666.930922	5953.408608
667.271545	5966.049301
667.612118	5970.800589
667.952639	5945.322597
668.293109	5967.551565
668.633528	5922.745790
668.973896	5925.641933
669.314213	5915.889820
669.654480	5901.492285
669.994695	5889.511983
670.334859	5880.944542
670.674973	5874.438933
671.015035	5876.896495
671.355047	5876.485641
671.695008	5861.170616
672.034918	5834.054249
672.374777	5850.127968
672.714585	5832.559547
673.054342	5835.790927
673.394049	5831.241286
673.733705	5860.850503
674.073310	5843.428275
674.412864	5811.169932
674.752368	5794.705523
675.091820	5800.422192
675.431223	5734.267130
675.770574	5739.772070
676.109875	5692.675090
676.449125	5694.416808
676.788324	5662.481099
677.127473	5606.599908
677.466571	5596.189926
677.805619	5589.086940
678.144616	5577.262914
678.483562	5552.309202
678.822458	5520.822155
679.161303	5520.144120
679.500098	5501.247355
679.838842	5490.398792
680.177535	5492.667311
680.516179	5509.837481
680.854771	5515.125651
681.193314	5603.550010
681.531805	5710.639242
681.870247	5862.002406
682.208638	5965.126770
682.546978	5979.357947
682.885268	5952.050017
683.223508	5872.087235
683.561697	5811.142205
683.899836	5786.574142
684.237925	5741.536473
684.575963	5706.946596
684.913951	5664.643754
685.251889	5723.514348
685.589776	5693.567374
685.927614	5667.716337
686.265401	5736.326441
686.603137	5722.927054
686.940824	5800.548220
687.278460	5818.837527
687.616046	5830.071738
687.953582	5898.013889
688.291068	5876.956989
688.628504	5945.110869
688.965889	5906.248614
689.303224	5848.464388
689.640510	5803.935876
689.977745	5723.206838
690.314930	5631.561182
690.652065	5574.800310
690.989150	5478.789014
691.326185	5405.674640
691.663170	5344.333880
692.000105	5269.150111
692.336990	5194.369635
692.673825	5169.849463
693.010610	5100.473103
693.347345	5029.072721
693.684030	5016.374054
694.020665	4977.221933
694.357251	4886.483684
694.693786	4894.715889
695.030272	4859.878995
695.366707	4826.567050
695.703093	4794.096978
696.039429	4815.405936
696.375716	4795.178306
696.711952	4773.448412
697.048139	4759.134056
697.384276	4739.322321
697.720363	4748.582921
698.056400	4758.491309
698.392388	4708.651941
698.728326	4691.280125
699.064214	4664.262061
699.400053	4661.764169
699.735842	4627.285198
700.071581	4603.732927
700.407270	4577.801232
700.742910	4561.873706
701.078501	4504.288606
701.414042	4499.406248
701.749533	4473.666117
702.084974	4405.867638
702.420366	4462.268068
702.755709	4407.427876
703.091002	4349.449565
703.426246	4400.110641
703.761440	4358.725288
704.096584	4319.825225
704.431679	4342.427238
704.766725	4323.404444
705.101721	4310.723421
705.436668	4344.892362
705.771565	4290.752890
706.106413	4314.405984
706.441212	4347.486036
706.775961	4359.418447
707.110661	4336.604705
707.445311	4366.229046
707.779913	4388.871388
708.114465	4401.973347
708.448967	4424.900515
708.783421	4486.561388
709.117825	4527.830794
709.452180	4530.835322
709.786485	4576.132610
710.120742	4660.902132
710.454949	4651.011388
710.789107	4712.379875
711.123216	4787.331750
711.457275	4779.303712
711.791286	4855.309189
712.125247	4868.234707
712.459159	4772.054533
712.793023	4846.686295
713.126837	4810.364782
713.460602	4802.372032
713.794318	4719.586204
714.127985	4727.720106
714.461602	4641.876817
714.795171	4611.219040
715.128691	4546.442734
715.462162	4492.126822
715.795584	4443.220068
716.128957	4421.724588
716.462281	4371.592833
716.795556	4347.607023
717.128782	4307.565138
717.461960	4239.544850
717.795088	4249.808639
718.128167	4206.187535
718.461198	4146.805263
718.794180	4144.367865
719.127113	4122.108650
719.459997	4103.189200
719.792833	4059.328641
720.125619	4049.450500
720.458357	4012.897093
720.791046	4017.355994
721.123686	3992.596367
721.456278	3949.481898
721.788821	3968.844970
722.121315	3942.532668
722.453761	3913.656939
722.786158	3924.490378
723.118506	3949.464254
723.450805	3904.126637
723.783056	3922.118515
724.115259	3936.316925
724.447412	3945.643060
724.779518	3935.422120
725.111574	3945.746403
725.443582	3971.662975
725.775542	3955.594297
726.107453	4006.930888
726.439315	4005.310157
726.771129	4021.953526
727.102895	4059.308476
727.434612	4107.300261
727.766281	4119.958598
728.097901	4120.654277
728.429473	4126.779279
728.760996	4128.430257
729.092471	4129.778766
729.423897	4113.435345
729.755276	4117.541365
730.086606	4119.144452
730.417887	4155.317251
730.749120	4219.826376
731.080305	4282.472795
731.411442	4313.881704
731.742530	4279.196045
732.073570	4285.994041
732.404562	4340.052854
732.735506	4331.245959
733.066401	4290.004279
733.397249	4234.312132
733.728048	4152.562261
734.058798	4067.714600
734.389501	3996.435205
734.720156	3932.268879
735.050762	3889.018299
735.381320	3882.298441
735.711831	3832.915298
736.042293	3805.040238
736.372707	3825.731654
736.703073	3796.346768
737.033391	3786.133390
737.363661	3806.623160
737.693883	3831.700380
738.024056	3840.497193
738.354182	3832.426306
738.684260	3897.835277
739.014290	3919.492074
739.344272	3913.798091
739.674207	3955.397692
740.004093	3966.021924
740.333931	3956.965491
740.663722	3959.622179
740.993464	3955.884164
741.323159	3929.972633
741.652806	3899.977768
741.982405	3871.717059
742.311956	3842.203624
742.641460	3832.753981
742.970915	3811.003923
743.300323	3769.001029
743.629683	3733.402921
743.958996	3720.467320
744.288260	3695.243907
744.617477	3662.436078
744.946647	3649.881084
745.275768	3623.208339
745.604842	3624.047691
745.933869	3577.187646
746.262847	3566.555852
746.591778	3603.741924
746.920662	3578.465578
747.249498	3543.432080
747.578286	3588.217690
747.907027	3608.347018
748.235720	3607.873149
748.564365	3628.735964
748.892963	3631.508599
749.221514	3615.122328
749.550017	3590.826487
749.878473	3590.334975
750.206881	3558.547979
750.535242	3554.920869
750.863555	3555.072104
751.191821	3548.632030
751.520039	3531.973537
751.848210	3508.902696
752.176334	3542.489384
752.504411	3550.477092
752.832440	3511.692975
753.160421	3491.195643
753.488356	3502.281141
753.816243	3512.963346
754.144082	3470.625215
754.471875	3453.538224
754.799620	3476.906493
755.127318	3464.565748
755.454969	3468.389463
755.782572	3473.987665
756.110129	3451.776341
756.437638	3437.986265
756.765100	3450.372380
757.092515	3462.418217
757.419882	3472.707212
757.747203	3445.994138
758.074477	3443.168571
758.401703	3461.674647
758.728882	3484.072493
759.056014	3489.191785
759.383099	3493.159173
759.710138	3487.639109
760.037129	3506.165350
760.364073	3538.007798
760.690970	3523.592619
761.017820	3497.129082
761.344623	3520.068852
761.671379	3559.422620
761.998088	3614.424129
762.324751	3742.794591
762.651366	3988.208042
762.977935	4465.912822
763.304456	4909.277262
763.630931	5009.651676
763.957359	4651.061800
764.283740	4305.089932
764.610074	4105.498048
764.936362	3910.370106
765.262602	3751.266250
765.588796	3636.615288
765.914943	3551.414747
766.241044	3462.761015
766.567097	3433.784463
766.893104	3383.725805
767.219064	3354.449304
767.544978	3325.127433
767.870845	3271.648352
768.196665	3254.258892
768.522438	3259.733585
768.848165	3254.047164
769.173846	3217.977708
769.499479	3203.227292
769.825066	3182.888757
770.150607	3167.898886
770.476101	3182.056966
770.801548	3177.187212
771.126949	3133.276241
771.452303	3115.846452
771.777611	3121.197636
772.102872	3128.363637
772.428087	3098.537650
772.753256	3091.684201
773.078378	3082.922676
773.403453	3048.990669
773.728482	3039.750234
774.053465	3060.963410
774.378401	3045.560164
774.703291	3016.389527
775.028135	3016.941534
775.352932	3010.816532
775.677683	2998.735407
776.002388	2998.516116
776.327046	2997.908657
776.651658	2991.934890
776.976224	2977.943168
777.300743	2974.416880
777.625216	2963.969089
777.949643	2961.294757
778.274024	2962.625622
778.598359	2955.043726
778.922647	2957.471042
779.246889	2956.331741
779.571086	2942.251798
779.895236	2935.748710
780.219339	2946.685493
780.543397	2960.878862
780.867409	2965.635190
781.191374	2954.035495
781.515294	2951.920731
781.839167	2951.404013
782.162995	2947.721450
782.486776	2951.761935
782.810511	2949.800926
783.134201	2934.914399
783.457844	2947.373611
783.781441	2934.959769
784.104993	2915.364804
784.428498	2916.287335
784.751958	2931.776281
785.075372	2924.078439
785.398739	2908.513876
785.722061	2923.533994
786.045337	2935.486570
786.368568	2921.063829
786.691752	2911.732653
787.014891	2960.795683
787.337983	2986.992039
787.661030	3020.664426
787.984031	3087.492482
788.306987	3131.206847
788.629897	3124.875158
788.952760	3106.767333
789.275579	3092.573965
789.598351	3034.494831
789.921078	2990.815754
790.243759	2978.785040
790.566395	2961.977833
790.888984	2939.103598
791.211529	2923.092893
791.534027	2913.058476
791.856480	2903.626478
792.178888	2887.111658
792.501249	2881.180740
792.823566	2877.525903
793.145836	2871.360572
793.468062	2867.572145
793.790241	2866.521065
794.112375	2872.653628
794.434464	2886.272305
794.756507	2891.235321
795.078505	2896.972154
795.400457	2908.481109
795.722364	2946.262036
796.044226	2971.087198
796.366042	2973.285141
796.687812	2961.609829
797.009538	2980.945175
797.331218	2968.165850
797.652852	2956.545990
797.974442	2936.920778
798.295986	2934.231323
798.617484	2927.211516
798.938938	2915.584094
799.260346	2893.655075
799.581709	2895.711866
799.903026	2885.478324
800.224299	2879.514639
800.545526	2867.728421
800.866708	2852.536904
801.187845	2845.421315
801.508936	2846.863085
801.829983	2852.292408
802.150984	2836.082578
802.471940	2826.879951
802.792851	2825.942297
803.113717	2825.370126
803.434538	2831.505210
803.755314	2825.322235
804.076045	2820.245793
804.396731	2816.222952
804.717372	2820.573468
805.037967	2813.447797
805.358518	2822.085814
805.679024	2831.469922
805.999485	2826.491783
806.319901	2833.778770
806.640272	2824.162769
806.960598	2829.191320
807.280879	2838.028463
807.601115	2846.976511
807.921306	2832.233657
808.241453	2830.360868
808.561554	2834.101404
808.881611	2838.666169
809.201623	2835.293637
809.521590	2830.255004
809.841513	2826.973213
810.161390	2830.920436
810.481223	2826.829540
810.801011	2813.473003
811.120755	2810.460913
811.440453	2814.372849
811.760107	2815.696152
812.079716	2812.699186
812.399281	2801.969090
812.718801	2795.972637
813.038276	2791.339817
813.357707	2798.004222
813.677093	2804.345994
813.996434	2799.375416
814.315731	2794.256124
814.634983	2786.757408
814.954191	2791.349899
815.273354	2804.086374
815.592473	2811.275060
815.911547	2813.452838
816.230577	2820.729744
816.549562	2830.315498
816.868502	2834.340859
817.187399	2844.256809
817.506250	2858.760208
817.825058	2852.899867
818.143821	2865.772453
818.462539	2877.510780
818.781213	2907.077147
819.099843	2944.154834
819.418429	2999.907475
819.736970	3067.650500
820.055466	3139.368475
820.373919	3240.955287
820.692327	3383.335116
821.010691	3556.503792
821.329011	4000.006863
821.647286	4905.032610
821.965517	6303.836856
822.283704	7076.000473
822.601847	7062.538071
822.919945	6416.473877
823.237999	5895.405092
823.556010	5308.551770
823.873976	4748.633332
824.191897	4333.824509
824.509775	4034.629507
824.827609	3756.630038
825.145398	3632.892396
825.463144	3622.182464
825.780845	3710.314437
826.098502	3817.880057
826.416116	4103.683233
826.733685	4425.006379
827.051210	4489.727233
827.368692	4373.004357
827.686129	4105.603912
828.003522	3776.978655
828.320872	3515.907380
828.638177	3315.445897
828.955439	3175.826100
829.272656	3090.991042
829.589830	3025.128367
829.906960	2973.391006
830.224046	2927.077925
830.541088	2894.653224
830.858086	2879.849875
831.175041	2859.254241
831.491952	2860.610312
831.808819	2874.445758
832.125642	2896.369737
832.442421	2942.203907
832.759157	3026.459232
833.075849	3203.454144
833.392497	3486.421671
833.709101	3698.525698
834.025662	3646.758089
834.342179	3489.791682
834.658653	3305.298054
834.975083	3156.972185
835.291469	3055.670198
835.607811	2971.903865
835.924110	2912.919845
836.240366	2861.220291
836.556578	2816.031388
836.872746	2792.892492
837.188871	2774.570418
837.504952	2753.382449
837.820990	2748.323651
838.136984	2732.244891
838.452935	2723.483365
838.768842	2722.429764
839.084706	2742.783423
839.400526	2821.576657
839.716303	2956.856021
840.032037	3037.161602
840.347727	3024.314221
840.663373	2962.131588
840.978977	2882.788868
841.294537	2811.731284
841.610054	2763.179931
841.925527	2741.059348
842.240957	2717.612942
842.556344	2696.636701
842.871687	2679.489216
843.186987	2671.204079
843.502244	2666.054541
843.817458	2662.346772
844.132629	2647.329175
844.447756	2640.936992
844.762840	2635.636218
845.077881	2636.931795
845.392879	2636.049593
845.707833	2630.562297
846.022745	2620.842952
846.337613	2626.025259
846.652438	2625.138016
846.967221	2624.097017
847.281960	2623.918056
847.596656	2621.483179
847.911309	2620.656430
848.225919	2619.496964
848.540485	2615.015379
848.855009	2614.980091
849.169490	2613.929010
849.483928	2614.367590
849.798323	2614.042436
850.112675	2612.961108
850.426984	2610.664863
850.741251	2611.254678
851.055474	2610.052363
851.369654	2614.879267
851.683792	2616.689042
851.997887	2611.098402
852.311938	2611.315172
852.625947	2614.954885
852.939914	2617.480503
853.253837	2615.993362
853.567718	2613.303907
853.881555	2609.061776
854.195350	2612.058742
854.509103	2614.302055
854.822812	2610.236365
855.136479	2612.441870
855.450103	2611.363063
855.763685	2614.614607
856.077224	2613.971860
856.390720	2611.093361
856.704173	2613.681993
857.017584	2613.994545
857.330953	2615.953033
857.644278	2618.743312
857.957561	2618.254320
858.270802	2615.814402
858.584000	2616.484875
858.897155	2620.127109
859.210268	2620.573251
859.523339	2615.799278
859.836367	2610.768207
860.149352	2610.017075
860.462295	2611.718464
860.775195	2609.190325
861.088054	2606.117742
861.400869	2606.957094
861.713642	2605.308637
862.026373	2605.994234
862.339062	2610.188474
862.651708	2612.968670
862.964312	2616.013527
863.276873	2613.976901
863.589392	2615.738784
863.901869	2622.889661
864.214303	2624.913684
864.526696	2629.470887
864.839045	2629.869138
865.151353	2630.814355
865.463619	2632.208234
865.775842	2628.424848
866.088023	2631.189921
866.400162	2635.429531
866.712258	2631.202524
867.024313	2633.261835
867.336325	2624.598612
867.648296	2629.380147
867.960224	2638.043369
868.272110	2635.280817
868.583954	2629.899385
868.895755	2626.796555
869.207515	2633.776033
869.519233	2640.453041
869.830909	2636.687299
870.142542	2632.266207
870.454134	2632.770322
870.765684	2640.561426
871.077191	2641.269708
871.388657	2646.116777
871.700081	2643.840696
872.011463	2642.625778
872.322803	2644.362456
872.634101	2649.012920
872.945357	2651.306645
873.256571	2660.468942
873.567744	2658.845691
873.878874	2658.840650
874.189963	2659.150681
874.501010	2662.810558
874.812015	2668.159222
875.122979	2670.616785
875.433900	2659.380053
875.744780	2658.422234
876.055618	2662.860970
876.366415	2667.912206
876.677169	2665.953718
876.987882	2662.286278
877.298554	2662.762667
877.609183	2675.206756
877.919771	2679.015347
878.230317	2687.542459
878.540822	2696.903882
878.851285	2712.055070
879.161707	2734.226064
879.472087	2773.753752
879.782425	2823.131853
880.092722	2939.436314
880.402977	3131.431179
880.713191	3402.020153
881.023363	3703.143395
881.333494	3899.123292
881.643583	4077.181887
881.953631	4075.639294
882.263637	3898.835946
882.573602	3669.418076
882.883526	3538.080895
883.193408	3417.536824
883.503248	3310.631595
883.813048	3194.397711
884.122806	3078.897314
884.432522	2992.522184
884.742197	2923.569282
885.051831	2881.889022
885.361424	2847.430215
885.670975	2810.191212
885.980485	2777.779113
886.289954	2760.477873
886.599382	2742.705285
886.908768	2733.560632
887.218113	2715.016747
887.527417	2699.767257
887.836680	2691.328366
888.145901	2688.830474
888.455082	2679.716068
888.764221	2665.177380
889.073319	2656.436019
889.382376	2657.655978
889.691392	2659.566576
890.000366	2661.325938
890.309300	2658.651606
890.618193	2661.126813
890.927044	2662.092194
891.235855	2662.669406
891.544625	2660.300064
891.853353	2661.562873
892.162041	2668.149140
892.470687	2691.151925
892.779293	2703.081816
893.087858	2710.782178
893.396381	2732.854870
893.704864	2775.646705
894.013306	2853.000690
894.321707	2945.195832
894.630068	2998.012001
894.938387	3020.369518
895.246665	3011.744104
895.554903	2966.293061
895.863100	2920.809250
896.171256	2866.284130
896.479371	2802.528658
896.787446	2759.255393
897.095480	2739.219327
897.403473	2735.201527
897.711425	2718.860627
898.019336	2699.200127
898.327207	2688.205371
898.635038	2682.665143
898.942827	2682.493743
899.250576	2671.630057
899.558284	2661.008346
899.865952	2654.303611
900.173579	2653.045843
900.481165	2650.938641
900.788711	2641.647794
901.096216	2636.102525
901.403681	2631.809983
901.711105	2633.007257
902.018489	2628.840743
902.325832	2634.406177
902.633135	2636.455406
902.940397	2652.733292
903.247619	2691.091431
903.554800	2759.401587
903.861941	2892.228429
904.169041	3026.544932
904.476101	3090.781835
904.783121	3083.378900
905.090100	3027.502751
905.397039	2946.609876
905.703938	2868.940818
906.010796	2804.817342
906.317614	2755.822367
906.624391	2712.851572
906.931129	2685.546162
907.237826	2663.763336
907.544483	2641.168885
907.851099	2628.845784
908.157675	2618.140894
908.464211	2608.615634
908.770707	2599.191197
909.077163	2597.767071
909.383578	2593.245156
909.689954	2594.402101
909.996289	2592.370516
910.302584	2589.466811
910.608839	2587.266347
910.915054	2587.226018
911.221229	2590.533015
911.527363	2589.121492
911.833458	2588.844228
912.139513	2591.788262
912.445527	2594.407142
912.751502	2597.900661
913.057436	2603.337546
913.363331	2610.863988
913.669186	2621.987294
913.975000	2632.367030
914.280775	2654.754794
914.586510	2672.812207
914.892205	2711.687065
915.197859	2778.247940
915.503475	2867.083153
915.809050	2935.300047
916.114585	2954.494240
916.420081	2968.730459
916.725536	2979.112715
917.030952	2951.734209
917.336328	2901.640263
917.641665	2849.590349
917.946961	2798.468008
918.252218	2763.827720
918.557435	2734.689850
918.862612	2711.006510
919.167750	2693.516226
919.472848	2676.361180
919.777906	2660.857111
920.082925	2647.606438
920.387904	2635.863070
920.692843	2629.806124
920.997743	2625.949641
921.302603	2617.276336
921.607423	2612.000769
921.912204	2605.752258
922.216946	2602.047010
922.521647	2600.471650
922.826310	2597.890579
923.130932	2592.148705
923.435516	2585.073445
923.740059	2582.938517
924.044564	2582.651171
924.349028	2579.649164
924.653454	2570.126424
924.957840	2570.864953
925.262186	2569.145920
925.566493	2567.371434
925.870761	2564.366906
926.174989	2565.612071
926.479178	2563.814900
926.783328	2561.390105
927.087438	2560.696946
927.391509	2561.584189
927.695541	2559.444219
927.999533	2555.749053
928.303486	2555.043292
928.607400	2558.015052
928.911275	2554.584547
929.215110	2555.295350
929.518906	2551.834598
929.822663	2555.595298
930.126381	2553.054557
930.430060	2556.520350
930.733699	2554.917263
931.037299	2557.649568
931.340861	2556.905998
931.644383	2555.738971
931.947866	2554.955072
932.251309	2558.100752
932.554714	2555.648230
932.858080	2555.169321
933.161407	2554.133364
933.464694	2556.200237
933.767943	2554.130843
934.071153	2557.334496
934.374323	2551.227138
934.677455	2552.560524
934.980548	2551.017931
935.283602	2553.714948
935.586617	2550.168496
935.889593	2553.092365
936.192530	2552.169834
936.495428	2553.725030
936.798287	2552.545400
937.101108	2555.862479
937.403890	2557.032027
937.706632	2559.381205
938.009336	2563.560321
938.312002	2569.692885
938.614628	2570.673389
938.917216	2573.756055
939.219765	2574.391240
939.522275	2579.611355
939.824747	2575.873340
940.127179	2571.106929
940.429573	2568.281362
940.731929	2567.510065
941.034246	2563.908161
941.336524	2566.106104
941.638763	2567.283213
941.940964	2565.107956
942.243126	2564.886145
942.545250	2562.496638
942.847335	2563.111659
943.149381	2561.932029
943.451389	2557.556307
943.753359	2555.822150
944.055290	2557.422717
944.357182	2555.537325
944.659036	2555.834753
944.960851	2558.554456
945.262628	2554.418189
945.564367	2553.669578
945.866067	2556.913560
946.167729	2555.799465
946.469352	2554.881975
946.770937	2556.371636
947.072484	2558.645196
947.373992	2556.469938
947.675462	2555.673436
947.976893	2554.002294
948.278286	2548.671273
948.579641	2553.460370
948.880958	2553.309135
949.182236	2550.206305
949.483476	2551.050698
949.784678	2551.075904
950.085841	2552.477345
950.386967	2553.016748
950.688054	2552.938610
950.989103	2554.642520
951.290114	2553.820812
951.591087	2557.904147
951.892021	2556.853066
952.192917	2556.941286
952.493776	2559.577810
952.794596	2559.978582
953.095378	2560.480176
953.396122	2563.514951
953.696828	2557.813406
953.997496	2555.779300
954.298126	2555.166800
954.598718	2553.898950
954.899272	2555.839794
955.199788	2552.487427
955.500266	2552.414330
955.800706	2546.299411
956.101108	2542.475695
956.401472	2542.964687
956.701798	2543.350336
957.002087	2544.335881
957.302337	2543.138607
957.602550	2541.999306
957.902724	2540.764224
958.202861	2542.415202
958.502960	2541.323792
958.803022	2539.415715
959.103045	2540.060983
959.403031	2538.165509
959.702979	2541.684234
960.002889	2539.062834
960.302762	2538.772968
960.602596	2538.485622
960.902393	2539.546785
961.202153	2535.163502
961.501875	2539.541744
961.801559	2536.242309
962.101205	2539.897145
962.400814	2537.270704
962.700385	2539.072917
962.999918	2534.311547
963.299414	2537.369007
963.598873	2538.170550
963.898293	2537.326157
964.197677	2535.987730
964.497022	2533.797349
964.796331	2538.304141
965.095601	2536.562422
965.394835	2538.530993
965.694030	2531.591844
965.993189	2538.082330
966.292309	2533.477236
966.591393	2537.525282
966.890439	2536.817000
967.189447	2537.658873
967.488419	2535.508821
967.787353	2538.200797
968.086249	2534.392205
968.385108	2535.334901
968.683930	2536.552340
968.982714	2537.527803
969.281462	2533.837678
969.580172	2539.183822
969.878844	2536.000333
970.177480	2536.360776
970.476078	2533.734335
970.774639	2538.992258
971.073162	2539.156096
971.371649	2535.503780
971.670098	2532.337935
971.968510	2533.784746
972.266885	2531.307019
972.565223	2539.806404
972.863524	2536.973276
973.161788	2535.826413
973.460014	2534.238450
973.758204	2536.630478
974.056356	2536.627957
974.354471	2537.326157
974.652550	2537.868081
974.950591	2536.590148
975.248595	2538.805735
975.546563	2538.624254
975.844493	2533.623429
976.142386	2537.500077
976.440243	2535.962525
976.738062	2536.968235
977.035845	2535.685261
977.333590	2535.198790
977.631299	2536.675848
977.928971	2534.374561
978.226606	2531.768285
978.524204	2535.758358
978.821765	2537.053934
979.119290	2534.089736
979.416777	2534.417411
979.714228	2537.033770
980.011642	2534.704757
980.309020	2537.560570
980.606360	2535.866743
980.903664	2534.951773
981.200931	2536.706095
981.498162	2538.006713
981.795356	2541.076775
982.092513	2541.044008
982.389633	2544.504760
982.686717	2548.121788
982.983764	2550.672612
983.280775	2554.824002
983.577749	2550.309648
983.874686	2551.587581
984.171587	2547.617672
984.468451	2547.239586
984.765279	2544.101467
985.062070	2542.631971
985.358824	2539.967721
985.655543	2539.685417
985.952224	2539.345139
986.248869	2537.001002
986.545478	2531.037317
986.842050	2531.574200
987.138586	2532.532019
987.435086	2534.752648
987.731549	2528.005063
988.027975	2530.545805
988.324366	2530.139992
988.620719	2530.560928
988.917037	2534.419932
989.213318	2532.365661
989.509563	2532.438758
989.805772	2532.368182
990.101944	2530.765095
990.398080	2533.298275
990.694180	2531.826258
990.990244	2532.842050
991.286271	2532.101001
991.582262	2530.064375
991.878217	2531.785929
992.174136	2532.993285
992.470019	2532.463964
992.765865	2534.906403
993.061676	2531.322143
993.357450	2537.537885
993.653188	2530.691998
993.948890	2532.489170
994.244556	2531.188552
994.540186	2534.777853
994.835780	2532.882380
995.131337	2534.470343
995.426859	2534.301464
995.722345	2534.225847
996.017795	2536.171732
996.313208	2537.883204
996.608586	2533.464633
996.903928	2534.886238
997.199234	2537.704243
997.494504	2536.955632
997.789738	2533.872966
998.084936	2537.200128
998.380099	2535.022349
998.675225	2536.401105
998.970316	2532.504293
999.265371	2530.477749
999.560390	2532.572349
999.855373	2530.525640
1000.150320	2531.349869
1000.445232	2532.123686
1000.740108	2530.359282
1001.034948	2529.900537
1001.329752	2533.235260
1001.624521	2529.504807
1001.919254	2528.418438
1002.213951	2528.196627
1002.508613	2528.524302
1002.803239	2530.686957
1003.097829	2525.885258
1003.392384	2531.985054
1003.686903	2527.203520
1003.981386	2533.878007
1004.275834	2533.981351
1004.570246	2532.398429
1004.864623	2531.659900
1005.158964	2531.594365
1005.453270	2526.669158
1005.747540	2531.866587
1006.041775	2529.446833
1006.335974	2530.545805
1006.630138	2530.976823
1006.924266	2531.077647
1007.218359	2530.215609
1007.512416	2531.498583
1007.806438	2532.032945
1008.100425	2532.002698
1008.394376	2530.150074
1008.688292	2528.983047
1008.982172	2529.608150
1009.276017	2532.670651
1009.569827	2527.692512
1009.863602	2529.144364
1010.157341	2530.215609
1010.451045	2529.693850
1010.744714	2529.978675
1011.038347	2529.310722
1011.331945	2529.177132
1011.625508	2529.789632
1011.919036	2528.947759
1012.212528	2531.370033
1012.505986	2529.706453
1012.799408	2531.264169
1013.092795	2529.779549
1013.386147	2531.332225
1013.679464	2528.176463
1013.972745	2526.709487
1014.265992	2528.428520
1014.559204	2530.767616
1014.852380	2527.218643
1015.145521	2531.158305
1015.438628	2528.032790
1015.731699	2527.493386
1016.024736	2529.403983
1016.317737	2528.269724
1016.610703	2529.998840
1016.903635	2525.078673
1017.196531	2526.533046
1017.489393	2525.842408
1017.782219	2525.963396
1018.075011	2527.490866
1018.367768	2528.778880
1018.660490	2529.177132
1018.953177	2529.177132
1019.245829	2529.177132
