Dividing Wavelength (nm)	Counts (n)	Blue Motor Position (mm): 0.000000	Red Motor Position (mm): 16.000000	
326.493990	2083.992835
326.888308	2083.992835
327.282561	2083.992835
327.676750	2059.923846
328.070874	2061.942828
328.464933	2066.462223
328.858929	2075.218707
329.252859	2089.999370
329.646726	2102.761051
330.040528	2119.490120
330.434265	2139.899232
330.827938	2157.727272
331.221547	2179.595798
331.615091	2199.878880
332.008571	2220.489638
332.401986	2241.299521
332.795338	2258.598240
333.188625	2278.825870
333.581847	2297.586524
333.975006	2313.894657
334.368100	2331.100115
334.761129	2352.426716
335.154095	2368.371886
335.546996	2384.649771
335.939833	2401.416649
336.332606	2412.169430
336.725315	2426.146029
337.117960	2437.097936
337.510540	2441.335026
337.903056	2450.073866
338.295508	2457.640638
338.687896	2461.348407
339.080220	2471.191259
339.472480	2477.558237
339.864676	2480.121663
340.256807	2481.699545
340.648875	2486.957468
341.040879	2487.023003
341.432818	2487.083497
341.824694	2488.288333
342.216506	2485.119968
342.608253	2486.816316
342.999937	2486.597026
343.391557	2487.096100
343.783113	2484.817498
344.174605	2484.172231
344.566033	2480.499750
344.957397	2479.330202
345.348697	2477.820377
345.739934	2476.703761
346.131106	2474.478092
346.522215	2472.658235
346.913260	2469.646146
347.304241	2473.179995
347.695159	2468.365693
348.086012	2464.594910
348.476802	2460.955197
348.867528	2465.555249
349.258191	2465.328398
349.648789	2464.126082
350.039324	2460.677933
350.429796	2462.659107
350.820203	2459.707511
351.210548	2458.948817
351.600828	2458.079218
351.991045	2459.397480
352.381198	2456.234156
352.771288	2458.036368
353.161314	2458.467387
353.551276	2459.536112
353.941175	2458.308591
354.331010	2458.011163
354.720782	2460.120886
355.110490	2459.079887
355.500135	2460.657768
355.889717	2459.112655
356.279235	2459.904116
356.668689	2462.432255
357.058080	2460.758592
357.447408	2459.198354
357.836672	2459.450412
358.225873	2460.582151
358.615010	2458.064095
359.004084	2466.129941
359.393095	2464.607512
359.782043	2470.467854
360.170927	2466.387040
360.559748	2467.531382
360.948505	2468.695888
361.337199	2469.885601
361.725830	2469.270580
362.114398	2469.958697
362.502903	2469.651187
362.891344	2473.948771
363.279722	2473.190077
363.668037	2473.875674
364.056289	2473.169912
364.444478	2474.772999
364.832603	2475.708133
365.220665	2475.408185
365.608665	2478.632003
365.996601	2477.873309
366.384474	2477.623772
366.772284	2476.224852
367.160031	2479.617548
367.547715	2482.697693
367.935336	2481.712148
368.322893	2480.114102
368.710388	2480.963536
369.097820	2485.298928
369.485189	2485.377066
369.872495	2486.433188
370.259738	2486.609628
370.646918	2486.657519
371.034035	2486.607108
371.421090	2493.374857
371.808081	2493.611791
372.195010	2502.700992
372.581875	2501.649911
372.968678	2509.733401
373.355418	2514.681294
373.742096	2525.386184
374.128710	2533.091587
374.515262	2543.002496
374.901751	2555.575134
375.288177	2568.737586
375.674540	2587.876327
376.060841	2606.742845
376.447079	2630.506844
376.833254	2653.439053
377.219367	2673.722136
377.605417	2706.668597
377.991404	2729.749520
378.377329	2764.871238
378.763191	2798.722587
379.148991	2840.700275
379.534727	2888.024106
379.920402	2930.306784
380.306013	2976.072899
380.691563	3035.044317
381.077049	3091.515322
381.462474	3140.311171
381.847835	3211.076368
382.233134	3275.769496
382.618371	3334.740913
383.003545	3413.829055
383.388657	3487.729850
383.773706	3574.682192
384.158693	3643.985455
384.543618	3732.188003
384.928480	3809.332780
385.313280	3903.625042
385.698017	4008.536495
386.082692	4116.555819
386.467305	4175.832227
386.851856	4299.912667
387.236344	4446.774081
387.620770	4507.618288
388.005133	4617.412098
388.389435	4752.018467
388.773674	4837.650027
389.157851	4962.189212
389.541965	5087.918110
389.926018	5113.113797
390.310008	5277.155463
390.693936	5400.482251
391.077802	5512.055589
391.461606	5636.763652
391.845348	5745.604685
392.229027	5865.727819
392.612645	6078.030972
392.996200	6193.165885
393.379694	6355.962387
393.763125	6574.531694
394.146494	6659.749879
394.529801	6793.443800
394.913047	7021.445106
395.296230	7025.299068
395.679351	7076.633137
396.062410	7322.112124
396.445408	7229.148206
396.828343	7372.856379
397.211217	7502.141810
397.594028	7398.283959
397.976778	7597.328877
398.359466	7754.186900
398.742092	7734.234013
399.124656	7875.671146
399.507158	8061.203251
399.889598	8084.102693
400.271977	8296.972975
400.654294	8321.099938
401.036549	8519.055967
401.418742	8540.261581
401.800874	8831.826796
402.182944	8914.723529
402.564952	9270.192931
402.946898	9103.814690
403.328783	9152.986104
403.710606	9335.738013
404.092367	9584.057690
404.474067	9927.254403
404.855705	9728.580009
405.237282	9678.591928
405.618797	10080.951622
406.000250	10306.175252
406.381642	10644.603033
406.762972	10575.062837
407.144240	10381.931192
407.525447	10602.196847
407.906593	10532.674295
408.287677	10764.464028
408.668700	10870.691222
409.049661	10828.559778
409.430560	10939.296284
409.811399	10876.473425
410.192176	10995.772331
410.572891	11018.704540
410.953545	11406.021431
411.334138	10873.237004
411.714669	11351.879439
412.095139	10687.442759
412.475547	11058.559902
412.855894	10870.907991
413.236180	11073.726213
413.616405	10725.516073
413.996568	10883.173119
414.376670	10780.149578
414.756711	10591.902811
415.136691	10725.309386
415.516609	10770.503330
415.896466	10730.433719
416.276262	10849.205824
416.655997	11092.494429
417.035670	11005.093424
417.415283	11356.681138
417.794834	11294.624534
418.174324	10962.795623
418.553753	10762.724830
418.933121	10970.876593
419.312428	10702.389780
419.691674	10487.656791
420.070859	10654.826493
420.449983	10268.177555
420.829045	10476.127672
421.208047	10158.081276
421.586988	10281.327405
421.965867	10264.711762
422.344686	10099.220763
422.723444	10254.150545
423.102141	9326.963885
423.480777	9825.279422
423.859352	9380.430363
424.237866	9792.093507
424.616319	9458.555645
424.994712	9605.916133
425.373044	9305.518817
425.751314	9449.191701
426.129524	8857.604736
426.507673	9140.778950
426.885762	8838.481119
427.263789	8713.921769
427.641756	8600.677289
428.019662	8436.615458
428.397508	8266.978110
428.775292	8177.434615
429.153016	7978.064542
429.530679	7818.638052
429.908282	7641.741443
430.285824	7380.133284
430.663305	7413.001607
431.040726	7124.491332
431.418086	6903.504791
431.795385	6908.482930
432.172624	6848.349527
432.549802	6575.023206
432.926920	6457.995340
433.303977	6273.272340
433.680974	6168.192009
434.057910	6074.260189
434.434786	5930.375576
434.811601	5769.192243
435.188355	5811.628677
435.565050	5610.789107
435.941683	5461.921314
436.318257	5461.636488
436.694770	5296.689935
437.071222	5247.626905
437.447614	4984.463551
437.823946	4861.819839
438.200218	4759.469293
438.576429	4618.387561
438.952580	4544.035583
439.328670	4435.164304
439.704700	4375.840006
440.080670	4233.218202
440.456580	4187.719268
440.832429	4110.314871
441.208218	3942.257925
441.583947	3890.860841
441.959616	3819.147907
442.335224	3757.280346
442.710773	3690.883309
443.086261	3651.290087
443.461689	3549.872154
443.837057	3492.317300
444.212365	3460.275726
444.587612	3406.922675
444.962800	3333.059688
445.337927	3298.850418
445.712995	3204.169988
446.088002	3227.956672
446.462949	3186.828418
446.837837	3152.160403
447.212664	3109.076182
447.587431	3154.076042
447.962139	3188.537369
448.336786	3214.733725
448.711374	3139.776809
449.085901	3024.528470
449.460369	2991.057729
449.834776	2964.642083
450.209124	2981.983652
450.583412	2952.324024
450.957640	2940.000923
451.331808	2900.238822
451.705917	2859.100486
452.079965	2846.578260
452.453954	2833.385560
452.827883	2817.145483
453.201752	2804.643422
453.575562	2799.521609
453.949311	2800.096301
454.323001	2790.686987
454.696632	2779.992179
455.070202	2790.737399
455.443713	2781.708692
455.817164	2777.549740
456.190556	2771.510438
456.563888	2764.200765
456.937160	2761.602050
457.310373	2747.222159
457.683526	2745.684607
458.056619	2737.780078
458.429653	2734.994840
458.802628	2735.987947
459.175542	2731.105590
459.548398	2742.112949
459.921194	2747.093609
460.293930	2749.762900
460.666607	2762.766557
461.039224	2772.687547
461.411782	2771.175201
461.784280	2762.559869
462.156719	2752.822881
462.529099	2748.182499
462.901419	2736.580283
463.273680	2731.506362
463.645882	2729.215157
464.018024	2727.619632
464.390106	2729.482338
464.762130	2749.107550
465.134094	2771.729728
465.505999	2809.036787
465.877845	2839.429904
466.249631	2846.595904
466.621358	2833.423369
466.993026	2818.032726
467.364634	2805.492856
467.736184	2787.808488
468.107674	2779.858589
468.479105	2773.814245
468.850477	2771.218051
469.221790	2761.891917
469.593043	2748.837849
469.964238	2744.394072
470.335373	2742.254102
470.706449	2755.721544
471.077467	2773.494132
471.448425	2806.301961
471.819324	2825.972544
472.190164	2816.969043
472.560945	2792.443829
472.931667	2772.286776
473.302330	2762.204468
473.672934	2760.359406
474.043479	2761.806217
474.413965	2756.533170
474.784393	2752.638879
475.154761	2761.511309
475.525070	2763.986516
475.895321	2759.691453
476.265513	2765.685385
476.635645	2776.743156
477.005719	2777.327930
477.375734	2779.561161
477.745691	2788.587347
478.115588	2797.537915
478.485427	2809.467806
478.855207	2835.933864
479.224928	2856.597553
479.594591	2869.656662
479.964194	2863.624922
480.333739	2865.316229
480.703226	2868.517362
481.072653	2872.436859
481.442022	2876.530276
481.811333	2881.052191
482.180584	2871.068185
482.549777	2866.868904
482.918912	2859.486134
483.287988	2859.259282
483.657005	2851.460617
484.025964	2847.818384
484.394864	2844.970132
484.763706	2844.513907
485.132489	2834.865139
485.501213	2833.287258
485.869879	2833.312464
486.238487	2826.378357
486.607036	2827.308449
486.975527	2824.644200
487.343959	2821.495999
487.712333	2825.105465
488.080648	2817.818477
488.448905	2822.262254
488.817104	2819.124136
489.185244	2821.851400
489.553326	2832.899089
489.921350	2850.694362
490.289315	2868.212372
490.657222	2871.726056
491.025070	2869.964173
491.392861	2860.932946
491.760593	2851.168231
492.128267	2836.982424
492.495883	2821.768221
492.863440	2813.654484
493.230939	2801.381795
493.598380	2796.486835
493.965763	2784.677932
494.333088	2782.835390
494.700354	2777.368259
495.067563	2775.651746
495.434713	2768.221085
495.801805	2770.527413
496.168839	2767.114552
496.535815	2765.773605
496.902733	2762.847215
497.269593	2761.317225
497.636395	2760.545928
498.003139	2760.684560
498.369825	2757.433016
498.736453	2757.324631
499.103023	2754.771287
499.469535	2752.974115
499.835989	2753.085021
500.202385	2749.588981
500.568723	2751.154259
500.935003	2750.904722
501.301226	2749.833477
501.667390	2752.419588
502.033497	2755.887902
502.399546	2751.436563
502.765537	2746.549165
503.131470	2750.254413
503.497345	2750.146028
503.863163	2740.915675
504.228923	2743.292579
504.594625	2746.700399
504.960269	2741.140007
505.325856	2744.298290
505.691385	2739.937692
506.056856	2741.313927
506.422270	2743.625296
506.787625	2739.015160
507.152924	2741.031622
507.518164	2740.207393
507.883347	2734.871332
508.248472	2735.703122
508.613540	2737.976683
508.978550	2738.614389
509.343503	2737.696899
509.708398	2736.877711
510.073236	2739.592372
510.438016	2740.729153
510.802738	2732.716239
511.167403	2737.641446
511.532010	2738.264028
511.896561	2737.903586
512.261053	2741.611355
512.625488	2737.031466
512.989866	2734.178173
513.354186	2734.268914
513.718449	2731.682802
514.082655	2736.764285
514.446803	2732.801938
514.810894	2736.303020
515.174927	2735.385530
515.538904	2734.760427
515.902822	2737.381827
516.266684	2728.826988
516.630488	2733.759757
516.994235	2730.719942
517.357925	2730.674571
517.721558	2731.781105
518.085133	2732.698595
518.448651	2731.834037
518.812112	2729.071484
519.175516	2728.968141
519.538863	2726.931515
519.902152	2728.721124
520.265385	2727.533932
520.628560	2727.523850
520.991678	2721.935731
521.354739	2722.326421
521.717743	2723.377501
522.080690	2721.376163
522.443580	2722.964127
522.806413	2726.051833
523.169189	2718.520349
523.531908	2719.347099
523.894569	2716.642520
524.257174	2716.708055
524.619722	2720.904815
524.982213	2716.957592
525.344647	2714.840307
525.707025	2716.907180
526.069345	2715.631768
526.431608	2709.675645
526.793815	2710.993907
527.155964	2708.798484
527.518057	2712.153372
527.880093	2708.100284
528.242072	2708.221272
528.603995	2703.714481
528.965860	2703.868236
529.327669	2702.779347
529.689421	2704.122814
530.051117	2698.998481
530.412755	2701.360262
530.774337	2698.985878
531.135862	2696.309026
531.497331	2693.813654
531.858743	2691.656041
532.220098	2692.523119
532.581396	2690.932635
532.942638	2687.078673
533.303824	2689.392562
533.664953	2688.245700
534.026025	2685.911646
534.387040	2686.680422
534.747999	2687.136646
535.108902	2687.567665
535.469748	2683.368384
535.830537	2684.389217
536.191270	2683.161696
536.551947	2680.527693
536.912567	2681.614062
537.273131	2681.125070
537.633638	2674.851354
537.994089	2675.950326
538.354483	2674.475788
538.714821	2676.061231
539.075103	2675.373114
539.435328	2675.042918
539.795497	2674.594255
540.155609	2673.031498
540.515665	2674.148113
540.875665	2668.776764
541.235609	2672.058555
541.595496	2671.756086
541.955328	2670.841116
542.315102	2668.761640
542.674821	2666.336845
543.034483	2666.788029
543.394090	2663.876762
543.753640	2663.231495
544.113134	2666.649397
544.472571	2660.905002
544.831953	2663.027328
545.191278	2663.387770
545.550548	2660.413490
545.909761	2662.079591
546.268918	2662.147647
546.628019	2661.593120
546.987064	2662.896258
547.346053	2657.734116
547.704986	2659.536329
548.063863	2658.419713
548.422684	2657.920639
548.781449	2656.178920
549.140158	2657.867707
549.498811	2656.806544
549.857408	2652.854279
550.215949	2652.589619
550.574434	2650.164824
550.932864	2648.551655
551.291237	2648.516367
551.649555	2652.382932
552.007817	2649.975781
552.366022	2649.950575
552.724173	2650.237921
553.082267	2650.880668
553.440305	2651.689773
553.798288	2648.042498
554.156215	2648.859165
554.514086	2649.065852
554.871902	2650.719351
555.229661	2647.671973
555.587365	2646.202477
555.945014	2645.380769
556.302606	2642.441776
556.660143	2647.926552
557.017625	2647.747591
557.375050	2643.142497
557.732421	2646.956129
558.089735	2644.795995
558.446994	2641.642753
558.804197	2644.480923
559.161345	2646.268012
559.518437	2642.497229
559.875474	2641.340284
560.232455	2642.056128
560.589381	2641.557054
560.946251	2644.410347
561.303065	2641.620068
561.659825	2640.533699
562.016528	2640.722743
562.373177	2641.642753
562.729770	2639.885911
563.086307	2639.631333
563.442789	2638.943215
563.799216	2640.591673
564.155587	2637.927423
564.511904	2639.674183
564.868164	2640.735346
565.224370	2637.415746
565.580520	2638.219810
565.936615	2639.338946
566.292654	2635.059006
566.648638	2637.687968
567.004567	2634.431383
567.360441	2635.795015
567.716260	2635.379120
568.072023	2636.289048
568.427732	2633.103039
568.783385	2635.258132
569.138982	2633.627319
569.494525	2631.331073
569.850013	2627.351082
570.205445	2633.813841
570.560823	2629.705301
570.916145	2631.928450
571.271412	2629.266721
571.626625	2631.951135
571.981782	2629.128089
572.336884	2628.457615
572.691931	2632.225878
573.046923	2630.789149
573.401860	2627.512399
573.756743	2629.385188
574.111570	2627.703963
574.466342	2628.172790
574.821059	2626.090794
575.175722	2626.204220
575.530330	2624.182717
575.884882	2625.218674
576.239380	2627.373767
576.593823	2621.899074
576.948211	2625.533746
577.302544	2621.836060
577.656823	2621.775566
578.011047	2622.115844
578.365216	2620.721965
578.719330	2621.389918
579.073389	2619.403703
579.427394	2618.226594
579.781344	2618.110647
580.135239	2619.930504
580.489080	2618.463528
580.842866	2619.315483
581.196597	2618.947479
581.550273	2618.342540
581.903895	2616.384052
582.257463	2616.701645
582.610975	2616.431943
582.964434	2613.119905
583.317837	2618.256841
583.671186	2616.167282
584.024481	2615.511932
584.377721	2614.347426
584.730906	2613.976901
585.084037	2614.365070
585.437113	2611.829369
585.790135	2610.667383
586.143103	2612.088989
586.496016	2613.689555
586.848874	2608.061107
587.201679	2610.062445
587.554428	2608.421549
587.907124	2608.986159
588.259765	2607.632609
588.612352	2608.479523
588.964884	2609.613782
589.317362	2609.654112
589.669786	2608.850047
590.022155	2610.952209
590.374470	2608.207300
590.726731	2606.909203
591.078937	2603.818976
591.431090	2604.968359
591.783188	2607.801487
592.135232	2605.220417
592.487222	2604.358379
592.839157	2605.023812
593.191038	2605.754779
593.542866	2603.556836
593.894639	2602.049531
594.246358	2601.331167
594.598022	2601.265632
594.949633	2599.818820
595.301190	2598.382092
595.652692	2599.554160
596.004141	2602.304109
596.355535	2599.624736
596.706876	2601.736979
597.058162	2598.901330
597.409395	2598.253542
597.760573	2598.787904
598.111698	2600.358224
598.462768	2599.586927
598.813785	2597.948552
599.164748	2597.225147
599.515657	2596.123655
599.866511	2593.754312
600.217312	2594.434868
600.568060	2594.606267
600.918753	2598.503079
601.269392	2596.899992
601.619978	2595.024683
601.970510	2595.919488
602.320988	2594.175249
602.671412	2594.674323
603.021783	2594.409662
603.372100	2594.881010
603.722363	2591.657192
604.072572	2592.042841
604.422728	2594.485280
604.772830	2589.504620
605.122878	2589.907912
605.472872	2590.316245
605.822813	2588.496389
606.172701	2591.251379
606.522534	2590.061667
606.872314	2591.871441
607.222041	2592.494024
607.571714	2592.176431
607.921333	2591.972264
608.270899	2588.955134
608.620411	2593.819847
608.969870	2592.720876
609.319276	2592.836822
609.668627	2592.657861
610.017926	2591.362285
610.367171	2593.726586
610.716362	2592.446133
611.065500	2591.742892
611.414585	2590.817840
611.763616	2591.019486
612.112594	2590.827922
612.461518	2591.999991
612.810389	2589.870103
613.159207	2590.346492
613.507971	2587.573858
613.856682	2593.076277
614.205340	2592.355392
614.553945	2594.850763
614.902496	2591.135433
615.250994	2591.659713
615.599439	2592.015114
615.947830	2594.611308
616.296169	2590.235587
616.644454	2592.194075
616.992686	2590.936307
617.340864	2592.914960
617.688990	2589.723910
618.037063	2592.955289
618.385082	2591.863880
618.733048	2593.414034
619.080961	2592.418407
619.428821	2595.705239
619.776628	2590.243149
620.124382	2592.148705
620.472083	2590.664085
620.819731	2592.219281
621.167326	2590.694332
621.514868	2591.304312
621.862357	2590.016297
622.209793	2588.478745
622.557176	2585.728795
622.904506	2586.878178
623.251783	2582.041191
623.599007	2585.343147
623.946179	2582.157138
624.293297	2584.224011
624.640363	2580.682600
624.987376	2582.091603
625.334336	2583.641758
625.681243	2583.256109
626.028097	2580.261664
626.374899	2584.705441
626.721647	2578.850141
627.068343	2582.517580
627.414987	2581.252251
627.761577	2580.720409
628.108115	2580.349884
628.454600	2584.523960
628.801032	2580.911973
629.147412	2580.551530
629.493739	2580.990111
629.840014	2579.233269
630.186236	2577.254616
630.532405	2578.325861
630.878521	2580.455748
631.224585	2576.364852
631.570597	2574.933164
631.916556	2576.074986
632.262462	2578.225038
632.608316	2576.866447
632.954117	2577.357959
633.299866	2575.840572
633.645562	2572.158009
633.991206	2575.359142
634.336797	2572.762948
634.682336	2575.684296
635.027823	2574.592887
635.373257	2571.754717
635.718639	2571.598441
636.063968	2572.999882
636.409245	2570.590210
636.754470	2569.970148
637.099642	2568.301527
637.444762	2569.748338
637.789829	2571.316137
638.134845	2570.663307
638.479808	2567.018553
638.824719	2566.524520
639.169577	2566.698440
639.514383	2564.888665
639.859137	2563.320867
640.203839	2571.127093
640.548489	2564.997050
640.893086	2563.784653
641.237632	2560.785166
641.582125	2565.047462
641.926566	2559.103941
642.270955	2565.909499
642.615292	2564.162739
642.959576	2562.433623
643.303809	2562.128634
643.647990	2565.357493
643.992118	2562.660475
644.336195	2561.909343
644.680219	2566.406053
645.024192	2563.809858
645.368112	2566.053172
645.711981	2563.116700
646.055797	2566.544684
646.399562	2565.344890
646.743274	2567.129458
647.086935	2571.217834
647.430544	2566.378326
647.774101	2567.976372
648.117606	2566.610219
648.461059	2570.761610
648.804460	2568.601475
649.147810	2566.663152
649.491108	2566.075857
649.834354	2566.035528
650.177548	2563.575445
650.520690	2564.190466
650.863781	2564.006463
651.206820	2564.712225
651.549807	2562.388253
651.892742	2559.638304
652.235626	2560.875907
652.578458	2560.195351
652.921238	2560.109652
653.263967	2559.204764
653.606644	2559.038406
653.949269	2559.522357
654.291843	2557.649568
654.634365	2559.313149
654.976836	2557.941955
655.319255	2560.200392
655.661622	2560.235680
656.003938	2556.482541
656.346203	2556.379198
656.688416	2556.331307
657.030577	2557.677295
657.372687	2556.510268
657.714746	2559.542522
658.056753	2556.248128
658.398708	2553.725030
658.740612	2552.137067
659.082465	2550.614638
659.424266	2552.489947
659.766016	2553.999773
660.107715	2557.337017
660.449362	2555.408776
660.790958	2552.520194
661.132503	2556.598488
661.473996	2557.037068
661.815438	2556.185113
662.156829	2556.386759
662.498168	2555.469269
662.839456	2558.062943
663.180693	2555.673436
663.521879	2556.830381
663.863013	2558.163766
664.204097	2555.822150
664.545129	2556.061605
664.886110	2556.419527
665.227040	2556.994218
665.567918	2559.618139
665.908746	2556.704352
666.249522	2553.818292
666.590248	2556.790052
666.930922	2556.464897
667.271545	2558.206616
667.612118	2558.418344
667.952639	2554.841646
668.293109	2559.391287
668.633528	2556.180072
668.973896	2554.549259
669.314213	2555.638148
669.654480	2553.909032
669.994695	2554.498847
670.334859	2555.252500
670.674973	2555.549928
671.015035	2553.793086
671.355047	2553.057077
671.695008	2554.324928
672.034918	2557.183262
672.374777	2555.103786
672.714585	2553.341903
673.054342	2556.472459
673.394049	2555.943138
673.733705	2555.113868
674.073310	2556.182593
674.412864	2551.375853
674.752368	2555.050854
675.091820	2552.976419
675.431223	2552.401727
675.770574	2553.838456
676.109875	2552.310987
676.449125	2549.654298
676.788324	2548.215049
677.127473	2550.922149
677.466571	2547.360573
677.805619	2552.661347
678.144616	2550.327293
678.483562	2552.931048
678.822458	2548.880481
679.161303	2551.433826
679.500098	2548.356201
679.838842	2550.037426
680.177535	2553.535987
680.516179	2548.273022
680.854771	2552.333672
681.193314	2552.908363
681.531805	2552.545400
681.870247	2554.191337
682.208638	2557.304249
682.546978	2555.940617
682.885268	2555.222253
683.223508	2555.065977
683.561697	2554.019938
683.899836	2556.238045
684.237925	2554.944989
684.575963	2553.115051
684.913951	2553.672098
685.251889	2555.098745
685.589776	2552.628579
685.927614	2552.341233
686.265401	2551.252344
686.603137	2552.348795
686.940824	2555.640669
687.278460	2551.748898
687.616046	2554.871893
687.953582	2554.793755
688.291068	2553.977088
688.628504	2553.049516
688.965889	2554.844166
689.303224	2554.733261
689.640510	2555.804506
689.977745	2552.555483
690.314930	2551.839639
690.652065	2552.406768
690.989150	2552.966337
691.326185	2551.506922
691.663170	2547.068187
692.000105	2546.269164
692.336990	2547.017775
692.673825	2545.008875
693.010610	2544.973587
693.347345	2540.086188
693.684030	2539.834131
694.020665	2538.934285
694.357251	2536.675848
694.693786	2541.661549
695.030272	2543.738504
695.366707	2542.510983
695.703093	2540.050900
696.039429	2542.034594
696.375716	2541.180119
696.711952	2541.185160
697.048139	2538.883873
697.384276	2539.400592
697.720363	2541.613658
698.056400	2540.146682
698.392388	2538.672145
698.728326	2539.405633
699.064214	2539.723225
699.400053	2538.984696
699.735842	2538.420087
700.071581	2536.847247
700.407270	2536.824562
700.742910	2536.930426
701.078501	2537.356404
701.414042	2535.831455
701.749533	2533.540250
702.084974	2538.505787
702.420366	2534.732483
702.755709	2534.745086
703.091002	2533.958666
703.426246	2537.716846
703.761440	2534.671989
704.096584	2534.203162
704.431679	2536.910262
704.766725	2537.711805
705.101721	2534.122503
705.436668	2536.086033
705.771565	2534.044366
706.106413	2531.884231
706.441212	2533.673841
706.775961	2535.816331
707.110661	2532.456402
707.445311	2536.897659
707.779913	2534.674510
708.114465	2534.598892
708.448967	2535.060158
708.783421	2537.550488
709.117825	2536.070909
709.452180	2539.430838
709.786485	2537.227854
710.120742	2540.434028
710.454949	2541.336395
710.789107	2536.592669
711.123216	2537.608461
711.457275	2540.234903
711.791286	2537.041332
712.125247	2540.232382
712.459159	2541.689275
712.793023	2542.780685
713.126837	2539.997968
713.460602	2544.058618
713.794318	2536.857329
714.127985	2541.162475
714.461602	2536.363296
714.795171	2538.959491
715.128691	2537.648791
715.462162	2536.733821
715.795584	2535.445806
716.128957	2537.653832
716.462281	2533.295754
716.795556	2533.683923
717.128782	2535.675179
717.461960	2535.803728
717.795088	2535.256763
718.128167	2533.734335
718.461198	2534.971938
718.794180	2534.961856
719.127113	2532.262318
719.459997	2532.587472
719.792833	2529.920702
720.125619	2531.816176
720.458357	2531.604447
720.791046	2528.153777
721.123686	2530.225692
721.456278	2532.867256
721.788821	2529.840043
722.121315	2531.264169
722.453761	2527.170752
722.786158	2525.761750
723.118506	2530.266021
723.450805	2531.561597
723.783056	2529.751823
724.115259	2527.894158
724.447412	2527.702594
724.779518	2530.974303
725.111574	2530.225692
725.443582	2529.288037
725.775542	2532.942873
726.107453	2531.483459
726.439315	2531.138140
726.771129	2537.510159
727.102895	2531.914478
727.434612	2531.987575
727.766281	2532.065713
728.097901	2527.168232
728.429473	2531.322143
728.760996	2530.606299
729.092471	2527.405166
729.423897	2532.801721
729.755276	2532.332894
730.086606	2533.608306
730.417887	2533.230219
730.749120	2535.080323
731.080305	2535.133255
731.411442	2537.164840
731.742530	2535.082843
732.073570	2536.116280
732.404562	2534.976979
732.735506	2537.295910
733.066401	2533.550333
733.397249	2535.657535
733.728048	2532.484128
734.058798	2533.820034
734.389501	2530.964221
734.720156	2531.332225
735.050762	2528.385670
735.381320	2528.196627
735.711831	2533.608306
736.042293	2529.593027
736.372707	2530.119827
736.703073	2529.144364
737.033391	2529.023376
737.363661	2528.000022
737.693883	2529.076308
738.024056	2531.647297
738.354182	2529.749302
738.684260	2529.976154
739.014290	2530.923891
739.344272	2529.519930
739.674207	2531.622091
740.004093	2532.670651
740.333931	2531.748120
740.663722	2531.848943
740.993464	2530.661751
741.323159	2531.725435
741.652806	2531.687626
741.982405	2530.873480
742.311956	2530.286185
742.641460	2531.339787
742.970915	2531.261649
743.300323	2527.435413
743.629683	2528.529343
743.958996	2529.461957
744.288260	2526.681760
744.617477	2527.687471
744.946647	2524.340144
745.275768	2526.336441
745.604842	2522.235463
745.933869	2522.918539
746.262847	2522.822757
746.591778	2527.873993
746.920662	2526.452388
747.249498	2526.865763
747.578286	2527.584127
747.907027	2528.723428
748.235720	2527.833664
748.564365	2528.468849
748.892963	2525.658406
749.221514	2527.468180
749.550017	2527.470701
749.878473	2528.955321
750.206881	2527.982378
750.535242	2524.945083
750.863555	2526.689322
751.191821	2522.210257
751.520039	2524.451050
751.848210	2527.422810
752.176334	2527.100176
752.504411	2529.809796
752.832440	2524.440968
753.160421	2526.994312
753.488356	2524.705628
753.816243	2525.045906
754.144082	2523.329393
754.471875	2526.797707
754.799620	2523.997346
755.127318	2524.355268
755.454969	2521.892664
755.782572	2525.877696
756.110129	2522.694208
756.437638	2524.133457
756.765100	2523.611698
757.092515	2528.224353
757.419882	2523.268899
757.747203	2525.643283
758.074477	2524.476256
758.401703	2525.764270
758.728882	2527.412728
759.056014	2526.195289
759.383099	2525.451719
759.710138	2526.202851
760.037129	2523.578930
760.364073	2526.802748
760.690970	2526.946421
761.017820	2527.569003
761.344623	2527.579086
761.671379	2529.035979
761.998088	2524.226718
762.324751	2528.559590
762.651366	2533.169725
762.977935	2543.171375
763.304456	2542.664739
763.630931	2549.268650
763.957359	2544.308155
764.283740	2543.488967
764.610074	2540.693647
764.936362	2538.735159
765.262602	2531.226361
765.588796	2533.487318
765.914943	2529.610671
766.241044	2525.784435
766.567097	2525.366019
766.893104	2523.354599
767.219064	2522.059022
767.544978	2521.363343
767.870845	2524.824095
768.196665	2521.486851
768.522438	2519.946779
768.848165	2520.982736
769.173846	2522.326203
769.499479	2519.319155
769.825066	2518.656243
770.150607	2520.980215
770.476101	2517.128774
770.801548	2521.754033
771.126949	2517.680780
771.452303	2521.517098
771.777611	2520.743281
772.102872	2522.227901
772.428087	2517.504340
772.753256	2517.176665
773.078378	2517.975688
773.403453	2518.905781
773.728482	2516.433095
774.053465	2518.540297
774.378401	2517.864782
774.703291	2520.864269
775.028135	2517.973167
775.352932	2515.760101
775.677683	2513.841942
776.002388	2517.043074
776.327046	2518.220184
776.651658	2515.876047
776.976224	2516.092817
777.300743	2518.192457
777.625216	2515.356808
777.949643	2514.605676
778.274024	2516.586850
778.598359	2512.629544
778.922647	2512.190964
779.246889	2513.231962
779.571086	2510.212311
779.895236	2514.777076
780.219339	2516.622138
780.543397	2518.066428
780.867409	2514.000738
781.191374	2517.809330
781.515294	2515.941582
781.839167	2516.377642
782.162995	2517.267406
782.486776	2513.688186
782.810511	2517.295132
783.134201	2515.029133
783.457844	2516.488547
783.781441	2514.686335
784.104993	2514.908146
784.428498	2516.007117
784.751958	2516.221366
785.075372	2515.021572
785.398739	2513.809174
785.722061	2514.683814
786.045337	2515.893691
786.368568	2513.794051
786.691752	2514.862775
787.014891	2516.700276
787.337983	2518.376459
787.661030	2519.740092
787.984031	2519.346882
788.306987	2519.127591
788.629897	2522.132119
788.952760	2522.091790
789.275579	2518.568023
789.598351	2519.815709
789.921078	2517.098527
790.243759	2517.174144
790.566395	2517.549710
790.888984	2518.633558
791.211529	2516.004597
791.534027	2514.439318
791.856480	2515.008969
792.178888	2515.765142
792.501249	2517.824453
792.823566	2514.784637
793.145836	2516.256654
793.468062	2514.905625
793.790241	2515.750018
794.112375	2514.819925
794.434464	2514.870337
794.756507	2514.610718
795.078505	2515.722292
795.400457	2515.555934
795.722364	2514.530059
796.044226	2516.239010
796.366042	2513.020233
796.687812	2516.319669
797.009538	2517.252282
797.331218	2517.867303
797.652852	2517.988291
797.974442	2515.659278
798.295986	2516.382683
798.617484	2517.431243
798.938938	2515.757580
799.260346	2518.331089
799.581709	2516.591891
799.903026	2515.926459
800.224299	2513.955368
800.545526	2512.833711
800.866708	2512.468227
801.187845	2516.806140
801.508936	2512.632065
801.829983	2514.295645
802.150984	2511.220542
802.471940	2515.898732
802.792851	2515.495440
803.113717	2515.099709
803.434538	2512.637106
803.755314	2514.169617
804.076045	2515.203053
804.396731	2513.526869
804.717372	2512.218690
805.037967	2514.688855
805.358518	2516.929648
805.679024	2515.195491
805.999485	2511.722136
806.319901	2516.193640
806.640272	2513.985614
806.960598	2512.564009
807.280879	2516.130625
807.601115	2514.283043
807.921306	2512.163237
808.241453	2515.598784
808.561554	2515.843280
808.881611	2515.644154
809.201623	2512.001920
809.521590	2515.450070
809.841513	2513.665501
810.161390	2513.567199
810.481223	2512.314472
810.801011	2515.475275
811.120755	2513.234483
811.440453	2515.432426
811.760107	2512.006962
812.079716	2512.168278
812.399281	2510.998731
812.718801	2510.799605
813.038276	2510.396313
813.357707	2514.643485
813.677093	2514.099040
813.996434	2515.036695
814.315731	2511.903618
814.634983	2514.784637
814.954191	2514.202384
815.273354	2512.518639
815.592473	2510.844976
815.911547	2516.309586
816.230577	2514.207425
816.549562	2516.261695
816.868502	2516.576767
817.187399	2516.284381
817.506250	2515.112312
817.825058	2514.809843
818.143821	2516.599453
818.462539	2520.060205
818.781213	2518.978877
819.099843	2518.361336
819.418429	2521.073477
819.736970	2524.924918
820.055466	2527.758047
820.373919	2529.530012
820.692327	2535.067720
821.010691	2545.543237
821.329011	2568.389747
821.647286	2604.033225
821.965517	2636.536064
822.283704	2656.304949
822.601847	2660.663027
822.919945	2643.979328
823.237999	2629.294447
823.556010	2611.763834
823.873976	2592.887234
824.191897	2580.455748
824.509775	2570.917885
824.827609	2560.258366
825.145398	2553.251162
825.463144	2549.934082
825.780845	2551.050698
826.098502	2555.343241
826.416116	2562.211813
826.733685	2572.296641
827.051210	2571.805128
827.368692	2569.927299
827.686129	2561.737944
828.003522	2553.621687
828.320872	2540.980993
828.638177	2538.969573
828.955439	2530.840712
829.272656	2525.978519
829.589830	2524.829136
829.906960	2520.992818
830.224046	2521.519619
830.541088	2520.239166
830.858086	2518.585667
831.175041	2516.574247
831.491952	2515.991994
831.808819	2517.479134
832.125642	2519.117509
832.442421	2521.270082
832.759157	2527.445495
833.075849	2534.087215
833.392497	2538.873791
833.709101	2543.289842
834.025662	2540.986034
834.342179	2538.611651
834.658653	2536.101156
834.975083	2529.716535
835.291469	2530.674354
835.607811	2523.034486
835.924110	2522.064063
836.240366	2521.247397
836.556578	2516.024761
836.872746	2515.886129
837.188871	2511.772548
837.504952	2514.242713
837.820990	2513.501664
838.136984	2508.604183
838.452935	2511.883453
838.768842	2512.125429
839.084706	2513.577281
839.400526	2514.688855
839.716303	2520.748322
840.032037	2525.398787
840.347727	2524.791328
840.663373	2522.321162
840.978977	2515.185409
841.294537	2515.182888
841.610054	2514.174658
841.925527	2515.382014
842.240957	2512.765655
842.556344	2512.748011
842.871687	2511.286077
843.186987	2511.613752
843.502244	2511.641478
843.817458	2510.330778
844.132629	2507.870695
844.447756	2510.114008
844.762840	2504.031856
845.077881	2507.285921
845.392879	2504.026815
845.707833	2507.379182
846.022745	2503.036228
846.337613	2507.043946
846.652438	2506.076044
846.967221	2508.155520
847.281960	2507.444717
847.596656	2508.226096
847.911309	2507.641322
848.225919	2508.331960
848.540485	2508.034532
848.855009	2505.629902
849.169490	2510.834893
849.483928	2507.222907
849.798323	2506.161744
850.112675	2505.072854
850.426984	2506.610406
850.741251	2509.761128
851.055474	2507.195180
851.369654	2504.490601
851.683792	2505.657628
851.997887	2504.873729
852.311938	2507.124604
852.625947	2506.638133
852.939914	2505.967659
853.253837	2506.655777
853.567718	2506.111332
853.881555	2508.707526
854.195350	2504.503204
854.509103	2507.664008
854.822812	2507.837927
855.136479	2506.048318
855.450103	2507.348935
855.763685	2507.716940
856.077224	2505.778616
856.390720	2505.937412
856.704173	2506.847341
857.017584	2508.987310
857.330953	2506.590242
857.644278	2509.193998
857.957561	2510.550068
858.270802	2507.548061
858.584000	2507.676610
858.897155	2504.966990
859.210268	2508.152999
859.523339	2505.652587
859.836367	2507.575787
860.149352	2507.681652
860.462295	2506.993534
860.775195	2505.259377
861.088054	2501.334839
861.400869	2503.437000
861.713642	2505.531599
862.026373	2507.472444
862.339062	2504.931702
862.651708	2503.487412
862.964312	2507.119563
863.276873	2508.755417
863.589392	2507.941271
863.901869	2505.566887
864.214303	2505.506394
864.526696	2508.067300
864.839045	2507.187618
865.151353	2511.255830
865.463619	2505.866836
865.775842	2508.238699
866.088023	2506.285252
866.400162	2506.973369
866.712258	2508.631909
867.024313	2509.630058
867.336325	2509.420850
867.648296	2506.191991
867.960224	2509.219203
868.272110	2506.439007
868.583954	2510.590397
868.895755	2507.411950
869.207515	2507.633761
869.519233	2509.287259
869.830909	2506.925478
870.142542	2509.544358
870.454134	2508.314316
870.765684	2507.696775
871.077191	2507.966477
871.388657	2511.079389
871.700081	2507.966477
872.011463	2508.818432
872.322803	2508.203411
872.634101	2508.026971
872.945357	2506.260046
873.256571	2509.554440
873.567744	2508.775582
873.878874	2507.996724
874.189963	2510.804646
874.501010	2511.770027
874.812015	2511.712054
875.122979	2510.401354
875.433900	2507.452279
875.744780	2509.927486
876.055618	2509.682990
876.366415	2508.969666
876.677169	2509.378000
876.987882	2507.767351
877.298554	2503.991527
877.609183	2507.369100
877.919771	2507.147289
878.230317	2511.873371
878.540822	2514.635923
878.851285	2513.841942
879.161707	2516.082734
879.472087	2517.658095
879.782425	2519.304032
880.092722	2530.850795
880.402977	2544.066179
880.713191	2557.163097
881.023363	2570.776733
881.333494	2579.664287
881.643583	2583.460276
881.953631	2579.472723
882.263637	2576.551375
882.573602	2571.769840
882.883526	2562.405897
883.193408	2561.158212
883.503248	2551.816953
883.813048	2550.138249
884.122806	2541.984183
884.432522	2537.366486
884.742197	2533.245343
885.051831	2528.574714
885.361424	2524.768643
885.670975	2523.566327
885.980485	2519.891326
886.289954	2521.587674
886.599382	2518.210101
886.908768	2514.893022
887.218113	2514.348578
887.527417	2513.337826
887.836680	2513.927641
888.145901	2511.989318
888.455082	2511.555778
888.764221	2508.493277
889.073319	2512.417816
889.382376	2510.182064
889.691392	2511.933865
890.000366	2513.189112
890.309300	2510.842455
890.618193	2509.357835
890.927044	2509.105777
891.235855	2508.258864
891.544625	2511.059225
891.853353	2511.064266
892.162041	2511.744822
892.470687	2513.882271
892.779293	2511.843124
893.087858	2511.235665
893.396381	2512.730367
893.704864	2517.161541
894.013306	2517.990811
894.321707	2526.775022
894.630068	2527.863911
894.938387	2530.255938
895.246665	2528.509179
895.554903	2526.202851
895.863100	2524.352747
896.171256	2522.026255
896.479371	2521.955679
896.787446	2520.561800
897.095480	2518.787313
897.403473	2517.663136
897.711425	2516.060049
898.019336	2514.157014
898.327207	2512.518639
898.635038	2513.078207
898.942827	2513.471417
899.250576	2512.485871
899.558284	2510.608041
899.865952	2511.986797
900.173579	2512.947137
900.481165	2508.674759
900.788711	2512.813546
901.096216	2509.158710
901.403681	2509.012516
901.711105	2509.168792
902.018489	2507.837927
902.325832	2511.288597
902.633135	2510.711385
902.940397	2512.153155
903.247619	2514.484689
903.554800	2522.699249
903.861941	2528.645290
904.169041	2536.005374
904.476101	2536.113759
904.783121	2531.690147
905.090100	2530.913809
905.397039	2528.781401
905.703938	2525.209743
906.010796	2522.671523
906.317614	2520.965092
906.624391	2515.770183
906.931129	2515.981911
907.237826	2514.741787
907.544483	2514.346057
907.851099	2511.162568
908.157675	2511.260871
908.464211	2511.079389
908.770707	2506.139058
909.077163	2506.817094
909.383578	2502.242247
909.689954	2504.036897
909.996289	2501.203769
910.302584	2508.331960
910.608839	2505.219048
910.915054	2506.189470
911.221229	2507.424553
911.527363	2505.478667
911.833458	2503.084119
912.139513	2504.402381
912.445527	2505.037566
912.751502	2505.609737
913.057436	2505.839110
913.363331	2506.418843
913.669186	2508.498318
913.975000	2509.821621
914.280775	2513.179030
914.586510	2511.815398
914.892205	2515.699607
915.197859	2521.993487
915.503475	2527.016997
915.809050	2526.039013
916.114585	2530.044210
916.420081	2533.472195
916.725536	2532.794159
917.030952	2532.030425
917.336328	2528.136133
917.641665	2530.780218
917.946961	2525.870135
918.252218	2524.420803
918.557435	2523.405010
918.862612	2521.572551
919.167750	2518.754546
919.472848	2517.784124
919.777906	2513.796571
920.082925	2514.230110
920.387904	2513.499143
920.692843	2513.862106
920.997743	2512.435460
921.302603	2510.706344
921.607423	2509.950171
921.912204	2509.554440
922.216946	2506.746518
922.521647	2507.011178
922.826310	2508.820952
923.130932	2508.299193
923.435516	2506.789367
923.740059	2507.162413
924.044564	2505.798781
924.349028	2505.163595
924.653454	2504.566218
924.957840	2502.948008
925.262186	2501.415497
925.566493	2502.784171
925.870761	2499.635970
926.174989	2503.739469
926.479178	2502.542195
926.783328	2504.866167
927.087438	2502.277535
927.391509	2502.559839
927.695541	2503.129490
927.999533	2504.394819
928.303486	2502.690909
928.607400	2502.355673
928.911275	2503.973883
929.215110	2503.215189
929.518906	2500.500528
929.822663	2504.929182
930.126381	2502.585045
930.430060	2502.378358
930.733699	2503.134531
931.037299	2505.939933
931.340861	2501.390292
931.644383	2502.406084
931.947866	2504.503204
932.251309	2503.676455
932.554714	2505.629902
932.858080	2504.278873
933.161407	2504.213338
933.464694	2500.550939
933.767943	2501.975065
934.071153	2502.441372
934.374323	2500.097236
934.677455	2501.808707
934.980548	2504.969511
935.283602	2504.089829
935.586617	2502.743841
935.889593	2501.954901
936.192530	2503.537823
936.495428	2503.525220
936.798287	2501.894407
937.101108	2502.325426
937.403890	2502.433810
937.706632	2505.733246
938.009336	2504.495642
938.312002	2503.978924
938.614628	2502.111177
938.917216	2507.512773
939.219765	2502.143944
939.522275	2505.521517
939.824747	2509.125942
940.127179	2502.229644
940.429573	2503.452123
940.731929	2501.256701
941.034246	2498.552122
941.336524	2502.665703
941.638763	2502.058244
941.940964	2503.235354
942.243126	2504.140241
942.545250	2503.815087
942.847335	2503.626043
943.149381	2502.711074
943.451389	2503.381547
943.753359	2503.817607
944.055290	2502.900117
944.357182	2505.728204
944.659036	2504.246105
944.960851	2501.624705
945.262628	2500.147647
945.564367	2505.677793
945.866067	2500.351814
946.167729	2503.661331
946.469352	2499.988851
946.770937	2504.546054
947.072484	2502.098574
947.373992	2502.398522
947.675462	2500.394664
947.976893	2506.391116
948.278286	2502.524551
948.579641	2503.527741
948.880958	2503.631084
949.182236	2502.859788
949.483476	2502.022956
949.784678	2504.714933
950.085841	2500.750065
950.386967	2502.726197
950.688054	2500.571104
950.989103	2501.957421
951.290114	2501.380209
951.591087	2503.220230
951.892021	2503.931033
952.192917	2506.643174
952.493776	2502.244767
952.794596	2504.304078
953.095378	2506.302896
953.396122	2505.473626
953.696828	2503.900786
953.997496	2506.270128
954.298126	2504.543533
954.598718	2503.762154
954.899272	2501.728049
955.199788	2502.068327
955.500266	2503.777278
955.800706	2501.302071
956.101108	2500.233347
956.401472	2501.783502
956.701798	2499.134375
957.002087	2499.134375
957.302337	2504.268790
957.602550	2501.791063
957.902724	2500.185456
958.202861	2501.165960
958.502960	2498.116062
958.803022	2501.879283
959.103045	2500.772750
959.403031	2499.610764
959.702979	2501.155878
960.002889	2499.628408
960.302762	2500.986999
960.602596	2501.186125
960.902393	2500.561022
961.202153	2499.613285
961.501875	2500.699653
961.801559	2498.531957
962.101205	2498.925167
962.400814	2501.322236
962.700385	2501.607061
962.999918	2499.240239
963.299414	2500.946670
963.598873	2502.741321
963.898293	2500.986999
964.197677	2499.141937
964.497022	2501.231495
964.796331	2497.248984
965.095601	2500.215703
965.394835	2498.925167
965.694030	2501.864160
965.993189	2500.586228
966.292309	2500.409787
966.591393	2499.464571
966.890439	2500.074550
967.189447	2500.054386
967.488419	2497.523727
967.787353	2500.893738
968.086249	2498.484066
968.385108	2498.927688
968.683930	2497.606906
968.982714	2500.702174
969.281462	2502.096053
969.580172	2499.608244
969.878844	2498.352996
970.177480	2500.850888
970.476078	2498.337873
970.774639	2502.453975
971.073162	2502.078409
971.371649	2498.277379
971.670098	2496.586072
971.968510	2499.446927
972.266885	2499.497338
972.565223	2502.995899
972.863524	2498.962976
973.161788	2501.838954
973.460014	2499.507421
973.758204	2503.026146
974.056356	2499.192348
974.354471	2498.721001
974.652550	2500.384581
974.950591	2503.061434
975.248595	2500.054386
975.546563	2500.341732
975.844493	2498.443737
976.142386	2500.382061
976.440243	2499.772081
976.738062	2502.942967
977.035845	2499.141937
977.333590	2499.225116
977.631299	2503.409274
977.928971	2499.641011
978.226606	2500.734942
978.524204	2499.136896
978.821765	2500.573625
979.119290	2501.271824
979.416777	2502.353152
979.714228	2501.997751
980.011642	2499.822493
980.309020	2502.338028
980.606360	2499.051196
980.903664	2504.052021
981.200931	2500.452637
981.498162	2501.145796
981.795356	2497.475836
982.092513	2504.170488
982.389633	2501.007164
982.686717	2504.077227
982.983764	2503.260560
983.280775	2504.125118
983.577749	2502.353152
983.874686	2502.900117
984.171587	2501.755775
984.468451	2500.397184
984.765279	2507.714419
985.062070	2506.015550
985.358824	2499.283089
985.655543	2503.338698
985.952224	2501.365086
986.248869	2499.320898
986.545478	2497.778305
986.842050	2497.211175
987.138586	2494.662872
987.435086	2498.501710
987.731549	2494.882162
988.027975	2500.349293
988.324366	2497.576659
988.620719	2502.663183
988.917037	2495.847543
989.213318	2499.245281
989.509563	2498.463902
989.805772	2498.352996
990.101944	2500.119921
990.398080	2501.065137
990.694180	2498.073212
990.990244	2499.630929
991.286271	2499.036073
991.582262	2498.355517
991.878217	2497.861484
992.174136	2500.301402
992.470019	2497.375013
992.765865	2497.238901
993.061676	2499.570435
993.357450	2499.943480
993.653188	2496.702018
993.948890	2500.061948
994.244556	2498.098418
994.540186	2500.553460
994.835780	2499.814931
995.131337	2501.513800
995.426859	2498.350476
995.722345	2498.864673
996.017795	2501.077740
996.313208	2503.265601
996.608586	2499.648573
996.903928	2502.030518
997.199234	2500.969355
997.494504	2502.327946
997.789738	2502.048162
998.084936	2500.805518
998.380099	2499.041114
998.675225	2501.294510
998.970316	2500.097236
999.265371	2501.271824
999.560390	2499.565394
999.855373	2500.727380
1000.150320	2497.334683
1000.445232	2500.283758
1000.740108	2498.834427
1001.034948	2501.355003
1001.329752	2497.841319
1001.624521	2498.025321
1001.919254	2494.604898
1002.213951	2497.833758
1002.508613	2496.034066
1002.803239	2496.702018
1003.097829	2494.138592
1003.392384	2497.105311
1003.686903	2496.543222
1003.981386	2497.904334
1004.275834	2497.380054
1004.570246	2499.245281
1004.864623	2496.379385
1005.158964	2498.962976
1005.453270	2499.920795
1005.747540	2502.199397
1006.041775	2498.431134
1006.335974	2497.105311
1006.630138	2499.439365
1006.924266	2501.816269
1007.218359	2498.690754
1007.512416	2495.177069
1007.806438	2497.662358
1008.100425	2496.150012
1008.394376	2496.495331
1008.688292	2497.082626
1008.982172	2497.795949
1009.276017	2495.925681
1009.569827	2500.301402
1009.863602	2498.010198
1010.157341	2499.683861
1010.451045	2499.696464
1010.744714	2497.496000
1011.038347	2496.611278
1011.331945	2496.654128
1011.625508	2498.829385
1011.919036	2498.995743
1012.212528	2497.299395
1012.505986	2494.582213
1012.799408	2499.169663
1013.092795	2496.941473
1013.386147	2497.450630
1013.679464	2497.400218
1013.972745	2498.892400
1014.265992	2497.150681
1014.559204	2496.525578
1014.852380	2496.649086
1015.145521	2502.509428
1015.438628	2497.097749
1015.731699	2498.360558
1016.024736	2498.726042
1016.317737	2500.288799
1016.610703	2498.408449
1016.903635	2495.063643
1017.196531	2494.146153
1017.489393	2496.054230
1017.782219	2492.227994
1018.075011	2496.694457
1018.367768	2494.488952
1018.660490	2499.308295
1018.953177	2499.308295
1019.245829	2499.308295
