Dividing Wavelength (nm)	Counts (n)	Blue Motor Position (mm): 0.000000	Red Motor Position (mm): 36.300000	
326.493990	2128.128137
326.888308	2128.128137
327.282561	2128.128137
327.676750	2097.024218
328.070874	2094.274269
328.464933	2098.718046
328.858929	2103.958325
329.252859	2113.087855
329.646726	2124.198558
330.040528	2139.906793
330.434265	2155.055461
330.827938	2172.749911
331.221547	2190.807324
331.615091	2210.177957
332.008571	2229.581358
332.401986	2248.407548
332.795338	2269.285486
333.188625	2286.995060
333.581847	2305.604479
333.975006	2324.448312
334.368100	2343.279542
334.761129	2361.525999
335.154095	2376.541075
335.546996	2396.551936
335.939833	2416.615728
336.332606	2432.553336
336.725315	2442.466765
337.117960	2454.653754
337.510540	2458.129630
337.903056	2469.797380
338.295508	2478.445480
338.687896	2486.937303
339.080220	2497.059940
339.472480	2503.815087
339.864676	2509.209121
340.256807	2510.608041
340.648875	2513.698269
341.040879	2517.184227
341.432818	2520.617252
341.824694	2520.949968
342.216506	2523.178158
342.608253	2518.401665
342.999937	2521.988446
343.391557	2519.891326
343.783113	2519.903929
344.174605	2520.009793
344.566033	2517.093486
344.957397	2517.224556
345.348697	2512.264060
345.739934	2510.335819
346.131106	2510.824811
346.522215	2508.894049
346.913260	2506.716271
347.304241	2505.087978
347.695159	2504.934223
348.086012	2501.760816
348.476802	2499.464571
348.867528	2499.361227
349.258191	2496.775115
349.648789	2498.395846
350.039324	2496.578510
350.429796	2494.592296
350.820203	2490.939980
351.210548	2491.491986
351.600828	2490.864362
351.991045	2490.224136
352.381198	2492.285968
352.771288	2488.205154
353.161314	2490.783704
353.551276	2489.304125
353.941175	2488.447129
354.331010	2488.986533
354.720782	2490.640031
355.110490	2489.057109
355.500135	2487.506954
355.889717	2490.062819
356.279235	2486.425626
356.668689	2488.994094
357.058080	2489.283961
357.447408	2488.200113
357.836672	2488.495020
358.225873	2488.374032
358.615010	2489.704897
359.004084	2491.484424
359.393095	2493.606750
359.782043	2494.282265
360.170927	2495.711432
360.559748	2494.277223
360.948505	2498.015239
361.337199	2495.953407
361.725830	2499.615805
362.114398	2497.732934
362.502903	2499.152019
362.891344	2501.604541
363.279722	2501.148316
363.668037	2500.699653
364.056289	2500.359376
364.444478	2501.876763
364.832603	2500.588748
365.220665	2500.709736
365.608665	2503.242916
365.996601	2502.937926
366.384474	2504.178050
366.772284	2505.178719
367.160031	2509.403206
367.547715	2509.904800
367.935336	2512.868999
368.322893	2516.433095
368.710388	2518.618435
369.097820	2525.607995
369.485189	2530.465146
369.872495	2532.877338
370.259738	2540.368493
370.646918	2547.602549
371.034035	2555.922973
371.421090	2567.673903
371.808081	2577.690676
372.195010	2584.987746
372.581875	2599.637339
372.968678	2610.211159
373.355418	2622.256996
373.742096	2641.002527
374.128710	2654.747233
374.515262	2671.045283
374.901751	2685.710000
375.288177	2698.862370
375.674540	2723.949672
376.060841	2740.557753
376.447079	2758.889909
376.833254	2777.960594
377.219367	2791.854014
377.605417	2828.087308
377.991404	2838.620799
378.377329	2862.410004
378.763191	2877.893908
379.148991	2915.705082
379.534727	2940.507559
379.920402	2969.413535
380.306013	2981.356029
380.691563	3030.633308
381.077049	3053.137018
381.462474	3068.983885
381.847835	3110.507870
382.233134	3130.745582
382.618371	3132.242804
383.003545	3200.094215
383.388657	3207.240050
383.773706	3239.944536
384.158693	3255.665374
384.543618	3282.012965
384.928480	3320.797082
385.313280	3364.934904
385.698017	3362.472301
386.082692	3416.810898
386.467305	3421.133687
386.851856	3453.150055
387.236344	3475.578149
387.620770	3504.942870
388.005133	3533.919422
388.389435	3560.846746
388.773674	3571.838982
389.157851	3616.775827
389.541965	3628.254534
389.926018	3594.637600
390.310008	3665.475894
390.693936	3685.154038
391.077802	3725.531159
391.461606	3713.923903
391.845348	3779.907565
392.229027	3776.845064
392.612645	3789.579019
392.996200	3869.002398
393.379694	3906.226278
393.763125	3972.850167
394.146494	3940.879169
394.529801	4001.214219
394.913047	4046.730797
395.296230	4014.369110
395.679351	4069.317687
396.062410	4095.635031
396.445408	4074.865477
396.828343	4109.334366
397.211217	4132.843787
397.594028	4053.047363
397.976778	4119.396509
398.359466	4144.496414
398.742092	4174.970189
399.124656	4095.609825
399.507158	4177.200900
399.889598	4202.041186
400.271977	4263.414713
400.654294	4235.194334
401.036549	4242.975355
401.418742	4211.105180
401.800874	4315.746931
402.182944	4333.829550
402.564952	4405.686157
402.946898	4387.298548
403.328783	4383.205131
403.710606	4298.027275
404.092367	4491.111029
404.474067	4450.360862
404.855705	4462.321000
405.237282	4394.993870
405.618797	4502.435982
406.000250	4533.570148
406.381642	4613.215337
406.762972	4576.830809
407.144240	4590.477213
407.525447	4585.577211
407.906593	4646.696161
408.287677	4691.428839
408.668700	4617.742293
409.049661	4670.437475
409.430560	4712.440368
409.811399	4640.092249
410.192176	4803.891940
410.572891	4735.622114
410.953545	4840.644472
411.334138	4722.026122
411.714669	4788.650012
412.095139	4683.463816
412.475547	4827.595446
412.855894	4806.168021
413.236180	4810.488290
413.616405	4771.797434
413.996568	4859.455538
414.376670	4799.942196
414.756711	4759.015589
415.136691	4785.721101
415.516609	4867.095407
415.896466	4901.813833
416.276262	4935.753402
416.655997	4913.297582
417.035670	5097.294656
417.415283	5188.413512
417.794834	5137.238238
418.174324	5089.380044
418.553753	4994.402185
418.933121	5178.457233
419.312428	5247.765537
419.691674	5182.343963
420.070859	5311.667203
420.449983	5220.843254
420.829045	5339.824568
421.208047	5248.683027
421.586988	5315.742976
421.965867	5327.534234
422.344686	5458.195901
422.723444	5314.117203
423.102141	5133.520388
423.480777	5432.985091
423.859352	5199.430953
424.237866	5459.657836
424.616319	5454.677176
424.994712	5564.768414
425.373044	5440.700577
425.751314	5584.093677
426.129524	5384.625302
426.507673	5578.671916
426.885762	5661.440101
427.263789	5593.823104
427.641756	5477.145598
428.019662	5595.612714
428.397508	5601.979691
428.775292	5547.343666
429.153016	5647.947452
429.530679	5574.331483
429.908282	5661.432539
430.285824	5538.004928
430.663305	5803.414116
431.040726	5542.131112
431.418086	5542.012645
431.795385	5650.125231
432.172624	5659.658053
432.549802	5650.145395
432.926920	5669.332027
433.303977	5673.309497
433.680974	5714.644438
434.057910	5729.331840
434.434786	5737.082614
434.811601	5704.363005
435.188355	5943.369150
435.565050	5815.369213
435.941683	5794.234175
436.318257	6008.107648
436.694770	5994.531820
437.071222	6026.437283
437.447614	5958.595955
437.823946	5873.067739
438.200218	6025.602972
438.576429	5892.201438
438.952580	5991.776830
439.328670	6033.099168
439.704700	5940.152894
440.080670	5932.855824
440.456580	6200.803233
440.832429	6082.565490
441.208218	5928.008754
441.583947	6083.583803
441.959616	6088.370379
442.335224	6015.407238
442.710773	6153.698691
443.086261	6180.134502
443.461689	5974.362164
443.837057	6116.580676
444.212365	6276.823833
444.587612	6167.932389
444.962800	6328.145300
445.337927	6303.415919
445.712995	5913.996867
446.088002	6489.096739
446.462949	6319.214896
446.837837	6254.909937
447.212664	6426.533499
447.587431	6565.679428
447.962139	7107.724454
448.336786	8038.971763
448.711374	7775.878985
449.085901	6850.721390
449.460369	6769.868844
449.834776	6702.544234
450.209124	7096.671724
450.583412	7249.632935
450.957640	7393.661221
451.331808	7161.574059
451.705917	6711.767025
452.079965	6631.995807
452.453954	6845.216450
452.827883	6722.837399
453.201752	6813.479866
453.575562	6612.683146
453.949311	6820.295506
454.323001	6708.512960
454.696632	6783.396780
455.070202	6922.759478
455.443713	7072.695996
455.817164	7174.103847
456.190556	7259.677434
456.563888	7332.343146
456.937160	7378.066411
457.310373	7034.572270
457.683526	7060.859367
458.056619	6947.211595
458.429653	6933.424039
458.802628	6872.184102
459.175542	6983.132337
459.548398	7335.188877
459.921194	7498.101325
460.293930	7503.603745
460.666607	8028.047582
461.039224	8338.885128
461.411782	8466.640570
461.784280	8484.287129
462.156719	8377.467599
462.529099	8252.182323
462.901419	7845.492278
463.273680	7732.850216
463.645882	7750.118688
464.018024	7616.898636
464.390106	7774.354036
464.762130	8169.076382
465.134094	8636.431672
465.505999	9652.829111
465.877845	10880.047603
466.249631	11532.206553
466.621358	11146.462502
466.993026	10523.413695
467.364634	10263.539694
467.736184	9900.443026
468.107674	9566.564886
468.479105	9599.776008
468.850477	9364.283547
469.221790	9133.708732
469.593043	8809.718815
469.964238	8665.254470
470.335373	8681.403806
470.706449	8733.862053
471.077467	8724.800579
471.448425	10030.187203
471.819324	11098.594225
472.190164	11130.466921
472.560945	9879.073575
472.931667	9084.595291
473.302330	8953.250548
473.672934	8601.065458
474.043479	8956.718862
474.413965	8896.371209
474.784393	8783.025906
475.154761	8936.965100
475.525070	9021.754787
475.895321	8850.791616
476.265513	9026.390128
476.635645	9194.273154
477.005719	9193.937918
477.375734	9301.077560
477.745691	9541.364158
478.115588	9673.442389
478.485427	9927.486296
478.855207	10458.667636
479.224928	11276.567121
479.594591	11901.420661
479.964194	11716.843854
480.333739	11656.481077
480.703226	11567.880278
481.072653	11660.846717
481.442022	11903.401834
481.811333	12094.726225
482.180584	11898.769014
482.549777	11599.926893
482.918912	11430.135790
483.287988	11452.999944
483.657005	11467.314300
484.025964	11146.613736
484.394864	11269.423806
484.763706	11246.935218
485.132489	11004.470842
485.501213	10959.579367
485.869879	11039.947962
486.238487	10884.561957
486.607036	10993.224028
486.975527	10769.608525
487.343959	10957.696496
487.712333	11007.661892
488.080648	10939.384505
488.448905	10976.207613
488.817104	10915.270145
489.185244	11186.622854
489.553326	11337.449136
489.921350	11877.129861
490.289315	12938.191922
490.657222	13283.256383
491.025070	13193.964945
491.392861	13065.491139
491.760593	12689.995754
492.128267	12343.262672
492.495883	12008.575427
492.863440	11664.221769
493.230939	11330.555358
493.598380	11268.531522
493.965763	11140.498817
494.333088	11038.866635
494.700354	10959.100457
495.067563	11019.178408
495.434713	10848.832779
495.801805	10977.344393
496.168839	10899.569472
496.535815	10828.131280
496.902733	10837.046561
497.269593	10771.710687
497.636395	10868.054698
498.003139	10855.487102
498.369825	10720.764786
498.736453	10878.852850
499.103023	10806.151850
499.469535	10834.231077
499.835989	10823.465693
500.202385	10790.264653
500.568723	10636.701025
500.935003	10851.184477
501.301226	10665.745633
501.667390	10921.022102
502.033497	11018.467606
502.399546	10878.142047
502.765537	10785.478078
503.131470	10857.889212
503.497345	11035.668022
503.863163	10649.266101
504.228923	10953.421598
504.594625	11021.048676
504.960269	10771.420820
505.325856	10984.553243
505.691385	10785.415063
506.056856	10933.314955
506.422270	10960.088523
506.787625	10846.622233
507.152924	10962.062135
507.518164	10938.456932
507.883347	10860.843328
508.248472	10784.568149
508.613540	11016.773778
508.978550	10896.280119
509.343503	10872.858918
509.708398	10990.784109
510.073236	11103.350554
510.438016	11110.539239
510.802738	11057.123173
511.167403	11108.764753
511.532010	11008.382777
511.896561	11230.304452
512.261053	11301.704834
512.625488	11173.435195
512.989866	11152.446351
513.354186	11143.946966
513.718449	11035.978053
514.082655	11233.916439
514.446803	11129.990532
514.810894	11250.501835
515.174927	11116.699529
515.538904	11139.412448
515.902822	11286.472988
516.266684	11172.910915
516.630488	11105.634197
516.994235	11163.007569
517.357925	11223.710623
517.721558	11314.590024
518.085133	11326.696355
518.448651	11334.580719
518.812112	11220.950591
519.175516	11225.263298
519.538863	11340.657830
519.902152	11249.992678
520.265385	11411.599468
520.628560	11318.418780
520.991678	11287.705550
521.354739	11352.370951
521.717743	11277.706422
522.080690	11260.168247
522.443580	11379.878007
522.806413	11332.884371
523.169189	11358.183402
523.531908	11410.757595
523.894569	11220.350694
524.257174	11226.309338
524.619722	11336.463590
524.982213	11276.357913
525.344647	11318.731332
525.707025	11266.373908
526.069345	11354.500839
526.431608	11254.159192
526.793815	11359.347908
527.155964	11142.124589
527.518057	11194.792044
527.880093	11130.308124
528.242072	11191.159892
528.603995	11092.552403
528.965860	11007.288847
529.327669	11042.087932
529.689421	10985.269087
530.051117	10946.641246
530.412755	11035.869669
530.774337	10919.595455
531.135862	10889.073789
531.497331	10897.641230
531.858743	10739.492672
532.220098	10890.266022
532.581396	10755.284087
532.942638	10723.345857
533.303824	10669.266879
533.664953	10671.429534
534.026025	10576.411345
534.387040	10651.620320
534.747999	10644.018260
535.108902	10679.495380
535.469748	10434.066805
535.830537	10514.722746
536.191270	10476.777981
536.551947	10477.690430
536.912567	10464.422113
537.273131	10375.556653
537.633638	10330.420682
537.994089	10304.383122
538.354483	10232.617256
538.714821	10350.681079
539.075103	10337.821096
539.435328	10284.175657
539.795497	10107.914233
540.155609	10225.589888
540.515665	10287.321337
540.875665	10020.563640
541.235609	10062.057377
541.595496	10036.730620
541.955328	10146.058124
542.315102	10017.975008
542.674821	9948.800294
543.034483	9925.520246
543.394090	9898.177028
543.753640	9812.474892
544.113134	9976.083019
544.472571	9824.465276
544.831953	9914.422146
545.191278	9714.737001
545.550548	9706.789622
545.909761	9801.225557
546.268918	9740.429241
546.628019	9782.404409
546.987064	9631.678950
547.346053	9540.865084
547.704986	9585.633051
548.063863	9544.174602
548.422684	9505.665227
548.781449	9402.722345
549.140158	9448.183471
549.498811	9312.331936
549.857408	9172.036625
550.215949	9308.528386
550.574434	9152.907966
550.932864	9199.286582
551.291237	9217.669149
551.649555	9117.912276
552.007817	9103.481973
552.366022	9038.859422
552.724173	8990.151794
553.082267	8945.202346
553.440305	8999.044389
553.798288	8824.002925
554.156215	8887.486175
554.514086	8829.628853
554.871902	8675.757714
555.229661	8667.578442
555.587365	8608.365048
555.945014	8501.109459
556.302606	8538.260243
556.660143	8438.873894
557.017625	8492.547059
557.375050	8378.811067
557.732421	8431.115559
558.089735	8324.548087
558.446994	8284.670039
558.804197	8271.487422
559.161345	8225.587716
559.518437	8093.068385
559.875474	8092.859177
560.232455	8075.999038
560.589381	8009.412957
560.946251	7943.136908
561.303065	7994.271852
561.659825	7890.960965
562.016528	7805.218500
562.373177	7699.371913
562.729770	7706.769807
563.086307	7617.070036
563.442789	7632.077551
563.799216	7500.332036
564.155587	7493.612178
564.511904	7410.266781
564.868164	7364.004112
565.224370	7335.713157
565.580520	7230.431180
565.936615	7218.758388
566.292654	7076.239927
566.648638	7121.698532
567.004567	7047.132305
567.360441	6994.880746
567.716260	6902.393217
568.072023	6909.634834
568.427732	6832.762279
568.783385	6753.124651
569.138982	6730.237813
569.494525	6704.129677
569.850013	6597.163954
570.205445	6591.381751
570.560823	6506.271950
570.916145	6413.938176
571.271412	6408.279481
571.626625	6337.206774
571.981782	6290.855885
572.336884	6228.113684
572.691931	6201.390527
573.046923	6114.481035
573.401860	6063.220062
573.756743	5992.419577
574.111570	5965.308252
574.466342	5928.205359
574.821059	5895.694958
575.175722	5813.246887
575.530330	5768.753663
575.884882	5732.376697
576.239380	5653.543133
576.593823	5614.564932
576.948211	5579.092852
577.302544	5500.697869
577.656823	5456.663390
578.011047	5430.081386
578.365216	5377.386205
578.719330	5311.586544
579.073389	5269.364360
579.427394	5221.480960
579.781344	5181.572666
580.135239	5120.506649
580.489080	5093.206280
580.842866	5018.882028
581.196597	4993.678780
581.550273	4974.353517
581.903895	4918.870577
582.257463	4919.054579
582.610975	4838.696067
582.964434	4822.705527
583.317837	4760.835445
583.671186	4733.492227
584.024481	4690.581925
584.377721	4639.958658
584.730906	4603.468266
585.084037	4577.440789
585.437113	4537.666085
585.790135	4507.668699
586.143103	4451.711892
586.496016	4419.869443
586.848874	4401.512082
587.201679	4374.287330
587.554428	4307.224861
587.907124	4293.487716
588.259765	4262.666102
588.612352	4236.568048
588.964884	4186.847148
589.317362	4159.629958
589.669786	4133.025269
590.022155	4126.053353
590.374470	4095.009928
590.726731	4061.904670
591.078937	3995.550483
591.431090	3994.751460
591.783188	3947.636836
592.135232	3911.960590
592.487222	3896.643044
592.839157	3880.652504
593.191038	3843.685723
593.542866	3807.762461
593.894639	3765.396604
594.246358	3754.414450
594.598022	3734.159094
594.949633	3694.144936
595.301190	3669.299609
595.652692	3653.362001
596.004141	3645.207935
596.355535	3590.924790
596.706876	3568.284968
597.058162	3538.017880
597.409395	3527.111344
597.760573	3523.174203
598.111698	3492.846621
598.462768	3469.548929
598.813785	3446.110084
599.164748	3422.918256
599.515657	3408.787902
599.866511	3369.978579
600.217312	3380.585166
600.568060	3343.351204
600.918753	3339.771985
601.269392	3321.989315
601.619978	3290.013276
601.970510	3283.623613
602.320988	3272.190276
602.671412	3261.455139
603.021783	3241.144330
603.372100	3223.512895
603.722363	3207.527396
604.072572	3194.271682
604.422728	3184.811957
604.772830	3160.606857
605.122878	3145.299393
605.472872	3137.016777
605.822813	3122.775517
606.172701	3111.271604
606.522534	3104.765995
606.872314	3094.973554
607.222041	3079.509815
607.571714	3070.687795
607.921333	3060.204716
608.270899	3047.637119
608.620411	3043.021943
608.969870	3031.092053
609.319276	3018.675691
609.668627	3014.867099
610.017926	3007.696058
610.367171	3001.326560
610.716362	2993.172493
611.065500	2982.633961
611.414585	2969.746251
611.763616	2964.763071
612.112594	2951.535083
612.461518	2945.941923
612.810389	2941.208279
613.159207	2927.972730
613.507971	2919.627100
613.856682	2917.502253
614.205340	2910.416912
614.553945	2909.043197
614.902496	2891.356309
615.250994	2892.079715
615.599439	2882.370452
615.947830	2874.851571
616.296169	2868.270345
616.644454	2861.958820
616.992686	2858.309025
617.340864	2855.193592
617.688990	2843.714885
618.037063	2847.468024
618.385082	2837.894872
618.733048	2837.562156
619.080961	2826.048161
619.428821	2823.099086
619.776628	2817.838642
620.124382	2809.026705
620.472083	2802.677372
620.819731	2799.095632
621.167326	2789.446863
621.514868	2786.878396
621.862357	2771.119749
622.209793	2768.594131
622.557176	2762.504417
622.904506	2754.231883
623.251783	2745.301479
623.599007	2738.919378
623.946179	2735.148595
624.293297	2728.201885
624.640363	2722.669219
624.987376	2721.361040
625.334336	2716.098075
625.681243	2708.236396
626.028097	2707.253371
626.374899	2705.216744
626.721647	2697.924715
627.068343	2693.952286
627.414987	2690.234435
627.761577	2687.784434
628.108115	2687.252593
628.454600	2679.953002
628.801032	2677.750018
629.147412	2678.546520
629.493739	2677.334122
629.840014	2673.528051
630.186236	2669.356497
630.532405	2666.730055
630.878521	2663.849036
631.224585	2665.865497
631.570597	2658.606236
631.916556	2657.237563
632.262462	2658.959117
632.608316	2655.906698
632.954117	2649.776655
633.299866	2651.999804
633.645562	2648.130718
633.991206	2646.462096
634.336797	2640.039666
634.682336	2640.810963
635.027823	2639.351549
635.373257	2634.081023
635.718639	2633.161012
636.063968	2630.400980
636.409245	2628.445012
636.754470	2625.251442
637.099642	2628.066926
637.444762	2624.775052
637.789829	2621.863786
638.134845	2618.977726
638.479808	2617.059567
638.824719	2618.690380
639.169577	2618.226594
639.514383	2614.995214
639.859137	2614.997735
640.203839	2612.262909
640.548489	2612.628392
640.893086	2609.490274
641.237632	2608.366097
641.582125	2606.374841
641.926566	2601.787391
642.270955	2607.859461
642.615292	2606.546240
642.959576	2607.143617
643.303809	2608.320726
643.647990	2604.524737
643.992118	2606.150510
644.336195	2606.326950
644.680219	2605.091867
645.024192	2602.263780
645.368112	2604.527258
645.711981	2604.859974
646.055797	2606.299224
646.399562	2602.810745
646.743274	2604.623040
647.086935	2605.704367
647.430544	2605.311157
647.774101	2607.007506
648.117606	2604.791919
648.461059	2605.608586
648.804460	2605.686723
649.147810	2602.019284
649.491108	2603.362752
649.834354	2601.792432
650.177548	2600.196907
650.520690	2598.934098
650.863781	2598.803028
651.206820	2600.358224
651.549807	2595.105342
651.892742	2594.084508
652.235626	2590.812799
652.578458	2591.022007
652.921238	2592.635176
653.263967	2593.643407
653.606644	2591.009404
653.949269	2593.782039
654.291843	2588.798858
654.634365	2591.258941
654.976836	2586.172417
655.319255	2590.401945
655.661622	2590.265834
656.003938	2587.220977
656.346203	2587.165524
656.688416	2588.592171
657.030577	2588.750967
657.372687	2588.060329
657.714746	2585.948086
658.056753	2590.268354
658.398708	2580.128073
658.740612	2586.056470
659.082465	2583.755184
659.424266	2584.932293
659.766016	2580.231417
660.107715	2586.812643
660.449362	2586.522777
660.790958	2585.892633
661.132503	2585.746439
661.473996	2584.949937
661.815438	2582.704103
662.156829	2583.286356
662.498168	2585.590164
662.839456	2581.509350
663.180693	2585.325503
663.521879	2582.734350
663.863013	2581.887436
664.204097	2585.698548
664.545129	2585.075966
664.886110	2583.956830
665.227040	2588.388004
665.567918	2583.908939
665.908746	2586.724423
666.249522	2588.004876
666.590248	2583.273753
666.930922	2585.890112
667.271545	2584.551686
667.612118	2584.954978
667.952639	2583.024216
668.293109	2585.643096
668.633528	2582.268043
668.973896	2585.663260
669.314213	2584.390369
669.654480	2579.916345
669.994695	2582.063877
670.334859	2583.409865
670.674973	2581.748804
671.015035	2582.772159
671.355047	2579.961715
671.695008	2585.144022
672.034918	2583.225863
672.374777	2580.554051
672.714585	2583.805595
673.054342	2581.572364
673.394049	2581.998342
673.733705	2582.441963
674.073310	2578.303176
674.412864	2582.021027
674.752368	2581.156469
675.091820	2582.338619
675.431223	2582.222673
675.770574	2581.970615
676.109875	2576.992476
676.449125	2578.688824
676.788324	2576.495922
677.127473	2576.894173
677.466571	2578.131777
677.805619	2578.749318
678.144616	2576.667321
678.483562	2578.436766
678.822458	2575.898545
679.161303	2578.976170
679.500098	2575.167578
679.838842	2577.731005
680.177535	2580.725450
680.516179	2576.604307
680.854771	2577.226889
681.193314	2581.768969
681.531805	2581.199319
681.870247	2582.086562
682.208638	2581.590008
682.546978	2584.375246
682.885268	2582.275605
683.223508	2581.335430
683.561697	2583.987077
683.899836	2578.721592
684.237925	2580.798547
684.575963	2580.145717
684.913951	2580.720409
685.251889	2579.376942
685.589776	2577.673032
685.927614	2580.211253
686.265401	2581.158989
686.603137	2579.523135
686.940824	2580.982549
687.278460	2582.903229
687.616046	2581.348033
687.953582	2583.354412
688.291068	2583.707293
688.628504	2583.198136
688.965889	2582.368866
689.303224	2579.946592
689.640510	2582.096644
689.977745	2578.046077
690.314930	2580.206211
690.652065	2579.505491
690.989150	2578.353587
691.326185	2576.770665
691.663170	2572.957032
692.000105	2573.534244
692.336990	2573.829152
692.673825	2572.788153
693.010610	2575.074317
693.347345	2571.981569
693.684030	2568.661969
694.020665	2567.071485
694.357251	2568.805642
694.693786	2567.666341
695.030272	2566.698440
695.366707	2567.648697
695.703093	2565.758264
696.039429	2568.079716
696.375716	2569.473595
696.711952	2568.689695
697.048139	2569.634912
697.384276	2568.384706
697.720363	2567.174829
698.056400	2568.377144
698.392388	2567.918399
698.728326	2568.062072
699.064214	2566.184242
699.400053	2566.562328
699.735842	2569.529048
700.071581	2566.968141
700.407270	2565.828841
700.742910	2565.909499
701.078501	2565.526371
701.414042	2562.839436
701.749533	2564.112328
702.084974	2568.263718
702.420366	2564.954200
702.755709	2564.533264
703.091002	2564.190466
703.426246	2564.213151
703.761440	2563.930846
704.096584	2563.681309
704.431679	2562.683161
704.766725	2563.482183
705.101721	2563.857749
705.436668	2561.327090
705.771565	2560.313818
706.106413	2562.105948
706.441212	2562.484035
706.775961	2565.584345
707.110661	2562.337842
707.445311	2565.203737
707.779913	2562.320197
708.114465	2562.786504
708.448967	2563.426731
708.783421	2565.140723
709.117825	2566.257339
709.452180	2564.172822
709.786485	2566.645508
710.120742	2567.003429
710.454949	2569.914696
710.789107	2567.983934
711.123216	2563.933367
711.457275	2567.762123
711.791286	2564.387071
712.125247	2566.527040
712.459159	2567.182390
712.793023	2573.130952
713.126837	2568.551064
713.460602	2570.194480
713.794318	2567.109294
714.127985	2568.777916
714.461602	2567.666341
714.795171	2568.082236
715.128691	2564.245918
715.462162	2567.293296
715.795584	2563.303222
716.128957	2565.884293
716.462281	2563.504869
716.795556	2564.394632
717.128782	2564.674416
717.461960	2563.058727
717.795088	2562.342883
718.128167	2564.971844
718.461198	2563.623336
718.794180	2563.709035
719.127113	2561.513613
719.459997	2561.402707
719.792833	2559.358520
720.125619	2560.001267
720.458357	2559.043448
720.791046	2559.108982
721.123686	2558.554456
721.456278	2562.433623
721.788821	2558.922460
722.121315	2560.099569
722.453761	2558.788869
722.786158	2558.143602
723.118506	2559.106462
723.450805	2557.498334
723.783056	2558.408262
724.115259	2559.729044
724.447412	2558.788869
724.779518	2558.993036
725.111574	2558.597305
725.443582	2560.573438
725.775542	2558.360371
726.107453	2558.788869
726.439315	2558.047820
726.771129	2565.869170
727.102895	2559.726524
727.434612	2562.857080
727.766281	2561.848850
728.097901	2559.028324
728.429473	2558.486400
728.760996	2558.272151
729.092471	2558.239383
729.423897	2561.347255
729.755276	2562.872204
730.086606	2563.464539
730.417887	2560.659137
730.749120	2563.567883
731.080305	2561.639642
731.411442	2563.767009
731.742530	2563.799776
732.073570	2563.840105
732.404562	2563.091494
732.735506	2565.594427
733.066401	2563.338511
733.397249	2563.653583
733.728048	2563.497307
734.058798	2562.940259
734.389501	2560.583520
734.720156	2561.243911
735.050762	2556.865669
735.381320	2556.250648
735.711831	2557.810885
736.042293	2559.229970
736.372707	2559.597974
736.703073	2558.937583
737.033391	2556.764846
737.363661	2559.764332
737.693883	2559.497151
738.024056	2561.944632
738.354182	2558.405742
738.684260	2560.863304
739.014290	2560.175187
739.344272	2558.947666
739.674207	2559.106462
740.004093	2562.680640
740.333931	2558.443550
740.663722	2560.238201
740.993464	2560.780125
741.323159	2561.823644
741.652806	2559.333314
741.982405	2560.981771
742.311956	2557.079918
742.641460	2560.258366
742.970915	2560.180228
743.300323	2557.014383
743.629683	2558.239383
743.958996	2559.855073
744.288260	2557.735268
744.617477	2557.866338
744.946647	2552.482386
745.275768	2555.454146
745.604842	2550.836449
745.933869	2554.478683
746.262847	2551.015410
746.591778	2555.675957
746.920662	2553.926676
747.249498	2556.091852
747.578286	2555.002963
747.907027	2554.718137
748.235720	2556.333827
748.564365	2556.386759
748.892963	2557.490772
749.221514	2557.589075
749.550017	2556.142263
749.878473	2557.052192
750.206881	2555.628066
750.535242	2554.519012
750.863555	2556.190154
751.191821	2555.796944
751.520039	2557.705021
751.848210	2555.325597
752.176334	2553.956923
752.504411	2552.757129
752.832440	2553.200750
753.160421	2553.011707
753.488356	2553.170503
753.816243	2553.510781
754.144082	2553.135215
754.471875	2552.926007
754.799620	2554.637479
755.127318	2551.675801
755.454969	2553.420040
755.782572	2553.972047
756.110129	2552.225287
756.437638	2553.399876
756.765100	2551.683363
757.092515	2555.255020
757.419882	2555.703683
757.747203	2552.598332
758.074477	2554.398024
758.401703	2554.526574
758.728882	2553.984650
759.056014	2552.605894
759.383099	2555.834753
759.710138	2554.708055
760.037129	2553.926676
760.364073	2553.750236
760.690970	2552.769732
761.017820	2554.632438
761.344623	2554.445915
761.671379	2556.164949
761.998088	2552.938610
762.324751	2557.793241
762.651366	2558.803993
762.977935	2572.798236
763.304456	2574.582804
763.630931	2581.615214
763.957359	2575.742270
764.283740	2570.433935
764.610074	2564.389591
764.936362	2565.753223
765.262602	2558.814075
765.588796	2560.863304
765.914943	2555.955741
766.241044	2557.001780
766.567097	2554.098076
766.893104	2553.377191
767.219064	2553.909032
767.544978	2550.811243
767.870845	2553.462890
768.196665	2551.564896
768.522438	2551.156562
768.848165	2548.542724
769.173846	2549.603887
769.499479	2550.264278
769.825066	2551.496840
770.150607	2548.956099
770.476101	2548.451983
770.801548	2549.513146
771.126949	2549.694628
771.452303	2547.910059
771.777611	2546.972405
772.102872	2547.620193
772.428087	2546.901828
772.753256	2547.257230
773.078378	2547.297559
773.403453	2545.840666
773.728482	2549.795451
774.053465	2546.617003
774.378401	2545.437373
774.703291	2546.977446
775.028135	2546.433001
775.352932	2545.152548
775.677683	2545.507949
776.002388	2548.913249
776.327046	2548.711603
776.651658	2547.905018
776.976224	2544.582898
777.300743	2545.941489
777.625216	2546.017106
777.949643	2544.877805
778.274024	2546.521221
778.598359	2543.158772
778.922647	2541.699358
779.246889	2541.611137
779.571086	2540.197094
779.895236	2544.550130
780.219339	2544.708927
780.543397	2544.731612
780.867409	2545.901159
781.191374	2546.654812
781.515294	2547.355532
781.839167	2545.767569
782.162995	2546.062476
782.486776	2546.042312
782.810511	2547.307641
783.134201	2543.630120
783.457844	2545.409647
783.781441	2543.345294
784.104993	2546.473330
784.428498	2547.267312
784.751958	2541.343956
785.075372	2545.437373
785.398739	2545.515511
785.722061	2546.458207
786.045337	2545.271015
786.368568	2544.678680
786.691752	2545.311344
787.014891	2546.536345
787.337983	2544.509801
787.661030	2548.169679
787.984031	2549.482899
788.306987	2547.118598
788.629897	2550.085317
788.952760	2548.038609
789.275579	2547.181613
789.598351	2550.997766
789.921078	2549.369473
790.243759	2544.892929
790.566395	2543.168854
790.888984	2546.790923
791.211529	2545.999462
791.534027	2545.094575
791.856480	2544.925696
792.178888	2544.081303
792.501249	2544.645912
792.823566	2544.348484
793.145836	2545.954092
793.468062	2543.156251
793.790241	2543.980480
794.112375	2542.379913
794.434464	2546.405275
794.756507	2545.354194
795.078505	2543.430994
795.400457	2542.407640
795.722364	2539.990407
796.044226	2544.000644
796.366042	2543.607434
796.687812	2544.653474
797.009538	2549.281253
797.331218	2545.727240
797.652852	2545.691952
797.974442	2544.156920
798.295986	2546.586756
798.617484	2543.846889
798.938938	2546.669935
799.260346	2547.085831
799.581709	2545.596170
799.903026	2547.499205
800.224299	2546.364946
800.545526	2543.259595
800.866708	2547.784030
801.187845	2544.255223
801.508936	2545.775131
801.829983	2542.417722
802.150984	2541.066693
802.471940	2544.351005
802.792851	2543.398227
803.113717	2542.364790
803.434538	2543.599873
803.755314	2542.127856
804.076045	2541.036446
804.396731	2543.436035
804.717372	2542.889070
805.037967	2542.160623
805.358518	2544.192208
805.679024	2542.959646
805.999485	2542.442928
806.319901	2545.661705
806.640272	2541.049049
806.960598	2544.645912
807.280879	2542.687424
807.601115	2545.815460
807.921306	2543.269677
808.241453	2541.802701
808.561554	2542.047197
808.881611	2543.219266
809.201623	2545.901159
809.521590	2542.599204
809.841513	2545.190357
810.161390	2542.589121
810.481223	2541.941333
810.801011	2541.880839
811.120755	2540.860006
811.440453	2546.017106
811.760107	2543.877136
812.079716	2542.213555
812.399281	2538.009233
812.718801	2539.733308
813.038276	2541.850592
813.357707	2543.037784
813.677093	2541.835469
813.996434	2543.443597
814.315731	2541.210366
814.634983	2543.269677
814.954191	2543.473844
815.273354	2545.311344
815.592473	2543.874616
815.911547	2543.393185
816.230577	2544.431663
816.549562	2543.773792
816.868502	2545.994421
817.187399	2543.509132
817.506250	2544.161961
817.825058	2542.069882
818.143821	2546.271684
818.462539	2548.411654
818.781213	2546.337219
819.099843	2549.813095
819.418429	2549.606408
819.736970	2553.788045
820.055466	2556.409445
820.373919	2558.025134
820.692327	2561.778273
821.010691	2570.186918
821.329011	2587.646954
821.647286	2622.723303
821.965517	2662.742503
822.283704	2685.273940
822.601847	2693.548994
822.919945	2674.332115
823.237999	2651.936789
823.556010	2630.569859
823.873976	2614.609566
824.191897	2598.432503
824.509775	2587.024372
824.827609	2579.429874
825.145398	2572.405026
825.463144	2575.999368
825.780845	2574.449214
826.098502	2581.678228
826.416116	2589.020669
826.733685	2600.101125
827.051210	2605.235540
827.368692	2602.102463
827.686129	2590.457398
828.003522	2579.129925
828.320872	2564.530743
828.638177	2559.935732
828.955439	2557.115206
829.272656	2551.237221
829.589830	2547.957950
829.906960	2550.294525
830.224046	2547.652960
830.541088	2547.990718
830.858086	2546.347302
831.175041	2548.194884
831.491952	2545.268495
831.808819	2547.070707
832.125642	2546.735470
832.442421	2549.694628
832.759157	2554.539177
833.075849	2561.352296
833.392497	2567.867987
833.709101	2575.522979
834.025662	2576.977352
834.342179	2568.835889
834.658653	2563.083932
834.975083	2559.305588
835.291469	2559.529919
835.607811	2550.347457
835.924110	2548.409133
836.240366	2546.337219
836.556578	2544.164482
836.872746	2544.981149
837.188871	2542.798329
837.504952	2543.436035
837.820990	2542.702547
838.136984	2539.241795
838.452935	2539.057793
838.768842	2547.090872
839.084706	2540.350849
839.400526	2544.406457
839.716303	2550.034906
840.032037	2555.736451
840.347727	2551.852242
840.663373	2552.394166
840.978977	2548.386448
841.294537	2545.102137
841.610054	2542.896632
841.925527	2541.101981
842.240957	2541.749769
842.556344	2540.819676
842.871687	2539.342618
843.186987	2539.647608
843.502244	2539.866898
843.817458	2537.807587
844.132629	2537.484953
844.447756	2541.328833
844.762840	2534.107380
845.077881	2533.746938
845.392879	2536.277597
845.707833	2536.186856
846.022745	2533.613347
846.337613	2537.358924
846.652438	2538.709953
846.967221	2537.399253
847.281960	2535.352545
847.596656	2541.573329
847.911309	2536.779192
848.225919	2536.617875
848.540485	2533.310878
848.855009	2536.345652
849.169490	2535.735673
849.483928	2537.621064
849.798323	2537.999151
850.112675	2536.557381
850.426984	2536.486805
850.741251	2536.388502
851.055474	2537.570653
851.369654	2540.247505
851.683792	2537.152237
851.997887	2534.740045
852.311938	2537.802546
852.625947	2535.919675
852.939914	2536.554860
853.253837	2539.786240
853.567718	2537.366486
853.881555	2535.100487
854.195350	2537.540406
854.509103	2536.955632
854.822812	2532.408511
855.136479	2536.648122
855.450103	2534.908923
855.763685	2537.086702
856.077224	2537.893287
856.390720	2540.444110
856.704173	2540.192053
857.017584	2536.854809
857.330953	2537.127031
857.644278	2538.843544
857.957561	2539.093081
858.270802	2538.372196
858.584000	2537.195087
858.897155	2538.576363
859.210268	2537.217772
859.523339	2537.618544
859.836367	2536.103677
860.149352	2534.366999
860.462295	2538.805735
860.775195	2535.450848
861.088054	2533.988913
861.400869	2534.477905
861.713642	2534.092257
862.026373	2536.259953
862.339062	2537.137113
862.651708	2538.276414
862.964312	2534.329191
863.276873	2540.282793
863.589392	2536.698533
863.901869	2537.827752
864.214303	2535.070240
864.526696	2536.126362
864.839045	2535.851619
865.151353	2539.607279
865.463619	2537.495035
865.775842	2538.893956
866.088023	2537.651311
866.400162	2538.226003
866.712258	2539.660211
867.024313	2537.926054
867.336325	2536.338091
867.648296	2540.542413
867.960224	2538.810777
868.272110	2539.786240
868.583954	2541.379244
868.895755	2539.569470
869.207515	2536.973276
869.519233	2538.382278
869.830909	2539.264480
870.142542	2539.582073
870.454134	2538.619213
870.765684	2535.614685
871.077191	2538.830941
871.388657	2539.433359
871.700081	2539.945036
872.011463	2539.667773
872.322803	2536.867412
872.634101	2536.242309
872.945357	2538.820859
873.256571	2539.698020
873.567744	2537.928575
873.878874	2536.640560
874.189963	2540.431507
874.501010	2540.560057
874.812015	2539.377906
875.122979	2540.650798
875.433900	2540.570139
875.744780	2541.480067
876.055618	2542.546272
876.366415	2539.130890
876.677169	2540.532331
876.987882	2538.556198
877.298554	2536.103677
877.609183	2537.913451
877.919771	2536.270035
878.230317	2540.577701
878.540822	2542.768082
878.851285	2544.557692
879.161707	2548.192364
879.472087	2550.327293
879.782425	2551.721172
880.092722	2562.350444
880.402977	2571.187587
880.713191	2588.151070
881.023363	2610.135542
881.333494	2623.517285
881.643583	2626.950310
881.953631	2626.105917
882.263637	2620.185082
882.573602	2613.177878
882.883526	2604.431476
883.193408	2593.131730
883.503248	2582.169741
883.813048	2576.561457
884.122806	2573.395612
884.432522	2568.067113
884.742197	2562.214333
885.051831	2556.875751
885.361424	2551.015410
885.670975	2551.504402
885.980485	2551.022972
886.289954	2548.638506
886.599382	2546.987528
886.908768	2549.041798
887.218113	2543.332692
887.527417	2546.622044
887.836680	2545.056766
888.145901	2543.027702
888.455082	2542.977290
888.764221	2541.059131
889.073319	2543.746066
889.382376	2539.259439
889.691392	2541.051569
890.000366	2542.286652
890.309300	2542.969728
890.618193	2541.515356
890.927044	2542.102650
891.235855	2542.644574
891.544625	2542.021992
891.853353	2541.260777
892.162041	2542.256405
892.470687	2545.185316
892.779293	2543.609955
893.087858	2540.113915
893.396381	2545.076931
893.704864	2547.441232
894.013306	2550.523897
894.321707	2559.265258
894.630068	2565.773388
894.938387	2571.646332
895.246665	2568.886300
895.554903	2564.883624
895.863100	2557.732748
896.171256	2557.047151
896.479371	2555.600339
896.787446	2552.429454
897.095480	2546.291849
897.403473	2549.291335
897.711425	2543.854451
898.019336	2545.341591
898.327207	2546.158258
898.635038	2544.290511
898.942827	2546.246478
899.250576	2542.417722
899.558284	2541.119625
899.865952	2540.766744
900.173579	2541.091899
900.481165	2541.336395
900.788711	2540.388658
901.096216	2541.212886
901.403681	2541.832948
901.711105	2541.139790
902.018489	2539.725746
902.325832	2544.454348
902.633135	2541.255736
902.940397	2543.017619
903.247619	2544.600542
903.554800	2552.437015
903.861941	2561.795917
904.169041	2574.368555
904.476101	2581.524473
904.783121	2581.063208
905.090100	2577.221848
905.397039	2569.362689
905.703938	2561.654765
906.010796	2558.002449
906.317614	2548.600697
906.624391	2549.548434
906.931129	2546.543907
907.237826	2542.349667
907.544483	2540.615510
907.851099	2537.096784
908.157675	2540.239944
908.464211	2537.137113
908.770707	2533.351207
909.077163	2535.836496
909.383578	2534.792977
909.689954	2533.734335
909.996289	2531.617050
910.302584	2536.058307
910.608839	2535.871784
910.915054	2542.485778
911.221229	2536.653163
911.527363	2536.880015
911.833458	2537.449665
912.139513	2534.180477
912.445527	2540.081147
912.751502	2536.726259
913.057436	2539.065355
913.363331	2538.984696
913.669186	2539.012423
913.975000	2540.892773
914.280775	2542.989893
914.586510	2545.591128
914.892205	2551.522046
915.197859	2552.920966
915.503475	2564.384550
915.809050	2569.599624
916.114585	2576.720253
916.420081	2577.194122
916.725536	2575.596076
917.030952	2572.490725
917.336328	2566.758933
917.641665	2565.226423
917.946961	2560.664178
918.252218	2553.026830
918.557435	2554.090514
918.862612	2549.616490
919.167750	2546.942158
919.472848	2541.994265
919.777906	2542.016950
920.082925	2545.160110
920.387904	2541.283462
920.692843	2539.821528
920.997743	2540.774306
921.302603	2540.323123
921.607423	2540.013092
921.912204	2540.847403
922.216946	2538.644418
922.521647	2539.597197
922.826310	2535.670138
923.130932	2538.125180
923.435516	2538.440252
923.740059	2539.203987
924.044564	2536.416228
924.349028	2536.229706
924.653454	2531.329704
924.957840	2533.371372
925.262186	2531.249046
925.566493	2534.099818
925.870761	2530.301309
926.174989	2533.878008
926.479178	2533.802390
926.783328	2532.577390
927.087438	2531.632173
927.391509	2533.469674
927.695541	2533.210055
927.999533	2532.784077
928.303486	2530.684437
928.607400	2531.347348
928.911275	2531.864067
929.215110	2531.473377
929.518906	2530.230733
929.822663	2532.660569
930.126381	2530.933974
930.430060	2531.869108
930.733699	2532.660569
931.037299	2532.733666
931.340861	2531.758202
931.644383	2534.843388
931.947866	2533.089067
932.251309	2533.419262
932.554714	2534.586290
932.858080	2536.590148
933.161407	2533.845240
933.464694	2534.069571
933.767943	2532.204344
934.071153	2531.985054
934.374323	2533.832637
934.677455	2534.210724
934.980548	2532.804242
935.283602	2534.029242
935.586617	2531.594365
935.889593	2532.405991
936.192530	2533.005888
936.495428	2532.998326
936.798287	2534.243491
937.101108	2532.322812
937.403890	2532.045548
937.706632	2534.490508
938.009336	2533.991433
938.312002	2532.736186
938.614628	2534.921526
938.917216	2534.755168
939.219765	2534.752648
939.522275	2536.433873
939.824747	2535.435724
940.127179	2530.691998
940.429573	2531.072605
940.731929	2533.104190
941.034246	2531.198634
941.336524	2531.354910
941.638763	2532.869777
941.940964	2531.697708
942.243126	2536.149047
942.545250	2534.611495
942.847335	2533.240302
943.149381	2534.074613
943.451389	2531.831299
943.753359	2533.303316
944.055290	2533.714170
944.357182	2534.707277
944.659036	2530.321473
944.960851	2534.646783
945.262628	2532.829447
945.564367	2534.820703
945.866067	2531.601927
946.167729	2535.297092
946.469352	2530.210568
946.770937	2531.478418
947.072484	2532.678213
947.373992	2532.209386
947.675462	2528.670496
947.976893	2531.198634
948.278286	2530.777698
948.579641	2532.816845
948.880958	2533.331042
949.182236	2532.506814
949.483476	2533.073943
949.784678	2533.086546
950.085841	2531.186031
950.386967	2535.949922
950.688054	2532.738707
950.989103	2533.202493
951.290114	2533.636032
951.591087	2532.277441
951.892021	2529.814838
952.192917	2533.237781
952.493776	2533.653676
952.794596	2533.136958
953.095378	2532.249715
953.396122	2532.900024
953.696828	2532.158974
953.997496	2533.968748
954.298126	2531.304498
954.598718	2531.327184
954.899272	2534.379602
955.199788	2532.224509
955.500266	2533.008408
955.800706	2529.504807
956.101108	2527.795855
956.401472	2529.930784
956.701798	2525.965917
957.002087	2529.698891
957.302337	2528.582275
957.602550	2531.596885
957.902724	2527.558921
958.202861	2530.853315
958.502960	2526.470032
958.803022	2530.165198
959.103045	2530.608819
959.403031	2530.996988
959.702979	2528.637728
960.002889	2533.661238
960.302762	2528.350382
960.602596	2531.727955
960.902393	2529.971113
961.202153	2529.111597
961.501875	2529.759385
961.801559	2527.732841
962.101205	2528.574714
962.400814	2529.651000
962.700385	2527.228726
962.999918	2530.863397
963.299414	2530.507996
963.598873	2530.722245
963.898293	2528.826771
964.197677	2529.812317
964.497022	2529.199817
964.796331	2527.248890
965.095601	2529.887934
965.394835	2531.092770
965.694030	2530.450023
965.993189	2529.968593
966.292309	2527.316946
966.591393	2529.441792
966.890439	2528.733510
967.189447	2528.068078
967.488419	2528.415917
967.787353	2529.968593
968.086249	2527.763088
968.385108	2528.521782
968.683930	2528.665454
968.982714	2530.868439
969.281462	2526.273427
969.580172	2531.274252
969.878844	2528.799045
970.177480	2533.779705
970.476078	2528.824251
970.774639	2528.693181
971.073162	2528.400794
971.371649	2527.679909
971.670098	2522.200175
971.968510	2528.635208
972.266885	2523.188241
972.565223	2528.688140
972.863524	2528.909950
973.161788	2531.662420
973.460014	2526.157480
973.758204	2530.704601
974.056356	2528.705784
974.354471	2528.562111
974.652550	2529.608150
974.950591	2529.232584
975.248595	2529.875331
975.546563	2528.471370
975.844493	2527.810979
976.142386	2527.248890
976.440243	2528.801566
976.738062	2527.377440
977.035845	2529.489683
977.333590	2527.684950
977.631299	2530.507996
977.928971	2529.151926
978.226606	2530.850795
978.524204	2529.245187
978.821765	2528.057995
979.119290	2527.518592
979.416777	2528.509179
979.714228	2527.755526
980.011642	2523.757891
980.309020	2530.951618
980.606360	2526.855680
980.903664	2528.597399
981.200931	2528.110927
981.498162	2529.628315
981.795356	2529.512368
982.092513	2529.436751
982.389633	2529.570342
982.686717	2530.860877
982.983764	2531.654859
983.280775	2533.068902
983.577749	2530.833151
983.874686	2531.574200
984.171587	2529.378778
984.468451	2529.842564
984.765279	2529.731658
985.062070	2529.613191
985.358824	2531.954807
985.655543	2526.399456
985.952224	2529.207378
986.248869	2528.073119
986.545478	2524.176307
986.842050	2524.864424
987.138586	2523.331914
987.435086	2524.312418
987.731549	2522.384177
988.027975	2527.760567
988.324366	2527.228726
988.620719	2525.577748
988.917037	2528.675537
989.213318	2526.381812
989.509563	2529.419107
989.805772	2526.656555
990.101944	2526.220495
990.398080	2524.957686
990.694180	2525.688653
990.990244	2525.504651
991.286271	2526.341482
991.582262	2528.005063
991.878217	2526.011287
992.174136	2529.086391
992.470019	2526.396935
992.765865	2526.656555
993.061676	2526.898530
993.357450	2527.218643
993.653188	2526.870804
993.948890	2530.921371
994.244556	2528.057995
994.540186	2529.764426
994.835780	2524.919877
995.131337	2528.050434
995.426859	2528.519261
995.722345	2527.437933
996.017795	2527.115300
996.313208	2528.806607
996.608586	2528.728469
996.903928	2526.419620
997.199234	2528.088242
997.494504	2528.390712
997.789738	2526.855680
998.084936	2526.457429
998.380099	2528.146216
998.675225	2526.976668
998.970316	2530.139992
999.265371	2527.266534
999.560390	2528.375588
999.855373	2526.510361
1000.150320	2527.969775
1000.445232	2527.926925
1000.740108	2530.011443
1001.034948	2527.800897
1001.329752	2528.252080
1001.624521	2526.759898
1001.919254	2520.047602
1002.213951	2526.321318
1002.508613	2524.803931
1002.803239	2525.865093
1003.097829	2521.121368
1003.392384	2527.014477
1003.686903	2527.258973
1003.981386	2528.597399
1004.275834	2529.890455
1004.570246	2528.045393
1004.864623	2526.775022
1005.158964	2528.799045
1005.453270	2528.685619
1005.747540	2524.209074
1006.041775	2527.692512
1006.335974	2527.281658
1006.630138	2527.067409
1006.924266	2529.096473
1007.218359	2528.085722
1007.512416	2526.467511
1007.806438	2526.260824
1008.100425	2525.844929
1008.394376	2525.280320
1008.688292	2527.926925
1008.982172	2523.873838
1009.276017	2527.367357
1009.569827	2529.608150
1009.863602	2527.581606
1010.157341	2526.830474
1010.451045	2526.732172
1010.744714	2525.822244
1011.038347	2526.575896
1011.331945	2527.188396
1011.625508	2529.008253
1011.919036	2526.323838
1012.212528	2527.034641
1012.505986	2528.846936
1012.799408	2527.349713
1013.092795	2528.063037
1013.386147	2528.055475
1013.679464	2526.533046
1013.972745	2525.255114
1014.265992	2528.221833
1014.559204	2528.332738
1014.852380	2530.656710
1015.145521	2523.372243
1015.438628	2525.003056
1015.731699	2528.158818
1016.024736	2526.422141
1016.317737	2525.182017
1016.610703	2526.835516
1016.903635	2521.784279
1017.196531	2522.341327
1017.489393	2523.755371
1017.782219	2523.962058
1018.075011	2526.096987
1018.367768	2522.734537
1018.660490	2525.827285
1018.953177	2525.827285
1019.245829	2525.827285
