Dividing Wavelength (nm)	Counts (n)	Blue Motor Position (mm): 0.000000	Red Motor Position (mm): 43.300000	
326.493990	2128.299537
326.888308	2128.299537
327.282561	2128.299537
327.676750	2098.271904
328.070874	2095.874835
328.464933	2098.355083
328.858929	2104.134766
329.252859	2113.733123
329.646726	2125.700822
330.040528	2139.619448
330.434265	2155.224339
330.827938	2173.435508
331.221547	2190.285564
331.615091	2212.285160
332.008571	2229.770402
332.401986	2250.487023
332.795338	2269.640888
333.188625	2289.351799
333.581847	2306.390899
333.975006	2324.024855
334.368100	2342.472958
334.761129	2359.590196
335.154095	2377.947557
335.546996	2397.875238
335.939833	2420.976326
336.332606	2436.729932
336.725315	2449.368104
337.117960	2458.243056
337.510540	2466.137503
337.903056	2481.434884
338.295508	2484.802375
338.687896	2492.386791
339.080220	2503.474809
339.472480	2508.221055
339.864676	2512.937054
340.256807	2518.323527
340.648875	2521.706142
341.040879	2520.324865
341.432818	2522.026255
341.824694	2523.465504
342.216506	2525.484486
342.608253	2524.388035
342.999937	2526.154960
343.391557	2523.273940
343.783113	2525.116482
344.174605	2525.229908
344.566033	2523.364681
344.957397	2522.212778
345.348697	2518.885616
345.739934	2519.172962
346.131106	2515.729854
346.522215	2514.698938
346.913260	2511.525531
347.304241	2511.089472
347.695159	2510.187105
348.086012	2505.692916
348.476802	2506.832217
348.867528	2505.884480
349.258191	2503.341218
349.648789	2501.705364
350.039324	2498.574807
350.429796	2502.242247
350.820203	2498.534478
351.210548	2497.869046
351.600828	2493.634476
351.991045	2499.038593
352.381198	2495.570279
352.771288	2496.018942
353.161314	2495.678664
353.551276	2495.834940
353.941175	2494.647748
354.331010	2495.837461
354.720782	2495.920640
355.110490	2492.394353
355.500135	2494.887203
355.889717	2496.150012
356.279235	2494.756133
356.668689	2498.562204
357.058080	2495.973572
357.447408	2493.694970
357.836672	2492.606081
358.225873	2493.919302
358.615010	2492.603560
359.004084	2498.536998
359.393095	2500.392143
359.782043	2499.146978
360.170927	2499.068840
360.559748	2500.316526
360.948505	2501.889366
361.337199	2500.608913
361.725830	2501.856598
362.114398	2504.871208
362.502903	2505.413132
362.891344	2504.684686
363.279722	2503.547905
363.668037	2505.645025
364.056289	2507.059069
364.444478	2506.872546
364.832603	2507.139728
365.220665	2511.039060
365.608665	2506.592762
365.996601	2509.378000
366.384474	2510.114008
366.772284	2512.196005
367.160031	2513.426046
367.547715	2514.459483
367.935336	2519.724968
368.322893	2520.264372
368.710388	2522.721934
369.097820	2529.988757
369.485189	2532.055630
369.872495	2538.692309
370.259738	2543.557023
370.646918	2552.721841
371.034035	2563.315825
371.421090	2570.998544
371.808081	2581.138825
372.195010	2589.050916
372.581875	2602.737648
372.968678	2617.273816
373.355418	2628.238325
373.742096	2643.956643
374.128710	2658.192861
374.515262	2676.005778
374.901751	2690.521781
375.288177	2702.746579
375.674540	2726.931515
376.060841	2743.315265
376.447079	2762.343100
376.833254	2785.013169
377.219367	2794.992133
377.605417	2834.207268
377.991404	2843.982066
378.377329	2865.038965
378.763191	2882.972870
379.148991	2920.292532
379.534727	2944.414453
379.920402	2973.542240
380.306013	2985.577995
380.691563	3033.428627
381.077049	3057.106927
381.462474	3075.381110
381.847835	3116.252264
382.233134	3135.196921
382.618371	3133.591313
383.003545	3203.534802
383.388657	3211.482181
383.773706	3244.658015
384.158693	3261.918925
384.543618	3285.882050
384.928480	3323.577278
385.313280	3369.560163
385.698017	3366.331304
386.082692	3423.152669
386.467305	3425.234666
386.851856	3456.749439
387.236344	3480.712564
387.620770	3509.391688
388.005133	3537.032335
388.389435	3561.842373
388.773674	3573.268149
389.157851	3618.794809
389.541965	3632.355513
389.926018	3596.848146
390.310008	3670.728776
390.693936	3689.522198
391.077802	3730.852097
391.461606	3722.156107
391.845348	3781.896301
392.229027	3782.362607
392.612645	3791.141777
392.996200	3874.925754
393.379694	3913.931682
393.763125	3975.779077
394.146494	3943.510652
394.529801	4006.489787
394.913047	4053.274215
395.296230	4023.934700
395.679351	4074.910847
396.062410	4096.718879
396.445408	4082.475099
396.828343	4114.546919
397.211217	4138.620950
397.594028	4058.829567
397.976778	4122.103609
398.359466	4153.348681
398.742092	4175.073533
399.124656	4102.470835
399.507158	4185.423022
399.889598	4208.816496
400.271977	4269.423768
400.654294	4238.022421
401.036549	4248.727311
401.418742	4219.339905
401.800874	4319.326150
402.182944	4341.981096
402.564952	4403.074839
402.946898	4392.611924
403.328783	4390.645874
403.710606	4300.041216
404.092367	4497.180579
404.474067	4458.804795
404.855705	4468.854335
405.237282	4392.067480
405.618797	4503.514788
406.000250	4540.262279
406.381642	4620.388899
406.762972	4584.548816
407.144240	4593.811936
407.525447	4594.343778
407.906593	4649.756141
408.287677	4698.060477
408.668700	4625.087255
409.049661	4674.833361
409.430560	4716.871543
409.811399	4640.634173
410.192176	4803.710459
410.572891	4739.534050
410.953545	4844.624463
411.334138	4726.336309
411.714669	4794.341474
412.095139	4684.514897
412.475547	4830.176517
412.855894	4811.168846
413.236180	4825.770548
413.616405	4770.302732
413.996568	4863.816136
414.376670	4802.193072
414.756711	4759.013068
415.136691	4789.602790
415.516609	4868.002814
415.896466	4901.319800
416.276262	4941.767498
416.655997	4919.709929
417.035670	5101.025110
417.415283	5191.831414
417.794834	5137.840656
418.174324	5090.657977
418.553753	4999.211446
418.933121	5184.325136
419.312428	5251.773254
419.691674	5189.613306
420.070859	5312.559487
420.449983	5224.674531
420.829045	5342.713149
421.208047	5250.049179
421.586988	5322.281352
421.965867	5334.453218
422.344686	5466.297035
422.723444	5322.208255
423.102141	5137.079442
423.480777	5437.779228
423.859352	5207.176686
424.237866	5467.771573
424.616319	5456.648267
424.994712	5568.584567
425.373044	5444.950269
425.751314	5586.125262
426.129524	5389.225355
426.507673	5580.862297
426.885762	5668.044012
427.263789	5594.445687
427.641756	5478.040403
428.019662	5601.304176
428.397508	5610.640393
428.775292	5558.010747
429.153016	5654.163195
429.530679	5580.476649
429.908282	5665.299104
430.285824	5532.719278
430.663305	5815.069264
431.040726	5543.976175
431.418086	5547.071443
431.795385	5653.331405
432.172624	5661.939175
432.549802	5656.771992
432.926920	5670.128529
433.303977	5679.492472
433.680974	5714.798193
434.057910	5734.050360
434.434786	5742.398511
434.811601	5707.380136
435.188355	5945.214212
435.565050	5819.079502
435.941683	5801.921935
436.318257	6015.230798
436.694770	5995.739177
437.071222	6030.679414
437.447614	5962.921265
437.823946	5873.944900
438.200218	6031.385176
438.576429	5895.258898
438.952580	5989.170553
439.328670	6033.341143
439.704700	5946.872752
440.080670	5930.657881
440.456580	6205.030240
440.832429	6085.171767
441.208218	5936.246000
441.583947	6091.735349
441.959616	6088.093115
442.335224	6021.280183
442.710773	6157.015771
443.086261	6186.113311
443.461689	5978.546322
443.837057	6129.216328
444.212365	6281.005470
444.587612	6171.849366
444.962800	6326.907696
445.337927	6312.583258
445.712995	5917.051806
446.088002	6492.552450
446.462949	6325.619682
446.837837	6254.756182
447.212664	6427.521565
447.587431	6571.713689
447.962139	7113.937676
448.336786	8043.039974
448.711374	7788.867517
449.085901	6860.501228
449.460369	6773.337158
449.834776	6712.840791
450.209124	7099.832527
450.583412	7255.571414
450.957640	7403.289824
451.331808	7163.056158
451.705917	6714.272478
452.079965	6642.509133
452.453954	6848.399938
452.827883	6728.191104
453.201752	6823.446227
453.575562	6623.768643
453.949311	6823.799108
454.323001	6709.117899
454.696632	6789.557070
455.070202	6925.902638
455.443713	7078.606749
455.817164	7182.010897
456.190556	7264.683299
456.563888	7336.345822
456.937160	7384.027576
457.310373	7042.565020
457.683526	7059.382309
458.056619	6954.067564
458.429653	6941.499967
458.802628	6877.603343
459.175542	6986.512430
459.548398	7341.853283
459.921194	7506.474682
460.293930	7506.031060
460.666607	8035.460599
461.039224	8343.457455
461.411782	8476.135583
461.784280	8489.623190
462.156719	8385.851038
462.529099	8262.249508
462.901419	7844.660488
463.273680	7744.976712
463.645882	7759.492714
464.018024	7618.353009
464.390106	7782.160262
464.762130	8175.723143
465.134094	8643.680852
465.505999	9662.606429
465.877845	10891.652339
466.249631	11537.104034
466.621358	11155.962556
466.993026	10529.967195
467.364634	10271.260221
467.736184	9906.825127
468.107674	9573.103263
468.479105	9603.995454
468.850477	9368.762612
469.221790	9143.791040
469.593043	8810.590935
469.964238	8673.138834
470.335373	8689.313376
470.706449	8745.726408
471.077467	8722.590033
471.448425	10037.272544
471.819324	11108.946235
472.190164	11138.862962
472.560945	9889.050018
472.931667	9099.159184
473.302330	8961.142474
473.672934	8608.138197
474.043479	8966.465932
474.413965	8905.946881
474.784393	8786.287532
475.154761	8945.630844
475.525070	9027.053040
475.895321	8852.976957
476.265513	9030.382722
476.635645	9205.976193
477.005719	9205.887973
477.375734	9321.227052
477.745691	9555.318072
478.115588	9681.178040
478.485427	9927.884547
478.855207	10463.323141
479.224928	11288.063472
479.594591	11910.693863
479.964194	11723.760317
480.333739	11665.857624
480.703226	11578.479304
481.072653	11672.393480
481.442022	11916.297106
481.811333	12095.381575
482.180584	11907.860735
482.549777	11610.528440
482.918912	11428.900708
483.287988	11455.422218
483.657005	11474.208078
484.025964	11156.259984
484.394864	11283.841506
484.763706	11256.974676
485.132489	11008.655000
485.501213	10979.749023
485.869879	11052.523120
486.238487	10893.005889
486.607036	11002.605615
486.975527	10782.864239
487.343959	10968.247631
487.712333	11023.594459
488.080648	10941.670668
488.448905	10990.950467
488.817104	10933.282188
489.185244	11193.133504
489.553326	11352.804490
489.921350	11886.201417
490.289315	12952.644910
490.657222	13294.649390
491.025070	13214.381618
491.392861	13079.389600
491.760593	12705.126777
492.128267	12346.189062
492.495883	12017.359637
492.863440	11690.269411
493.230939	11349.986485
493.598380	11284.365786
493.965763	11152.834520
494.333088	11056.122504
494.700354	10973.689557
495.067563	11032.124091
495.434713	10861.097906
495.801805	10988.815539
496.168839	10910.871738
496.535815	10844.325987
496.902733	10852.394354
497.269593	10784.994127
497.636395	10883.916689
498.003139	10865.244255
498.369825	10729.337268
498.736453	10899.834132
499.103023	10817.078551
499.469535	10849.409991
499.835989	10841.792807
500.202385	10797.072732
500.568723	10647.153857
500.935003	10873.504186
501.301226	10683.460247
501.667390	10938.976171
502.033497	11035.894874
502.399546	10900.527291
502.765537	10801.443412
503.131470	10877.035514
503.497345	11055.399099
503.863163	10666.095993
504.228923	10971.574793
504.594625	11038.629700
504.960269	10785.823397
505.325856	11014.089363
505.691385	10806.456839
506.056856	10959.448297
506.422270	10983.466874
506.787625	10871.023938
507.152924	10990.544654
507.518164	10962.682197
507.883347	10885.008099
508.248472	10806.603033
508.613540	11041.190607
508.978550	10924.641650
509.343503	10897.764738
509.708398	11010.928560
510.073236	11124.520880
510.438016	11134.567899
510.802738	11086.762637
511.167403	11132.967333
511.532010	11031.186437
511.896561	11267.319124
512.261053	11341.787049
512.625488	11204.975174
512.989866	11185.155878
513.354186	11176.104486
513.718449	11074.016080
514.082655	11266.240317
514.446803	11169.182982
514.810894	11289.422063
515.174927	11154.160344
515.538904	11173.808241
515.902822	11332.977632
516.266684	11208.819054
516.630488	11158.354584
516.994235	11217.515045
517.357925	11271.886409
517.721558	11364.474762
518.085133	11386.386137
518.448651	11397.559854
518.812112	11275.831112
519.175516	11290.765531
519.538863	11408.789024
519.902152	11328.518732
520.265385	11493.024185
520.628560	11403.049671
520.991678	11377.155784
521.354739	11437.359764
521.717743	11374.254600
522.080690	11350.946825
522.443580	11481.258132
522.806413	11438.597367
523.169189	11474.497944
523.531908	11525.930316
523.894569	11345.978768
524.257174	11346.046824
524.619722	11472.751184
524.982213	11423.264698
525.344647	11474.858387
525.707025	11416.335632
526.069345	11512.818275
526.431608	11434.645102
526.793815	11541.439426
527.155964	11330.482261
527.518057	11379.953624
527.880093	11325.120994
528.242072	11397.375852
528.603995	11306.559466
528.965860	11231.196736
529.327669	11280.136258
529.689421	11222.213400
530.051117	11196.034688
530.412755	11308.442337
530.774337	11190.547392
531.135862	11169.908908
531.497331	11193.884636
531.858743	11053.433049
532.220098	11213.146885
532.581396	11080.128479
532.942638	11062.529811
533.303824	11027.166117
533.664953	11047.693695
534.026025	10956.542072
534.387040	11055.013450
534.747999	11057.385313
535.108902	11118.201793
535.469748	10872.987467
535.830537	10973.671913
536.191270	10950.427152
536.551947	10979.819600
536.912567	10972.855246
537.273131	10899.929914
537.633638	10875.107272
537.994089	10867.427075
538.354483	10818.684158
538.714821	10962.329316
539.075103	10968.585388
539.435328	10936.352251
539.795497	10758.598645
540.155609	10920.031515
540.515665	11005.325318
540.875665	10742.857642
541.235609	10811.891203
541.595496	10806.988681
541.955328	10959.229007
542.315102	10846.183652
542.674821	10796.082145
543.034483	10792.782710
543.394090	10802.769235
543.753640	10725.357277
544.113134	10952.022677
544.472571	10797.395365
544.831953	10950.364138
545.191278	10753.002965
545.550548	10785.596545
545.909761	10915.859960
546.268918	10890.749973
546.628019	10975.953035
546.987064	10838.352220
547.346053	10757.749211
547.704986	10864.979594
548.063863	10847.718684
548.422684	10839.267189
548.781449	10758.928841
549.140158	10859.262926
549.498811	10737.297250
549.857408	10593.042112
550.215949	10812.032356
550.574434	10669.251755
550.932864	10774.011973
551.291237	10828.620272
551.649555	10771.214133
552.007817	10786.002358
552.366022	10748.097922
552.724173	10744.770760
553.082267	10725.165713
553.440305	10862.191836
553.798288	10664.936527
554.156215	10817.179374
554.514086	10794.559716
554.871902	10644.446758
555.229661	10687.694817
555.587365	10663.898050
555.945014	10554.154651
556.302606	10683.593838
556.660143	10573.099307
557.017625	10736.341951
557.375050	10625.484457
557.732421	10757.083779
558.089735	10672.410038
558.446994	10673.640080
558.804197	10706.959586
559.161345	10709.444875
559.518437	10562.951465
559.875474	10654.380351
560.232455	10684.372696
560.589381	10626.724581
560.946251	10626.701896
561.303065	10738.471839
561.659825	10664.266054
562.016528	10600.011507
562.373177	10480.271500
562.729770	10599.492268
563.086307	10513.439772
563.442789	10607.505182
563.799216	10475.704215
564.155587	10524.646257
564.511904	10488.284414
564.868164	10478.381068
565.224370	10492.017389
565.580520	10405.241487
565.936615	10415.679196
566.292654	10284.566346
566.648638	10421.174054
567.004567	10375.095387
567.360441	10358.159631
567.716260	10269.571434
568.072023	10368.768739
568.427732	10307.987547
568.783385	10221.340195
569.138982	10289.179002
569.494525	10312.814452
569.850013	10184.227220
570.205445	10267.809551
570.560823	10162.215022
570.916145	10086.859854
571.271412	10156.190843
571.626625	10098.981309
571.981782	10080.679400
572.336884	10045.610613
572.691931	10057.429598
573.046923	10001.354323
573.401860	9955.547879
573.756743	9892.704855
574.111570	9933.767574
574.466342	9921.850286
574.821059	9957.219021
575.175722	9840.097894
575.530330	9848.655253
575.884882	9839.606382
576.239380	9771.417214
576.593823	9745.465354
576.948211	9760.213250
577.302544	9644.843923
577.656823	9661.426799
578.011047	9657.721551
578.365216	9628.805492
578.719330	9557.279081
579.073389	9568.672089
579.427394	9513.143779
579.781344	9497.604422
580.135239	9440.460423
580.489080	9449.186660
580.842866	9352.522535
581.196597	9349.593625
581.550273	9391.790603
581.903895	9360.182568
582.257463	9430.050440
582.610975	9307.520155
582.964434	9334.744906
583.317837	9257.607691
583.671186	9243.578159
584.024481	9234.758661
584.377721	9153.160024
584.730906	9131.551118
585.084037	9160.976333
585.437113	9093.019059
585.790135	9117.234241
586.143103	9015.975104
586.496016	8995.891147
586.848874	9049.871823
587.201679	9039.426552
587.554428	8922.134026
587.907124	8965.520716
588.259765	8933.958052
588.612352	8943.921892
588.964884	8817.038571
589.317362	8834.034821
589.669786	8835.370727
590.022155	8884.947954
590.374470	8903.481756
590.726731	8827.877052
591.078937	8684.819188
591.431090	8798.517372
591.783188	8669.922578
592.135232	8664.906630
592.487222	8665.912340
592.839157	8711.623003
593.191038	8649.127818
593.542866	8592.707225
593.894639	8494.402204
594.246358	8550.633755
594.598022	8558.071977
594.949633	8459.882903
595.301190	8430.649252
595.652692	8466.151578
596.004141	8572.363648
596.355535	8349.501798
596.706876	8323.887696
597.058162	8258.748426
597.409395	8334.393460
597.760573	8398.325373
598.111698	8309.822877
598.462768	8299.264180
598.813785	8260.696832
599.164748	8231.868994
599.515657	8218.225111
599.866511	8127.776729
600.217312	8253.450174
600.568060	8114.705017
600.918753	8217.509267
601.269392	8185.752519
601.619978	8094.759692
601.970510	8160.408118
602.320988	8154.804875
602.671412	8214.608083
603.021783	8152.851428
603.372100	8123.809341
603.722363	8120.746840
604.072572	8102.550795
604.422728	8111.229141
604.772830	8045.222793
605.122878	8051.398207
605.472872	8046.825880
605.822813	8074.524500
606.172701	8019.006273
606.522534	8093.446471
606.872314	8088.377591
607.222041	8059.567397
607.571714	8115.803988
607.921333	8071.824962
608.270899	8081.851817
608.620411	8170.344232
608.969870	8078.953154
609.319276	8067.502173
609.668627	8083.717044
610.017926	8118.773228
610.367171	8165.474477
610.716362	8142.310375
611.065500	8128.248077
611.414585	8156.738158
611.763616	8149.781365
612.112594	8124.557952
612.461518	8134.725959
612.810389	8201.483439
613.159207	8137.085219
613.507971	8088.100327
613.856682	8206.532155
614.205340	8163.861308
614.553945	8237.406702
614.902496	8134.673027
615.250994	8190.186213
615.599439	8172.136362
615.947830	8180.681118
616.296169	8150.436715
616.644454	8168.075713
616.992686	8161.872573
617.340864	8218.457004
617.688990	8126.138354
618.037063	8216.856438
618.385082	8168.030342
618.733048	8246.095130
619.080961	8179.599790
619.428821	8200.238274
619.776628	8205.561733
620.124382	8155.067015
620.472083	8137.259139
620.819731	8160.468612
621.167326	8060.527737
621.514868	8063.963283
621.862357	7953.425902
622.209793	7971.019529
622.557176	7901.078561
622.904506	7871.181998
623.251783	7806.929972
623.599007	7756.704956
623.946179	7759.006243
624.293297	7717.414203
624.640363	7636.808673
624.987376	7613.624407
625.334336	7569.191677
625.681243	7510.008531
626.028097	7500.510997
626.374899	7471.577294
626.721647	7468.416491
627.068343	7398.377220
627.414987	7368.284052
627.761577	7319.601629
628.108115	7352.371650
628.454600	7247.727378
628.801032	7297.087836
629.147412	7257.177021
629.493739	7242.920638
629.840014	7181.625249
630.186236	7236.021819
630.532405	7113.771318
630.878521	7161.826117
631.224585	7120.579396
631.570597	7039.774741
631.916556	7070.702220
632.262462	7060.819038
632.608316	7023.678337
632.954117	6994.250601
633.299866	6987.452605
633.645562	6972.555996
633.991206	6897.611682
634.336797	6836.835531
634.682336	6793.368182
635.027823	6759.133707
635.373257	6748.234732
635.718639	6679.796027
636.063968	6694.402771
636.409245	6587.018632
636.754470	6580.754998
637.099642	6542.951386
637.444762	6479.400080
637.789829	6490.316698
638.134845	6429.729591
638.479808	6413.413896
638.824719	6412.851808
639.169577	6342.575602
639.514383	6361.038828
639.859137	6285.802128
640.203839	6292.816893
640.548489	6279.455315
640.893086	6253.311891
641.237632	6224.655452
641.582125	6241.714717
641.926566	6205.693152
642.270955	6216.458536
642.615292	6204.049736
642.959576	6221.708898
643.303809	6211.130037
643.647990	6212.246652
643.992118	6198.365835
644.336195	6142.305684
644.680219	6159.276728
645.024192	6155.798332
645.368112	6234.359673
645.711981	6249.163022
646.055797	6322.526934
646.399562	6274.388956
646.743274	6388.218209
647.086935	6436.315858
647.430544	6418.802890
647.774101	6435.559685
648.117606	6438.685201
648.461059	6427.032573
648.804460	6387.802314
649.147810	6302.170754
649.491108	6270.338388
649.834354	6241.593729
650.177548	6155.468136
650.520690	6073.078038
650.863781	6046.808586
651.206820	6062.133693
651.549807	5987.547302
651.892742	5923.307878
652.235626	5926.816521
652.578458	5909.487555
652.921238	5816.939532
653.263967	5846.258883
653.606644	5790.317199
653.949269	5786.395181
654.291843	5732.381738
654.634365	5769.953458
654.976836	5718.836158
655.319255	5718.412701
655.661622	5685.403225
656.003938	5677.274365
656.346203	5641.220032
656.688416	5665.778013
657.030577	5617.826558
657.372687	5588.431590
657.714746	5569.426440
658.056753	5605.682418
658.398708	5541.327048
658.740612	5537.342016
659.082465	5568.708076
659.424266	5560.813629
659.766016	5555.948915
660.107715	5527.663001
660.449362	5537.102562
660.790958	5523.869533
661.132503	5508.042830
661.473996	5530.927148
661.815438	5516.713615
662.156829	5513.114231
662.498168	5495.016489
662.839456	5479.058716
663.180693	5499.223332
663.521879	5496.584287
663.863013	5483.159695
664.204097	5488.601620
664.545129	5518.115056
664.886110	5513.547770
665.227040	5531.658115
665.567918	5499.414895
665.908746	5512.158932
666.249522	5513.966186
666.590248	5498.535214
666.930922	5517.868039
667.271545	5516.806876
667.612118	5517.260580
667.952639	5493.746118
668.293109	5494.129246
668.633528	5458.354697
668.973896	5458.384944
669.314213	5445.950938
669.654480	5416.709725
669.994695	5407.723869
670.334859	5398.856479
670.674973	5378.021390
671.015035	5377.963417
671.355047	5368.569227
671.695008	5352.187997
672.034918	5329.462476
672.374777	5323.508873
672.714585	5307.306605
673.054342	5304.163445
673.394049	5290.522083
673.733705	5309.083611
674.073310	5286.227020
674.412864	5256.620323
674.752368	5236.979988
675.091820	5232.831118
675.431223	5183.551319
675.770574	5172.352396
676.109875	5130.891426
676.449125	5126.997134
676.788324	5093.017237
677.127473	5041.078229
677.466571	5030.050705
677.805619	5012.525133
678.144616	4996.683308
678.483562	4971.855625
678.822458	4948.608344
679.161303	4933.961271
679.500098	4918.295886
679.838842	4902.136467
680.177535	4899.250407
680.516179	4906.607971
680.854771	4904.208381
681.193314	4963.749449
681.531805	5039.802817
681.870247	5145.662007
682.208638	5217.800918
682.546978	5218.965425
682.885268	5197.316189
683.223508	5117.592862
683.561697	5072.335903
683.899836	5044.186100
684.237925	5002.742774
684.575963	4973.879648
684.913951	4938.258855
685.251889	4967.285819
685.589776	4947.612716
685.927614	4924.007513
686.265401	4963.041167
686.603137	4945.966779
686.940824	4988.935054
687.278460	5005.223022
687.616046	5001.704297
687.953582	5045.169125
688.291068	5029.135735
688.628504	5056.521804
688.965889	5030.630438
689.303224	4989.066124
689.640510	4943.020225
689.977745	4880.421697
690.314930	4799.634686
690.652065	4761.395013
690.989150	4692.555537
691.326185	4624.336123
691.663170	4575.091611
692.000105	4517.496429
692.336990	4462.971309
692.673825	4435.865024
693.010610	4382.665728
693.347345	4335.251155
693.684030	4304.525323
694.020665	4274.522896
694.357251	4213.792115
694.693786	4212.042835
695.030272	4187.245399
695.366707	4154.470337
695.703093	4129.312459
696.039429	4133.262203
696.375716	4110.894603
696.711952	4094.483127
697.048139	4083.208587
697.384276	4063.243097
697.720363	4065.549425
698.056400	4061.191347
698.392388	4023.503681
698.728326	4011.924151
699.064214	3994.436388
699.400053	3979.300323
699.735842	3946.363945
700.071581	3932.518416
700.407270	3910.922113
700.742910	3890.603742
701.078501	3855.996221
701.414042	3839.463757
701.749533	3815.102381
702.084974	3781.397226
702.420366	3804.372285
702.755709	3765.018517
703.091002	3731.537694
703.426246	3745.625199
703.761440	3723.517218
704.096584	3700.937890
704.431679	3704.053323
704.766725	3689.496992
705.101721	3675.059127
705.436668	3686.598328
705.771565	3658.728309
706.106413	3673.304806
706.441212	3678.550126
706.775961	3678.356042
707.110661	3676.609282
707.445311	3691.962116
707.779913	3689.000438
708.114465	3699.193651
708.448967	3715.353070
708.783421	3745.960435
709.117825	3764.774022
709.452180	3771.085546
709.786485	3791.582878
710.120742	3843.083305
710.454949	3837.328828
710.789107	3868.926781
711.123216	3908.857760
711.457275	3906.969848
711.791286	3940.667441
712.125247	3944.075261
712.459159	3903.045310
712.793023	3946.187504
713.126837	3889.474524
713.460602	3887.233731
713.794318	3852.679142
714.127985	3841.311340
714.461602	3776.608130
714.795171	3767.317284
715.128691	3717.324161
715.462162	3675.278417
715.795584	3641.638798
716.128957	3629.040954
716.462281	3599.444340
716.795556	3577.543047
717.128782	3549.153789
717.461960	3507.513858
717.795088	3507.718025
718.128167	3480.631906
718.461198	3448.318109
718.794180	3443.241668
719.127113	3420.564037
719.459997	3404.059299
719.792833	3381.658932
720.125619	3375.733056
720.458357	3350.688603
720.791046	3348.215918
721.123686	3330.927280
721.456278	3310.505566
721.788821	3313.255516
722.121315	3296.828916
722.453761	3287.648975
722.786158	3282.121349
723.118506	3289.859521
723.450805	3272.704474
723.783056	3278.600103
724.115259	3276.535751
724.447412	3277.717902
724.779518	3277.294445
725.111574	3274.194135
725.443582	3291.397072
725.775542	3280.598921
726.107453	3303.568938
726.439315	3300.662713
726.771129	3316.244920
727.102895	3330.549194
727.434612	3350.063500
727.766281	3355.432329
728.097901	3357.201774
728.429473	3351.873275
728.760996	3353.647761
729.092471	3349.468644
729.423897	3338.468847
729.755276	3331.547342
730.086606	3331.401149
730.417887	3354.250179
730.749120	3381.427039
731.080305	3400.291037
731.411442	3414.776792
731.742530	3401.838671
732.073570	3399.295409
732.404562	3415.520363
732.735506	3409.823859
733.066401	3394.181158
733.397249	3359.944162
733.728048	3315.047646
734.058798	3262.377670
734.389501	3223.772514
734.720156	3198.271837
735.050762	3172.844257
735.381320	3160.576610
735.711831	3140.694299
736.042293	3127.189048
736.372707	3127.557052
736.703073	3114.611369
737.033391	3116.562295
737.363661	3119.879375
737.693883	3121.495064
738.024056	3132.152064
738.354182	3134.859163
738.684260	3155.114519
739.014290	3167.276303
739.344272	3166.552897
739.674207	3180.365659
740.004093	3189.507792
740.333931	3180.184177
740.663722	3177.613189
740.993464	3175.616892
741.323159	3163.397135
741.652806	3144.127325
741.982405	3129.762557
742.311956	3114.608848
742.641460	3103.873711
742.970915	3085.032399
743.300323	3068.623443
743.629683	3050.029147
743.958996	3040.057745
744.288260	3025.846732
744.617477	3009.533558
744.946647	3000.703977
745.275768	2984.083293
745.604842	2974.495018
745.933869	2967.424800
746.262847	2957.481124
746.591778	2963.659058
746.920662	2957.574385
747.249498	2945.158023
747.578286	2959.505147
747.907027	2966.456898
748.235720	2974.868064
748.564365	2975.566263
748.892963	2967.054275
749.221514	2965.040334
749.550017	2958.184365
749.878473	2951.303190
750.206881	2938.160902
750.535242	2931.874583
750.863555	2927.377874
751.191821	2922.334199
751.520039	2920.892429
751.848210	2915.561409
752.176334	2916.310021
752.504411	2919.934610
752.832440	2907.125038
753.160421	2901.085736
753.488356	2900.226219
753.816243	2899.739748
754.144082	2887.789693
754.471875	2884.863303
754.799620	2887.194837
755.127318	2882.647716
755.454969	2879.408774
755.782572	2883.192160
756.110129	2874.216386
756.437638	2874.140769
756.765100	2871.753782
757.092515	2872.008361
757.419882	2871.637836
757.747203	2866.788246
758.074477	2866.289172
758.401703	2871.156406
758.728882	2877.982128
759.056014	2879.083620
759.383099	2876.900800
759.710138	2882.546893
760.037129	2886.486554
760.364073	2886.973026
760.690970	2882.161244
761.017820	2880.575802
761.344623	2881.253837
761.671379	2895.016187
761.998088	2903.777712
762.324751	2947.910493
762.651366	3044.619989
762.977935	3232.251735
763.304456	3380.696072
763.630931	3394.944893
763.957359	3263.658123
764.283740	3135.234729
764.610074	3058.359654
764.936362	2983.919455
765.262602	2935.678134
765.588796	2895.152298
765.914943	2866.780684
766.241044	2838.346056
766.567097	2824.344251
766.893104	2807.511838
767.219064	2797.212761
767.544978	2787.758077
767.870845	2770.973555
768.196665	2763.845364
768.522438	2761.586927
768.848165	2757.884199
769.173846	2745.349370
769.499479	2743.176633
769.825066	2737.414594
770.150607	2729.988974
770.476101	2728.169118
770.801548	2729.920919
771.126949	2718.442212
771.452303	2711.190512
771.777611	2709.557178
772.102872	2704.700026
772.428087	2702.504604
772.753256	2696.099818
773.078378	2693.652337
773.403453	2687.119002
773.728482	2681.188085
774.053465	2684.510205
774.378401	2680.101716
774.703291	2674.667352
775.028135	2671.821621
775.352932	2668.907834
775.677683	2669.061589
776.002388	2664.827020
776.327046	2666.649397
776.651658	2661.935918
776.976224	2658.616318
777.300743	2653.517191
777.625216	2650.532828
777.949643	2653.590288
778.274024	2652.254382
778.598359	2647.941675
778.922647	2646.971253
779.246889	2649.030564
779.571086	2641.161323
779.895236	2647.470327
780.219339	2645.922693
780.543397	2649.484268
780.867409	2646.378917
781.191374	2647.525780
781.515294	2646.963691
781.839167	2644.410347
782.162995	2641.443628
782.486776	2645.484113
782.810511	2643.949081
783.134201	2637.362814
783.457844	2636.906589
783.781441	2634.554891
784.104993	2632.122534
784.428498	2630.721093
784.751958	2632.525827
785.075372	2631.870477
785.398739	2627.330917
785.722061	2629.168418
786.045337	2633.745786
786.368568	2629.145733
786.691752	2629.576752
787.014891	2639.200314
787.337983	2645.136273
787.661030	2662.707215
787.984031	2676.462003
788.306987	2685.664629
788.629897	2683.053312
788.952760	2676.099040
789.275579	2666.636794
789.598351	2651.498209
789.921078	2643.674338
790.243759	2636.092443
790.566395	2632.659417
790.888984	2626.292440
791.211529	2623.101389
791.534027	2618.037550
791.856480	2615.514453
792.178888	2614.322220
792.501249	2611.481530
792.823566	2611.826849
793.145836	2610.082610
793.468062	2609.623865
793.790241	2608.686210
794.112375	2607.733432
794.434464	2611.539503
794.756507	2610.914400
795.078505	2616.855400
795.400457	2616.250461
795.722364	2626.184055
796.044226	2632.581279
796.366042	2634.408698
796.687812	2628.999539
797.009538	2631.638583
797.331218	2627.242697
797.652852	2624.933849
797.974442	2619.776748
798.295986	2618.093003
798.617484	2616.880606
798.938938	2613.097220
799.260346	2611.310131
799.581709	2610.564040
799.903026	2609.253340
800.224299	2606.508432
800.545526	2605.527927
800.866708	2598.563573
801.187845	2599.803697
801.508936	2597.540219
801.829983	2600.075919
802.150984	2593.086359
802.471940	2596.705908
802.792851	2594.087028
803.113717	2596.826896
803.434538	2595.861515
803.755314	2591.649631
804.076045	2593.446802
804.396731	2594.190372
804.717372	2591.483272
805.037967	2591.682398
805.358518	2591.944538
805.679024	2595.102821
805.999485	2596.476535
806.319901	2598.314036
806.640272	2595.816144
806.960598	2595.536360
807.280879	2594.366812
807.601115	2594.999477
807.921306	2596.509303
808.241453	2594.258428
808.561554	2594.442430
808.881611	2595.720362
809.201623	2590.832964
809.521590	2594.160125
809.841513	2591.556369
810.161390	2591.818509
810.481223	2589.930597
810.801011	2591.695001
811.120755	2587.082345
811.440453	2589.340782
811.760107	2584.327355
812.079716	2585.411203
812.399281	2581.355594
812.718801	2580.475913
813.038276	2577.647826
813.357707	2581.123701
813.677093	2583.664443
813.996434	2579.334092
814.315731	2583.162848
814.634983	2580.753177
814.954191	2581.554720
815.273354	2581.521952
815.592473	2582.711665
815.911547	2585.101172
816.230577	2587.702407
816.549562	2586.963878
816.868502	2586.737026
817.187399	2587.047057
817.506250	2589.701225
817.825058	2591.533684
818.143821	2592.567121
818.462539	2595.306988
818.781213	2595.264138
819.099843	2604.030704
819.418429	2613.041767
819.736970	2624.540639
820.055466	2636.523462
820.373919	2651.294042
820.692327	2669.187618
821.010691	2701.824048
821.329011	2795.161011
821.647286	3023.500075
821.965517	3375.145761
822.283704	3559.919173
822.601847	3529.838608
822.919945	3335.607992
823.237999	3170.951304
823.556010	3028.521064
823.873976	2917.408992
824.191897	2837.095850
824.509775	2783.437808
824.827609	2735.388050
825.145398	2714.862992
825.463144	2711.561037
825.780845	2723.705176
826.098502	2745.150245
826.416116	2801.853143
826.733685	2860.333048
827.051210	2874.387785
827.368692	2843.054493
827.686129	2785.754218
828.003522	2728.562328
828.320872	2685.425174
828.638177	2657.650937
828.955439	2636.064717
829.272656	2620.285905
829.589830	2609.094543
829.906960	2604.507093
830.224046	2595.889241
830.541088	2592.252048
830.858086	2588.279619
831.175041	2586.132088
831.491952	2585.549834
831.808819	2586.525298
832.125642	2587.125195
832.442421	2595.412852
832.759157	2611.123608
833.075849	2641.720891
833.392497	2684.182530
833.709101	2710.303269
834.025662	2704.652135
834.342179	2679.141376
834.658653	2650.527787
834.975083	2627.635907
835.291469	2616.436984
835.607811	2598.314036
835.924110	2588.781214
836.240366	2584.269381
836.556578	2576.553895
836.872746	2577.955336
837.188871	2570.905282
837.504952	2566.940415
837.820990	2566.401012
838.136984	2562.274827
838.452935	2562.824313
838.768842	2566.547205
839.084706	2565.912020
839.400526	2578.628330
839.716303	2599.347472
840.032037	2612.845162
840.347727	2612.406582
840.663373	2601.437031
840.978977	2585.353229
841.294537	2575.510377
841.610054	2572.483164
841.925527	2565.607030
842.240957	2564.261042
842.556344	2560.641493
842.871687	2558.478838
843.186987	2558.032696
843.502244	2554.279557
843.817458	2554.395504
844.132629	2552.154711
844.447756	2552.749567
844.762840	2547.390820
845.077881	2547.234545
845.392879	2547.368135
845.707833	2547.350491
846.022745	2544.378731
846.337613	2549.452652
846.652438	2549.641696
846.967221	2554.619835
847.281960	2547.307641
847.596656	2552.343754
847.911309	2548.966181
848.225919	2546.674977
848.540485	2545.548279
848.855009	2548.918290
849.169490	2548.845193
849.483928	2550.370142
849.798323	2548.862837
850.112675	2546.642209
850.426984	2547.224462
850.741251	2547.002652
851.055474	2546.322096
851.369654	2546.188505
851.683792	2545.760007
851.997887	2548.323434
852.311938	2546.506098
852.625947	2549.230842
852.939914	2547.428629
853.253837	2550.090358
853.567718	2548.613300
853.881555	2550.251675
854.195350	2549.142621
854.509103	2547.390820
854.822812	2546.969884
855.136479	2544.580377
855.450103	2546.886705
855.763685	2549.263609
856.077224	2549.369473
856.390720	2548.285625
856.704173	2548.056253
857.017584	2549.276212
857.330953	2544.451828
857.644278	2548.177240
857.957561	2550.755791
858.270802	2550.468445
858.584000	2546.566592
858.897155	2550.854093
859.210268	2547.542055
859.523339	2547.937786
859.836367	2548.567930
860.149352	2547.516849
860.462295	2547.438711
860.775195	2544.834955
861.088054	2544.834955
861.400869	2543.773792
861.713642	2542.052238
862.026373	2546.342260
862.339062	2548.872920
862.651708	2549.009031
862.964312	2547.829401
863.276873	2548.058773
863.589392	2548.870399
863.901869	2548.310831
864.214303	2547.660522
864.526696	2547.037940
864.839045	2549.258568
865.151353	2549.535831
865.463619	2548.633465
865.775842	2548.956099
866.088023	2550.372663
866.400162	2551.559855
866.712258	2549.001469
867.024313	2547.990718
867.336325	2550.501212
867.648296	2551.123795
867.960224	2547.950388
868.272110	2547.431150
868.583954	2548.499874
868.895755	2546.543907
869.207515	2548.956099
869.519233	2550.985163
869.830909	2549.563558
870.142542	2551.421223
870.454134	2549.132539
870.765684	2551.451470
871.077191	2549.886192
871.388657	2553.432643
871.700081	2553.173024
872.011463	2553.218394
872.322803	2550.276881
872.634101	2553.147818
872.945357	2552.719320
873.256571	2554.944989
873.567744	2555.194527
873.878874	2554.289639
874.189963	2555.421378
874.501010	2552.008517
874.812015	2553.404917
875.122979	2551.806871
875.433900	2552.908363
875.744780	2555.945658
876.055618	2554.067829
876.366415	2554.115720
876.677169	2553.399876
876.987882	2551.388455
877.298554	2552.212684
877.609183	2554.123281
877.919771	2549.198074
878.230317	2553.188147
878.540822	2561.705177
878.851285	2561.057388
879.161707	2565.130641
879.472087	2572.127762
879.782425	2577.940213
880.092722	2593.572831
880.402977	2620.442181
880.713191	2668.880107
881.023363	2734.218502
881.333494	2776.627209
881.643583	2792.700928
881.953631	2779.601490
882.263637	2751.706265
882.573602	2720.680484
882.883526	2691.550176
883.193408	2669.303564
883.503248	2651.319248
883.813048	2634.000364
884.122806	2618.277005
884.432522	2607.040273
884.742197	2595.017121
885.051831	2589.219794
885.361424	2584.014803
885.670975	2576.949626
885.980485	2572.445355
886.289954	2569.166084
886.599382	2568.059551
886.908768	2566.527040
887.218113	2560.376833
887.527417	2560.686864
887.836680	2560.918757
888.145901	2561.692574
888.455082	2555.169321
888.764221	2554.002294
889.073319	2555.736451
889.382376	2554.672767
889.691392	2554.990360
890.000366	2556.575803
890.309300	2555.527243
890.618193	2554.871893
890.927044	2554.922304
891.235855	2558.115875
891.544625	2555.446584
891.853353	2557.503375
892.162041	2556.008673
892.470687	2558.531770
892.779293	2560.903633
893.087858	2560.858263
893.396381	2565.566701
893.704864	2573.090623
894.013306	2579.999524
894.321707	2598.697164
894.630068	2605.210334
894.938387	2613.344236
895.246665	2607.292331
895.554903	2601.537854
895.863100	2592.047882
896.171256	2586.089238
896.479371	2578.126735
896.787446	2574.000551
897.095480	2570.648184
897.403473	2568.551064
897.711425	2563.557801
898.019336	2562.647872
898.327207	2561.551422
898.635038	2559.358520
898.942827	2558.204095
899.250576	2558.869528
899.558284	2555.847356
899.865952	2555.693601
900.173579	2555.454146
900.481165	2553.810730
900.788711	2551.358208
901.096216	2550.662529
901.403681	2549.863506
901.711105	2550.347457
902.018489	2551.156562
902.325832	2551.985832
902.633135	2552.348795
902.940397	2557.730227
903.247619	2559.550083
903.554800	2569.788667
903.861941	2592.998139
904.169041	2618.387911
904.476101	2628.293778
904.783121	2627.202368
905.090100	2616.961264
905.397039	2600.761516
905.703938	2588.730803
906.010796	2579.301324
906.317614	2572.614234
906.624391	2565.478480
906.931129	2559.114024
907.237826	2559.287943
907.544483	2555.310473
907.851099	2553.205791
908.157675	2551.640513
908.464211	2548.678835
908.770707	2544.779503
909.077163	2545.742363
909.383578	2545.651622
909.689954	2541.633823
909.996289	2540.023174
910.302584	2546.864020
910.608839	2545.137425
910.915054	2545.558361
911.221229	2546.743032
911.527363	2547.234545
911.833458	2547.093392
912.139513	2547.403423
912.445527	2547.201777
912.751502	2548.179761
913.057436	2546.294369
913.363331	2548.971222
913.669186	2551.839639
913.975000	2552.101779
914.280775	2559.292985
914.586510	2559.635783
914.892205	2566.345559
915.197859	2578.240161
915.503475	2591.034610
915.809050	2603.473657
916.114585	2611.209307
916.420081	2614.624689
916.725536	2614.430605
917.030952	2602.377206
917.336328	2597.015939
917.641665	2593.330855
917.946961	2583.878692
918.252218	2577.184040
918.557435	2572.120201
918.862612	2567.394119
919.167750	2562.965465
919.472848	2561.034703
919.777906	2555.567572
920.082925	2556.353992
920.387904	2553.959444
920.692843	2554.176213
920.997743	2551.895091
921.302603	2550.564227
921.607423	2547.458876
921.912204	2548.557848
922.216946	2546.793444
922.521647	2548.262940
922.826310	2545.560882
923.130932	2547.080789
923.435516	2545.129863
923.740059	2548.585574
924.044564	2545.208001
924.349028	2542.926879
924.653454	2540.527289
924.957840	2541.533000
925.262186	2541.348998
925.566493	2541.230530
925.870761	2537.396733
926.174989	2540.993596
926.479178	2542.233720
926.783328	2540.572660
927.087438	2541.101981
927.391509	2541.215407
927.695541	2539.514017
927.999533	2539.554347
928.303486	2540.537372
928.607400	2541.653987
928.911275	2539.531662
929.215110	2538.067206
929.518906	2538.203318
929.822663	2541.023843
930.126381	2538.344470
930.430060	2540.111394
930.733699	2539.579552
931.037299	2542.662218
931.340861	2536.983358
931.644383	2540.176929
931.947866	2539.471168
932.251309	2539.947557
932.554714	2538.168029
932.858080	2542.175747
933.161407	2538.815818
933.464694	2540.887732
933.767943	2538.919161
934.071153	2538.432690
934.374323	2539.209028
934.677455	2539.919830
934.980548	2538.616692
935.283602	2537.381609
935.586617	2538.102494
935.889593	2539.592155
936.192530	2539.221631
936.495428	2539.526620
936.798287	2541.275901
937.101108	2540.577701
937.403890	2541.293545
937.706632	2539.035108
938.009336	2539.544264
938.312002	2541.434697
938.614628	2539.133410
938.917216	2543.725902
939.219765	2541.202804
939.522275	2544.771941
939.824747	2545.250851
940.127179	2539.408153
940.429573	2538.457896
940.731929	2540.580222
941.034246	2537.232895
941.336524	2541.616179
941.638763	2537.406815
941.940964	2542.110212
942.243126	2542.170706
942.545250	2542.155582
942.847335	2541.533000
943.149381	2541.686755
943.451389	2540.131559
943.753359	2539.980324
944.055290	2541.323792
944.357182	2540.547454
944.659036	2538.462937
944.960851	2538.745242
945.262628	2537.961342
945.564367	2539.095602
945.866067	2539.788760
946.167729	2536.660724
946.469352	2538.283976
946.770937	2543.267157
947.072484	2539.529141
947.373992	2538.183153
947.675462	2537.159799
947.976893	2539.614841
948.278286	2539.146013
948.579641	2540.325643
948.880958	2540.101312
949.182236	2536.910262
949.483476	2536.635519
949.784678	2540.333205
950.085841	2539.408153
950.386967	2542.223638
950.688054	2539.088040
950.989103	2540.663401
951.290114	2537.923533
951.591087	2539.569470
951.892021	2541.059131
952.192917	2540.602907
952.493776	2539.471168
952.794596	2540.045859
953.095378	2539.713143
953.396122	2539.229192
953.696828	2540.055942
953.997496	2539.743390
954.298126	2538.339429
954.598718	2541.185160
954.899272	2540.565098
955.199788	2537.772299
955.500266	2539.045190
955.800706	2538.057124
956.101108	2533.038655
956.401472	2535.634850
956.701798	2534.437576
957.002087	2535.849099
957.302337	2535.075282
957.602550	2536.078471
957.902724	2535.599562
958.202861	2534.926567
958.502960	2535.072761
958.803022	2536.806918
959.103045	2535.410518
959.403031	2536.456558
959.702979	2532.688295
960.002889	2534.329191
960.302762	2535.977648
960.602596	2536.421270
960.902393	2533.867925
961.202153	2532.670651
961.501875	2536.980838
961.801559	2535.113090
962.101205	2535.319777
962.400814	2534.785415
962.700385	2531.178470
962.999918	2534.674510
963.299414	2536.370858
963.598873	2533.686444
963.898293	2535.690302
964.197677	2534.024201
964.497022	2534.240971
964.796331	2533.499921
965.095601	2537.195087
965.394835	2533.389016
965.694030	2534.087215
965.993189	2534.366999
966.292309	2530.704601
966.591393	2530.379447
966.890439	2533.462112
967.189447	2533.404139
967.488419	2531.095291
967.787353	2533.799870
968.086249	2531.390198
968.385108	2535.281969
968.683930	2534.397246
968.982714	2533.847761
969.281462	2532.098480
969.580172	2532.121165
969.878844	2532.093439
970.177480	2532.148892
970.476078	2531.407842
970.774639	2534.598893
971.073162	2532.615198
971.371649	2530.273583
971.670098	2532.887421
971.968510	2530.230733
972.266885	2529.366175
972.565223	2532.504293
972.863524	2531.528830
973.161788	2532.794159
973.460014	2531.402801
973.758204	2536.050745
974.056356	2532.186700
974.354471	2532.549663
974.652550	2533.066382
974.950591	2530.268541
975.248595	2533.585621
975.546563	2534.160312
975.844493	2535.108049
976.142386	2532.607637
976.440243	2532.297606
976.738062	2533.774664
977.035845	2531.861546
977.333590	2534.883718
977.631299	2533.701567
977.928971	2532.302647
978.226606	2534.931609
978.524204	2534.324150
978.821765	2534.253573
979.119290	2533.547812
979.416777	2531.065044
979.714228	2534.258615
980.011642	2532.930271
980.309020	2534.883718
980.606360	2533.595703
980.903664	2531.428007
981.200931	2533.356248
981.498162	2531.634694
981.795356	2533.610826
982.092513	2534.712318
982.389633	2533.406660
982.686717	2535.720549
982.983764	2534.709798
983.280775	2536.136444
983.577749	2535.649973
983.874686	2535.801208
984.171587	2534.366999
984.468451	2534.422452
984.765279	2533.343645
985.062070	2533.893131
985.358824	2536.249870
985.655543	2531.034797
985.952224	2531.952287
986.248869	2531.642256
986.545478	2528.504138
986.842050	2530.122348
987.138586	2527.899199
987.435086	2530.790301
987.731549	2527.407687
988.027975	2531.672503
988.324366	2530.145033
988.620719	2529.973634
988.917037	2531.312060
989.213318	2535.884387
989.509563	2531.937163
989.805772	2529.703932
990.101944	2531.208717
990.398080	2532.153933
990.694180	2530.296268
990.990244	2530.228212
991.286271	2531.639735
991.582262	2529.101514
991.878217	2531.186031
992.174136	2532.221988
992.470019	2535.186187
992.765865	2531.939684
993.061676	2529.575383
993.357450	2532.584952
993.653188	2530.026566
993.948890	2530.550846
994.244556	2530.233253
994.540186	2532.607637
994.835780	2531.168387
995.131337	2532.106042
995.426859	2528.549508
995.722345	2529.920702
996.017795	2531.448171
996.313208	2530.366844
996.608586	2529.149405
996.903928	2531.480939
997.199234	2534.487987
997.494504	2531.377595
997.789738	2529.323325
998.084936	2530.518078
998.380099	2531.143182
998.675225	2530.334076
998.970316	2531.244005
999.265371	2533.358769
999.560390	2532.821886
999.855373	2528.788963
1000.150320	2529.643438
1000.445232	2529.714014
1000.740108	2528.589837
1001.034948	2533.179808
1001.329752	2528.831812
1001.624521	2533.328522
1001.919254	2525.779394
1002.213951	2529.794673
1002.508613	2525.353416
1002.803239	2527.107738
1003.097829	2525.900382
1003.392384	2531.498583
1003.686903	2528.378109
1003.981386	2528.794004
1004.275834	2528.254600
1004.570246	2529.134282
1004.864623	2529.043541
1005.158964	2527.959693
1005.453270	2530.840712
1005.747540	2530.329035
1006.041775	2530.475229
1006.335974	2530.563449
1006.630138	2530.830630
1006.924266	2528.635208
1007.218359	2529.275434
1007.512416	2527.763088
1007.806438	2530.870959
1008.100425	2530.376926
1008.394376	2529.414066
1008.688292	2529.832482
1008.982172	2531.496062
1009.276017	2527.127902
1009.569827	2530.263500
1009.863602	2530.840712
1010.157341	2529.978675
1010.451045	2530.195445
1010.744714	2527.783253
1011.038347	2531.717873
1011.331945	2531.004550
1011.625508	2531.574200
1011.919036	2529.593027
1012.212528	2526.999353
1012.505986	2527.624456
1012.799408	2531.430527
1013.092795	2528.746113
1013.386147	2529.923222
1013.679464	2528.272244
1013.972745	2527.768129
1014.265992	2528.252080
1014.559204	2529.492204
1014.852380	2528.710825
1015.145521	2528.546987
1015.438628	2529.545136
1015.731699	2530.213089
1016.024736	2529.734179
1016.317737	2529.756864
1016.610703	2530.812986
1016.903635	2524.526667
1017.196531	2525.565145
1017.489393	2524.675381
1017.782219	2525.459281
1018.075011	2527.836185
1018.367768	2528.675537
1018.660490	2530.686957
1018.953177	2530.686957
1019.245829	2530.686957
