Dividing Wavelength (nm)	Counts (n)	Blue Motor Position (mm): 0.000000	Red Motor Position (mm): 6.000000	
326.493990	2117.284615
326.888308	2117.284615
327.282561	2117.284615
327.676750	2109.722885
328.070874	2008.899808
328.464933	2081.996538
328.858929	2170.216731
329.252859	2071.914231
329.646726	2107.202308
330.040528	2092.078846
330.434265	2139.969808
330.827938	2127.366923
331.221547	2139.969808
331.615091	2213.066538
332.008571	2185.340192
332.401986	2157.613846
332.795338	2202.984231
333.188625	2243.313462
333.581847	2205.504808
333.975006	2316.410192
334.368100	2218.107692
334.761129	2301.286731
335.154095	2240.792885
335.546996	2356.739423
335.939833	2381.945192
336.332606	2424.795000
336.725315	2419.753846
337.117960	2339.095385
337.510540	2457.562500
337.903056	2419.753846
338.295508	2422.274423
338.687896	2389.506923
339.080220	2470.165385
339.472480	2467.644808
339.864676	2439.918462
340.256807	2399.589231
340.648875	2500.412308
341.040879	2535.700385
341.432818	2447.480192
341.824694	2465.124231
342.216506	2530.659231
342.608253	2485.288846
342.999937	2472.685962
343.391557	2482.768269
343.783113	2492.850577
344.174605	2500.412308
344.566033	2598.714808
344.957397	2450.000769
345.348697	2570.988462
345.739934	2465.124231
346.131106	2455.041923
346.522215	2397.068654
346.913260	2414.712692
347.304241	2480.247692
347.695159	2467.644808
348.086012	2432.356731
348.476802	2487.809423
348.867528	2376.904038
349.258191	2460.083077
349.648789	2422.274423
350.039324	2429.836154
350.429796	2442.439038
350.820203	2351.698269
351.210548	2424.795000
351.600828	2429.836154
351.991045	2404.630385
352.381198	2389.506923
352.771288	2455.041923
353.161314	2442.439038
353.551276	2414.712692
353.941175	2457.562500
354.331010	2414.712692
354.720782	2452.521346
355.110490	2409.671538
355.500135	2457.562500
355.889717	2392.027500
356.279235	2407.150962
356.668689	2389.506923
357.058080	2389.506923
357.447408	2376.904038
357.836672	2535.700385
358.225873	2442.439038
358.615010	2470.165385
359.004084	2545.782692
359.393095	2467.644808
359.782043	2523.097500
360.170927	2485.288846
360.559748	2359.260000
360.948505	2381.945192
361.337199	2553.344423
361.725830	2369.342308
362.114398	2442.439038
362.502903	2394.548077
362.891344	2450.000769
363.279722	2490.330000
363.668037	2450.000769
364.056289	2455.041923
364.444478	2437.397885
364.832603	2439.918462
365.220665	2480.247692
365.608665	2444.959615
365.996601	2467.644808
366.384474	2432.356731
366.772284	2434.877308
367.160031	2409.671538
367.547715	2447.480192
367.935336	2392.027500
368.322893	2485.288846
368.710388	2397.068654
369.097820	2429.836154
369.485189	2477.727115
369.872495	2490.330000
370.259738	2447.480192
370.646918	2467.644808
371.034035	2419.753846
371.421090	2397.068654
371.808081	2414.712692
372.195010	2513.015192
372.581875	2381.945192
372.968678	2389.506923
373.355418	2487.809423
373.742096	2452.521346
374.128710	2424.795000
374.515262	2510.494615
374.901751	2394.548077
375.288177	2538.220962
375.674540	2520.576923
376.060841	2523.097500
376.447079	2470.165385
376.833254	2513.015192
377.219367	2487.809423
377.605417	2444.959615
377.991404	2465.124231
378.377329	2530.659231
378.763191	2460.083077
379.148991	2457.562500
379.534727	2386.986346
379.920402	2457.562500
380.306013	2475.206538
380.691563	2465.124231
381.077049	2513.015192
381.462474	2502.932885
381.847835	2412.192115
382.233134	2588.632500
382.618371	2351.698269
383.003545	2500.412308
383.388657	2490.330000
383.773706	2404.630385
384.158693	2548.303269
384.543618	2470.165385
384.928480	2530.659231
385.313280	2444.959615
385.698017	2442.439038
386.082692	2462.603654
386.467305	2419.753846
386.851856	2470.165385
387.236344	2553.344423
387.620770	2424.795000
388.005133	2399.589231
388.389435	2460.083077
388.773674	2394.548077
389.157851	2444.959615
389.541965	2432.356731
389.926018	2389.506923
390.310008	2450.000769
390.693936	2412.192115
391.077802	2477.727115
391.461606	2505.453462
391.845348	2460.083077
392.229027	2399.589231
392.612645	2480.247692
392.996200	2457.562500
393.379694	2502.932885
393.763125	2434.877308
394.146494	2424.795000
394.529801	2495.371154
394.913047	2452.521346
395.296230	2485.288846
395.679351	2467.644808
396.062410	2543.262115
396.445408	2386.986346
396.828343	2485.288846
397.211217	2578.550192
397.594028	2533.179808
397.976778	2404.630385
398.359466	2533.179808
398.742092	2502.932885
399.124656	2407.150962
399.507158	2500.412308
399.889598	2482.768269
400.271977	2434.877308
400.654294	2490.330000
401.036549	2492.850577
401.418742	2450.000769
401.800874	2414.712692
402.182944	2482.768269
402.564952	2475.206538
402.946898	2460.083077
403.328783	2530.659231
403.710606	2518.056346
404.092367	2555.865000
404.474067	2507.974038
404.855705	2444.959615
405.237282	2485.288846
405.618797	2533.179808
406.000250	2432.356731
406.381642	2457.562500
406.762972	2412.192115
407.144240	2417.233269
407.525447	2485.288846
407.906593	2495.371154
408.287677	2507.974038
408.668700	2444.959615
409.049661	2457.562500
409.430560	2447.480192
409.811399	2442.439038
410.192176	2442.439038
410.572891	2467.644808
410.953545	2442.439038
411.334138	2513.015192
411.714669	2414.712692
412.095139	2455.041923
412.475547	2432.356731
412.855894	2490.330000
413.236180	2424.795000
413.616405	2407.150962
413.996568	2412.192115
414.376670	2379.424615
414.756711	2424.795000
415.136691	2497.891731
415.516609	2462.603654
415.896466	2495.371154
416.276262	2399.589231
416.655997	2497.891731
417.035670	2447.480192
417.415283	2475.206538
417.794834	2417.233269
418.174324	2510.494615
418.553753	2543.262115
418.933121	2437.397885
419.312428	2548.303269
419.691674	2427.315577
420.070859	2485.288846
420.449983	2439.918462
420.829045	2447.480192
421.208047	2462.603654
421.586988	2487.809423
421.965867	2502.932885
422.344686	2414.712692
422.723444	2502.932885
423.102141	2475.206538
423.480777	2583.591346
423.859352	2465.124231
424.237866	2507.974038
424.616319	2439.918462
424.994712	2513.015192
425.373044	2414.712692
425.751314	2402.109808
426.129524	2497.891731
426.507673	2581.070769
426.885762	2460.083077
427.263789	2518.056346
427.641756	2450.000769
428.019662	2553.344423
428.397508	2485.288846
428.775292	2490.330000
429.153016	2447.480192
429.530679	2530.659231
429.908282	2460.083077
430.285824	2573.509038
430.663305	2581.070769
431.040726	2502.932885
431.418086	2570.988462
431.795385	2500.412308
432.172624	2460.083077
432.549802	2444.959615
432.926920	2475.206538
433.303977	2439.918462
433.680974	2495.371154
434.057910	2354.218846
434.434786	2482.768269
434.811601	2543.262115
435.188355	2475.206538
435.565050	2487.809423
435.941683	2447.480192
436.318257	2414.712692
436.694770	2525.618077
437.071222	2497.891731
437.447614	2351.698269
437.823946	2442.439038
438.200218	2386.986346
438.576429	2472.685962
438.952580	2507.974038
439.328670	2404.630385
439.704700	2444.959615
440.080670	2487.809423
440.456580	2555.865000
440.832429	2553.344423
441.208218	2543.262115
441.583947	2447.480192
441.959616	2487.809423
442.335224	2417.233269
442.710773	2444.959615
443.086261	2389.506923
443.461689	2518.056346
443.837057	2462.603654
444.212365	2492.850577
444.587612	2386.986346
444.962800	2444.959615
445.337927	2457.562500
445.712995	2500.412308
446.088002	2439.918462
446.462949	2427.315577
446.837837	2548.303269
447.212664	2482.768269
447.587431	2505.453462
447.962139	2490.330000
448.336786	2518.056346
448.711374	2477.727115
449.085901	2520.576923
449.460369	2513.015192
449.834776	2444.959615
450.209124	2492.850577
450.583412	2502.932885
450.957640	2485.288846
451.331808	2470.165385
451.705917	2336.574808
452.079965	2500.412308
452.453954	2424.795000
452.827883	2397.068654
453.201752	2570.988462
453.575562	2462.603654
453.949311	2470.165385
454.323001	2392.027500
454.696632	2507.974038
455.070202	2470.165385
455.443713	2495.371154
455.817164	2555.865000
456.190556	2550.823846
456.563888	2502.932885
456.937160	2404.630385
457.310373	2548.303269
457.683526	2492.850577
458.056619	2535.700385
458.429653	2495.371154
458.802628	2467.644808
459.175542	2467.644808
459.548398	2485.288846
459.921194	2523.097500
460.293930	2472.685962
460.666607	2412.192115
461.039224	2518.056346
461.411782	2437.397885
461.784280	2490.330000
462.156719	2480.247692
462.529099	2434.877308
462.901419	2533.179808
463.273680	2548.303269
463.645882	2450.000769
464.018024	2576.029615
464.390106	2457.562500
464.762130	2450.000769
465.134094	2487.809423
465.505999	2480.247692
465.877845	2427.315577
466.249631	2497.891731
466.621358	2485.288846
466.993026	2502.932885
467.364634	2565.947308
467.736184	2417.233269
468.107674	2412.192115
468.479105	2563.426731
468.850477	2419.753846
469.221790	2533.179808
469.593043	2492.850577
469.964238	2505.453462
470.335373	2399.589231
470.706449	2455.041923
471.077467	2455.041923
471.448425	2591.153077
471.819324	2442.439038
472.190164	2439.918462
472.560945	2497.891731
472.931667	2548.303269
473.302330	2444.959615
473.672934	2540.741538
474.043479	2460.083077
474.413965	2477.727115
474.784393	2432.356731
475.154761	2533.179808
475.525070	2495.371154
475.895321	2465.124231
476.265513	2497.891731
476.635645	2450.000769
477.005719	2429.836154
477.375734	2518.056346
477.745691	2528.138654
478.115588	2533.179808
478.485427	2495.371154
478.855207	2530.659231
479.224928	2518.056346
479.594591	2497.891731
479.964194	2480.247692
480.333739	2593.673654
480.703226	2490.330000
481.072653	2502.932885
481.442022	2492.850577
481.811333	2581.070769
482.180584	2480.247692
482.549777	2535.700385
482.918912	2535.700385
483.287988	2444.959615
483.657005	2475.206538
484.025964	2460.083077
484.394864	2523.097500
484.763706	2492.850577
485.132489	2502.932885
485.501213	2487.809423
485.869879	2500.412308
486.238487	2586.111923
486.607036	2545.782692
486.975527	2520.576923
487.343959	2482.768269
487.712333	2515.535769
488.080648	2518.056346
488.448905	2502.932885
488.817104	2470.165385
489.185244	2495.371154
489.553326	2518.056346
489.921350	2477.727115
490.289315	2455.041923
490.657222	2460.083077
491.025070	2513.015192
491.392861	2482.768269
491.760593	2497.891731
492.128267	2492.850577
492.495883	2490.330000
492.863440	2530.659231
493.230939	2515.535769
493.598380	2523.097500
493.965763	2495.371154
494.333088	2530.659231
494.700354	2485.288846
495.067563	2507.974038
495.434713	2500.412308
495.801805	2497.891731
496.168839	2550.823846
496.535815	2467.644808
496.902733	2492.850577
497.269593	2465.124231
497.636395	2543.262115
498.003139	2520.576923
498.369825	2497.891731
498.736453	2510.494615
499.103023	2482.768269
499.469535	2500.412308
499.835989	2409.671538
500.202385	2518.056346
500.568723	2565.947308
500.935003	2500.412308
501.301226	2490.330000
501.667390	2495.371154
502.033497	2492.850577
502.399546	2422.274423
502.765537	2560.906154
503.131470	2455.041923
503.497345	2538.220962
503.863163	2485.288846
504.228923	2480.247692
504.594625	2500.412308
504.960269	2502.932885
505.325856	2492.850577
505.691385	2513.015192
506.056856	2545.782692
506.422270	2545.782692
506.787625	2495.371154
507.152924	2455.041923
507.518164	2520.576923
507.883347	2487.809423
508.248472	2412.192115
508.613540	2472.685962
508.978550	2467.644808
509.343503	2540.741538
509.708398	2507.974038
510.073236	2434.877308
510.438016	2505.453462
510.802738	2472.685962
511.167403	2510.494615
511.532010	2452.521346
511.896561	2543.262115
512.261053	2482.768269
512.625488	2540.741538
512.989866	2591.153077
513.354186	2555.865000
513.718449	2505.453462
514.082655	2570.988462
514.446803	2540.741538
514.810894	2530.659231
515.174927	2487.809423
515.538904	2452.521346
515.902822	2444.959615
516.266684	2470.165385
516.630488	2525.618077
516.994235	2507.974038
517.357925	2555.865000
517.721558	2523.097500
518.085133	2485.288846
518.448651	2523.097500
518.812112	2513.015192
519.175516	2492.850577
519.538863	2460.083077
519.902152	2497.891731
520.265385	2465.124231
520.628560	2525.618077
520.991678	2485.288846
521.354739	2480.247692
521.717743	2492.850577
522.080690	2538.220962
522.443580	2513.015192
522.806413	2472.685962
523.169189	2550.823846
523.531908	2475.206538
523.894569	2543.262115
524.257174	2460.083077
524.619722	2439.918462
524.982213	2444.959615
525.344647	2573.509038
525.707025	2510.494615
526.069345	2424.795000
526.431608	2480.247692
526.793815	2518.056346
527.155964	2510.494615
527.518057	2515.535769
527.880093	2472.685962
528.242072	2480.247692
528.603995	2452.521346
528.965860	2525.618077
529.327669	2523.097500
529.689421	2500.412308
530.051117	2515.535769
530.412755	2444.959615
530.774337	2497.891731
531.135862	2500.412308
531.497331	2480.247692
531.858743	2447.480192
532.220098	2457.562500
532.581396	2523.097500
532.942638	2490.330000
533.303824	2455.041923
533.664953	2477.727115
534.026025	2528.138654
534.387040	2545.782692
534.747999	2500.412308
535.108902	2502.932885
535.469748	2523.097500
535.830537	2502.932885
536.191270	2568.467885
536.551947	2490.330000
536.912567	2480.247692
537.273131	2565.947308
537.633638	2475.206538
537.994089	2497.891731
538.354483	2480.247692
538.714821	2470.165385
539.075103	2553.344423
539.435328	2513.015192
539.795497	2457.562500
540.155609	2460.083077
540.515665	2555.865000
540.875665	2490.330000
541.235609	2444.959615
541.595496	2492.850577
541.955328	2581.070769
542.315102	2487.809423
542.674821	2520.576923
543.034483	2593.673654
543.394090	2570.988462
543.753640	2555.865000
544.113134	2502.932885
544.472571	2505.453462
544.831953	2465.124231
545.191278	2525.618077
545.550548	2452.521346
545.909761	2651.646923
546.268918	2442.439038
546.628019	2553.344423
546.987064	2523.097500
547.346053	2525.618077
547.704986	2510.494615
548.063863	2485.288846
548.422684	2530.659231
548.781449	2500.412308
549.140158	2422.274423
549.498811	2550.823846
549.857408	2447.480192
550.215949	2565.947308
550.574434	2515.535769
550.932864	2555.865000
551.291237	2480.247692
551.649555	2563.426731
552.007817	2528.138654
552.366022	2523.097500
552.724173	2437.397885
553.082267	2520.576923
553.440305	2550.823846
553.798288	2492.850577
554.156215	2540.741538
554.514086	2457.562500
554.871902	2465.124231
555.229661	2560.906154
555.587365	2525.618077
555.945014	2581.070769
556.302606	2543.262115
556.660143	2497.891731
557.017625	2540.741538
557.375050	2548.303269
557.732421	2510.494615
558.089735	2429.836154
558.446994	2502.932885
558.804197	2495.371154
559.161345	2553.344423
559.518437	2510.494615
559.875474	2434.877308
560.232455	2525.618077
560.589381	2573.509038
560.946251	2530.659231
561.303065	2424.795000
561.659825	2543.262115
562.016528	2487.809423
562.373177	2520.576923
562.729770	2500.412308
563.086307	2507.974038
563.442789	2485.288846
563.799216	2472.685962
564.155587	2495.371154
564.511904	2485.288846
564.868164	2447.480192
565.224370	2613.838269
565.580520	2560.906154
565.936615	2507.974038
566.292654	2462.603654
566.648638	2422.274423
567.004567	2565.947308
567.360441	2505.453462
567.716260	2437.397885
568.072023	2510.494615
568.427732	2455.041923
568.783385	2442.439038
569.138982	2518.056346
569.494525	2487.809423
569.850013	2540.741538
570.205445	2462.603654
570.560823	2576.029615
570.916145	2457.562500
571.271412	2553.344423
571.626625	2495.371154
571.981782	2525.618077
572.336884	2528.138654
572.691931	2472.685962
573.046923	2591.153077
573.401860	2472.685962
573.756743	2518.056346
574.111570	2427.315577
574.466342	2505.453462
574.821059	2465.124231
575.175722	2490.330000
575.530330	2442.439038
575.884882	2543.262115
576.239380	2477.727115
576.593823	2523.097500
576.948211	2490.330000
577.302544	2444.959615
577.656823	2475.206538
578.011047	2422.274423
578.365216	2485.288846
578.719330	2500.412308
579.073389	2437.397885
579.427394	2447.480192
579.781344	2515.535769
580.135239	2422.274423
580.489080	2530.659231
580.842866	2482.768269
581.196597	2502.932885
581.550273	2523.097500
581.903895	2500.412308
582.257463	2470.165385
582.610975	2414.712692
582.964434	2530.659231
583.317837	2480.247692
583.671186	2570.988462
584.024481	2399.589231
584.377721	2407.150962
584.730906	2475.206538
585.084037	2475.206538
585.437113	2520.576923
585.790135	2475.206538
586.143103	2447.480192
586.496016	2533.179808
586.848874	2543.262115
587.201679	2525.618077
587.554428	2482.768269
587.907124	2513.015192
588.259765	2500.412308
588.612352	2550.823846
588.964884	2467.644808
589.317362	2525.618077
589.669786	2455.041923
590.022155	2394.548077
590.374470	2520.576923
590.726731	2427.315577
591.078937	2507.974038
591.431090	2603.755962
591.783188	2558.385577
592.135232	2480.247692
592.487222	2593.673654
592.839157	2492.850577
593.191038	2460.083077
593.542866	2507.974038
593.894639	2565.947308
594.246358	2505.453462
594.598022	2460.083077
594.949633	2576.029615
595.301190	2548.303269
595.652692	2477.727115
596.004141	2543.262115
596.355535	2444.959615
596.706876	2482.768269
597.058162	2513.015192
597.409395	2442.439038
597.760573	2424.795000
598.111698	2513.015192
598.462768	2545.782692
598.813785	2475.206538
599.164748	2525.618077
599.515657	2507.974038
599.866511	2490.330000
600.217312	2407.150962
600.568060	2482.768269
600.918753	2548.303269
601.269392	2502.932885
601.619978	2480.247692
601.970510	2482.768269
602.320988	2550.823846
602.671412	2417.233269
603.021783	2525.618077
603.372100	2570.988462
603.722363	2500.412308
604.072572	2535.700385
604.422728	2422.274423
604.772830	2457.562500
605.122878	2530.659231
605.472872	2409.671538
605.822813	2507.974038
606.172701	2450.000769
606.522534	2518.056346
606.872314	2470.165385
607.222041	2545.782692
607.571714	2432.356731
607.921333	2485.288846
608.270899	2381.945192
608.620411	2490.330000
608.969870	2513.015192
609.319276	2475.206538
609.668627	2462.603654
610.017926	2475.206538
610.367171	2530.659231
610.716362	2490.330000
611.065500	2548.303269
611.414585	2470.165385
611.763616	2518.056346
612.112594	2495.371154
612.461518	2460.083077
612.810389	2412.192115
613.159207	2525.618077
613.507971	2487.809423
613.856682	2477.727115
614.205340	2429.836154
614.553945	2540.741538
614.902496	2563.426731
615.250994	2482.768269
615.599439	2432.356731
615.947830	2560.906154
616.296169	2545.782692
616.644454	2439.918462
616.992686	2460.083077
617.340864	2465.124231
617.688990	2429.836154
618.037063	2513.015192
618.385082	2455.041923
618.733048	2485.288846
619.080961	2518.056346
619.428821	2570.988462
619.776628	2455.041923
620.124382	2608.797115
620.472083	2533.179808
620.819731	2518.056346
621.167326	2419.753846
621.514868	2563.426731
621.862357	2462.603654
622.209793	2480.247692
622.557176	2472.685962
622.904506	2515.535769
623.251783	2515.535769
623.599007	2444.959615
623.946179	2520.576923
624.293297	2505.453462
624.640363	2568.467885
624.987376	2548.303269
625.334336	2507.974038
625.681243	2485.288846
626.028097	2467.644808
626.374899	2523.097500
626.721647	2543.262115
627.068343	2482.768269
627.414987	2437.397885
627.761577	2507.974038
628.108115	2505.453462
628.454600	2505.453462
628.801032	2540.741538
629.147412	2507.974038
629.493739	2442.439038
629.840014	2457.562500
630.186236	2487.809423
630.532405	2530.659231
630.878521	2452.521346
631.224585	2500.412308
631.570597	2492.850577
631.916556	2487.809423
632.262462	2586.111923
632.608316	2439.918462
632.954117	2434.877308
633.299866	2505.453462
633.645562	2467.644808
633.991206	2502.932885
634.336797	2470.165385
634.682336	2482.768269
635.027823	2392.027500
635.373257	2502.932885
635.718639	2540.741538
636.063968	2444.959615
636.409245	2530.659231
636.754470	2434.877308
637.099642	2480.247692
637.444762	2520.576923
637.789829	2447.480192
638.134845	2485.288846
638.479808	2492.850577
638.824719	2490.330000
639.169577	2515.535769
639.514383	2482.768269
639.859137	2492.850577
640.203839	2505.453462
640.548489	2455.041923
640.893086	2568.467885
641.237632	2490.330000
641.582125	2470.165385
641.926566	2523.097500
642.270955	2392.027500
642.615292	2487.809423
642.959576	2565.947308
643.303809	2434.877308
643.647990	2490.330000
643.992118	2505.453462
644.336195	2472.685962
644.680219	2563.426731
645.024192	2528.138654
645.368112	2515.535769
645.711981	2573.509038
646.055797	2485.288846
646.399562	2450.000769
646.743274	2507.974038
647.086935	2487.809423
647.430544	2495.371154
647.774101	2588.632500
648.117606	2470.165385
648.461059	2523.097500
648.804460	2523.097500
649.147810	2452.521346
649.491108	2422.274423
649.834354	2495.371154
650.177548	2480.247692
650.520690	2560.906154
650.863781	2470.165385
651.206820	2500.412308
651.549807	2417.233269
651.892742	2480.247692
652.235626	2495.371154
652.578458	2505.453462
652.921238	2450.000769
653.263967	2487.809423
653.606644	2596.194231
653.949269	2543.262115
654.291843	2533.179808
654.634365	2505.453462
654.976836	2523.097500
655.319255	2457.562500
655.661622	2500.412308
656.003938	2550.823846
656.346203	2513.015192
656.688416	2525.618077
657.030577	2497.891731
657.372687	2540.741538
657.714746	2475.206538
658.056753	2505.453462
658.398708	2432.356731
658.740612	2507.974038
659.082465	2540.741538
659.424266	2497.891731
659.766016	2533.179808
660.107715	2596.194231
660.449362	2497.891731
660.790958	2515.535769
661.132503	2477.727115
661.473996	2535.700385
661.815438	2502.932885
662.156829	2568.467885
662.498168	2447.480192
662.839456	2462.603654
663.180693	2523.097500
663.521879	2495.371154
663.863013	2563.426731
664.204097	2613.838269
664.545129	2510.494615
664.886110	2444.959615
665.227040	2528.138654
665.567918	2424.795000
665.908746	2515.535769
666.249522	2465.124231
666.590248	2513.015192
666.930922	2553.344423
667.271545	2452.521346
667.612118	2442.439038
667.952639	2497.891731
668.293109	2439.918462
668.633528	2485.288846
668.973896	2515.535769
669.314213	2570.988462
669.654480	2558.385577
669.994695	2455.041923
670.334859	2507.974038
670.674973	2513.015192
671.015035	2495.371154
671.355047	2447.480192
671.695008	2447.480192
672.034918	2492.850577
672.374777	2470.165385
672.714585	2573.509038
673.054342	2543.262115
673.394049	2568.467885
673.733705	2545.782692
674.073310	2520.576923
674.412864	2490.330000
674.752368	2520.576923
675.091820	2548.303269
675.431223	2482.768269
675.770574	2495.371154
676.109875	2470.165385
676.449125	2485.288846
676.788324	2477.727115
677.127473	2495.371154
677.466571	2588.632500
677.805619	2510.494615
678.144616	2553.344423
678.483562	2457.562500
678.822458	2518.056346
679.161303	2543.262115
679.500098	2470.165385
679.838842	2611.317692
680.177535	2543.262115
680.516179	2538.220962
680.854771	2570.988462
681.193314	2429.836154
681.531805	2545.782692
681.870247	2530.659231
682.208638	2502.932885
682.546978	2450.000769
682.885268	2555.865000
683.223508	2563.426731
683.561697	2560.906154
683.899836	2550.823846
684.237925	2394.548077
684.575963	2502.932885
684.913951	2525.618077
685.251889	2510.494615
685.589776	2550.823846
685.927614	2477.727115
686.265401	2460.083077
686.603137	2487.809423
686.940824	2429.836154
687.278460	2520.576923
687.616046	2477.727115
687.953582	2510.494615
688.291068	2467.644808
688.628504	2485.288846
688.965889	2475.206538
689.303224	2518.056346
689.640510	2444.959615
689.977745	2523.097500
690.314930	2513.015192
690.652065	2528.138654
690.989150	2447.480192
691.326185	2543.262115
691.663170	2470.165385
692.000105	2515.535769
692.336990	2573.509038
692.673825	2452.521346
693.010610	2495.371154
693.347345	2414.712692
693.684030	2497.891731
694.020665	2530.659231
694.357251	2480.247692
694.693786	2538.220962
695.030272	2528.138654
695.366707	2427.315577
695.703093	2540.741538
696.039429	2525.618077
696.375716	2492.850577
696.711952	2548.303269
697.048139	2457.562500
697.384276	2439.918462
697.720363	2462.603654
698.056400	2465.124231
698.392388	2573.509038
698.728326	2497.891731
699.064214	2480.247692
699.400053	2475.206538
699.735842	2507.974038
700.071581	2525.618077
700.407270	2457.562500
700.742910	2490.330000
701.078501	2442.439038
701.414042	2523.097500
701.749533	2472.685962
702.084974	2497.891731
702.420366	2480.247692
702.755709	2439.918462
703.091002	2510.494615
703.426246	2495.371154
703.761440	2563.426731
704.096584	2450.000769
704.431679	2596.194231
704.766725	2465.124231
705.101721	2482.768269
705.436668	2586.111923
705.771565	2465.124231
706.106413	2563.426731
706.441212	2482.768269
706.775961	2540.741538
707.110661	2507.974038
707.445311	2553.344423
707.779913	2485.288846
708.114465	2439.918462
708.448967	2500.412308
708.783421	2533.179808
709.117825	2525.618077
709.452180	2442.439038
709.786485	2475.206538
710.120742	2455.041923
710.454949	2560.906154
710.789107	2492.850577
711.123216	2535.700385
711.457275	2568.467885
711.791286	2507.974038
712.125247	2490.330000
712.459159	2485.288846
712.793023	2538.220962
713.126837	2366.821731
713.460602	2548.303269
713.794318	2460.083077
714.127985	2513.015192
714.461602	2442.439038
714.795171	2558.385577
715.128691	2422.274423
715.462162	2510.494615
715.795584	2455.041923
716.128957	2470.165385
716.462281	2462.603654
716.795556	2495.371154
717.128782	2490.330000
717.461960	2568.467885
717.795088	2565.947308
718.128167	2510.494615
718.461198	2548.303269
718.794180	2439.918462
719.127113	2492.850577
719.459997	2502.932885
719.792833	2505.453462
720.125619	2397.068654
720.458357	2500.412308
720.791046	2444.959615
721.123686	2500.412308
721.456278	2452.521346
721.788821	2472.685962
722.121315	2500.412308
722.453761	2457.562500
722.786158	2505.453462
723.118506	2495.371154
723.450805	2555.865000
723.783056	2576.029615
724.115259	2447.480192
724.447412	2467.644808
724.779518	2523.097500
725.111574	2568.467885
725.443582	2497.891731
725.775542	2538.220962
726.107453	2533.179808
726.439315	2535.700385
726.771129	2482.768269
727.102895	2442.439038
727.434612	2452.521346
727.766281	2455.041923
728.097901	2538.220962
728.429473	2520.576923
728.760996	2545.782692
729.092471	2439.918462
729.423897	2477.727115
729.755276	2392.027500
730.086606	2540.741538
730.417887	2492.850577
730.749120	2586.111923
731.080305	2437.397885
731.411442	2495.371154
731.742530	2444.959615
732.073570	2500.412308
732.404562	2427.315577
732.735506	2528.138654
733.066401	2523.097500
733.397249	2593.673654
733.728048	2485.288846
734.058798	2553.344423
734.389501	2538.220962
734.720156	2530.659231
735.050762	2450.000769
735.381320	2553.344423
735.711831	2545.782692
736.042293	2447.480192
736.372707	2520.576923
736.703073	2591.153077
737.033391	2570.988462
737.363661	2397.068654
737.693883	2523.097500
738.024056	2450.000769
738.354182	2490.330000
738.684260	2490.330000
739.014290	2487.809423
739.344272	2510.494615
739.674207	2505.453462
740.004093	2424.795000
740.333931	2515.535769
740.663722	2442.439038
740.993464	2515.535769
741.323159	2487.809423
741.652806	2513.015192
741.982405	2432.356731
742.311956	2525.618077
742.641460	2513.015192
742.970915	2502.932885
743.300323	2581.070769
743.629683	2434.877308
743.958996	2502.932885
744.288260	2520.576923
744.617477	2540.741538
744.946647	2485.288846
745.275768	2447.480192
745.604842	2409.671538
745.933869	2495.371154
746.262847	2490.330000
746.591778	2407.150962
746.920662	2502.932885
747.249498	2414.712692
747.578286	2472.685962
747.907027	2500.412308
748.235720	2467.644808
748.564365	2444.959615
748.892963	2518.056346
749.221514	2480.247692
749.550017	2545.782692
749.878473	2467.644808
750.206881	2497.891731
750.535242	2472.685962
750.863555	2520.576923
751.191821	2578.550192
751.520039	2497.891731
751.848210	2523.097500
752.176334	2460.083077
752.504411	2450.000769
752.832440	2548.303269
753.160421	2477.727115
753.488356	2490.330000
753.816243	2460.083077
754.144082	2480.247692
754.471875	2513.015192
754.799620	2442.439038
755.127318	2455.041923
755.454969	2485.288846
755.782572	2429.836154
756.110129	2490.330000
756.437638	2480.247692
756.765100	2507.974038
757.092515	2447.480192
757.419882	2460.083077
757.747203	2480.247692
758.074477	2480.247692
758.401703	2477.727115
758.728882	2492.850577
759.056014	2525.618077
759.383099	2480.247692
759.710138	2500.412308
760.037129	2442.439038
760.364073	2480.247692
760.690970	2507.974038
761.017820	2530.659231
761.344623	2460.083077
761.671379	2565.947308
761.998088	2576.029615
762.324751	2502.932885
762.651366	2581.070769
762.977935	2525.618077
763.304456	2523.097500
763.630931	2442.439038
763.957359	2429.836154
764.283740	2510.494615
764.610074	2457.562500
764.936362	2520.576923
765.262602	2470.165385
765.588796	2570.988462
765.914943	2485.288846
766.241044	2523.097500
766.567097	2480.247692
766.893104	2424.795000
767.219064	2429.836154
767.544978	2528.138654
767.870845	2500.412308
768.196665	2495.371154
768.522438	2538.220962
768.848165	2525.618077
769.173846	2523.097500
769.499479	2444.959615
769.825066	2553.344423
770.150607	2528.138654
770.476101	2487.809423
770.801548	2515.535769
771.126949	2452.521346
771.452303	2515.535769
771.777611	2523.097500
772.102872	2507.974038
772.428087	2427.315577
772.753256	2460.083077
773.078378	2523.097500
773.403453	2465.124231
773.728482	2538.220962
774.053465	2477.727115
774.378401	2485.288846
774.703291	2530.659231
775.028135	2432.356731
775.352932	2442.439038
775.677683	2497.891731
776.002388	2533.179808
776.327046	2470.165385
776.651658	2535.700385
776.976224	2500.412308
777.300743	2472.685962
777.625216	2545.782692
777.949643	2480.247692
778.274024	2422.274423
778.598359	2505.453462
778.922647	2480.247692
779.246889	2432.356731
779.571086	2535.700385
779.895236	2545.782692
780.219339	2482.768269
780.543397	2505.453462
780.867409	2480.247692
781.191374	2513.015192
781.515294	2507.974038
781.839167	2490.330000
782.162995	2482.768269
782.486776	2450.000769
782.810511	2530.659231
783.134201	2457.562500
783.457844	2505.453462
783.781441	2475.206538
784.104993	2465.124231
784.428498	2505.453462
784.751958	2497.891731
785.075372	2538.220962
785.398739	2477.727115
785.722061	2487.809423
786.045337	2497.891731
786.368568	2427.315577
786.691752	2538.220962
787.014891	2553.344423
787.337983	2467.644808
787.661030	2568.467885
787.984031	2502.932885
788.306987	2608.797115
788.629897	2475.206538
788.952760	2518.056346
789.275579	2518.056346
789.598351	2570.988462
789.921078	2427.315577
790.243759	2472.685962
790.566395	2412.192115
790.888984	2422.274423
791.211529	2505.453462
791.534027	2477.727115
791.856480	2475.206538
792.178888	2495.371154
792.501249	2495.371154
792.823566	2497.891731
793.145836	2568.467885
793.468062	2507.974038
793.790241	2447.480192
794.112375	2462.603654
794.434464	2457.562500
794.756507	2427.315577
795.078505	2528.138654
795.400457	2467.644808
795.722364	2485.288846
796.044226	2482.768269
796.366042	2497.891731
796.687812	2472.685962
797.009538	2467.644808
797.331218	2492.850577
797.652852	2444.959615
797.974442	2462.603654
798.295986	2419.753846
798.617484	2543.262115
798.938938	2450.000769
799.260346	2618.879423
799.581709	2525.618077
799.903026	2455.041923
800.224299	2475.206538
800.545526	2555.865000
800.866708	2457.562500
801.187845	2502.932885
801.508936	2457.562500
801.829983	2528.138654
802.150984	2502.932885
802.471940	2447.480192
802.792851	2545.782692
803.113717	2452.521346
803.434538	2588.632500
803.755314	2520.576923
804.076045	2553.344423
804.396731	2492.850577
804.717372	2460.083077
805.037967	2533.179808
805.358518	2495.371154
805.679024	2439.918462
805.999485	2535.700385
806.319901	2530.659231
806.640272	2611.317692
806.960598	2573.509038
807.280879	2515.535769
807.601115	2437.397885
807.921306	2535.700385
808.241453	2450.000769
808.561554	2465.124231
808.881611	2457.562500
809.201623	2528.138654
809.521590	2538.220962
809.841513	2434.877308
810.161390	2487.809423
810.481223	2477.727115
810.801011	2502.932885
811.120755	2518.056346
811.440453	2553.344423
811.760107	2437.397885
812.079716	2437.397885
812.399281	2530.659231
812.718801	2477.727115
813.038276	2581.070769
813.357707	2492.850577
813.677093	2568.467885
813.996434	2460.083077
814.315731	2523.097500
814.634983	2550.823846
814.954191	2520.576923
815.273354	2543.262115
815.592473	2465.124231
815.911547	2505.453462
816.230577	2470.165385
816.549562	2495.371154
816.868502	2515.535769
817.187399	2518.056346
817.506250	2497.891731
817.825058	2460.083077
818.143821	2497.891731
818.462539	2432.356731
818.781213	2462.603654
819.099843	2518.056346
819.418429	2475.206538
819.736970	2477.727115
820.055466	2500.412308
820.373919	2455.041923
820.692327	2407.150962
821.010691	2427.315577
821.329011	2507.974038
821.647286	2460.083077
821.965517	2578.550192
822.283704	2457.562500
822.601847	2492.850577
822.919945	2422.274423
823.237999	2404.630385
823.556010	2538.220962
823.873976	2467.644808
824.191897	2500.412308
824.509775	2485.288846
824.827609	2472.685962
825.145398	2538.220962
825.463144	2462.603654
825.780845	2535.700385
826.098502	2518.056346
826.416116	2480.247692
826.733685	2492.850577
827.051210	2399.589231
827.368692	2447.480192
827.686129	2538.220962
828.003522	2490.330000
828.320872	2515.535769
828.638177	2480.247692
828.955439	2548.303269
829.272656	2528.138654
829.589830	2485.288846
829.906960	2553.344423
830.224046	2455.041923
830.541088	2452.521346
830.858086	2553.344423
831.175041	2432.356731
831.491952	2515.535769
831.808819	2573.509038
832.125642	2490.330000
832.442421	2530.659231
832.759157	2409.671538
833.075849	2518.056346
833.392497	2495.371154
833.709101	2510.494615
834.025662	2450.000769
834.342179	2500.412308
834.658653	2442.439038
834.975083	2477.727115
835.291469	2455.041923
835.607811	2530.659231
835.924110	2450.000769
836.240366	2485.288846
836.556578	2452.521346
836.872746	2593.673654
837.188871	2555.865000
837.504952	2429.836154
837.820990	2477.727115
838.136984	2601.235385
838.452935	2520.576923
838.768842	2477.727115
839.084706	2465.124231
839.400526	2472.685962
839.716303	2444.959615
840.032037	2510.494615
840.347727	2502.932885
840.663373	2457.562500
840.978977	2460.083077
841.294537	2523.097500
841.610054	2515.535769
841.925527	2510.494615
842.240957	2563.426731
842.556344	2565.947308
842.871687	2520.576923
843.186987	2558.385577
843.502244	2444.959615
843.817458	2565.947308
844.132629	2427.315577
844.447756	2475.206538
844.762840	2412.192115
845.077881	2502.932885
845.392879	2548.303269
845.707833	2447.480192
846.022745	2412.192115
846.337613	2444.959615
846.652438	2444.959615
846.967221	2442.439038
847.281960	2497.891731
847.596656	2465.124231
847.911309	2528.138654
848.225919	2457.562500
848.540485	2465.124231
848.855009	2407.150962
849.169490	2467.644808
849.483928	2568.467885
849.798323	2568.467885
850.112675	2513.015192
850.426984	2507.974038
850.741251	2513.015192
851.055474	2497.891731
851.369654	2477.727115
851.683792	2470.165385
851.997887	2492.850577
852.311938	2495.371154
852.625947	2523.097500
852.939914	2427.315577
853.253837	2525.618077
853.567718	2485.288846
853.881555	2538.220962
854.195350	2364.301154
854.509103	2447.480192
854.822812	2422.274423
855.136479	2507.974038
855.450103	2487.809423
855.763685	2447.480192
856.077224	2477.727115
856.390720	2404.630385
856.704173	2497.891731
857.017584	2472.685962
857.330953	2518.056346
857.644278	2442.439038
857.957561	2482.768269
858.270802	2518.056346
858.584000	2525.618077
858.897155	2442.439038
859.210268	2485.288846
859.523339	2485.288846
859.836367	2523.097500
860.149352	2588.632500
860.462295	2510.494615
860.775195	2507.974038
861.088054	2518.056346
861.400869	2515.535769
861.713642	2533.179808
862.026373	2485.288846
862.339062	2507.974038
862.651708	2543.262115
862.964312	2457.562500
863.276873	2465.124231
863.589392	2457.562500
863.901869	2533.179808
864.214303	2515.535769
864.526696	2492.850577
864.839045	2487.809423
865.151353	2467.644808
865.463619	2570.988462
865.775842	2528.138654
866.088023	2485.288846
866.400162	2497.891731
866.712258	2487.809423
867.024313	2485.288846
867.336325	2533.179808
867.648296	2462.603654
867.960224	2397.068654
868.272110	2422.274423
868.583954	2442.439038
868.895755	2384.465769
869.207515	2535.700385
869.519233	2467.644808
869.830909	2455.041923
870.142542	2525.618077
870.454134	2462.603654
870.765684	2472.685962
871.077191	2507.974038
871.388657	2482.768269
871.700081	2513.015192
872.011463	2434.877308
872.322803	2475.206538
872.634101	2417.233269
872.945357	2485.288846
873.256571	2450.000769
873.567744	2558.385577
873.878874	2437.397885
874.189963	2563.426731
874.501010	2472.685962
874.812015	2485.288846
875.122979	2457.562500
875.433900	2467.644808
875.744780	2586.111923
876.055618	2480.247692
876.366415	2482.768269
876.677169	2507.974038
876.987882	2558.385577
877.298554	2462.603654
877.609183	2530.659231
877.919771	2505.453462
878.230317	2588.632500
878.540822	2467.644808
878.851285	2444.959615
879.161707	2460.083077
879.472087	2492.850577
879.782425	2538.220962
880.092722	2492.850577
880.402977	2518.056346
880.713191	2495.371154
881.023363	2485.288846
881.333494	2502.932885
881.643583	2555.865000
881.953631	2472.685962
882.263637	2492.850577
882.573602	2467.644808
882.883526	2359.260000
883.193408	2502.932885
883.503248	2535.700385
883.813048	2520.576923
884.122806	2507.974038
884.432522	2490.330000
884.742197	2455.041923
885.051831	2462.603654
885.361424	2510.494615
885.670975	2538.220962
885.980485	2500.412308
886.289954	2523.097500
886.599382	2485.288846
886.908768	2465.124231
887.218113	2513.015192
887.527417	2394.548077
887.836680	2480.247692
888.145901	2462.603654
888.455082	2528.138654
888.764221	2530.659231
889.073319	2497.891731
889.382376	2465.124231
889.691392	2505.453462
890.000366	2437.397885
890.309300	2535.700385
890.618193	2507.974038
890.927044	2543.262115
891.235855	2492.850577
891.544625	2482.768269
891.853353	2513.015192
892.162041	2568.467885
892.470687	2555.865000
892.779293	2444.959615
893.087858	2465.124231
893.396381	2475.206538
893.704864	2472.685962
894.013306	2467.644808
894.321707	2477.727115
894.630068	2402.109808
894.938387	2528.138654
895.246665	2485.288846
895.554903	2538.220962
895.863100	2492.850577
896.171256	2545.782692
896.479371	2583.591346
896.787446	2487.809423
897.095480	2538.220962
897.403473	2505.453462
897.711425	2523.097500
898.019336	2510.494615
898.327207	2472.685962
898.635038	2497.891731
898.942827	2472.685962
899.250576	2490.330000
899.558284	2460.083077
899.865952	2505.453462
900.173579	2417.233269
900.481165	2550.823846
900.788711	2515.535769
901.096216	2434.877308
901.403681	2548.303269
901.711105	2497.891731
902.018489	2424.795000
902.325832	2533.179808
902.633135	2432.356731
902.940397	2528.138654
903.247619	2513.015192
903.554800	2452.521346
903.861941	2495.371154
904.169041	2560.906154
904.476101	2482.768269
904.783121	2500.412308
905.090100	2379.424615
905.397039	2452.521346
905.703938	2485.288846
906.010796	2515.535769
906.317614	2460.083077
906.624391	2500.412308
906.931129	2439.918462
907.237826	2528.138654
907.544483	2477.727115
907.851099	2485.288846
908.157675	2419.753846
908.464211	2455.041923
908.770707	2437.397885
909.077163	2442.439038
909.383578	2462.603654
909.689954	2555.865000
909.996289	2487.809423
910.302584	2558.385577
910.608839	2555.865000
910.915054	2475.206538
911.221229	2538.220962
911.527363	2432.356731
911.833458	2528.138654
912.139513	2538.220962
912.445527	2422.274423
912.751502	2492.850577
913.057436	2455.041923
913.363331	2543.262115
913.669186	2482.768269
913.975000	2480.247692
914.280775	2460.083077
914.586510	2543.262115
914.892205	2490.330000
915.197859	2505.453462
915.503475	2525.618077
915.809050	2444.959615
916.114585	2480.247692
916.420081	2515.535769
916.725536	2563.426731
917.030952	2482.768269
917.336328	2497.891731
917.641665	2475.206538
917.946961	2528.138654
918.252218	2560.906154
918.557435	2505.453462
918.862612	2487.809423
919.167750	2447.480192
919.472848	2553.344423
919.777906	2495.371154
920.082925	2528.138654
920.387904	2487.809423
920.692843	2543.262115
920.997743	2495.371154
921.302603	2477.727115
921.607423	2467.644808
921.912204	2452.521346
922.216946	2500.412308
922.521647	2502.932885
922.826310	2513.015192
923.130932	2487.809423
923.435516	2560.906154
923.740059	2455.041923
924.044564	2576.029615
924.349028	2480.247692
924.653454	2462.603654
924.957840	2490.330000
925.262186	2507.974038
925.566493	2507.974038
925.870761	2520.576923
926.174989	2510.494615
926.479178	2505.453462
926.783328	2538.220962
927.087438	2523.097500
927.391509	2480.247692
927.695541	2565.947308
927.999533	2417.233269
928.303486	2513.015192
928.607400	2470.165385
928.911275	2490.330000
929.215110	2422.274423
929.518906	2507.974038
929.822663	2520.576923
930.126381	2535.700385
930.430060	2409.671538
930.733699	2465.124231
931.037299	2528.138654
931.340861	2460.083077
931.644383	2533.179808
931.947866	2480.247692
932.251309	2502.932885
932.554714	2397.068654
932.858080	2429.836154
933.161407	2434.877308
933.464694	2480.247692
933.767943	2475.206538
934.071153	2472.685962
934.374323	2444.959615
934.677455	2502.932885
934.980548	2444.959615
935.283602	2432.356731
935.586617	2621.400000
935.889593	2497.891731
936.192530	2460.083077
936.495428	2538.220962
936.798287	2540.741538
937.101108	2470.165385
937.403890	2462.603654
937.706632	2545.782692
938.009336	2507.974038
938.312002	2581.070769
938.614628	2450.000769
938.917216	2505.453462
939.219765	2502.932885
939.522275	2467.644808
939.824747	2480.247692
940.127179	2530.659231
940.429573	2472.685962
940.731929	2500.412308
941.034246	2472.685962
941.336524	2470.165385
941.638763	2439.918462
941.940964	2419.753846
942.243126	2565.947308
942.545250	2485.288846
942.847335	2535.700385
943.149381	2439.918462
943.451389	2581.070769
943.753359	2477.727115
944.055290	2533.179808
944.357182	2502.932885
944.659036	2510.494615
944.960851	2465.124231
945.262628	2442.439038
945.564367	2455.041923
945.866067	2565.947308
946.167729	2540.741538
946.469352	2402.109808
946.770937	2424.795000
947.072484	2442.439038
947.373992	2427.315577
947.675462	2505.453462
947.976893	2455.041923
948.278286	2427.315577
948.579641	2495.371154
948.880958	2492.850577
949.182236	2533.179808
949.483476	2513.015192
949.784678	2523.097500
950.085841	2432.356731
950.386967	2455.041923
950.688054	2535.700385
950.989103	2444.959615
951.290114	2460.083077
951.591087	2490.330000
951.892021	2427.315577
952.192917	2482.768269
952.493776	2447.480192
952.794596	2465.124231
953.095378	2540.741538
953.396122	2528.138654
953.696828	2525.618077
953.997496	2523.097500
954.298126	2497.891731
954.598718	2591.153077
954.899272	2467.644808
955.199788	2477.727115
955.500266	2470.165385
955.800706	2432.356731
956.101108	2450.000769
956.401472	2518.056346
956.701798	2518.056346
957.002087	2500.412308
957.302337	2439.918462
957.602550	2450.000769
957.902724	2462.603654
958.202861	2523.097500
958.502960	2495.371154
958.803022	2505.453462
959.103045	2460.083077
959.403031	2596.194231
959.702979	2505.453462
960.002889	2447.480192
960.302762	2507.974038
960.602596	2455.041923
960.902393	2518.056346
961.202153	2523.097500
961.501875	2553.344423
961.801559	2507.974038
962.101205	2487.809423
962.400814	2422.274423
962.700385	2470.165385
962.999918	2379.424615
963.299414	2523.097500
963.598873	2477.727115
963.898293	2510.494615
964.197677	2450.000769
964.497022	2576.029615
964.796331	2495.371154
965.095601	2533.179808
965.394835	2490.330000
965.694030	2505.453462
965.993189	2457.562500
966.292309	2487.809423
966.591393	2560.906154
966.890439	2475.206538
967.189447	2427.315577
967.488419	2548.303269
967.787353	2533.179808
968.086249	2560.906154
968.385108	2447.480192
968.683930	2482.768269
968.982714	2548.303269
969.281462	2621.400000
969.580172	2470.165385
969.878844	2497.891731
970.177480	2439.918462
970.476078	2487.809423
970.774639	2384.465769
971.073162	2515.535769
971.371649	2402.109808
971.670098	2495.371154
971.968510	2432.356731
972.266885	2538.220962
972.565223	2412.192115
972.863524	2450.000769
973.161788	2472.685962
973.460014	2465.124231
973.758204	2437.397885
974.056356	2490.330000
974.354471	2500.412308
974.652550	2419.753846
974.950591	2497.891731
975.248595	2487.809423
975.546563	2490.330000
975.844493	2490.330000
976.142386	2475.206538
976.440243	2437.397885
976.738062	2538.220962
977.035845	2490.330000
977.333590	2515.535769
977.631299	2452.521346
977.928971	2432.356731
978.226606	2518.056346
978.524204	2490.330000
978.821765	2533.179808
979.119290	2480.247692
979.416777	2434.877308
979.714228	2492.850577
980.011642	2450.000769
980.309020	2530.659231
980.606360	2475.206538
980.903664	2462.603654
981.200931	2349.177692
981.498162	2560.906154
981.795356	2520.576923
982.092513	2518.056346
982.389633	2490.330000
982.686717	2535.700385
982.983764	2510.494615
983.280775	2530.659231
983.577749	2462.603654
983.874686	2515.535769
984.171587	2442.439038
984.468451	2495.371154
984.765279	2475.206538
985.062070	2485.288846
985.358824	2437.397885
985.655543	2490.330000
985.952224	2402.109808
986.248869	2548.303269
986.545478	2457.562500
986.842050	2553.344423
987.138586	2389.506923
987.435086	2525.618077
987.731549	2376.904038
988.027975	2513.015192
988.324366	2424.795000
988.620719	2560.906154
988.917037	2467.644808
989.213318	2442.439038
989.509563	2520.576923
989.805772	2518.056346
990.101944	2439.918462
990.398080	2513.015192
990.694180	2565.947308
990.990244	2480.247692
991.286271	2507.974038
991.582262	2460.083077
991.878217	2424.795000
992.174136	2472.685962
992.470019	2510.494615
992.765865	2538.220962
993.061676	2480.247692
993.357450	2467.644808
993.653188	2349.177692
993.948890	2535.700385
994.244556	2462.603654
994.540186	2495.371154
994.835780	2578.550192
995.131337	2470.165385
995.426859	2371.862885
995.722345	2530.659231
996.017795	2518.056346
996.313208	2538.220962
996.608586	2586.111923
996.903928	2515.535769
997.199234	2485.288846
997.494504	2427.315577
997.789738	2442.439038
998.084936	2533.179808
998.380099	2442.439038
998.675225	2482.768269
998.970316	2437.397885
999.265371	2495.371154
999.560390	2525.618077
999.855373	2530.659231
1000.150320	2429.836154
1000.445232	2492.850577
1000.740108	2513.015192
1001.034948	2452.521346
1001.329752	2465.124231
1001.624521	2485.288846
1001.919254	2500.412308
1002.213951	2520.576923
1002.508613	2460.083077
1002.803239	2533.179808
1003.097829	2422.274423
1003.392384	2535.700385
1003.686903	2545.782692
1003.981386	2485.288846
1004.275834	2460.083077
1004.570246	2530.659231
1004.864623	2432.356731
1005.158964	2568.467885
1005.453270	2523.097500
1005.747540	2460.083077
1006.041775	2470.165385
1006.335974	2490.330000
1006.630138	2513.015192
1006.924266	2429.836154
1007.218359	2485.288846
1007.512416	2475.206538
1007.806438	2500.412308
1008.100425	2439.918462
1008.394376	2444.959615
1008.688292	2442.439038
1008.982172	2482.768269
1009.276017	2545.782692
1009.569827	2555.865000
1009.863602	2472.685962
1010.157341	2480.247692
1010.451045	2490.330000
1010.744714	2452.521346
1011.038347	2563.426731
1011.331945	2540.741538
1011.625508	2510.494615
1011.919036	2485.288846
1012.212528	2424.795000
1012.505986	2490.330000
1012.799408	2444.959615
1013.092795	2535.700385
1013.386147	2477.727115
1013.679464	2472.685962
1013.972745	2460.083077
1014.265992	2518.056346
1014.559204	2462.603654
1014.852380	2447.480192
1015.145521	2495.371154
1015.438628	2545.782692
1015.731699	2497.891731
1016.024736	2601.235385
1016.317737	2467.644808
1016.610703	2412.192115
1016.903635	2442.439038
1017.196531	2417.233269
1017.489393	2465.124231
1017.782219	2427.315577
1018.075011	2455.041923
1018.367768	2611.317692
1018.660490	2452.521346
1018.953177	2452.521346
1019.245829	2452.521346
