Dividing Wavelength (nm)	Counts (n)	Blue Motor Position (mm): 0.000000	Red Motor Position (mm): 3.500000	
326.493990	2150.142856
326.888308	2150.142856
327.282561	2150.142856
327.676750	2124.115379
328.070874	2125.506737
328.464933	2131.044445
328.858929	2140.602473
329.252859	2154.800882
329.646726	2164.242963
330.040528	2180.394820
330.434265	2198.265711
330.827938	2219.158773
331.221547	2237.606875
331.615091	2255.833167
332.008571	2279.430808
332.401986	2298.751030
332.795338	2319.510502
333.188625	2338.916424
333.581847	2356.754547
333.975006	2377.088041
334.368100	2391.840977
334.761129	2413.250758
335.154095	2428.225505
335.546996	2446.015737
335.939833	2458.711883
336.332606	2472.368369
336.725315	2484.174751
337.117960	2492.999291
337.510540	2500.424911
337.903056	2509.481343
338.295508	2515.402179
338.687896	2522.485000
339.080220	2532.095960
339.472480	2538.848585
339.864676	2540.005530
340.256807	2542.573998
340.648875	2543.998124
341.040879	2548.651109
341.432818	2549.782848
341.824694	2551.338044
342.216506	2549.946685
342.608253	2549.172868
342.999937	2549.571119
343.391557	2547.889895
343.783113	2544.587939
344.174605	2544.091385
344.566033	2544.093906
344.957397	2543.113401
345.348697	2539.690458
345.739934	2540.900335
346.131106	2536.539737
346.522215	2536.814480
346.913260	2532.237112
347.304241	2530.714683
347.695159	2527.911802
348.086012	2526.964065
348.476802	2525.580268
348.867528	2527.390043
349.258191	2524.995494
349.648789	2524.231760
350.039324	2522.306039
350.429796	2523.989784
350.820203	2518.898219
351.210548	2520.057684
351.600828	2519.450225
351.991045	2516.796058
352.381198	2519.712365
352.771288	2516.992663
353.161314	2518.762108
353.551276	2517.887468
353.941175	2519.659433
354.331010	2517.201871
354.720782	2518.434433
355.110490	2517.675739
355.500135	2518.804958
355.889717	2518.134484
356.279235	2514.603156
356.668689	2519.906450
357.058080	2521.023065
357.447408	2516.239010
357.836672	2516.294463
358.225873	2518.043743
358.615010	2518.447036
359.004084	2519.430061
359.393095	2524.987933
359.782043	2525.643283
360.170927	2521.748991
360.559748	2524.312418
360.948505	2525.625639
361.337199	2522.873169
361.725830	2524.287212
362.114398	2525.446678
362.502903	2522.563138
362.891344	2528.680578
363.279722	2524.834178
363.668037	2525.182017
364.056289	2524.836698
364.444478	2526.724610
364.832603	2527.208561
365.220665	2526.805269
365.608665	2526.228057
365.996601	2530.863398
366.384474	2528.529343
366.772284	2528.723428
367.160031	2530.845753
367.547715	2529.923222
367.935336	2532.496731
368.322893	2530.903727
368.710388	2531.425486
369.097820	2532.887421
369.485189	2531.065044
369.872495	2531.052441
370.259738	2529.872811
370.646918	2532.879859
371.034035	2532.088398
371.421090	2535.229037
371.808081	2533.530168
372.195010	2533.520086
372.581875	2537.774819
372.968678	2537.555529
373.355418	2536.406146
373.742096	2537.815149
374.128710	2537.573173
374.515262	2537.222813
374.901751	2539.430838
375.288177	2540.544933
375.674540	2539.231713
376.060841	2540.925541
376.447079	2542.251364
376.833254	2542.926879
377.219367	2539.652649
377.605417	2542.800850
377.991404	2541.412012
378.377329	2544.204811
378.763191	2546.135573
379.148991	2549.089689
379.534727	2550.811243
379.920402	2552.711758
380.306013	2552.200081
380.691563	2556.989177
381.077049	2554.972716
381.462474	2558.927501
381.847835	2559.698798
382.233134	2562.060578
382.618371	2560.691905
383.003545	2564.535785
383.388657	2564.936556
383.773706	2568.898903
384.158693	2569.161043
384.543618	2570.254974
384.928480	2570.839747
385.313280	2573.060376
385.698017	2573.657752
386.082692	2575.379307
386.467305	2573.849316
386.851856	2576.569019
387.236344	2576.546334
387.620770	2580.511201
388.005133	2580.317117
388.389435	2582.590677
388.773674	2580.596901
389.157851	2578.759400
389.541965	2580.301993
389.926018	2581.012796
390.310008	2577.751169
390.693936	2581.131263
391.077802	2578.252764
391.461606	2579.197981
391.845348	2582.424319
392.229027	2579.634040
392.612645	2578.769482
392.996200	2576.442990
393.379694	2576.231262
393.763125	2573.476271
394.146494	2575.429718
394.529801	2572.498287
394.913047	2570.663307
395.296230	2573.415777
395.679351	2569.256825
396.062410	2567.704150
396.445408	2563.061247
396.828343	2564.641649
397.211217	2561.400187
397.594028	2553.868703
397.976778	2556.419527
398.359466	2556.790052
398.742092	2554.004814
399.124656	2557.455484
399.507158	2555.852397
399.889598	2554.584547
400.271977	2556.507747
400.654294	2555.239897
401.036549	2555.381049
401.418742	2551.945503
401.800874	2551.348126
402.182944	2552.618497
402.564952	2552.588250
402.946898	2551.431305
403.328783	2553.420040
403.710606	2552.449618
404.092367	2550.733105
404.474067	2552.487427
404.855705	2550.491130
405.237282	2551.622869
405.618797	2549.102292
406.000250	2553.291491
406.381642	2553.475493
406.762972	2553.503219
407.144240	2552.447098
407.525447	2554.153528
407.906593	2552.416851
408.287677	2553.420040
408.668700	2554.196378
409.049661	2552.404248
409.430560	2551.141439
409.811399	2555.940617
410.192176	2554.030020
410.572891	2552.411810
410.953545	2552.530277
411.334138	2554.516491
411.714669	2554.231666
412.095139	2554.319886
412.475547	2554.824002
412.855894	2552.784855
413.236180	2553.856100
413.616405	2557.309291
413.996568	2553.452808
414.376670	2557.727706
414.756711	2556.669064
415.136691	2555.421378
415.516609	2553.296532
415.896466	2554.743343
416.276262	2557.374826
416.655997	2552.915925
417.035670	2553.180586
417.415283	2553.190668
417.794834	2552.915925
418.174324	2552.865513
418.553753	2556.129661
418.933121	2556.364074
419.312428	2556.356513
419.691674	2558.282233
420.070859	2556.364074
420.449983	2553.228477
420.829045	2556.409445
421.208047	2557.090000
421.586988	2557.624363
421.965867	2557.800803
422.344686	2557.536142
422.723444	2556.495144
423.102141	2557.659651
423.480777	2559.169476
423.859352	2557.246276
424.237866	2559.439178
424.616319	2560.409600
424.994712	2558.403221
425.373044	2562.005125
425.751314	2562.156360
426.129524	2558.985474
426.507673	2561.054868
426.885762	2558.007490
427.263789	2558.693087
427.641756	2558.735937
428.019662	2561.516133
428.397508	2559.963458
428.775292	2558.710731
429.153016	2560.545711
429.530679	2562.902451
429.908282	2560.467573
430.285824	2563.653583
430.663305	2562.844477
431.040726	2559.797100
431.418086	2561.072512
431.795385	2560.548232
432.172624	2559.666030
432.549802	2562.030331
432.926920	2564.182904
433.303977	2561.130485
433.680974	2559.943293
434.057910	2564.034190
434.434786	2559.134188
434.811601	2561.831206
435.188355	2559.504713
435.565050	2562.715928
435.941683	2564.077040
436.318257	2559.071174
436.694770	2556.943807
437.071222	2557.256358
437.447614	2559.416493
437.823946	2555.249979
438.200218	2562.708366
438.576429	2562.395815
438.952580	2561.816082
439.328670	2562.902451
439.704700	2561.909343
440.080670	2563.202399
440.456580	2560.845660
440.832429	2563.497307
441.208218	2562.599982
441.583947	2562.839436
441.959616	2565.246587
442.335224	2565.455795
442.710773	2566.521999
443.086261	2563.469581
443.461689	2563.157029
443.837057	2565.092832
444.212365	2563.303223
444.587612	2564.162739
444.962800	2564.218192
445.337927	2564.213151
445.712995	2566.080898
446.088002	2565.296999
446.462949	2563.767009
446.837837	2566.743810
447.212664	2566.917730
447.587431	2564.966803
447.962139	2564.382029
448.336786	2566.930333
448.711374	2563.920764
449.085901	2565.796073
449.460369	2566.796742
449.834776	2567.164746
450.209124	2564.475291
450.583412	2565.526371
450.957640	2564.180383
451.331808	2567.089129
451.705917	2565.861608
452.079965	2568.036866
452.453954	2566.693398
452.827883	2566.998388
453.201752	2565.193655
453.575562	2567.956207
453.949311	2565.687688
454.323001	2568.533420
454.696632	2564.659293
455.070202	2568.097360
455.443713	2567.356310
455.817164	2564.873542
456.190556	2562.219374
456.563888	2563.726679
456.937160	2562.385732
457.310373	2566.766495
457.683526	2563.792214
458.056619	2568.510734
458.429653	2566.854715
458.802628	2567.268090
459.175542	2567.111814
459.548398	2570.118862
459.921194	2568.631722
460.293930	2567.857905
460.666607	2570.234809
461.039224	2568.419994
461.411782	2566.043090
461.784280	2569.977710
462.156719	2568.276321
462.529099	2570.234809
462.901419	2566.925292
463.273680	2569.597103
463.645882	2566.988306
464.018024	2567.734397
464.390106	2569.667679
464.762130	2569.269428
465.134094	2570.446537
465.505999	2571.890828
465.877845	2569.526527
466.249631	2570.035683
466.621358	2570.391085
466.993026	2572.921744
467.364634	2574.348391
467.736184	2568.641804
468.107674	2567.925961
468.479105	2570.847309
468.850477	2569.768502
469.221790	2569.662638
469.593043	2570.529717
469.964238	2570.121383
470.335373	2570.164233
470.706449	2571.893349
471.077467	2569.771023
471.448425	2569.415622
471.819324	2570.343194
472.190164	2570.164233
472.560945	2569.314798
472.931667	2571.933678
473.302330	2568.558625
473.672934	2569.193811
474.043479	2571.996692
474.413965	2571.278328
474.784393	2566.227092
475.154761	2568.757751
475.525070	2567.840261
475.895321	2565.367575
476.265513	2566.491752
476.635645	2569.095508
477.005719	2571.590879
477.375734	2571.011147
477.745691	2571.855540
478.115588	2569.758420
478.485427	2572.427711
478.855207	2571.721949
479.224928	2570.774212
479.594591	2570.431414
479.964194	2571.197669
480.333739	2572.042063
480.703226	2574.043401
481.072653	2570.481826
481.442022	2571.827814
481.811333	2574.446693
482.180584	2572.009295
482.549777	2571.051476
482.918912	2570.749007
483.287988	2571.545509
483.657005	2570.217165
484.025964	2571.943760
484.394864	2570.144068
484.763706	2571.810170
485.132489	2570.935529
485.501213	2573.345201
485.869879	2569.604665
486.238487	2571.394274
486.607036	2572.178174
486.975527	2572.851168
487.343959	2573.032649
487.712333	2574.522310
488.080648	2572.470561
488.448905	2573.047773
488.817104	2570.547361
489.185244	2574.849985
489.553326	2571.721949
489.921350	2573.130952
490.289315	2572.606672
490.657222	2572.904100
491.025070	2572.266394
491.392861	2576.846282
491.760593	2571.152299
492.128267	2575.439800
492.495883	2573.751014
492.863440	2575.964080
493.230939	2570.428893
493.598380	2574.527352
493.965763	2566.806824
494.333088	2569.753379
494.700354	2570.169274
495.067563	2572.163050
495.434713	2571.366548
495.801805	2571.532906
496.168839	2573.753534
496.535815	2571.805128
496.902733	2573.254460
497.269593	2571.926116
497.636395	2575.444842
498.003139	2575.457444
498.369825	2572.883935
498.736453	2573.637588
499.103023	2574.071127
499.469535	2575.505335
499.835989	2573.390571
500.202385	2572.110118
500.568723	2575.701940
500.935003	2575.407033
501.301226	2574.855027
501.667390	2573.398133
502.033497	2577.262177
502.399546	2572.576425
502.765537	2574.701271
503.131470	2573.224213
503.497345	2574.633216
503.863163	2576.561457
504.228923	2574.595407
504.594625	2576.498443
504.960269	2572.422670
505.325856	2575.815366
505.691385	2574.834862
506.056856	2572.430232
506.422270	2575.288566
506.787625	2576.591704
507.152924	2572.833524
507.518164	2574.441652
507.883347	2575.727146
508.248472	2573.579615
508.613540	2572.435273
508.978550	2575.994327
509.343503	2572.760427
509.708398	2574.779409
510.073236	2574.441652
510.438016	2574.330747
510.802738	2573.042732
511.167403	2576.967270
511.532010	2576.115315
511.896561	2571.749676
512.261053	2576.206056
512.625488	2571.457289
512.989866	2573.756055
513.354186	2572.984758
513.718449	2569.899572
514.082655	2575.396951
514.446803	2575.235634
514.810894	2572.790674
515.174927	2576.145562
515.538904	2574.325705
515.902822	2571.580797
516.266684	2575.318813
516.630488	2576.735377
516.994235	2576.216138
517.357925	2574.086251
517.721558	2576.211097
518.085133	2575.091961
518.448651	2577.115984
518.812112	2576.178329
519.175516	2578.217476
519.538863	2575.016343
519.902152	2576.011971
520.265385	2573.161199
520.628560	2574.905438
520.991678	2575.202866
521.354739	2575.197825
521.717743	2574.426528
522.080690	2574.348391
522.443580	2572.831003
522.806413	2577.514235
523.169189	2578.088927
523.531908	2576.087589
523.894569	2575.197825
524.257174	2577.673032
524.619722	2573.831672
524.982213	2576.874009
525.344647	2574.025757
525.707025	2574.890315
526.069345	2575.923751
526.431608	2574.260170
526.793815	2572.261353
527.155964	2574.955850
527.518057	2576.621951
527.880093	2578.252764
528.242072	2573.776220
528.603995	2575.883422
528.965860	2576.132959
529.327669	2575.142372
529.689421	2574.119018
530.051117	2577.851993
530.412755	2576.712692
530.774337	2574.751683
531.135862	2577.688155
531.497331	2574.441652
531.858743	2570.552402
532.220098	2572.135324
532.581396	2570.345714
532.942638	2574.252609
533.303824	2575.366704
533.664953	2576.090109
534.026025	2577.604976
534.387040	2577.630182
534.747999	2575.573391
535.108902	2579.019020
535.469748	2575.341498
535.830537	2573.945098
536.191270	2578.005748
536.551947	2573.874522
536.912567	2576.299317
537.273131	2578.353587
537.633638	2576.049780
537.994089	2575.853175
538.354483	2578.144379
538.714821	2573.879563
539.075103	2574.701271
539.435328	2575.966601
539.795497	2575.510377
540.155609	2579.142528
540.515665	2575.522979
540.875665	2575.787640
541.235609	2576.609348
541.595496	2579.621437
541.955328	2575.223031
542.315102	2575.258319
542.674821	2574.509708
543.034483	2578.003227
543.394090	2577.249575
543.753640	2575.848134
544.113134	2576.211097
544.472571	2578.353587
544.831953	2576.785788
545.191278	2576.185891
545.550548	2575.522979
545.909761	2573.254460
546.268918	2574.797053
546.628019	2575.805284
546.987064	2577.927610
547.346053	2575.333936
547.704986	2578.628330
548.063863	2574.618092
548.422684	2576.332085
548.781449	2577.224369
549.140158	2578.194791
549.498811	2575.893504
549.857408	2575.303689
550.215949	2575.328895
550.574434	2573.196487
550.932864	2573.214131
551.291237	2573.272104
551.649555	2575.346539
552.007817	2577.932651
552.366022	2578.600604
552.724173	2579.271077
553.082267	2576.180850
553.440305	2576.682445
553.798288	2577.499112
554.156215	2576.637074
554.514086	2575.591035
554.871902	2577.985583
555.229661	2575.613720
555.587365	2576.533731
555.945014	2577.070614
556.302606	2580.576736
556.660143	2575.890984
557.017625	2577.292424
557.375050	2575.328895
557.732421	2575.071796
558.089735	2574.222362
558.446994	2576.574060
558.804197	2577.347877
559.161345	2578.383834
559.518437	2576.929461
559.875474	2577.673032
560.232455	2577.063052
560.589381	2576.390058
560.946251	2578.280491
561.303065	2577.534400
561.659825	2574.802094
562.016528	2575.512897
562.373177	2574.565160
562.729770	2574.993658
563.086307	2578.151941
563.442789	2574.552557
563.799216	2579.177816
564.155587	2577.332754
564.511904	2575.795202
564.868164	2575.122208
565.224370	2576.705130
565.580520	2577.630182
565.936615	2577.743608
566.292654	2577.678073
566.648638	2575.709502
567.004567	2575.785119
567.360441	2576.934502
567.716260	2576.153124
568.072023	2579.523135
568.427732	2574.487022
568.783385	2573.148596
569.138982	2575.049111
569.494525	2572.243709
569.850013	2574.396282
570.205445	2576.997517
570.560823	2577.163875
570.916145	2577.836869
571.271412	2578.416602
571.626625	2574.577763
571.981782	2575.023905
572.336884	2575.548185
572.691931	2574.741601
573.046923	2576.420305
573.401860	2574.809656
573.756743	2579.145048
574.111570	2575.036508
574.466342	2578.772003
574.821059	2576.687486
575.175722	2577.725964
575.530330	2574.991138
575.884882	2576.430387
576.239380	2575.724626
576.593823	2578.973649
576.948211	2575.497774
577.302544	2577.042887
577.656823	2576.243864
578.011047	2578.416602
578.365216	2577.037846
578.719330	2578.497260
579.073389	2577.771334
579.427394	2575.797722
579.781344	2577.980542
580.135239	2577.728484
580.489080	2578.230079
580.842866	2578.716550
581.196597	2581.516911
581.550273	2579.132446
581.903895	2577.010120
582.257463	2578.756880
582.610975	2577.231931
582.964434	2578.663618
583.317837	2577.128587
583.671186	2574.240006
584.024481	2578.847620
584.377721	2578.676221
584.730906	2579.170254
585.084037	2579.182857
585.437113	2577.075655
585.790135	2574.552557
586.143103	2576.816035
586.496016	2577.930130
586.848874	2573.201528
587.201679	2574.673545
587.554428	2573.430901
587.907124	2575.603638
588.259765	2572.039542
588.612352	2578.126735
588.964884	2577.176478
589.317362	2579.079513
589.669786	2576.667321
590.022155	2575.911148
590.374470	2576.402661
590.726731	2574.638257
591.078937	2576.422825
591.431090	2576.369893
591.783188	2577.993145
592.135232	2577.592373
592.487222	2575.545665
592.839157	2577.791499
593.191038	2577.826787
593.542866	2576.311920
593.894639	2577.761252
594.246358	2579.157651
594.598022	2578.000707
594.949633	2578.640933
595.301190	2576.868967
595.652692	2575.533062
596.004141	2576.868967
596.355535	2577.216807
596.706876	2577.915007
597.058162	2578.472054
597.409395	2577.408371
597.760573	2577.456262
598.111698	2577.249575
598.462768	2576.576581
598.813785	2575.311251
599.164748	2575.628844
599.515657	2575.830490
599.866511	2576.216138
600.217312	2576.783268
600.568060	2577.592373
600.918753	2577.428536
601.269392	2577.426015
601.619978	2579.245872
601.970510	2577.884760
602.320988	2575.908628
602.671412	2575.250757
603.021783	2576.553895
603.372100	2576.531210
603.722363	2579.071952
604.072572	2578.645974
604.422728	2576.803433
604.772830	2570.736404
605.122878	2572.591548
605.472872	2572.667166
605.822813	2573.839234
606.172701	2574.628175
606.522534	2576.717733
606.872314	2577.887281
607.222041	2576.760583
607.571714	2578.320820
607.921333	2576.916858
608.270899	2576.879050
608.620411	2576.138000
608.969870	2576.914338
609.319276	2576.195973
609.668627	2576.470716
610.017926	2577.894842
610.367171	2579.697055
610.716362	2578.746797
611.065500	2578.048597
611.414585	2578.802250
611.763616	2573.534244
612.112594	2578.600604
612.461518	2575.160016
612.810389	2577.345357
613.159207	2576.863926
613.507971	2576.183371
613.856682	2578.126735
614.205340	2575.568350
614.553945	2575.706982
614.902496	2575.863257
615.250994	2575.480130
615.599439	2577.247054
615.947830	2573.506518
616.296169	2578.363670
616.644454	2578.855182
616.992686	2574.267732
617.340864	2577.869637
617.688990	2578.245203
618.037063	2577.050449
618.385082	2574.761765
618.733048	2577.756211
619.080961	2576.107753
619.428821	2574.880232
619.776628	2576.843762
620.124382	2576.934502
620.472083	2577.577250
620.819731	2578.653536
621.167326	2576.125397
621.514868	2576.231262
621.862357	2577.930130
622.209793	2573.536765
622.557176	2577.088258
622.904506	2575.311251
623.251783	2572.578946
623.599007	2573.541806
623.946179	2576.372414
624.293297	2572.722618
624.640363	2577.945254
624.987376	2578.328382
625.334336	2576.861406
625.681243	2579.230748
626.028097	2576.284194
626.374899	2577.199163
626.721647	2577.980542
627.068343	2577.252095
627.414987	2578.484657
627.761577	2579.069431
628.108115	2576.619430
628.454600	2576.785788
628.801032	2577.468865
629.147412	2575.202866
629.493739	2575.497774
629.840014	2575.785119
630.186236	2577.673032
630.532405	2575.255798
630.878521	2577.189081
631.224585	2578.164544
631.570597	2576.138000
631.916556	2577.680593
632.262462	2576.677404
632.608316	2578.051118
632.954117	2576.579101
633.299866	2575.172619
633.645562	2574.938206
633.991206	2576.271591
634.336797	2577.229410
634.682336	2577.310068
635.027823	2575.666652
635.373257	2576.357290
635.718639	2576.657239
636.063968	2575.681776
636.409245	2575.044070
636.754470	2575.238154
637.099642	2573.793864
637.444762	2576.937023
637.789829	2576.513566
638.134845	2576.871488
638.479808	2573.405695
638.824719	2576.359811
639.169577	2574.713874
639.514383	2579.878536
639.859137	2575.787640
640.203839	2577.166396
640.548489	2575.533062
640.893086	2571.666497
641.237632	2573.864440
641.582125	2571.805128
641.926566	2570.761610
642.270955	2576.097671
642.615292	2575.913669
642.959576	2576.785788
643.303809	2577.615058
643.647990	2576.296797
643.992118	2577.448700
644.336195	2577.247054
644.680219	2576.173288
645.024192	2579.031623
645.368112	2577.118505
645.711981	2576.440469
646.055797	2576.455593
646.399562	2575.578432
646.743274	2574.426528
647.086935	2576.417784
647.430544	2577.156313
647.774101	2576.581622
648.117606	2574.270253
648.461059	2576.697568
648.804460	2578.298135
649.147810	2579.757549
649.491108	2576.571539
649.834354	2577.753690
650.177548	2578.242682
650.520690	2576.352249
650.863781	2574.068607
651.206820	2577.133628
651.549807	2575.376786
651.892742	2575.303689
652.235626	2574.182032
652.578458	2573.377968
652.921238	2576.067424
653.263967	2576.720253
653.606644	2576.080027
653.949269	2572.594069
654.291843	2576.621951
654.634365	2575.018864
654.976836	2575.858216
655.319255	2575.971642
655.661622	2577.899883
656.003938	2574.996179
656.346203	2575.366704
656.688416	2576.022054
657.030577	2576.130438
657.372687	2575.696899
657.714746	2576.894173
658.056753	2576.732856
658.398708	2570.559963
658.740612	2572.515931
659.082465	2570.900241
659.424266	2570.353276
659.766016	2570.370920
660.107715	2574.439131
660.449362	2573.945098
660.790958	2576.506004
661.132503	2577.113463
661.473996	2575.555747
661.815438	2576.783268
662.156829	2577.297466
662.498168	2575.815366
662.839456	2575.999368
663.180693	2576.127918
663.521879	2577.809143
663.863013	2576.014492
664.204097	2574.071127
664.545129	2576.115315
664.886110	2574.706312
665.227040	2575.379307
665.567918	2576.344687
665.908746	2575.883422
666.249522	2577.156313
666.590248	2575.656570
666.930922	2574.945767
667.271545	2576.944585
667.612118	2574.885273
667.952639	2577.549523
668.293109	2578.872826
668.633528	2575.270922
668.973896	2574.711354
669.314213	2575.626323
669.654480	2576.874009
669.994695	2573.582135
670.334859	2576.117836
670.674973	2576.538772
671.015035	2576.874009
671.355047	2575.621282
671.695008	2578.313258
672.034918	2570.590210
672.374777	2578.320820
672.714585	2575.341498
673.054342	2577.690676
673.394049	2576.052301
673.733705	2579.238310
674.073310	2577.388206
674.412864	2574.255129
674.752368	2574.492063
675.091820	2573.730849
675.431223	2575.149934
675.770574	2573.592218
676.109875	2571.066599
676.449125	2574.391240
676.788324	2573.115828
677.127473	2576.301838
677.466571	2569.642473
677.805619	2575.775037
678.144616	2573.672876
678.483562	2574.789492
678.822458	2574.852506
679.161303	2577.491550
679.500098	2575.538103
679.838842	2578.512384
680.177535	2575.069276
680.516179	2575.114646
680.854771	2575.036508
681.193314	2574.613051
681.531805	2574.446693
681.870247	2574.907959
682.208638	2573.834193
682.546978	2578.320820
682.885268	2575.104564
683.223508	2573.698082
683.561697	2575.386868
683.899836	2575.870819
684.237925	2574.489543
684.575963	2576.188412
684.913951	2575.217990
685.251889	2576.450552
685.589776	2569.897052
685.927614	2572.848647
686.265401	2575.192784
686.603137	2578.603124
686.940824	2576.208576
687.278460	2576.291755
687.616046	2576.112794
687.953582	2576.397620
688.291068	2576.203535
688.628504	2574.776889
688.965889	2576.858885
689.303224	2576.027095
689.640510	2574.696230
689.977745	2575.850654
690.314930	2575.782599
690.652065	2573.377968
690.989150	2576.906776
691.326185	2574.774368
691.663170	2578.661098
692.000105	2575.772517
692.336990	2573.793864
692.673825	2575.223031
693.010610	2575.036508
693.347345	2569.763461
693.684030	2574.202197
694.020665	2569.420663
694.357251	2570.547361
694.693786	2574.028277
695.030272	2576.548854
695.366707	2572.886456
695.703093	2574.555078
696.039429	2573.317475
696.375716	2575.245716
696.711952	2572.520972
697.048139	2575.540623
697.384276	2577.738567
697.720363	2574.146744
698.056400	2574.761765
698.392388	2576.092630
698.728326	2574.240006
699.064214	2576.523648
699.400053	2575.898545
699.735842	2576.304358
700.071581	2576.710171
700.407270	2570.262535
700.742910	2577.060531
701.078501	2574.166909
701.414042	2575.833010
701.749533	2573.410736
702.084974	2574.257650
702.420366	2575.500294
702.755709	2575.298648
703.091002	2572.079871
703.426246	2573.781261
703.761440	2574.003072
704.096584	2575.971642
704.431679	2575.505335
704.766725	2576.228741
705.101721	2573.556929
705.436668	2574.454255
705.771565	2577.095819
706.106413	2575.437280
706.441212	2571.928637
706.775961	2574.736559
707.110661	2571.278328
707.445311	2571.774882
707.779913	2572.667166
708.114465	2575.354101
708.448967	2575.255798
708.783421	2575.026426
709.117825	2572.420149
709.452180	2575.293607
709.786485	2575.596076
710.120742	2574.131621
710.454949	2576.473237
710.789107	2571.779923
711.123216	2569.839078
711.457275	2571.018708
711.791286	2569.889490
712.125247	2570.552402
712.459159	2573.806467
712.793023	2573.183884
713.126837	2574.955850
713.460602	2574.260170
713.794318	2574.673545
714.127985	2574.628175
714.461602	2575.792681
714.795171	2573.420818
715.128691	2574.025757
715.462162	2574.610531
715.795584	2575.381827
716.128957	2573.635067
716.462281	2575.585994
716.795556	2575.643967
717.128782	2573.272104
717.461960	2575.522979
717.795088	2576.700089
718.128167	2575.898545
718.461198	2572.533575
718.794180	2575.732187
719.127113	2572.495767
719.459997	2574.907959
719.792833	2576.246385
720.125619	2573.551888
720.458357	2571.308575
720.791046	2576.382496
721.123686	2572.760427
721.456278	2574.638257
721.788821	2573.317475
722.121315	2575.654049
722.453761	2573.390571
722.786158	2574.539954
723.118506	2572.490725
723.450805	2573.834193
723.783056	2573.103226
724.115259	2574.098853
724.447412	2574.880232
724.779518	2573.279666
725.111574	2574.066086
725.443582	2572.883935
725.775542	2574.784450
726.107453	2573.292269
726.439315	2574.492063
726.771129	2574.991138
727.102895	2574.083730
727.434612	2575.971642
727.766281	2575.565829
728.097901	2571.139696
728.429473	2567.434448
728.760996	2572.377299
729.092471	2569.193811
729.423897	2573.619944
729.755276	2576.722774
730.086606	2572.689851
730.417887	2571.762279
730.749120	2576.024574
731.080305	2574.149265
731.411442	2575.182702
731.742530	2575.563309
732.073570	2572.596590
732.404562	2573.128431
732.735506	2572.652042
733.066401	2574.429049
733.397249	2573.461147
733.728048	2572.843606
734.058798	2572.132803
734.389501	2575.807805
734.720156	2573.935016
735.050762	2573.453586
735.381320	2575.515418
735.711831	2574.146744
736.042293	2575.956519
736.372707	2571.492577
736.703073	2574.497105
737.033391	2574.562640
737.363661	2571.232957
737.693883	2571.747155
738.024056	2576.536251
738.354182	2573.466189
738.684260	2575.391909
739.014290	2572.679769
739.344272	2573.604820
739.674207	2575.684296
740.004093	2573.874522
740.333931	2573.501477
740.663722	2574.582804
740.993464	2574.083730
741.323159	2574.706312
741.652806	2572.417629
741.982405	2575.850654
742.311956	2574.708833
742.641460	2573.251940
742.970915	2574.819738
743.300323	2573.536765
743.629683	2573.347722
743.958996	2574.151786
744.288260	2573.889646
744.617477	2576.808474
744.946647	2571.293451
745.275768	2572.820921
745.604842	2570.217165
745.933869	2568.538461
746.262847	2572.657083
746.591778	2574.217321
746.920662	2574.638257
747.249498	2573.100705
747.578286	2571.459809
747.907027	2574.953329
748.235720	2570.663307
748.564365	2573.100705
748.892963	2573.062896
749.221514	2573.138514
749.550017	2573.435942
749.878473	2573.486353
750.206881	2572.654563
750.535242	2573.960222
750.863555	2573.080540
751.191821	2572.336970
751.520039	2573.020047
751.848210	2573.506518
752.176334	2573.751014
752.504411	2574.552557
752.832440	2573.506518
753.160421	2573.133473
753.488356	2575.104564
753.816243	2575.018864
754.144082	2571.840417
754.471875	2572.767989
754.799620	2571.805128
755.127318	2573.950139
755.454969	2573.859399
755.782572	2573.017526
756.110129	2572.374779
756.437638	2573.135993
756.765100	2570.648184
757.092515	2572.954512
757.419882	2570.645663
757.747203	2572.314285
758.074477	2571.177505
758.401703	2572.984758
758.728882	2571.469892
759.056014	2572.906621
759.383099	2574.418967
759.710138	2571.865622
760.037129	2574.038360
760.364073	2570.895200
760.690970	2572.447876
761.017820	2574.618092
761.344623	2572.125242
761.671379	2573.319995
761.998088	2569.312278
762.324751	2569.166084
762.651366	2569.816393
762.977935	2571.908472
763.304456	2567.699109
763.630931	2574.166909
763.957359	2571.129614
764.283740	2573.609862
764.610074	2575.172619
764.936362	2575.447362
765.262602	2570.355797
765.588796	2572.707495
765.914943	2572.861250
766.241044	2572.092474
766.567097	2572.831003
766.893104	2574.015674
767.219064	2571.570715
767.544978	2573.514080
767.870845	2572.362176
768.196665	2573.186405
768.522438	2573.740932
768.848165	2571.391754
769.173846	2571.197669
769.499479	2575.061714
769.825066	2569.813873
770.150607	2574.058524
770.476101	2570.635581
770.801548	2572.969635
771.126949	2572.795715
771.452303	2570.446537
771.777611	2570.254974
772.102872	2569.690364
772.428087	2572.543657
772.753256	2572.551219
773.078378	2574.703792
773.403453	2571.827814
773.728482	2572.765468
774.053465	2570.474264
774.378401	2572.513411
774.703291	2573.325036
775.028135	2572.853688
775.352932	2572.513411
775.677683	2572.828483
776.002388	2572.483164
776.327046	2574.403843
776.651658	2570.761610
776.976224	2572.964594
777.300743	2574.141703
777.625216	2570.766651
777.949643	2571.865622
778.274024	2575.311251
778.598359	2570.204562
778.922647	2570.219686
779.246889	2568.160374
779.571086	2569.319840
779.895236	2572.115159
780.219339	2570.254974
780.543397	2572.626837
780.867409	2572.306723
781.191374	2571.890828
781.515294	2572.183215
781.839167	2572.258832
782.162995	2569.476115
782.486776	2573.206569
782.810511	2571.036352
783.134201	2572.326888
783.457844	2571.699264
783.781441	2573.317475
784.104993	2569.776064
784.428498	2574.643298
784.751958	2572.490725
785.075372	2572.707495
785.398739	2574.577763
785.722061	2572.619275
786.045337	2571.016188
786.368568	2574.096333
786.691752	2570.133986
787.014891	2573.262022
787.337983	2572.145406
787.661030	2571.280848
787.984031	2572.601631
788.306987	2571.696744
788.629897	2572.450396
788.952760	2571.923596
789.275579	2575.444842
789.598351	2573.287228
789.921078	2572.634398
790.243759	2572.256312
790.566395	2572.037022
790.888984	2572.150447
791.211529	2573.423339
791.534027	2573.877043
791.856480	2571.739593
792.178888	2570.713719
792.501249	2569.985272
792.823566	2573.168761
793.145836	2571.691702
793.468062	2573.234296
793.790241	2570.766651
794.112375	2572.800756
794.434464	2573.181363
794.756507	2571.530386
795.078505	2571.366548
795.400457	2569.309757
795.722364	2567.545353
796.044226	2568.994685
796.366042	2566.786660
796.687812	2569.652556
797.009538	2570.000395
797.331218	2573.587176
797.652852	2570.660787
797.974442	2568.155333
798.295986	2571.575756
798.617484	2574.406364
798.938938	2572.039542
799.260346	2568.067113
799.581709	2573.761096
799.903026	2572.790674
800.224299	2571.558112
800.545526	2574.565160
800.866708	2569.725653
801.187845	2570.933009
801.508936	2570.411249
801.829983	2570.890159
802.150984	2571.928637
802.471940	2572.152968
802.792851	2571.237999
803.113717	2573.435942
803.434538	2572.523493
803.755314	2571.134655
804.076045	2570.557443
804.396731	2573.645150
804.717372	2571.427042
805.037967	2571.961404
805.358518	2572.117680
805.679024	2572.379820
805.999485	2572.009295
806.319901	2573.761096
806.640272	2567.681465
806.960598	2569.304716
807.280879	2567.830179
807.601115	2573.556929
807.921306	2570.096177
808.241453	2570.106260
808.561554	2571.195149
808.881611	2571.779923
809.201623	2571.046435
809.521590	2569.382854
809.841513	2571.427042
810.161390	2574.613051
810.481223	2571.111970
810.801011	2572.221024
811.120755	2570.378482
811.440453	2573.839234
811.760107	2567.802452
812.079716	2569.110632
812.399281	2569.909655
812.718801	2566.441341
813.038276	2566.685837
813.357707	2569.894531
813.677093	2572.435273
813.996434	2570.849830
814.315731	2570.476784
814.634983	2569.110632
814.954191	2570.454099
815.273354	2569.559294
815.592473	2569.216496
815.911547	2569.763461
816.230577	2572.462999
816.549562	2572.236147
816.868502	2569.289593
817.187399	2570.940571
817.506250	2573.589697
817.825058	2572.745304
818.143821	2573.050293
818.462539	2573.579615
818.781213	2570.890159
819.099843	2572.644481
819.418429	2571.006106
819.736970	2572.031980
820.055466	2571.225396
820.373919	2570.091136
820.692327	2570.156671
821.010691	2571.865622
821.329011	2571.540468
821.647286	2576.400140
821.965517	2570.854871
822.283704	2572.011816
822.601847	2571.048955
822.919945	2572.374779
823.237999	2570.983420
823.556010	2572.894018
823.873976	2570.786815
824.191897	2567.641135
824.509775	2571.273287
824.827609	2571.237999
825.145398	2568.798080
825.463144	2570.630540
825.780845	2571.815211
826.098502	2572.281518
826.416116	2570.179356
826.733685	2572.387382
827.051210	2570.265056
827.368692	2571.449727
827.686129	2572.793195
828.003522	2569.899572
828.320872	2564.704663
828.638177	2566.206927
828.955439	2566.837071
829.272656	2566.559808
829.589830	2566.116186
829.906960	2569.231619
830.224046	2568.997206
830.541088	2570.933009
830.858086	2570.902762
831.175041	2569.385375
831.491952	2570.113821
831.808819	2570.799418
832.125642	2570.668348
832.442421	2571.061558
832.759157	2568.793039
833.075849	2571.376630
833.392497	2570.431414
833.709101	2571.812690
834.025662	2570.338153
834.342179	2572.586507
834.658653	2569.539130
834.975083	2573.304872
835.291469	2572.208421
835.607811	2571.948801
835.924110	2570.426373
836.240366	2571.326219
836.556578	2568.901424
836.872746	2573.393092
837.188871	2568.868656
837.504952	2570.144068
837.820990	2572.130283
838.136984	2567.792370
838.452935	2569.448389
838.768842	2567.472257
839.084706	2571.001064
839.400526	2573.080540
839.716303	2569.788667
840.032037	2569.282031
840.347727	2568.225909
840.663373	2569.808832
840.978977	2569.440827
841.294537	2568.283882
841.610054	2571.048955
841.925527	2568.203224
842.240957	2570.696075
842.556344	2569.718091
842.871687	2567.434448
843.186987	2571.416960
843.502244	2570.315468
843.817458	2570.234809
844.132629	2570.814542
844.447756	2569.166084
844.762840	2564.941597
845.077881	2566.469067
845.392879	2565.685168
845.707833	2569.178687
846.022745	2566.489232
846.337613	2567.305899
846.652438	2569.922257
846.967221	2569.077864
847.281960	2568.745148
847.596656	2570.615416
847.911309	2567.810014
848.225919	2570.073492
848.540485	2568.664490
848.855009	2569.594583
849.169490	2570.265056
849.483928	2570.857392
849.798323	2570.990982
850.112675	2570.852350
850.426984	2569.690364
850.741251	2568.540981
851.055474	2569.650035
851.369654	2570.751527
851.683792	2568.765313
851.997887	2570.373441
852.311938	2570.829665
852.625947	2573.435942
852.939914	2569.269428
853.253837	2570.885118
853.567718	2566.811866
853.881555	2569.095508
854.195350	2568.051989
854.509103	2572.659604
854.822812	2571.041394
855.136479	2570.406208
855.450103	2570.736404
855.763685	2569.944943
856.077224	2570.685992
856.390720	2570.842268
856.704173	2570.191959
857.017584	2571.101887
857.330953	2569.347566
857.644278	2571.346383
857.957561	2569.831517
858.270802	2570.285221
858.584000	2569.216496
858.897155	2568.178018
859.210268	2567.683985
859.523339	2570.113821
859.836367	2567.741958
860.149352	2568.321691
860.462295	2571.124573
860.775195	2565.980075
861.088054	2567.101732
861.400869	2565.957390
861.713642	2565.044941
862.026373	2564.278686
862.339062	2569.907134
862.651708	2570.486867
862.964312	2571.056517
863.276873	2570.751527
863.589392	2570.202042
863.901869	2567.941084
864.214303	2567.991496
864.526696	2569.682803
864.839045	2569.743297
865.151353	2569.617268
865.463619	2570.784295
865.775842	2568.603996
866.088023	2567.610888
866.400162	2571.094326
866.712258	2570.144068
867.024313	2570.496949
867.336325	2569.216496
867.648296	2571.313616
867.960224	2570.242371
868.272110	2571.865622
868.583954	2568.873697
868.895755	2567.217678
869.207515	2569.297154
869.519233	2569.821434
869.830909	2566.801783
870.142542	2572.342011
870.454134	2568.157854
870.765684	2570.963256
871.077191	2570.118862
871.388657	2572.208421
871.700081	2568.132648
872.011463	2568.283883
872.322803	2569.564336
872.634101	2569.521486
872.945357	2568.977041
873.256571	2572.326888
873.567744	2570.275138
873.878874	2569.110632
874.189963	2567.774726
874.501010	2572.510890
874.812015	2568.535940
875.122979	2569.897052
875.433900	2571.164902
875.744780	2569.602144
876.055618	2571.021229
876.366415	2569.244222
876.677169	2567.421845
876.987882	2566.335477
877.298554	2564.530743
877.609183	2566.892524
877.919771	2566.804304
878.230317	2566.443861
878.540822	2569.478636
878.851285	2567.404201
879.161707	2571.439645
879.472087	2568.077195
879.782425	2568.964438
880.092722	2568.987123
880.402977	2569.246743
880.713191	2570.411249
881.023363	2570.499470
881.333494	2573.380489
881.643583	2568.634243
881.953631	2571.008626
882.263637	2573.090623
882.573602	2568.924109
882.883526	2568.120045
883.193408	2569.299675
883.503248	2569.902093
883.813048	2570.950653
884.122806	2569.334963
884.432522	2568.472926
884.742197	2570.675910
885.051831	2570.048286
885.361424	2570.696075
885.670975	2567.978893
885.980485	2566.985785
886.289954	2567.605847
886.599382	2570.849830
886.908768	2570.270097
887.218113	2569.753379
887.527417	2569.642473
887.836680	2568.593913
888.145901	2569.576938
888.455082	2568.979562
888.764221	2567.116855
889.073319	2567.920919
889.382376	2566.544684
889.691392	2571.028791
890.000366	2569.269428
890.309300	2565.740620
890.618193	2569.765982
890.927044	2567.404201
891.235855	2567.497462
891.544625	2570.451579
891.853353	2567.230281
892.162041	2569.113152
892.470687	2571.033832
892.779293	2568.419994
893.087858	2562.650393
893.396381	2565.894376
893.704864	2567.194993
894.013306	2564.959242
894.321707	2568.051989
894.630068	2569.977710
894.938387	2566.617781
895.246665	2568.500652
895.554903	2567.903275
895.863100	2567.356310
896.171256	2571.255643
896.479371	2569.370251
896.787446	2567.764644
897.095480	2567.300858
897.403473	2569.241702
897.711425	2569.491239
898.019336	2569.266907
898.327207	2569.642473
898.635038	2565.914540
898.942827	2569.569377
899.250576	2567.936043
899.558284	2568.750189
899.865952	2570.791857
900.173579	2568.697257
900.481165	2568.659448
900.788711	2570.529717
901.096216	2569.511403
901.403681	2570.091136
901.711105	2569.284552
902.018489	2568.598955
902.325832	2569.029973
902.633135	2567.870508
902.940397	2569.705488
903.247619	2568.235992
903.554800	2566.360682
903.861941	2568.571228
904.169041	2568.087277
904.476101	2567.880590
904.783121	2569.113152
905.090100	2569.715570
905.397039	2567.356310
905.703938	2567.933522
906.010796	2568.893862
906.317614	2569.438307
906.624391	2569.055179
906.931129	2568.866136
907.237826	2568.810683
907.544483	2569.143399
907.851099	2567.552915
908.157675	2569.592062
908.464211	2566.083419
908.770707	2562.509241
909.077163	2563.202399
909.383578	2563.499827
909.689954	2564.447564
909.996289	2562.824313
910.302584	2568.883780
910.608839	2569.007288
910.915054	2571.822772
911.221229	2567.981413
911.527363	2565.244067
911.833458	2566.834551
912.139513	2567.389078
912.445527	2569.360169
912.751502	2566.789180
913.057436	2568.583831
913.363331	2569.130796
913.669186	2568.057031
913.975000	2568.213306
914.280775	2569.045097
914.586510	2569.266907
914.892205	2568.805642
915.197859	2569.531568
915.503475	2566.655590
915.809050	2568.661969
916.114585	2566.736248
916.420081	2567.699109
916.725536	2570.242371
917.030952	2568.866136
917.336328	2569.085426
917.641665	2569.743297
917.946961	2566.527040
918.252218	2566.736248
918.557435	2567.048800
918.862612	2567.401681
919.167750	2566.171639
919.472848	2567.525189
919.777906	2567.696588
920.082925	2568.193142
920.387904	2566.448902
920.692843	2566.489232
920.997743	2567.681465
921.302603	2567.878070
921.607423	2566.539643
921.912204	2567.875549
922.216946	2568.094839
922.521647	2566.524520
922.826310	2568.611557
923.130932	2569.617268
923.435516	2567.789849
923.740059	2568.823286
924.044564	2568.044428
924.349028	2569.960066
924.653454	2562.902451
924.957840	2564.308933
925.262186	2563.222564
925.566493	2565.112997
925.870761	2562.191648
926.174989	2567.653738
926.479178	2569.186249
926.783328	2566.915209
927.087438	2569.942422
927.391509	2567.411763
927.695541	2565.294478
927.999533	2566.232133
928.303486	2567.157185
928.607400	2567.709191
928.911275	2566.552246
929.215110	2564.591237
929.518906	2566.874880
929.822663	2568.553584
930.126381	2567.615930
930.430060	2567.636094
930.733699	2569.723132
931.037299	2567.623491
931.340861	2567.189952
931.644383	2567.081567
931.947866	2567.421845
932.251309	2566.458985
932.554714	2567.540312
932.858080	2569.148440
933.161407	2568.069633
933.464694	2566.915209
933.767943	2564.480332
934.071153	2568.997206
934.374323	2568.117524
934.677455	2566.451423
934.980548	2566.922771
935.283602	2564.006463
935.586617	2563.706515
935.889593	2567.696588
936.192530	2567.739438
936.495428	2566.234653
936.798287	2564.913871
937.101108	2568.730025
937.403890	2565.685168
937.706632	2565.914540
938.009336	2568.525858
938.312002	2568.462843
938.614628	2565.780950
938.917216	2566.763975
939.219765	2566.002760
939.522275	2565.869170
939.824747	2567.537792
940.127179	2563.688871
940.429573	2561.541339
940.731929	2566.642987
941.034246	2564.321536
941.336524	2565.846485
941.638763	2569.140879
941.940964	2568.097360
942.243126	2566.186762
942.545250	2568.273800
942.847335	2569.912175
943.149381	2566.953018
943.451389	2568.634243
943.753359	2566.227092
944.055290	2568.457802
944.357182	2566.796742
944.659036	2566.045610
944.960851	2566.486711
945.262628	2567.406722
945.564367	2565.753223
945.866067	2568.019222
946.167729	2569.130796
946.469352	2563.913202
946.770937	2568.432597
947.072484	2567.714232
947.373992	2567.189952
947.675462	2566.615261
947.976893	2567.651218
948.278286	2565.929664
948.579641	2564.752554
948.880958	2567.341187
949.182236	2565.922102
949.483476	2564.848336
949.784678	2567.222720
950.085841	2565.783470
950.386967	2566.753892
950.688054	2566.645508
950.989103	2564.553429
951.290114	2567.056362
951.591087	2567.978893
951.892021	2565.125600
952.192917	2566.254818
952.493776	2565.619633
952.794596	2568.765313
953.095378	2565.851526
953.396122	2568.503173
953.696828	2566.869839
953.997496	2568.805642
954.298126	2568.309088
954.598718	2567.895714
954.899272	2566.900086
955.199788	2566.534602
955.500266	2566.963100
955.800706	2563.746844
956.101108	2564.445044
956.401472	2563.096535
956.701798	2561.533777
957.002087	2563.396484
957.302337	2564.180383
957.602550	2567.227761
957.902724	2565.972513
958.202861	2567.104253
958.502960	2563.988819
958.803022	2566.552246
959.103045	2566.406053
959.403031	2566.995868
959.702979	2567.353790
960.002889	2566.980744
960.302762	2566.678275
960.602596	2567.399160
960.902393	2564.956721
961.202153	2567.079047
961.501875	2566.446382
961.801559	2566.592575
962.101205	2565.932184
962.400814	2568.258677
962.700385	2568.546022
962.999918	2568.331773
963.299414	2564.187945
963.598873	2566.905127
963.898293	2567.550395
964.197677	2567.048800
964.497022	2563.875393
964.796331	2567.323543
965.095601	2568.838409
965.394835	2567.661300
965.694030	2564.921433
965.993189	2567.260528
966.292309	2565.075188
966.591393	2564.596278
966.890439	2565.649880
967.189447	2567.565518
967.488419	2563.590568
967.787353	2564.709704
968.086249	2568.291444
968.385108	2566.892524
968.683930	2566.443861
968.982714	2565.107956
969.281462	2564.034190
969.580172	2565.891855
969.878844	2566.766495
970.177480	2566.337997
970.476078	2566.748851
970.774639	2564.316494
971.073162	2565.680127
971.371649	2563.996381
971.670098	2564.223233
971.968510	2564.908830
972.266885	2565.294478
972.565223	2564.132492
972.863524	2566.940415
973.161788	2564.311453
973.460014	2566.464026
973.758204	2565.649880
974.056356	2566.963100
974.354471	2567.759602
974.652550	2567.086608
974.950591	2567.469736
975.248595	2564.203068
975.546563	2567.557956
975.844493	2563.668706
976.142386	2564.820610
976.440243	2565.186093
976.738062	2566.169118
977.035845	2567.913358
977.333590	2563.915723
977.631299	2563.212482
977.928971	2565.654921
978.226606	2566.262380
978.524204	2564.324056
978.821765	2566.711042
979.119290	2565.690209
979.416777	2564.087122
979.714228	2565.982596
980.011642	2569.029973
980.309020	2567.550395
980.606360	2567.384037
980.903664	2567.867987
981.200931	2568.170457
981.498162	2566.287586
981.795356	2565.546536
982.092513	2566.302709
982.389633	2565.231464
982.686717	2569.307237
982.983764	2563.751885
983.280775	2565.518810
983.577749	2564.256001
983.874686	2565.947308
984.171587	2563.378840
984.468451	2565.473439
984.765279	2565.244067
985.062070	2567.371434
985.358824	2565.838923
985.655543	2568.379664
985.952224	2565.644838
986.248869	2566.292627
986.545478	2562.668037
986.842050	2563.189797
987.138586	2564.041752
987.435086	2560.883469
987.731549	2559.842470
988.027975	2563.025959
988.324366	2563.767009
988.620719	2565.929664
988.917037	2567.411763
989.213318	2564.984447
989.509563	2565.387740
989.805772	2565.463357
990.101944	2565.695250
990.398080	2563.656103
990.694180	2565.511248
990.990244	2560.807851
991.286271	2563.519992
991.582262	2567.333625
991.878217	2565.077709
992.174136	2564.510579
992.470019	2566.585014
992.765865	2568.447720
993.061676	2565.160888
993.357450	2566.436300
993.653188	2566.615261
993.948890	2562.872204
994.244556	2565.831361
994.540186	2565.773388
994.835780	2565.423028
995.131337	2566.403532
995.426859	2566.184242
995.722345	2565.072668
996.017795	2565.526371
996.313208	2565.733059
996.608586	2564.324056
996.903928	2566.907647
997.199234	2566.433779
997.494504	2564.548388
997.789738	2564.631567
998.084936	2566.988306
998.380099	2565.967472
998.675225	2565.143244
998.970316	2564.024107
999.265371	2567.542833
999.560390	2566.612740
999.855373	2567.598286
1000.150320	2562.536967
1000.445232	2564.651731
1000.740108	2565.599468
1001.034948	2566.017884
1001.329752	2566.280024
1001.624521	2565.415466
1001.919254	2562.794066
1002.213951	2563.136864
1002.508613	2561.858932
1002.803239	2565.420507
1003.097829	2561.558983
1003.392384	2564.873542
1003.686903	2563.431772
1003.981386	2566.353121
1004.275834	2565.813717
1004.570246	2562.902451
1004.864623	2564.049313
1005.158964	2565.435631
1005.453270	2563.235167
1005.747540	2563.953531
1006.041775	2565.128120
1006.335974	2565.644838
1006.630138	2564.727348
1006.924266	2564.429920
1007.218359	2565.405384
1007.512416	2564.003943
1007.806438	2565.917061
1008.100425	2563.439334
1008.394376	2565.349931
1008.688292	2564.860939
1008.982172	2563.933367
1009.276017	2562.786504
1009.569827	2567.242884
1009.863602	2563.386402
1010.157341	2563.262893
1010.451045	2565.231464
1010.744714	2566.741289
1011.038347	2565.508727
1011.331945	2566.779098
1011.625508	2566.269942
1011.919036	2567.797411
1012.212528	2565.599468
1012.505986	2566.617781
1012.799408	2566.607699
1013.092795	2566.126269
1013.386147	2563.822461
1013.679464	2563.802297
1013.972745	2567.411763
1014.265992	2566.516958
1014.559204	2568.049469
1014.852380	2566.446382
1015.145521	2565.995199
1015.438628	2564.848336
1015.731699	2564.624005
1016.024736	2562.179045
1016.317737	2566.206927
1016.610703	2567.694068
1016.903635	2562.675599
1017.196531	2562.088304
1017.489393	2559.371122
1017.782219	2560.825495
1018.075011	2561.911864
1018.367768	2565.382698
1018.660490	2565.226423
1018.953177	2565.226423
1019.245829	2565.226423
