Dividing Wavelength (nm)	Counts (n)	Blue Motor Position (mm): 0.000000	Red Motor Position (mm): 18.500000	
326.493990	2146.422485
326.888308	2146.422485
327.282561	2146.422485
327.676750	2119.411982
328.070874	2121.695625
328.464933	2127.114865
328.858929	2134.842954
329.252859	2146.432567
329.646726	2162.261790
330.040528	2174.320230
330.434265	2196.685309
330.827938	2211.995293
331.221547	2232.532954
331.615091	2252.596746
332.008571	2272.292534
332.401986	2294.435803
332.795338	2314.217290
333.188625	2332.297389
333.581847	2353.472755
333.975006	2373.473533
334.368100	2391.717469
334.761129	2407.529048
335.154095	2422.080339
335.546996	2439.704213
335.939833	2453.857252
336.332606	2467.170939
336.725315	2483.353043
337.117960	2487.481748
337.510540	2493.884013
337.903056	2503.351300
338.295508	2511.205418
338.687896	2517.708507
339.080220	2527.168232
339.472480	2535.576876
339.864676	2534.558563
340.256807	2539.456044
340.648875	2539.854295
341.040879	2545.371838
341.432818	2546.879143
341.824694	2544.235058
342.216506	2546.528783
342.608253	2544.146838
342.999937	2544.683721
343.391557	2544.497198
343.783113	2543.483926
344.174605	2537.147196
344.566033	2538.483102
344.957397	2536.106198
345.348697	2535.435724
345.739934	2536.446475
346.131106	2531.163346
346.522215	2531.440610
346.913260	2528.698222
347.304241	2527.896678
347.695159	2523.397449
348.086012	2525.665968
348.476802	2521.340658
348.867528	2519.057015
349.258191	2516.959895
349.648789	2518.827643
350.039324	2519.989629
350.429796	2517.607683
350.820203	2512.992507
351.210548	2516.145749
351.600828	2511.422188
351.991045	2513.685666
352.381198	2511.218021
352.771288	2514.431757
353.161314	2513.892353
353.551276	2511.545696
353.941175	2514.106602
354.331010	2512.717764
354.720782	2512.190964
355.110490	2515.608866
355.500135	2513.978053
355.889717	2514.517456
356.279235	2515.770183
356.668689	2515.306397
357.058080	2512.498474
357.447408	2513.983094
357.836672	2514.482168
358.225873	2513.441170
358.615010	2515.525687
359.004084	2516.617097
359.393095	2516.526356
359.782043	2518.351254
360.170927	2518.076511
360.559748	2518.174813
360.948505	2517.479134
361.337199	2521.196985
361.725830	2518.247910
362.114398	2519.427540
362.502903	2523.190761
362.891344	2521.575072
363.279722	2522.089269
363.668037	2522.215298
364.056289	2524.141019
364.444478	2524.446009
364.832603	2521.847294
365.220665	2523.165556
365.608665	2523.341996
365.996601	2524.960206
366.384474	2528.151257
366.772284	2526.081863
367.160031	2524.488858
367.547715	2526.119672
367.935336	2523.586492
368.322893	2527.788294
368.710388	2525.857532
369.097820	2529.419107
369.485189	2527.765608
369.872495	2527.125382
370.259738	2527.657224
370.646918	2528.277286
371.034035	2527.405166
371.421090	2532.539581
371.808081	2531.632173
372.195010	2531.438089
372.581875	2532.080836
372.968678	2533.646114
373.355418	2534.485467
373.742096	2534.387164
374.128710	2534.414890
374.515262	2534.876156
374.901751	2538.231044
375.288177	2540.910417
375.674540	2541.056611
376.060841	2540.686086
376.447079	2543.746066
376.833254	2544.046015
377.219367	2540.852444
377.605417	2545.051725
377.991404	2548.966181
378.377329	2549.026675
378.763191	2551.199412
379.148991	2558.982954
379.534727	2565.450754
379.920402	2567.321022
380.306013	2572.619275
380.691563	2575.152455
381.077049	2579.487847
381.462474	2583.871130
381.847835	2589.255082
382.233134	2591.720207
382.618371	2597.028542
383.003545	2605.280911
383.388657	2609.056735
383.773706	2616.210132
384.158693	2621.163066
384.543618	2631.482308
384.928480	2635.850467
385.313280	2643.550830
385.698017	2650.300935
386.082692	2662.369457
386.467305	2666.790549
386.851856	2674.601817
387.236344	2688.706966
387.620770	2690.756195
388.005133	2700.319263
388.389435	2715.039433
388.773674	2718.805175
389.157851	2728.637945
389.541965	2736.905437
389.926018	2743.738722
390.310008	2753.168200
390.693936	2764.409973
391.077802	2771.404574
391.461606	2782.570730
391.845348	2790.686987
392.229027	2798.389870
392.612645	2814.544248
392.996200	2819.550114
393.379694	2838.411591
393.763125	2851.266533
394.146494	2859.034951
394.529801	2866.513503
394.913047	2890.224570
395.296230	2890.464025
395.679351	2898.333266
396.062410	2914.981677
396.445408	2906.923392
396.828343	2920.942841
397.211217	2928.194541
397.594028	2924.340579
397.976778	2936.928340
398.359466	2949.760597
398.742092	2948.621296
399.124656	2962.408852
399.507158	2977.103815
399.889598	2981.265288
400.271977	2997.538133
400.654294	3005.364524
401.036549	3013.402644
401.418742	3019.961185
401.800874	3044.589742
402.182944	3051.675084
402.564952	3077.742890
402.946898	3070.287024
403.328783	3077.508477
403.710606	3093.536825
404.092367	3118.603963
404.474067	3140.961480
404.855705	3130.959831
405.237282	3133.188021
405.618797	3164.392763
406.000250	3183.312213
406.381642	3217.531566
406.762972	3220.546176
407.144240	3210.294989
407.525447	3234.028742
407.906593	3235.639390
408.287677	3252.202101
408.668700	3273.102725
409.049661	3270.776233
409.430560	3285.017492
409.811399	3290.633338
410.192176	3309.940957
410.572891	3317.280877
410.953545	3360.009697
411.334138	3325.192968
411.714669	3373.663662
412.095139	3322.725323
412.475547	3372.065616
412.855894	3364.229143
413.236180	3391.297618
413.616405	3367.011860
413.996568	3395.454050
414.376670	3395.625449
414.756711	3391.481620
415.136691	3416.067328
415.516609	3437.293106
415.896466	3440.700926
416.276262	3460.444605
416.655997	3491.150273
417.035670	3498.535563
417.415283	3563.183320
417.794834	3578.712595
418.174324	3553.310221
418.553753	3556.831467
418.933121	3599.640945
419.312428	3581.291145
419.691674	3571.831420
420.070859	3603.026080
420.449983	3580.257708
420.829045	3620.390334
421.208047	3598.902416
421.586988	3631.921974
421.965867	3654.334944
422.344686	3656.132115
422.723444	3681.214376
423.102141	3588.066456
423.480777	3672.283972
423.859352	3631.453146
424.237866	3705.779919
424.616319	3688.576981
424.994712	3724.517888
425.373044	3703.975186
425.751314	3745.930188
426.129524	3677.897297
426.507673	3745.045466
426.885762	3715.627813
427.263789	3720.197619
427.641756	3706.591544
428.019662	3719.738874
428.397508	3700.597613
428.775292	3714.014643
429.153016	3701.968806
429.530679	3695.080070
429.908282	3685.428781
430.285824	3649.092144
430.663305	3682.172195
431.040726	3633.628404
431.418086	3609.715691
431.795385	3637.338693
432.172624	3640.696102
432.549802	3596.462497
432.926920	3584.875405
433.303977	3564.226839
433.680974	3564.408321
434.057910	3556.750808
434.434786	3538.945453
434.811601	3507.740710
435.188355	3547.152451
435.565050	3503.158302
435.941683	3478.043273
436.318257	3497.943228
436.694770	3475.976400
437.071222	3479.905979
437.447614	3423.986980
437.823946	3396.610994
438.200218	3381.079199
438.576429	3348.450331
438.952580	3332.916016
439.328670	3313.048828
439.704700	3302.923671
440.080670	3265.944287
440.456580	3266.002260
440.832429	3249.991555
441.208218	3193.268492
441.583947	3185.384128
441.959616	3168.372754
442.335224	3151.003458
442.710773	3134.539050
443.086261	3127.128554
443.461689	3090.539859
443.837057	3072.094277
444.212365	3066.957342
444.587612	3048.121070
444.962800	3017.307017
445.337927	3005.886283
445.712995	2960.929273
446.088002	2978.986686
446.462949	2961.758543
446.837837	2944.054011
447.212664	2923.904519
447.587431	2940.303392
447.962139	2967.676858
448.336786	2992.307935
448.711374	2972.634833
449.085901	2906.467168
449.460369	2877.709906
449.834776	2849.567664
450.209124	2857.041175
450.583412	2840.014678
450.957640	2839.596262
451.331808	2806.599389
451.705917	2782.893363
452.079965	2769.821652
452.453954	2756.331524
452.827883	2740.933319
453.201752	2731.110631
453.575562	2721.363560
453.949311	2719.712582
454.323001	2707.555840
454.696632	2699.298430
455.070202	2697.876824
455.443713	2691.076308
455.817164	2680.668846
456.190556	2678.843948
456.563888	2671.483863
456.937160	2663.854077
457.310373	2657.676143
457.683526	2647.677014
458.056619	2643.079482
458.429653	2638.461785
458.802628	2636.031949
459.175542	2631.845271
459.548398	2630.116155
459.921194	2628.830661
460.293930	2626.390742
460.666607	2629.039869
461.039224	2631.389046
461.411782	2628.220681
461.784280	2625.319497
462.156719	2620.006121
462.529099	2615.307766
462.901419	2609.921293
463.273680	2605.971549
463.645882	2606.563884
464.018024	2605.517845
464.390106	2602.513317
464.762130	2603.239243
465.134094	2608.663525
465.505999	2612.371293
465.877845	2616.890688
466.249631	2616.515122
466.621358	2615.988321
466.993026	2614.125615
467.364634	2613.513115
467.736184	2608.250150
468.107674	2606.011878
468.479105	2602.092381
468.850477	2600.360744
469.221790	2600.844695
469.593043	2594.303798
469.964238	2597.131885
470.335373	2597.000815
470.706449	2596.448809
471.077467	2596.544591
471.448425	2602.752772
471.819324	2604.660849
472.190164	2603.929881
472.560945	2599.798656
472.931667	2597.714139
473.302330	2594.218098
473.672934	2596.136257
474.043479	2592.584765
474.413965	2594.563418
474.784393	2592.214240
475.154761	2591.407655
475.525070	2587.268868
475.895321	2590.361616
476.265513	2592.259610
476.635645	2597.648604
477.005719	2594.686926
477.375734	2594.848243
477.745691	2597.550301
478.115588	2596.302616
478.485427	2596.070722
478.855207	2603.824017
479.224928	2605.774944
479.594591	2606.321909
479.964194	2605.812752
480.333739	2606.926847
480.703226	2606.508432
481.072653	2605.550612
481.442022	2604.928030
481.811333	2607.544389
482.180584	2607.166302
482.549777	2605.164964
482.918912	2605.152361
483.287988	2606.878956
483.657005	2604.935592
484.025964	2603.239243
484.394864	2603.614809
484.763706	2604.204624
485.132489	2604.134048
485.501213	2602.790581
485.869879	2602.225971
486.238487	2600.511979
486.607036	2601.671444
486.975527	2602.972062
487.343959	2601.774788
487.712333	2603.269490
488.080648	2604.277721
488.448905	2603.975252
488.817104	2601.356372
489.185244	2600.615323
489.553326	2602.967021
489.921350	2604.751589
490.289315	2608.134204
490.657222	2608.000613
491.025070	2611.678135
491.392861	2609.563371
491.760593	2606.636981
492.128267	2605.512804
492.495883	2605.820314
492.863440	2606.190839
493.230939	2600.431321
493.598380	2600.990889
493.965763	2596.075764
494.333088	2597.482246
494.700354	2596.426124
495.067563	2595.604416
495.434713	2594.896134
495.801805	2599.405446
496.168839	2598.135075
496.535815	2596.836978
496.902733	2597.915785
497.269593	2597.890579
497.636395	2596.214395
498.003139	2596.075764
498.369825	2596.448809
498.736453	2598.324118
499.103023	2598.215733
499.469535	2597.567945
499.835989	2594.840681
500.202385	2597.600713
500.568723	2595.672471
500.935003	2595.299426
501.301226	2595.674992
501.667390	2598.518203
502.033497	2598.515682
502.399546	2599.218923
502.765537	2596.922677
503.131470	2596.650455
503.497345	2598.397215
503.863163	2597.802359
504.228923	2596.627770
504.594625	2594.883531
504.960269	2597.885538
505.325856	2598.949221
505.691385	2594.583582
506.056856	2599.828903
506.422270	2596.179107
506.787625	2598.455188
507.152924	2597.078953
507.518164	2599.092894
507.883347	2596.521906
508.248472	2595.977461
508.613540	2598.891248
508.978550	2597.046186
509.343503	2595.916967
509.708398	2596.685743
510.073236	2594.475197
510.438016	2597.424272
510.802738	2596.030393
511.167403	2598.392174
511.532010	2596.295054
511.896561	2599.387802
512.261053	2600.506938
512.625488	2593.643407
512.989866	2596.600044
513.354186	2592.138622
513.718449	2592.909919
514.082655	2592.753643
514.446803	2596.811772
514.810894	2595.866556
515.174927	2600.527102
515.538904	2599.420569
515.902822	2597.527616
516.266684	2595.122986
516.630488	2595.518716
516.994235	2598.815631
517.357925	2599.803697
517.721558	2599.725559
518.085133	2598.694643
518.448651	2597.333532
518.812112	2596.627770
519.175516	2596.869745
519.538863	2596.728593
519.902152	2597.419231
520.265385	2594.996957
520.628560	2596.652976
520.991678	2596.602564
521.354739	2600.373347
521.717743	2597.663727
522.080690	2596.658017
522.443580	2599.763368
522.806413	2597.789756
523.169189	2594.969230
523.531908	2596.494179
523.894569	2596.312698
524.257174	2598.820672
524.619722	2595.664910
524.982213	2595.858994
525.344647	2598.823192
525.707025	2595.944694
526.069345	2596.506782
526.431608	2596.284972
526.793815	2599.932246
527.155964	2597.661207
527.518057	2594.555856
527.880093	2596.748758
528.242072	2597.391505
528.603995	2597.101638
528.965860	2597.520054
529.327669	2597.583069
529.689421	2596.801690
530.051117	2594.853284
530.412755	2595.165835
530.774337	2595.039807
531.135862	2596.930239
531.497331	2593.156936
531.858743	2591.798345
532.220098	2593.567790
532.581396	2594.003849
532.942638	2593.986205
533.303824	2594.578541
533.664953	2594.175249
534.026025	2593.454364
534.387040	2595.778336
534.747999	2594.697008
535.108902	2598.775302
535.469748	2595.639704
535.830537	2597.457040
536.191270	2596.433686
536.551947	2594.959148
536.912567	2598.498038
537.273131	2596.839498
537.633638	2595.435537
537.994089	2595.700198
538.354483	2595.218767
538.714821	2596.453850
539.075103	2593.592995
539.435328	2595.359920
539.795497	2596.128696
540.155609	2595.049889
540.515665	2598.452668
540.875665	2591.516040
541.235609	2596.499221
541.595496	2595.261617
541.955328	2597.073912
542.315102	2595.196082
542.674821	2594.029055
543.034483	2594.573500
543.394090	2594.003849
543.753640	2595.722883
544.113134	2598.172884
544.472571	2595.886720
544.831953	2594.674323
545.191278	2596.373192
545.550548	2590.923704
545.909761	2595.387646
546.268918	2593.958479
546.628019	2594.424786
546.987064	2593.955958
547.346053	2592.856987
547.704986	2590.031420
548.063863	2594.258428
548.422684	2596.322780
548.781449	2596.985692
549.140158	2592.204157
549.498811	2595.473346
549.857408	2595.158274
550.215949	2592.829261
550.574434	2593.620722
550.932864	2589.267685
551.291237	2591.432861
551.649555	2593.981164
552.007817	2594.076946
552.366022	2592.854466
552.724173	2594.515527
553.082267	2595.710280
553.440305	2595.768253
553.798288	2593.338417
554.156215	2593.255238
554.514086	2596.418562
554.871902	2594.288675
555.229661	2595.642224
555.587365	2595.183479
555.945014	2595.049889
556.302606	2593.071236
556.660143	2595.909406
557.017625	2593.454364
557.375050	2595.848912
557.732421	2593.948397
558.089735	2594.238263
558.446994	2595.627101
558.804197	2595.793459
559.161345	2595.387646
559.518437	2593.600557
559.875474	2593.940835
560.232455	2596.607605
560.589381	2593.991247
560.946251	2597.963676
561.303065	2596.305136
561.659825	2591.589137
562.016528	2594.651638
562.373177	2594.828078
562.729770	2594.921339
563.086307	2596.005187
563.442789	2592.882193
563.799216	2596.859663
564.155587	2592.257090
564.511904	2595.332193
564.868164	2593.131730
565.224370	2597.096597
565.580520	2591.334558
565.936615	2596.353027
566.292654	2593.804724
566.648638	2592.161308
567.004567	2593.668613
567.360441	2594.964189
567.716260	2596.242122
568.072023	2595.624580
568.427732	2592.143664
568.783385	2591.410176
569.138982	2589.454208
569.494525	2592.940166
569.850013	2590.603591
570.205445	2595.992585
570.560823	2592.993098
570.916145	2594.613829
571.271412	2594.132399
571.626625	2594.911257
571.981782	2594.502924
572.336884	2592.967892
572.691931	2594.775146
573.046923	2594.944025
573.401860	2593.386308
573.756743	2595.211206
574.111570	2594.565938
574.466342	2595.911926
574.821059	2594.613829
575.175722	2596.779005
575.530330	2593.146853
575.884882	2595.357399
576.239380	2593.928232
576.593823	2593.842532
576.948211	2591.344641
577.302544	2590.583427
577.656823	2593.381267
578.011047	2592.821699
578.365216	2592.733479
578.719330	2592.118458
579.073389	2591.793303
579.427394	2593.439240
579.781344	2592.625094
580.135239	2592.897316
580.489080	2592.564600
580.842866	2591.332038
581.196597	2594.616350
581.550273	2594.165166
581.903895	2593.749271
582.257463	2592.166349
582.610975	2590.555700
582.964434	2594.127358
583.317837	2592.476380
583.671186	2590.928746
584.024481	2594.079467
584.377721	2592.151225
584.730906	2592.302460
585.084037	2592.415886
585.437113	2593.535022
585.790135	2593.582913
586.143103	2592.264651
586.496016	2593.550146
586.848874	2588.148549
587.201679	2589.081163
587.554428	2590.454877
587.907124	2589.706266
588.259765	2590.656523
588.612352	2592.143664
588.964884	2592.700711
589.317362	2591.639548
589.669786	2590.142326
590.022155	2595.266658
590.374470	2588.889599
590.726731	2591.702563
591.078937	2590.772470
591.431090	2591.057295
591.783188	2589.945721
592.135232	2590.913622
592.487222	2591.594178
592.839157	2590.956472
593.191038	2589.033272
593.542866	2590.699373
593.894639	2589.807089
594.246358	2587.583940
594.598022	2591.672316
594.949633	2593.126689
595.301190	2589.262644
595.652692	2590.714497
596.004141	2591.851277
596.355535	2591.904209
596.706876	2589.166862
597.058162	2592.105855
597.409395	2591.022007
597.760573	2591.788262
598.111698	2588.932449
598.462768	2590.787593
598.813785	2588.282140
599.164748	2588.687953
599.515657	2587.707448
599.866511	2587.099989
600.217312	2588.635021
600.568060	2585.932962
600.918753	2592.327666
601.269392	2588.695514
601.619978	2590.548138
601.970510	2590.485124
602.320988	2588.198961
602.671412	2590.122161
603.021783	2587.861203
603.372100	2587.533528
603.722363	2589.126533
604.072572	2589.665937
604.422728	2590.830443
604.772830	2583.886254
605.122878	2587.951944
605.472872	2587.367170
605.822813	2581.390883
606.172701	2584.607139
606.522534	2589.078642
606.872314	2590.051585
607.222041	2588.824064
607.571714	2591.916812
607.921333	2588.635021
608.270899	2587.946903
608.620411	2589.509661
608.969870	2588.511512
609.319276	2588.866914
609.668627	2589.481934
610.017926	2591.165680
610.367171	2588.670309
610.716362	2588.882037
611.065500	2590.780032
611.414585	2587.823395
611.763616	2587.120154
612.112594	2589.797007
612.461518	2589.648292
612.810389	2587.352047
613.159207	2591.531163
613.507971	2590.285998
613.856682	2590.338931
614.205340	2588.594691
614.553945	2588.965216
614.902496	2589.764239
615.250994	2590.109558
615.599439	2588.314907
615.947830	2591.556369
616.296169	2590.520412
616.644454	2590.989239
616.992686	2588.362798
617.340864	2588.902202
617.688990	2589.184506
618.037063	2586.137129
618.385082	2588.778693
618.733048	2588.579568
619.080961	2588.299784
619.428821	2590.696853
619.776628	2589.484455
620.124382	2588.294743
620.472083	2591.223653
620.819731	2591.586616
621.167326	2589.910432
621.514868	2588.690473
621.862357	2588.095617
622.209793	2589.514702
622.557176	2590.517892
622.904506	2584.803744
623.251783	2585.869948
623.599007	2583.402303
623.946179	2584.904567
624.293297	2582.812488
624.640363	2584.057653
624.987376	2589.040833
625.334336	2585.592684
625.681243	2587.863724
626.028097	2586.537901
626.374899	2586.132088
626.721647	2584.408013
627.068343	2587.283991
627.414987	2589.204671
627.761577	2588.335072
628.108115	2587.793148
628.454600	2586.858014
628.801032	2586.371543
629.147412	2586.921028
629.493739	2587.727613
629.840014	2586.079156
630.186236	2586.159814
630.532405	2587.331882
630.878521	2588.209043
631.224585	2588.423292
631.570597	2586.938672
631.916556	2588.594691
632.262462	2586.595874
632.608316	2584.556727
632.954117	2586.255596
633.299866	2584.463466
633.645562	2584.632344
633.991206	2587.830957
634.336797	2585.917839
634.682336	2585.017993
635.027823	2587.208374
635.373257	2584.508836
635.718639	2582.084041
636.063968	2586.981522
636.409245	2586.053950
636.754470	2586.958837
637.099642	2585.196954
637.444762	2586.202664
637.789829	2584.342478
638.134845	2584.556727
638.479808	2584.183682
638.824719	2582.643609
639.169577	2584.236614
639.514383	2583.125039
639.859137	2582.459607
640.203839	2582.404154
640.548489	2585.169227
640.893086	2581.947930
641.237632	2578.121694
641.582125	2582.000862
641.926566	2577.957857
642.270955	2581.189236
642.615292	2582.883064
642.959576	2583.094792
643.303809	2587.664598
643.647990	2586.837849
643.992118	2585.585122
644.336195	2585.118816
644.680219	2584.801223
645.024192	2582.520101
645.368112	2583.702252
645.711981	2584.629824
646.055797	2583.689649
646.399562	2586.379104
646.743274	2585.988415
647.086935	2586.091758
647.430544	2584.622262
647.774101	2586.144691
648.117606	2585.998497
648.461059	2586.154773
648.804460	2585.136460
649.147810	2582.439442
649.491108	2585.338106
649.834354	2584.980184
650.177548	2583.465317
650.520690	2582.830132
650.863781	2581.138825
651.206820	2587.944382
651.549807	2581.509350
651.892742	2583.319124
652.235626	2580.707806
652.578458	2581.030440
652.921238	2580.133115
653.263967	2582.063877
653.606644	2582.683938
653.949269	2581.070769
654.291843	2580.397775
654.634365	2585.423806
654.976836	2584.334916
655.319255	2582.356263
655.661622	2582.147056
656.003938	2581.650502
656.346203	2584.891964
656.688416	2582.270564
657.030577	2583.430029
657.372687	2583.440112
657.714746	2580.352405
658.056753	2583.291397
658.398708	2579.997003
658.740612	2579.954154
659.082465	2578.232600
659.424266	2577.927610
659.766016	2575.543144
660.107715	2582.678897
660.449362	2582.305852
660.790958	2583.666963
661.132503	2581.474062
661.473996	2580.370049
661.815438	2583.583784
662.156829	2583.291397
662.498168	2583.119998
662.839456	2582.192426
663.180693	2582.628486
663.521879	2581.733681
663.863013	2583.228383
664.204097	2581.249730
664.545129	2583.389700
664.886110	2582.129412
665.227040	2581.516911
665.567918	2584.198805
665.908746	2582.154617
666.249522	2583.908939
666.590248	2579.913824
666.930922	2582.746953
667.271545	2581.877354
667.612118	2582.754515
667.952639	2579.828125
668.293109	2583.442632
668.633528	2581.952971
668.973896	2579.245872
669.314213	2580.564133
669.654480	2581.950451
669.994695	2581.073290
670.334859	2582.699062
670.674973	2579.807960
671.015035	2582.290728
671.355047	2581.441294
671.695008	2582.383990
672.034918	2582.893146
672.374777	2580.667477
672.714585	2583.243507
673.054342	2581.965574
673.394049	2582.250399
673.733705	2584.360122
674.073310	2581.443815
674.412864	2582.772159
674.752368	2580.339802
675.091820	2582.152097
675.431223	2583.172930
675.770574	2579.530697
676.109875	2579.124884
676.449125	2579.898701
676.788324	2578.000707
677.127473	2577.620099
677.466571	2576.354770
677.805619	2580.170923
678.144616	2581.867272
678.483562	2580.024730
678.822458	2578.905594
679.161303	2584.831470
679.500098	2580.039853
679.838842	2579.752507
680.177535	2577.478947
680.516179	2582.094123
680.854771	2580.309555
681.193314	2580.901891
681.531805	2581.007755
681.870247	2583.941706
682.208638	2583.230904
682.546978	2583.523291
682.885268	2582.479772
683.223508	2580.937179
683.561697	2583.276274
683.899836	2581.915163
684.237925	2581.572364
684.575963	2581.768969
684.913951	2581.574885
685.251889	2582.812488
685.589776	2581.738722
685.927614	2580.314596
686.265401	2583.051943
686.603137	2584.226532
686.940824	2579.664287
687.278460	2585.859865
687.616046	2582.615883
687.953582	2584.017324
688.291068	2583.240986
688.628504	2581.912642
688.965889	2581.774010
689.303224	2580.463310
689.640510	2584.070256
689.977745	2582.673856
690.314930	2578.262847
690.652065	2581.852148
690.989150	2577.783937
691.326185	2580.516242
691.663170	2579.860892
692.000105	2582.305852
692.336990	2577.625141
692.673825	2581.156469
693.010610	2579.266036
693.347345	2574.401323
693.684030	2576.697568
694.020665	2576.702609
694.357251	2573.030129
694.693786	2576.473237
695.030272	2580.322158
695.366707	2579.535738
695.703093	2579.273598
696.039429	2577.947774
696.375716	2579.593711
696.711952	2576.029615
697.048139	2580.748135
697.384276	2579.026581
697.720363	2579.525656
698.056400	2580.536407
698.392388	2578.419122
698.728326	2579.765110
699.064214	2577.093299
699.400053	2578.736715
699.735842	2577.317630
700.071581	2578.182188
700.407270	2577.068093
700.742910	2577.468865
701.078501	2575.820408
701.414042	2575.371745
701.749533	2579.997003
702.084974	2576.768144
702.420366	2576.740418
702.755709	2576.163206
703.091002	2577.635223
703.426246	2576.528690
703.761440	2574.852506
704.096584	2575.885942
704.431679	2576.001889
704.766725	2575.502815
705.101721	2577.831828
705.436668	2575.187743
705.771565	2576.430387
706.106413	2576.163206
706.441212	2576.750500
706.775961	2576.337126
707.110661	2577.731005
707.445311	2576.251426
707.779913	2579.160172
708.114465	2575.217990
708.448967	2577.539441
708.783421	2576.395099
709.117825	2576.979873
709.452180	2577.607497
709.786485	2576.747980
710.120742	2579.596232
710.454949	2576.503484
710.789107	2574.693710
711.123216	2575.122208
711.457275	2574.088771
711.791286	2574.565160
712.125247	2577.002558
712.459159	2577.637743
712.793023	2579.631520
713.126837	2579.946592
713.460602	2577.058011
713.794318	2576.478278
714.127985	2578.396437
714.461602	2575.636405
714.795171	2575.722105
715.128691	2576.831159
715.462162	2578.981211
715.795584	2575.220510
716.128957	2577.005079
716.462281	2576.289235
716.795556	2578.038515
717.128782	2575.192784
717.461960	2576.674883
717.795088	2575.233113
718.128167	2575.906107
718.461198	2574.000551
718.794180	2576.281673
719.127113	2573.793864
719.459997	2576.442990
719.792833	2575.298648
720.125619	2575.122208
720.458357	2577.723443
720.791046	2578.232600
721.123686	2576.132959
721.456278	2573.985427
721.788821	2575.510377
722.121315	2575.399471
722.453761	2574.731518
722.786158	2573.511559
723.118506	2574.166909
723.450805	2575.896025
723.783056	2576.483319
724.115259	2575.429718
724.447412	2574.358473
724.779518	2579.248392
725.111574	2575.971642
725.443582	2573.935016
725.775542	2575.820407
726.107453	2573.665314
726.439315	2576.982393
726.771129	2576.556416
727.102895	2574.098853
727.434612	2576.868968
727.766281	2575.848134
728.097901	2572.248750
728.429473	2571.122052
728.760996	2572.805798
729.092471	2571.810170
729.423897	2576.122877
729.755276	2574.653380
730.086606	2576.153124
730.417887	2576.884091
730.749120	2574.270253
731.080305	2575.613720
731.411442	2577.741087
731.742530	2578.207394
732.073570	2576.364852
732.404562	2577.257136
732.735506	2575.555747
733.066401	2578.499781
733.397249	2578.093968
733.728048	2576.460634
734.058798	2578.328382
734.389501	2576.064903
734.720156	2575.734708
735.050762	2574.318144
735.381320	2575.399471
735.711831	2573.256981
736.042293	2572.417629
736.372707	2576.019533
736.703073	2575.485171
737.033391	2575.018864
737.363661	2574.524831
737.693883	2572.732701
738.024056	2576.155644
738.354182	2574.658422
738.684260	2576.695048
739.014290	2572.888977
739.344272	2573.917372
739.674207	2574.159347
740.004093	2576.175809
740.333931	2573.355283
740.663722	2575.979204
740.993464	2574.136662
741.323159	2575.873340
741.652806	2573.587176
741.982405	2576.624472
742.311956	2576.747980
742.641460	2573.529203
742.970915	2573.914851
743.300323	2573.776220
743.629683	2573.751014
743.958996	2573.801425
744.288260	2576.710171
744.617477	2577.675552
744.946647	2570.590210
745.275768	2570.038204
745.604842	2569.765982
745.933869	2569.163564
746.262847	2569.486198
746.591778	2573.171281
746.920662	2572.026939
747.249498	2574.865109
747.578286	2575.059193
747.907027	2575.873340
748.235720	2576.148082
748.564365	2574.529872
748.892963	2574.323185
749.221514	2571.348904
749.550017	2574.212279
749.878473	2574.081209
750.206881	2573.869481
750.535242	2573.098184
750.863555	2572.188256
751.191821	2574.650860
751.520039	2574.174471
751.848210	2572.326888
752.176334	2573.584656
752.504411	2574.429049
752.832440	2572.495767
753.160421	2571.719429
753.488356	2571.409398
753.816243	2576.339646
754.144082	2571.235478
754.471875	2571.190108
754.799620	2571.248081
755.127318	2572.445355
755.454969	2572.377299
755.782572	2573.872002
756.110129	2571.984089
756.437638	2573.811508
756.765100	2573.141034
757.092515	2571.991651
757.419882	2570.116342
757.747203	2571.951322
758.074477	2571.641291
758.401703	2572.647001
758.728882	2574.711354
759.056014	2574.524831
759.383099	2570.108780
759.710138	2575.553226
760.037129	2572.347052
760.364073	2574.335788
760.690970	2574.532393
761.017820	2574.126580
761.344623	2570.988462
761.671379	2574.958370
761.998088	2568.644325
762.324751	2571.946281
762.651366	2572.084912
762.977935	2576.722774
763.304456	2573.224213
763.630931	2580.564133
763.957359	2579.628999
764.283740	2579.429874
764.610074	2576.700089
764.936362	2579.205542
765.262602	2575.684296
765.588796	2577.244533
765.914943	2575.689337
766.241044	2575.439800
766.567097	2575.659091
766.893104	2573.493915
767.219064	2569.264387
767.544978	2570.622978
767.870845	2571.419480
768.196665	2572.198338
768.522438	2570.670869
768.848165	2572.014336
769.173846	2572.730180
769.499479	2571.275807
769.825066	2569.677762
770.150607	2573.451065
770.476101	2569.564336
770.801548	2571.210272
771.126949	2571.968966
771.452303	2569.455951
771.777611	2570.552402
772.102872	2572.773030
772.428087	2570.348235
772.753256	2571.507700
773.078378	2572.639439
773.403453	2570.643143
773.728482	2571.666497
774.053465	2568.107442
774.378401	2570.297823
774.703291	2569.939902
775.028135	2569.201372
775.352932	2568.790518
775.677683	2571.016188
776.002388	2572.052145
776.327046	2569.927299
776.651658	2569.405539
776.976224	2570.411249
777.300743	2570.786815
777.625216	2571.661456
777.949643	2569.450910
778.274024	2572.082392
778.598359	2565.138203
778.922647	2565.566701
779.246889	2568.883780
779.571086	2567.328584
779.895236	2565.470919
780.219339	2568.924109
780.543397	2570.784295
780.867409	2571.348904
781.191374	2571.381672
781.515294	2569.765982
781.839167	2569.695406
782.162995	2570.252453
782.486776	2569.445868
782.810511	2570.280179
783.134201	2569.579459
783.457844	2569.791188
783.781441	2570.461661
784.104993	2569.266908
784.428498	2568.178018
784.751958	2570.844789
785.075372	2567.941084
785.398739	2569.581980
785.722061	2571.719429
786.045337	2568.374623
786.368568	2568.873698
786.691752	2569.105591
787.014891	2572.117680
787.337983	2572.465520
787.661030	2570.360838
787.984031	2569.965107
788.306987	2571.560632
788.629897	2571.250602
788.952760	2571.356466
789.275579	2572.087433
789.598351	2573.113308
789.921078	2567.943605
790.243759	2568.934191
790.566395	2569.418142
790.888984	2570.696075
791.211529	2571.452248
791.534027	2568.654407
791.856480	2571.190108
792.178888	2569.092988
792.501249	2568.147771
792.823566	2570.426373
793.145836	2571.018708
793.468062	2569.917216
793.790241	2568.591393
794.112375	2568.546022
794.434464	2571.348904
794.756507	2569.224058
795.078505	2568.190621
795.400457	2567.305899
795.722364	2565.929664
796.044226	2567.873028
796.366042	2565.733059
796.687812	2568.142730
797.009538	2568.225909
797.331218	2570.023081
797.652852	2568.654407
797.974442	2570.837227
798.295986	2568.077195
798.617484	2571.061558
798.938938	2569.042576
799.260346	2569.037535
799.581709	2568.137689
799.903026	2570.330591
800.224299	2567.449572
800.545526	2571.114490
800.866708	2569.208934
801.187845	2569.791187
801.508936	2572.344532
801.829983	2571.142217
802.150984	2570.285221
802.471940	2569.274469
802.792851	2568.304047
803.113717	2570.847309
803.434538	2567.348748
803.755314	2569.934860
804.076045	2568.780436
804.396731	2567.540312
804.717372	2570.996023
805.037967	2569.546692
805.358518	2571.028791
805.679024	2570.184397
805.999485	2568.513255
806.319901	2570.315467
806.640272	2568.553584
806.960598	2569.090467
807.280879	2570.232288
807.601115	2569.574418
807.921306	2570.426373
808.241453	2567.623491
808.561554	2568.301527
808.881611	2569.806311
809.201623	2569.219017
809.521590	2569.702967
809.841513	2568.709860
810.161390	2570.799418
810.481223	2568.059551
810.801011	2567.744479
811.120755	2567.605847
811.440453	2572.001733
811.760107	2569.564336
812.079716	2568.387226
812.399281	2565.937225
812.718801	2567.439489
813.038276	2563.386402
813.357707	2568.767833
813.677093	2567.038717
813.996434	2569.009809
814.315731	2567.820096
814.634983	2568.419994
814.954191	2569.360169
815.273354	2567.976372
815.592473	2569.846640
815.911547	2568.422514
816.230577	2570.204562
816.549562	2571.416960
816.868502	2570.335632
817.187399	2571.142217
817.506250	2568.916547
817.825058	2568.581311
818.143821	2567.341187
818.462539	2569.531568
818.781213	2570.958215
819.099843	2569.289593
819.418429	2573.176322
819.736970	2572.215982
820.055466	2571.966445
820.373919	2574.348391
820.692327	2575.669173
821.010691	2575.225551
821.329011	2579.513053
821.647286	2593.441761
821.965517	2599.801176
822.283704	2607.461210
822.601847	2612.749380
822.919945	2610.148145
823.237999	2607.950202
823.556010	2603.143461
823.873976	2598.722369
824.191897	2595.155753
824.509775	2590.084352
824.827609	2585.844742
825.145398	2584.105544
825.463144	2582.366346
825.780845	2581.063208
826.098502	2582.923393
826.416116	2586.414392
826.733685	2586.734506
827.051210	2584.861717
827.368692	2586.739547
827.686129	2584.599577
828.003522	2582.484813
828.320872	2575.296127
828.638177	2576.304358
828.955439	2571.548030
829.272656	2571.437124
829.589830	2569.395457
829.906960	2572.967114
830.224046	2570.292782
830.541088	2569.670200
830.858086	2569.387895
831.175041	2569.551733
831.491952	2570.738924
831.808819	2570.028122
832.125642	2568.740107
832.442421	2573.599779
832.759157	2570.638101
833.075849	2572.150447
833.392497	2575.248237
833.709101	2576.548854
834.025662	2576.258988
834.342179	2578.930799
834.658653	2578.058680
834.975083	2573.345201
835.291469	2577.909966
835.607811	2574.297979
835.924110	2571.974007
836.240366	2571.076682
836.556578	2567.890672
836.872746	2571.621126
837.188871	2569.702967
837.504952	2570.431414
837.820990	2568.906465
838.136984	2566.592575
838.452935	2566.622822
838.768842	2567.157185
839.084706	2565.463357
839.400526	2568.621640
839.716303	2567.515107
840.032037	2569.745817
840.347727	2569.334963
840.663373	2569.408060
840.978977	2569.849161
841.294537	2567.820096
841.610054	2569.937381
841.925527	2570.146589
842.240957	2568.046948
842.556344	2567.681465
842.871687	2567.681465
843.186987	2568.263718
843.502244	2565.165929
843.817458	2566.955538
844.132629	2566.746331
844.447756	2567.419325
844.762840	2562.910012
845.077881	2561.405228
845.392879	2565.344890
845.707833	2565.145764
846.022745	2561.939590
846.337613	2568.525858
846.652438	2567.736917
846.967221	2566.998388
847.281960	2567.961249
847.596656	2569.216496
847.911309	2565.612071
848.225919	2566.645507
848.540485	2565.906978
848.855009	2567.252967
849.169490	2566.370765
849.483928	2564.997050
849.798323	2563.265414
850.112675	2566.733728
850.426984	2566.401012
850.741251	2567.812535
851.055474	2566.658110
851.369654	2567.096691
851.683792	2563.570404
851.997887	2564.961762
852.311938	2566.680796
852.625947	2565.067626
852.939914	2565.685168
853.253837	2568.820765
853.567718	2565.241546
853.881555	2566.847154
854.195350	2563.663665
854.509103	2567.089129
854.822812	2566.905127
855.136479	2567.600806
855.450103	2566.564849
855.763685	2565.052503
856.077224	2565.092832
856.390720	2565.707853
856.704173	2568.039387
857.017584	2564.334138
857.330953	2563.988819
857.644278	2565.609550
857.957561	2568.094839
858.270802	2567.071485
858.584000	2567.109294
858.897155	2566.635425
859.210268	2565.496124
859.523339	2566.990827
859.836367	2564.215671
860.149352	2565.405384
860.462295	2566.625343
860.775195	2558.806513
861.088054	2563.497307
861.400869	2561.034703
861.713642	2562.098387
862.026373	2565.029818
862.339062	2564.989488
862.651708	2565.728017
862.964312	2566.746331
863.276873	2565.327246
863.589392	2565.465877
863.901869	2566.292627
864.214303	2566.360682
864.526696	2566.632905
864.839045	2566.214489
865.151353	2566.842112
865.463619	2566.695919
865.775842	2564.316494
866.088023	2565.445713
866.400162	2567.442010
866.712258	2565.796073
867.024313	2568.019222
867.336325	2565.697771
867.648296	2567.505024
867.960224	2567.497462
868.272110	2567.434448
868.583954	2565.236505
868.895755	2565.342369
869.207515	2564.079560
869.519233	2569.460992
869.830909	2565.072667
870.142542	2567.646177
870.454134	2563.880435
870.765684	2566.043090
871.077191	2567.333625
871.388657	2567.376475
871.700081	2566.882442
872.011463	2567.794891
872.322803	2563.590568
872.634101	2567.895714
872.945357	2565.977555
873.256571	2566.249777
873.567744	2565.410425
873.878874	2569.725652
874.189963	2564.964283
874.501010	2566.562328
874.812015	2567.068964
875.122979	2566.403532
875.433900	2564.576114
875.744780	2566.317832
876.055618	2567.986454
876.366415	2565.690209
876.677169	2564.256001
876.987882	2565.400343
877.298554	2562.509241
877.609183	2562.310115
877.919771	2562.978068
878.230317	2562.728531
878.540822	2567.673903
878.851285	2568.480487
879.161707	2567.631053
879.472087	2567.822617
879.782425	2568.626681
880.092722	2570.270097
880.402977	2576.044739
880.713191	2577.020202
881.023363	2585.098651
881.333494	2588.655185
881.643583	2590.517892
881.953631	2590.238107
882.263637	2588.390525
882.573602	2588.360278
882.883526	2583.051943
883.193408	2586.490010
883.503248	2583.661922
883.813048	2580.445666
884.122806	2581.095975
884.432522	2581.600090
884.742197	2575.538103
885.051831	2574.650860
885.361424	2573.171281
885.670975	2572.155489
885.980485	2571.444686
886.289954	2571.409398
886.599382	2569.864284
886.908768	2569.095508
887.218113	2572.132803
887.527417	2570.146589
887.836680	2569.397978
888.145901	2567.189952
888.455082	2567.003429
888.764221	2567.517627
889.073319	2565.975034
889.382376	2567.505024
889.691392	2568.218347
890.000366	2567.505024
890.309300	2564.712225
890.618193	2565.977555
890.927044	2567.610888
891.235855	2566.521999
891.544625	2566.282544
891.853353	2567.789849
892.162041	2567.444530
892.470687	2568.004098
892.779293	2565.604509
893.087858	2567.537792
893.396381	2563.867832
893.704864	2566.285065
894.013306	2563.212482
894.321707	2571.427042
894.630068	2571.653894
894.938387	2574.771847
895.246665	2572.876374
895.554903	2570.524675
895.863100	2570.509552
896.171256	2573.067937
896.479371	2569.269428
896.787446	2570.386044
897.095480	2568.140210
897.403473	2567.310940
897.711425	2570.000395
898.019336	2568.286403
898.327207	2567.784808
898.635038	2567.714232
898.942827	2566.905127
899.250576	2564.941598
899.558284	2567.124417
899.865952	2566.217009
900.173579	2562.819272
900.481165	2568.573749
900.788711	2568.351938
901.096216	2564.629046
901.403681	2565.816238
901.711105	2567.711712
902.018489	2568.379664
902.325832	2566.763975
902.633135	2563.313305
902.940397	2564.823130
903.247619	2567.923440
903.554800	2569.801270
903.861941	2569.534089
904.169041	2576.274111
904.476101	2574.267732
904.783121	2574.542475
905.090100	2576.765624
905.397039	2575.094481
905.703938	2574.860068
906.010796	2572.268915
906.317614	2568.977041
906.624391	2568.530899
906.931129	2570.786815
907.237826	2566.645507
907.544483	2567.215158
907.851099	2568.503173
908.157675	2568.866136
908.464211	2568.225909
908.770707	2562.650393
909.077163	2563.008315
909.383578	2563.887996
909.689954	2560.641493
909.996289	2562.110990
910.302584	2564.273645
910.608839	2561.760629
910.915054	2564.044272
911.221229	2563.880435
911.527363	2567.119376
911.833458	2562.254662
912.139513	2567.479818
912.445527	2563.683830
912.751502	2563.068809
913.057436	2562.426062
913.363331	2567.825137
913.669186	2566.244736
913.975000	2566.761454
914.280775	2568.089798
914.586510	2567.459654
914.892205	2564.487894
915.197859	2569.952504
915.503475	2569.990313
915.809050	2574.567681
916.114585	2572.568863
916.420081	2574.897876
916.725536	2572.178174
917.030952	2572.568863
917.336328	2573.372927
917.641665	2576.344687
917.946961	2574.698751
918.252218	2571.124573
918.557435	2571.855540
918.862612	2571.109449
919.167750	2569.261866
919.472848	2568.818245
919.777906	2569.171126
920.082925	2567.492421
920.387904	2568.563667
920.692843	2566.905127
920.997743	2569.922258
921.302603	2564.858418
921.607423	2563.915723
921.912204	2566.595096
922.216946	2565.816238
922.521647	2567.648697
922.826310	2564.697102
923.130932	2565.607030
923.435516	2562.186607
923.740059	2565.090312
924.044564	2564.946639
924.349028	2565.395301
924.653454	2560.853222
924.957840	2564.727348
925.262186	2563.202399
925.566493	2563.401525
925.870761	2558.710731
926.174989	2567.174829
926.479178	2562.526885
926.783328	2564.465208
927.087438	2562.683161
927.391509	2567.376475
927.695541	2562.841957
927.999533	2562.594940
928.303486	2563.451937
928.607400	2564.515620
928.911275	2561.813562
929.215110	2561.669889
929.518906	2561.553942
929.822663	2561.866494
930.126381	2562.476473
930.430060	2561.869014
930.733699	2563.305743
931.037299	2560.127296
931.340861	2562.910012
931.644383	2563.434292
931.947866	2563.477142
932.251309	2563.404046
932.554714	2563.525033
932.858080	2564.445044
933.161407	2563.741803
933.464694	2563.041082
933.767943	2559.000598
934.071153	2565.528892
934.374323	2563.643500
934.677455	2560.303736
934.980548	2561.911864
935.283602	2560.633932
935.586617	2562.967986
935.889593	2559.930691
936.192530	2561.185938
936.495428	2561.861453
936.798287	2562.579817
937.101108	2562.320198
937.403890	2563.399004
937.706632	2563.341031
938.009336	2565.884293
938.312002	2563.535116
938.614628	2565.178532
938.917216	2562.453788
939.219765	2563.371278
939.522275	2564.137533
939.824747	2563.895558
940.127179	2557.765515
940.429573	2556.459856
940.731929	2561.463201
941.034246	2559.229970
941.336524	2556.674105
941.638763	2564.215671
941.940964	2563.371278
942.243126	2561.548901
942.545250	2563.169632
942.847335	2562.184086
943.149381	2563.252811
943.451389	2564.583676
943.753359	2563.557801
944.055290	2563.683830
944.357182	2561.899261
944.659036	2562.216854
944.960851	2563.527554
945.262628	2563.278017
945.564367	2564.770198
945.866067	2565.506207
946.167729	2562.269786
946.469352	2561.818603
946.770937	2563.083932
947.072484	2559.696277
947.373992	2563.439334
947.675462	2562.355486
947.976893	2563.464539
948.278286	2562.141237
948.579641	2562.869683
948.880958	2563.225085
949.182236	2563.293140
949.483476	2561.291802
949.784678	2562.438665
950.085841	2563.409087
950.386967	2562.264745
950.688054	2564.059396
950.989103	2561.014539
951.290114	2562.085784
951.591087	2560.744837
951.892021	2562.249621
952.192917	2563.837585
952.493776	2560.424724
952.794596	2562.468912
953.095378	2560.999415
953.396122	2565.052503
953.696828	2565.823799
953.997496	2562.325239
954.298126	2562.920095
954.598718	2562.199210
954.899272	2562.264745
955.199788	2562.539488
955.500266	2563.903120
955.800706	2560.454971
956.101108	2557.674774
956.401472	2558.703170
956.701798	2557.205947
957.002087	2557.331976
957.302337	2562.496638
957.602550	2561.763150
957.902724	2561.962276
958.202861	2562.138716
958.502960	2563.028480
958.803022	2561.795917
959.103045	2561.700136
959.403031	2562.945301
959.702979	2560.497820
960.002889	2563.209961
960.302762	2561.634601
960.602596	2561.571586
960.902393	2562.010167
961.202153	2560.291133
961.501875	2559.892882
961.801559	2560.061761
962.101205	2561.954714
962.400814	2563.456978
962.700385	2560.270968
962.999918	2559.708880
963.299414	2559.093859
963.598873	2560.316339
963.898293	2559.829867
964.197677	2563.462019
964.497022	2562.778943
964.796331	2561.889179
965.095601	2560.770043
965.394835	2563.895558
965.694030	2560.028993
965.993189	2561.180897
966.292309	2559.708880
966.591393	2562.254662
966.890439	2564.228274
967.189447	2559.413972
967.488419	2557.972202
967.787353	2561.095197
968.086249	2560.931360
968.385108	2560.681822
968.683930	2559.797100
968.982714	2560.270968
969.281462	2560.883469
969.580172	2562.864642
969.878844	2563.595609
970.177480	2561.122923
970.476078	2563.764488
970.774639	2563.101576
971.073162	2559.144271
971.371649	2559.098900
971.670098	2558.723334
971.968510	2557.198385
972.266885	2552.941131
972.565223	2561.468243
972.863524	2561.841288
973.161788	2561.085115
973.460014	2561.347255
973.758204	2561.624518
974.056356	2561.674930
974.354471	2560.964127
974.652550	2560.724672
974.950591	2561.639642
975.248595	2559.179559
975.546563	2561.410269
975.844493	2560.417162
976.142386	2564.467729
976.440243	2560.843139
976.738062	2564.739951
977.035845	2559.492110
977.333590	2560.654096
977.631299	2562.844477
977.928971	2560.354147
978.226606	2562.733572
978.524204	2563.320867
978.821765	2561.185938
979.119290	2560.359189
979.416777	2562.090825
979.714228	2558.156204
980.011642	2562.655434
980.309020	2563.043603
980.606360	2558.143602
980.903664	2558.567058
981.200931	2560.308777
981.498162	2560.875907
981.795356	2562.005125
982.092513	2562.186607
982.389633	2561.377502
982.686717	2562.887327
982.983764	2560.918757
983.280775	2561.049827
983.577749	2562.700805
983.874686	2563.923284
984.171587	2562.186607
984.468451	2564.651731
984.765279	2560.984292
985.062070	2562.698284
985.358824	2561.914385
985.655543	2562.176525
985.952224	2561.445557
986.248869	2559.953376
986.545478	2559.229970
986.842050	2556.217881
987.138586	2556.699311
987.435086	2556.742161
987.731549	2556.729558
988.027975	2561.516133
988.324366	2561.606874
988.620719	2560.787687
988.917037	2561.488407
989.213318	2558.274672
989.509563	2561.770712
989.805772	2560.467573
990.101944	2559.444219
990.398080	2558.849363
990.694180	2561.901782
990.990244	2559.560166
991.286271	2558.577141
991.582262	2561.579148
991.878217	2561.102759
992.174136	2561.659806
992.470019	2560.424724
992.765865	2559.439178
993.061676	2558.685526
993.357450	2561.410269
993.653188	2559.971020
993.948890	2561.518654
994.244556	2559.083777
994.540186	2562.128634
994.835780	2559.383725
995.131337	2563.335990
995.426859	2562.925136
995.722345	2560.694425
996.017795	2558.471277
996.313208	2561.160732
996.608586	2561.032183
996.903928	2560.903633
997.199234	2560.283571
997.494504	2562.650393
997.789738	2563.557801
998.084936	2560.371792
998.380099	2560.664178
998.675225	2559.850032
998.970316	2560.744837
999.265371	2560.205433
999.560390	2560.633932
999.855373	2559.557645
1000.150320	2561.236349
1000.445232	2560.235680
1000.740108	2559.890361
1001.034948	2560.770043
1001.329752	2560.701987
1001.624521	2562.829354
1001.919254	2560.013870
1002.213951	2558.960268
1002.508613	2556.752243
1002.803239	2556.227963
1003.097829	2555.229815
1003.392384	2562.899930
1003.686903	2557.760474
1003.981386	2560.533108
1004.275834	2559.280382
1004.570246	2560.112172
1004.864623	2561.027142
1005.158964	2561.488407
1005.453270	2561.833726
1005.747540	2557.468087
1006.041775	2560.949004
1006.335974	2560.787687
1006.630138	2560.817934
1006.924266	2561.259035
1007.218359	2559.121585
1007.512416	2560.631411
1007.806438	2559.033365
1008.100425	2558.985474
1008.394376	2558.667882
1008.688292	2559.925649
1008.982172	2559.920608
1009.276017	2560.911195
1009.569827	2560.185269
1009.863602	2561.967317
1010.157341	2561.425393
1010.451045	2560.094528
1010.744714	2562.650393
1011.038347	2561.417831
1011.331945	2559.630742
1011.625508	2559.222408
1011.919036	2559.633263
1012.212528	2560.139898
1012.505986	2557.059753
1012.799408	2558.342727
1013.092795	2557.460525
1013.386147	2560.444888
1013.679464	2559.355999
1013.972745	2560.719631
1014.265992	2559.824826
1014.559204	2562.741134
1014.852380	2559.965979
1015.145521	2559.499672
1015.438628	2558.004970
1015.731699	2560.013870
1016.024736	2558.171328
1016.317737	2559.928170
1016.610703	2559.151832
1016.903635	2556.273333
1017.196531	2554.849207
1017.489393	2556.457336
1017.782219	2555.073539
1018.075011	2555.365926
1018.367768	2559.902964
1018.660490	2560.996895
1018.953177	2560.996895
1019.245829	2560.996895
