Dividing Wavelength (nm)	Counts (n)	Blue Motor Position (mm): 0.000000	Red Motor Position (mm): 48.000000	
326.493990	2127.467746
326.888308	2127.467746
327.282561	2127.467746
327.676750	2097.558580
328.070874	2095.307705
328.464933	2097.477922
328.858929	2105.359766
329.252859	2112.838318
329.646726	2123.520523
330.040528	2136.488891
330.434265	2155.907416
330.827938	2172.069355
331.221547	2189.857066
331.615091	2208.612679
332.008571	2227.693446
332.401986	2245.687845
332.795338	2267.982348
333.188625	2286.468259
333.581847	2304.654222
333.975006	2325.426296
334.368100	2342.568740
334.761129	2360.164887
335.154095	2375.857999
335.546996	2398.003788
335.939833	2422.665112
336.332606	2440.200766
336.725315	2450.336006
337.117960	2460.072995
337.510540	2467.460806
337.903056	2480.119143
338.295508	2487.532160
338.687896	2498.602533
339.080220	2505.808863
339.472480	2509.756086
339.864676	2516.511233
340.256807	2516.856552
340.648875	2524.206554
341.040879	2523.929290
341.432818	2525.239990
341.824694	2530.089580
342.216506	2530.013963
342.608253	2530.891124
342.999937	2528.418438
343.391557	2527.223684
343.783113	2528.133613
344.174605	2527.395084
344.566033	2527.014477
344.957397	2522.353930
345.348697	2521.958199
345.739934	2520.110616
346.131106	2518.265554
346.522215	2517.310255
346.913260	2515.757580
347.304241	2513.889832
347.695159	2510.323216
348.086012	2510.910511
348.476802	2511.011334
348.867528	2504.795591
349.258191	2504.392299
349.648789	2506.771723
350.039324	2500.649242
350.429796	2501.707884
350.820203	2503.552947
351.210548	2502.070847
351.600828	2499.552791
351.991045	2496.593634
352.381198	2496.475167
352.771288	2493.062305
353.161314	2498.322749
353.551276	2498.373161
353.941175	2499.603203
354.331010	2495.293016
354.720782	2494.751092
355.110490	2497.427945
355.500135	2496.497852
355.889717	2497.185969
356.279235	2495.058602
356.668689	2499.396515
357.058080	2498.355517
357.447408	2494.824189
357.836672	2494.776298
358.225873	2498.506752
358.615010	2495.474497
359.004084	2500.455158
359.393095	2499.129334
359.782043	2500.286279
360.170927	2503.323574
360.559748	2504.987155
360.948505	2500.543378
361.337199	2505.536641
361.725830	2504.611589
362.114398	2505.294665
362.502903	2506.464213
362.891344	2506.244923
363.279722	2508.843638
363.668037	2510.693741
364.056289	2509.022598
364.444478	2510.570233
364.832603	2508.488236
365.220665	2508.543689
365.608665	2510.529903
365.996601	2511.233144
366.384474	2515.452590
366.772284	2512.445542
367.160031	2517.219515
367.547715	2515.387055
367.935336	2521.023065
368.322893	2522.217819
368.710388	2527.513551
369.097820	2533.089067
369.485189	2537.868081
369.872495	2541.089378
370.259738	2546.727909
370.646918	2555.534804
371.034035	2563.638459
371.421090	2572.647001
371.808081	2584.347519
372.195010	2593.794642
372.581875	2604.759151
372.968678	2620.253137
373.355418	2628.757564
373.742096	2645.970584
374.128710	2660.579848
374.515262	2676.401509
374.901751	2693.057481
375.288177	2704.216075
375.674540	2726.586196
376.060841	2747.348188
376.447079	2763.936104
376.833254	2784.836728
377.219367	2795.740744
377.605417	2835.454954
377.991404	2844.397961
378.377329	2865.966538
378.763191	2883.900443
379.148991	2920.761359
379.534727	2946.614917
379.920402	2973.698516
380.306013	2987.415496
380.691563	3037.496838
381.077049	3056.229766
381.462474	3075.045873
381.847835	3115.349898
382.233134	3136.701705
382.618371	3135.423772
383.003545	3203.451623
383.388657	3211.267932
383.773706	3245.414188
384.158693	3261.021600
384.543618	3283.059004
384.928480	3321.971671
385.313280	3370.575955
385.698017	3367.578989
386.082692	3417.700662
386.467305	3425.126281
386.851856	3457.528298
387.236344	3480.952019
387.620770	3512.902852
388.005133	3536.001419
388.389435	3566.152560
388.773674	3575.403077
389.157851	3619.351857
389.541965	3631.831233
389.926018	3598.466356
390.310008	3668.339269
390.693936	3690.094368
391.077802	3727.746747
391.461606	3719.401116
391.845348	3780.837658
392.229027	3774.581586
392.612645	3793.397693
392.996200	3868.964589
393.379694	3914.493770
393.763125	3972.272955
394.146494	3940.957307
394.529801	4006.474663
394.913047	4058.819484
395.296230	4021.247765
395.679351	4072.707863
396.062410	4097.611163
396.445408	4077.116352
396.828343	4112.437197
397.211217	4135.223212
397.594028	4054.141293
397.976778	4123.011017
398.359466	4150.210562
398.742092	4176.865663
399.124656	4097.200309
399.507158	4178.803987
399.889598	4204.534036
400.271977	4268.564252
400.654294	4235.791711
401.036549	4244.946446
401.418742	4216.247157
401.800874	4322.134073
402.182944	4340.055375
402.564952	4401.290271
402.946898	4392.564033
403.328783	4385.340060
403.710606	4300.527688
404.092367	4494.266792
404.474067	4457.095844
404.855705	4466.651351
405.237282	4397.539652
405.618797	4502.062936
406.000250	4536.864542
406.381642	4618.707674
406.762972	4578.471705
407.144240	4591.626596
407.525447	4591.503088
407.906593	4648.810925
408.287677	4689.062017
408.668700	4619.204228
409.049661	4668.025282
409.430560	4713.032704
409.811399	4641.062671
410.192176	4801.424296
410.572891	4743.007405
410.953545	4841.047765
411.334138	4724.226586
411.714669	4789.610352
412.095139	4683.554557
412.475547	4827.451773
412.855894	4805.908402
413.236180	4819.093540
413.616405	4777.166263
413.996568	4857.464282
414.376670	4800.045540
414.756711	4757.525928
415.136691	4789.358294
415.516609	4865.101630
415.896466	4899.973812
416.276262	4937.114513
416.655997	4914.424280
417.035670	5102.605512
417.415283	5190.687072
417.794834	5132.060973
418.174324	5090.325261
418.553753	4996.196836
418.933121	5181.670968
419.312428	5245.267645
419.691674	5187.153223
420.070859	5315.541329
420.449983	5223.651177
420.829045	5338.937324
421.208047	5246.666565
421.586988	5319.912010
421.965867	5328.071117
422.344686	5461.233196
422.723444	5316.791536
423.102141	5137.076922
423.480777	5434.873003
423.859352	5195.997928
424.237866	5459.292352
424.616319	5448.620229
424.994712	5563.674483
425.373044	5443.001863
425.751314	5582.193162
426.129524	5387.284510
426.507673	5579.307102
426.885762	5666.582077
427.263789	5594.123053
427.641756	5475.734075
428.019662	5597.518270
428.397508	5601.374752
428.775292	5550.214603
429.153016	5648.663296
429.530679	5576.128654
429.908282	5660.777189
430.285824	5531.998393
430.663305	5806.713552
431.040726	5538.549373
431.418086	5540.727151
431.795385	5645.699098
432.172624	5662.140821
432.549802	5649.893338
432.926920	5665.289022
433.303977	5678.295198
433.680974	5713.616043
434.057910	5727.711109
434.434786	5736.964147
434.811601	5705.474579
435.188355	5937.193737
435.565050	5811.971475
435.941683	5794.733249
436.318257	6008.889027
436.694770	5991.771789
437.071222	6031.304517
437.447614	5960.047808
437.823946	5871.179827
438.200218	6028.468868
438.576429	5889.955604
438.952580	5990.007385
439.328670	6036.141504
439.704700	5938.900167
440.080670	5929.052273
440.456580	6196.135124
440.832429	6079.712197
441.208218	5927.958343
441.583947	6085.496921
441.959616	6089.297951
442.335224	6017.174163
442.710773	6150.197610
443.086261	6180.217681
443.461689	5972.449046
443.837057	6120.747189
444.212365	6277.199399
444.587612	6168.839797
444.962800	6321.795966
445.337927	6299.612369
445.712995	5913.986785
446.088002	6495.594786
446.462949	6321.201110
446.837837	6254.458754
447.212664	6421.883035
447.587431	6570.206384
447.962139	7106.358301
448.336786	8035.702574
448.711374	7772.231710
449.085901	6843.625966
449.460369	6773.571571
449.834776	6706.004986
450.209124	7094.599810
450.583412	7247.976916
450.957640	7396.670789
451.331808	7157.543657
451.705917	6711.691408
452.079965	6640.041488
452.453954	6849.819023
452.827883	6722.033335
453.201752	6814.523384
453.575562	6615.748168
453.949311	6818.551266
454.323001	6707.759308
454.696632	6781.574403
455.070202	6917.564569
455.443713	7075.304793
455.817164	7172.299114
456.190556	7253.660817
456.563888	7326.203020
456.937160	7374.041050
457.310373	7033.511107
457.683526	7055.818213
458.056619	6949.848118
458.429653	6936.794050
458.802628	6869.093875
459.175542	6979.883313
459.548398	7336.754155
459.921194	7496.077302
460.293930	7500.090061
460.666607	8026.089094
461.039224	8335.782298
461.411782	8461.896844
461.784280	8483.616655
462.156719	8366.465281
462.529099	8253.369515
462.901419	7838.149837
463.273680	7730.861481
463.645882	7743.424036
464.018024	7609.294056
464.390106	7780.746219
464.762130	8164.914909
465.134094	8633.293554
465.505999	9655.858844
465.877845	10875.802952
466.249631	11526.220183
466.621358	11141.784311
466.993026	10511.289720
467.364634	10258.395196
467.736184	9899.268437
468.107674	9555.567609
468.479105	9595.685112
468.850477	9350.984983
469.221790	9134.485070
469.593043	8801.990727
469.964238	8659.842791
470.335373	8679.094957
470.706449	8734.227537
471.077467	8712.356491
471.448425	10021.294607
471.819324	11098.405182
472.190164	11122.895107
472.560945	9871.544612
472.931667	9091.332793
473.302330	8948.537069
473.672934	8594.320394
474.043479	8950.389693
474.413965	8895.524295
474.784393	8771.743803
475.154761	8928.637114
475.525070	9018.412502
475.895321	8843.618054
476.265513	9017.711782
476.635645	9191.374491
477.005719	9186.915590
477.375734	9299.855080
477.745691	9538.447851
478.115588	9671.685547
478.485427	9915.195963
478.855207	10453.689496
479.224928	11262.285532
479.594591	11899.878067
479.964194	11709.519057
480.333739	11648.800880
480.703226	11566.970350
481.072653	11656.627271
481.442022	11892.689382
481.811333	12082.599730
482.180584	11886.171170
482.549777	11593.272570
482.918912	11425.089595
483.287988	11444.911412
483.657005	11457.015223
484.025964	11137.882458
484.394864	11270.963878
484.763706	11241.047151
485.132489	10990.748821
485.501213	10964.267640
485.869879	11040.963755
486.238487	10874.819927
486.607036	10988.029119
486.975527	10762.354305
487.343959	10956.171547
487.712333	11003.114772
488.080648	10936.019534
488.448905	10976.205092
488.817104	10917.546226
489.185244	11188.059583
489.553326	11336.297232
489.921350	11874.639531
490.289315	12926.239347
490.657222	13273.199281
491.025070	13182.771063
491.392861	13061.712794
491.760593	12683.951410
492.128267	12328.320692
492.495883	12003.887154
492.863440	11666.233190
493.230939	11333.317910
493.598380	11269.179310
493.965763	11134.134360
494.333088	11027.692917
494.700354	10955.231372
495.067563	11017.789570
495.434713	10846.312202
495.801805	10974.962448
496.168839	10895.992773
496.535815	10830.656898
496.902733	10834.830974
497.269593	10766.344378
497.636395	10864.354491
498.003139	10858.998265
498.369825	10724.147400
498.736453	10878.089115
499.103023	10806.169494
499.469535	10830.261168
499.835989	10818.732049
500.202385	10785.029415
500.568723	10635.236570
500.935003	10858.100940
501.301226	10660.865796
501.667390	10928.409913
502.033497	11021.202432
502.399546	10871.132323
502.765537	10781.440113
503.131470	10863.348781
503.497345	11033.195337
503.863163	10645.011367
504.228923	10952.977976
504.594625	11021.315857
504.960269	10764.907649
505.325856	10987.703964
505.691385	10783.232244
506.056856	10938.063722
506.422270	10959.561723
506.787625	10849.508293
507.152924	10969.754936
507.518164	10950.669128
507.883347	10868.367250
508.248472	10793.022164
508.613540	11024.380879
508.978550	10912.684033
509.343503	10883.493232
509.708398	10996.193267
510.073236	11108.127047
510.438016	11118.945363
510.802738	11062.676004
511.167403	11114.902358
511.532010	11009.789259
511.896561	11246.204251
512.261053	11316.893831
512.625488	11188.581342
512.989866	11161.157465
513.354186	11158.122691
513.718449	11062.812115
514.082655	11252.750189
514.446803	11145.686164
514.810894	11273.295412
515.174927	11140.866821
515.538904	11166.307004
515.902822	11308.049127
516.266684	11197.683145
516.630488	11144.735907
516.994235	11200.178517
517.357925	11255.502659
517.721558	11348.476660
518.085133	11361.412261
518.448651	11377.405321
518.812112	11257.486353
519.175516	11272.181317
519.538863	11395.674463
519.902152	11306.163735
520.265385	11473.295629
520.628560	11379.888089
520.991678	11351.486229
521.354739	11423.915007
521.717743	11353.119562
522.080690	11328.672487
522.443580	11468.322531
522.806413	11427.499267
523.169189	11454.247629
523.531908	11512.505724
523.894569	11328.496047
524.257174	11338.868221
524.619722	11453.582197
524.982213	11402.898436
525.344647	11452.889038
525.707025	11405.416492
526.069345	11490.526293
526.431608	11416.738924
526.793815	11526.318485
527.155964	11315.230250
527.518057	11364.666325
527.880093	11320.757875
528.242072	11380.538398
528.603995	11290.170674
528.965860	11213.706453
529.327669	11264.344843
529.689421	11214.455064
530.051117	11187.361383
530.412755	11291.564553
530.774337	11175.257572
531.135862	11157.469861
531.497331	11185.234016
531.858743	11041.084742
532.220098	11199.928979
532.581396	11075.281409
532.942638	11058.753987
533.303824	11016.499035
533.664953	11034.942096
534.026025	10952.640219
534.387040	11047.698736
534.747999	11045.737727
535.108902	11105.984557
535.469748	10870.292971
535.830537	10966.029523
536.191270	10947.556215
536.551947	10975.108641
536.912567	10965.706889
537.273131	10891.952288
537.633638	10871.896058
537.994089	10862.794254
538.354483	10804.521036
538.714821	10958.487957
539.075103	10970.248969
539.435328	10934.300501
539.795497	10758.475137
540.155609	10907.683209
540.515665	10999.817857
540.875665	10740.667261
541.235609	10808.720317
541.595496	10796.770262
541.955328	10955.554006
542.315102	10838.616880
542.674821	10790.173913
543.034483	10792.976794
543.394090	10798.113730
543.753640	10726.912473
544.113134	10943.956831
544.472571	10804.059771
544.831953	10938.371233
545.191278	10750.769733
545.550548	10779.176635
545.909761	10912.184959
546.268918	10887.286700
546.628019	10974.823816
546.987064	10837.858187
547.346053	10761.441856
547.704986	10861.745694
548.063863	10842.619557
548.422684	10835.196458
548.781449	10751.548592
549.140158	10851.996103
549.498811	10733.750798
549.857408	10588.295866
550.215949	10818.323716
550.574434	10668.823257
550.932864	10763.947310
551.291237	10824.448718
551.649555	10775.239494
552.007817	10787.396237
552.366022	10750.409291
552.724173	10743.437375
553.082267	10730.075797
553.440305	10861.130673
553.798288	10669.065232
554.156215	10818.449744
554.514086	10791.905549
554.871902	10649.639146
555.229661	10681.980669
555.587365	10657.916721
555.945014	10551.424866
556.302606	10677.897334
556.660143	10573.484956
557.017625	10730.736188
557.375050	10628.720878
557.732421	10763.710375
558.089735	10673.198979
558.446994	10674.413897
558.804197	10705.416993
559.161345	10716.182377
559.518437	10562.263347
559.875474	10646.450616
560.232455	10675.142343
560.589381	10630.223142
560.946251	10621.058324
561.303065	10736.389842
561.659825	10670.998515
562.016528	10604.069636
562.373177	10473.919647
562.729770	10592.182595
563.086307	10506.949287
563.442789	10603.870510
563.799216	10481.055400
564.155587	10526.634992
564.511904	10483.076903
564.868164	10466.380601
565.224370	10485.569753
565.580520	10407.026056
565.936615	10413.645091
566.292654	10285.466192
566.648638	10413.231716
567.004567	10371.561538
567.360441	10361.476710
567.716260	10267.721331
568.072023	10362.973933
568.427732	10312.189349
568.783385	10225.743643
569.138982	10298.873141
569.494525	10309.293206
569.850013	10183.105563
570.205445	10265.546073
570.560823	10165.282564
570.916145	10078.352907
571.271412	10154.678497
571.626625	10097.184137
571.981782	10071.106248
572.336884	10047.178412
572.691931	10048.259739
573.046923	10001.664354
573.401860	9958.572571
573.756743	9887.179750
574.111570	9935.968037
574.466342	9915.773175
574.821059	9949.382548
575.175722	9837.660496
575.530330	9847.412608
575.884882	9843.324232
576.239380	9761.725596
576.593823	9747.333102
576.948211	9761.062684
577.302544	9645.403491
577.656823	9649.635540
578.011047	9655.997476
578.365216	9633.392942
578.719330	9561.306963
579.073389	9562.158918
579.427394	9511.712091
579.781344	9491.376077
580.135239	9438.413714
580.489080	9445.080640
580.842866	9347.211680
581.196597	9352.411630
581.550273	9395.309328
581.903895	9364.281027
582.257463	9429.639586
582.610975	9309.135845
582.964434	9332.516716
583.317837	9256.160879
583.671186	9241.097912
584.024481	9230.831602
584.377721	9146.878746
584.730906	9130.220253
585.084037	9161.301488
585.437113	9095.390922
585.790135	9109.044887
586.143103	9014.125001
586.496016	8990.885282
586.848874	9048.102378
587.201679	9031.451447
587.554428	8919.011031
587.907124	8967.935429
588.259765	8937.358310
588.612352	8945.167057
588.964884	8819.266761
589.317362	8832.802259
589.669786	8830.649686
590.022155	8880.529383
590.374470	8898.705263
590.726731	8839.370882
591.078937	8687.065022
591.431090	8798.968555
591.783188	8671.157661
592.135232	8665.345210
592.487222	8667.903596
592.839157	8721.329744
593.191038	8654.554621
593.542866	8597.292154
593.894639	8494.525712
594.246358	8546.336171
594.598022	8562.934170
594.949633	8458.279816
595.301190	8433.237884
595.652692	8466.822051
596.004141	8572.764420
596.355535	8347.805450
596.706876	8330.027821
597.058162	8263.653469
597.409395	8340.495777
597.760573	8402.885097
598.111698	8310.861354
598.462768	8297.386350
598.813785	8267.416690
599.164748	8229.746668
599.515657	8219.903815
599.866511	8131.524827
600.217312	8254.390349
600.568060	8110.750232
600.918753	8221.756439
601.269392	8193.795680
601.619978	8099.694981
601.970510	8166.346597
602.320988	8164.746031
602.671412	8217.847025
603.021783	8148.263978
603.372100	8127.471739
603.722363	8133.095146
604.072572	8105.792257
604.422728	8117.848176
604.772830	8046.223462
605.122878	8049.069194
605.472872	8051.335192
605.822813	8076.036846
606.172701	8026.033641
606.522534	8095.672141
606.872314	8100.012574
607.222041	8074.486692
607.571714	8122.551573
607.921333	8087.228208
608.270899	8083.386849
608.620411	8173.691558
608.969870	8083.893485
609.319276	8075.671363
609.668627	8096.902182
610.017926	8128.737069
610.367171	8176.759100
610.716362	8146.963360
611.065500	8143.429512
611.414585	8169.078902
611.763616	8157.428796
612.112594	8145.239286
612.461518	8152.753126
612.810389	8214.555151
613.159207	8150.255234
613.507971	8103.735466
613.856682	8215.888536
614.205340	8173.368924
614.553945	8249.596212
614.902496	8148.705079
615.250994	8206.242288
615.599439	8185.981891
615.947830	8202.625261
616.296169	8171.203749
616.644454	8186.654885
616.992686	8183.650358
617.340864	8242.505829
617.688990	8148.342116
618.037063	8236.693378
618.385082	8182.576592
618.733048	8269.223944
619.080961	8207.605921
619.428821	8232.300013
619.776628	8231.659786
620.124382	8184.386366
620.472083	8164.955238
620.819731	8194.365330
621.167326	8092.198786
621.514868	8098.379240
621.862357	7987.793969
622.209793	8002.196545
622.557176	7934.534178
622.904506	7904.529231
623.251783	7840.602359
623.599007	7792.832385
623.946179	7799.242212
624.293297	7756.468022
624.640363	7673.200763
624.987376	7652.411045
625.334336	7605.432532
625.681243	7547.358440
626.028097	7547.040847
626.374899	7519.944645
626.721647	7511.808223
627.068343	7447.662061
627.414987	7410.160917
627.761577	7371.225565
628.108115	7413.147801
628.454600	7296.641694
628.801032	7349.089859
629.147412	7305.133518
629.493739	7298.990872
629.840014	7238.696151
630.186236	7294.340407
630.532405	7176.939496
630.878521	7223.761733
631.224585	7182.222625
631.570597	7107.001048
631.916556	7141.215359
632.262462	7134.603886
632.608316	7098.915037
632.954117	7069.938485
633.299866	7061.295427
633.645562	7052.080198
633.991206	6969.556509
634.336797	6918.807213
634.682336	6872.889864
635.027823	6835.303021
635.373257	6836.026426
635.718639	6761.863491
636.063968	6780.893847
636.409245	6673.192116
636.754470	6674.046591
637.099642	6624.156812
637.444762	6571.958185
637.789829	6585.213899
638.134845	6523.409353
638.479808	6503.186764
638.824719	6511.212281
639.169577	6439.098575
639.514383	6465.650333
639.859137	6388.205607
640.203839	6398.464355
640.548489	6387.646038
640.893086	6364.497060
641.237632	6332.175702
641.582125	6352.562128
641.926566	6323.910730
642.270955	6340.634758
642.615292	6332.342060
642.959576	6347.074832
643.303809	6339.397155
643.647990	6347.957034
643.992118	6335.137380
644.336195	6284.362878
644.680219	6308.336086
645.024192	6295.380320
645.368112	6394.907821
645.711981	6410.663947
646.055797	6490.656976
646.399562	6445.909174
646.743274	6576.863228
647.086935	6622.215968
647.430544	6623.650176
647.774101	6641.505943
648.117606	6647.378888
648.461059	6641.347147
648.804460	6602.502536
649.147810	6509.226066
649.491108	6480.297405
649.834354	6455.303364
650.177548	6371.922680
650.520690	6285.905472
650.863781	6266.983501
651.206820	6283.362209
651.549807	6205.972936
651.892742	6143.336600
652.235626	6154.122148
652.578458	6138.786958
652.921238	6044.698863
653.263967	6087.357107
653.606644	6027.276635
653.949269	6027.495925
654.291843	5970.578778
654.634365	6019.707343
654.976836	5970.288912
655.319255	5974.715045
655.661622	5950.046158
656.003938	5944.510971
656.346203	5898.200412
656.688416	5938.569972
657.030577	5890.709257
657.372687	5859.880081
657.714746	5843.456001
658.056753	5890.134565
658.398708	5834.250854
658.740612	5825.353218
659.082465	5869.435588
659.424266	5864.351584
659.766016	5867.343509
660.107715	5834.528118
660.449362	5853.371951
660.790958	5848.701322
661.132503	5832.468807
661.473996	5872.235949
661.815438	5859.217169
662.156829	5852.323391
662.498168	5845.258214
662.839456	5828.398075
663.180693	5859.118866
663.521879	5863.676069
663.863013	5850.324573
664.204097	5873.531525
664.545129	5908.870014
664.886110	5902.487913
665.227040	5936.127533
665.567918	5903.685187
665.908746	5933.518735
666.249522	5936.553510
666.590248	5926.687972
666.930922	5953.708557
667.271545	5965.502336
667.612118	5966.455114
667.952639	5941.095590
668.293109	5958.245595
668.633528	5918.513741
668.973896	5918.460809
669.314213	5908.665847
669.654480	5893.968363
669.994695	5887.571139
670.334859	5876.813316
670.674973	5867.030957
671.015035	5868.419795
671.355047	5872.024220
671.695008	5861.959557
672.034918	5830.895967
672.374777	5837.124312
672.714585	5824.912117
673.054342	5829.849927
673.394049	5822.308361
673.733705	5856.749524
674.073310	5842.924160
674.412864	5800.885978
674.752368	5790.100429
675.091820	5796.396830
675.431223	5732.926183
675.770574	5735.817284
676.109875	5685.584707
676.449125	5690.293145
676.788324	5654.213607
677.127473	5596.447025
677.466571	5593.747487
677.805619	5580.141412
678.144616	5569.489454
678.483562	5546.479108
678.822458	5516.166650
679.161303	5508.862018
679.500098	5500.919680
679.838842	5486.998533
680.177535	5486.988451
680.516179	5503.717520
680.854771	5513.888048
681.193314	5599.615390
681.531805	5702.454928
681.870247	5857.051993
682.208638	5959.924299
682.546978	5970.765301
682.885268	5947.694460
683.223508	5864.903590
683.561697	5804.205578
683.899836	5771.722903
684.237925	5731.350822
684.575963	5701.696235
684.913951	5657.351725
685.251889	5720.119131
685.589776	5688.929512
685.927614	5658.904400
686.265401	5731.113888
686.603137	5716.943204
686.940824	5790.700326
687.278460	5815.273431
687.616046	5824.221479
687.953582	5891.344442
688.291068	5870.731164
688.628504	5937.690290
688.965889	5905.217698
689.303224	5843.783676
689.640510	5797.102592
689.977745	5720.928237
690.314930	5623.540706
690.652065	5565.932920
690.989150	5473.614270
691.326185	5397.881016
691.663170	5344.618705
692.000105	5268.048619
692.336990	5187.652298
692.673825	5165.766128
693.010610	5095.126960
693.347345	5021.911762
693.684030	5012.636039
694.020665	4968.984688
694.357251	4876.469432
694.693786	4891.197163
695.030272	4858.601062
695.366707	4819.017922
695.703093	4788.576915
696.039429	4809.157426
696.375716	4789.232265
696.711952	4763.635806
697.048139	4752.930916
697.384276	4735.891816
697.720363	4745.722066
698.056400	4753.155247
698.392388	4704.843350
698.728326	4685.402140
699.064214	4661.350795
699.400053	4657.469106
699.735842	4621.908807
700.071581	4596.481227
700.407270	4571.898040
700.742910	4555.637799
701.078501	4502.753574
701.414042	4496.807533
701.749533	4470.717042
702.084974	4402.542998
702.420366	4461.222028
702.755709	4405.355961
703.091002	4342.507896
703.426246	4394.681318
703.761440	4349.328578
704.096584	4318.093588
704.431679	4335.853573
704.766725	4321.171213
705.101721	4307.446671
705.436668	4333.726206
705.771565	4284.426242
706.106413	4309.805931
706.441212	4348.106098
706.775961	4353.129608
707.110661	4334.696628
707.445311	4359.040360
707.779913	4385.196387
708.114465	4398.956217
708.448967	4420.625616
708.783421	4480.645594
709.117825	4525.340464
709.452180	4531.168038
709.786485	4572.543308
710.120742	4660.982791
710.454949	4642.761540
710.789107	4709.922312
711.123216	4786.651194
711.457275	4778.197179
711.791286	4851.745093
712.125247	4867.216394
712.459159	4766.244603
712.793023	4838.731355
713.126837	4801.900685
713.460602	4796.562103
713.794318	4717.781471
714.127985	4722.081575
714.461602	4638.957989
714.795171	4607.317187
715.128691	4540.249677
715.462162	4488.119105
715.795584	4432.215229
716.128957	4423.158796
716.462281	4365.399776
716.795556	4342.475129
717.128782	4297.782779
717.461960	4234.715424
717.795088	4244.517948
718.128167	4203.276268
718.461198	4145.998678
718.794180	4138.525168
719.127113	4121.551603
719.459997	4095.844239
719.792833	4055.391500
720.125619	4043.512021
720.458357	4011.767875
720.791046	4013.166795
721.123686	3987.192250
721.456278	3948.526600
721.788821	3964.370946
722.121315	3935.999332
722.453761	3914.009819
722.786158	3922.236982
723.118506	3948.874439
723.450805	3896.610277
723.783056	3919.035850
724.115259	3936.886576
724.447412	3941.806742
724.779518	3933.438426
725.111574	3939.240794
725.443582	3967.887151
725.775542	3952.720840
726.107453	4005.274869
726.439315	4003.520547
726.771129	4019.185933
727.102895	4054.262281
727.434612	4103.451340
727.766281	4115.088843
728.097901	4115.855099
728.429473	4119.101602
728.760996	4128.760453
729.092471	4124.790544
729.423897	4107.330508
729.755276	4116.122280
730.086606	4114.786374
730.417887	4150.034122
730.749120	4212.995613
731.080305	4281.774595
731.411442	4306.486332
731.742530	4277.552629
732.073570	4281.023463
732.404562	4337.655786
732.735506	4326.598015
733.066401	4289.013692
733.397249	4226.155545
733.728048	4149.240140
734.058798	4065.219229
734.389501	3993.705421
734.720156	3929.161007
735.050762	3887.798340
735.381320	3880.811301
735.711831	3826.490348
736.042293	3797.596974
736.372707	3820.415757
736.703073	3797.123106
737.033391	3785.291518
737.363661	3799.676450
737.693883	3825.041016
738.024056	3833.094259
738.354182	3829.225173
738.684260	3890.944020
739.014290	3916.900921
739.344272	3916.255653
739.674207	3953.025830
740.004093	3957.870378
740.333931	3956.761325
740.663722	3954.089513
740.993464	3953.721509
741.323159	3931.275771
741.652806	3899.244280
741.982405	3870.686143
742.311956	3836.900330
742.641460	3829.389011
742.970915	3806.179539
743.300323	3762.061881
743.629683	3732.760174
743.958996	3716.361301
744.288260	3696.335317
744.617477	3660.195285
744.946647	3646.216165
745.275768	3619.127525
745.604842	3622.595839
745.933869	3569.706573
746.262847	3564.718352
746.591778	3602.559773
746.920662	3571.087850
747.249498	3541.052655
747.578286	3583.499170
747.907027	3607.474898
748.235720	3604.021708
748.564365	3626.951396
748.892963	3628.438536
749.221514	3609.050259
749.550017	3585.692072
749.878473	3587.779110
750.206881	3558.338772
750.535242	3551.122360
750.863555	3555.379614
751.191821	3548.649674
751.520039	3531.439175
751.848210	3506.795494
752.176334	3540.672048
752.504411	3547.654046
752.832440	3506.487984
753.160421	3488.382680
753.488356	3500.622601
753.816243	3512.693644
754.144082	3471.182263
754.471875	3454.180971
754.799620	3472.503045
755.127318	3464.487610
755.454969	3463.156746
755.782572	3471.441882
756.110129	3445.111936
756.437638	3438.916358
756.765100	3451.806588
757.092515	3459.711117
757.419882	3466.622539
757.747203	3439.208744
758.074477	3444.872481
758.401703	3461.220943
758.728882	3479.452276
759.056014	3485.980570
759.383099	3488.279336
759.710138	3483.586022
760.037129	3505.804907
760.364073	3532.868342
760.690970	3520.789737
761.017820	3496.009945
761.344623	3517.772607
761.671379	3559.712486
761.998088	3613.113429
762.324751	3740.032038
762.651366	3980.356445
762.977935	4460.607007
763.304456	4905.660234
763.630931	5004.996170
763.957359	4644.914113
764.283740	4299.942914
764.610074	4102.919498
764.936362	3907.715939
765.262602	3748.191146
765.588796	3635.596975
765.914943	3545.761093
766.241044	3457.467804
766.567097	3426.469749
766.893104	3381.989128
767.219064	3349.501412
767.544978	3324.696414
767.870845	3268.376643
768.196665	3246.992069
768.522438	3258.831219
768.848165	3254.624376
769.173846	3218.728840
769.499479	3201.823330
769.825066	3181.149558
770.150607	3166.257990
770.476101	3182.750125
770.801548	3175.357273
771.126949	3132.343627
771.452303	3114.674383
771.777611	3118.535907
772.102872	3128.061167
772.428087	3097.927670
772.753256	3090.718820
773.078378	3079.666090
773.403453	3050.533262
773.728482	3034.441899
774.053465	3057.989129
774.378401	3045.396327
774.703291	3015.963550
775.028135	3016.984383
775.352932	3011.250071
775.677683	2996.993688
776.002388	2995.967813
776.327046	2997.790190
776.651658	2987.556648
776.976224	2973.242292
777.300743	2972.791108
777.625216	2962.406331
777.949643	2961.617391
778.274024	2963.490179
778.598359	2952.094651
778.922647	2957.471042
779.246889	2956.251083
779.571086	2940.394133
779.895236	2933.699481
780.219339	2947.018209
780.543397	2955.409210
780.867409	2961.720734
781.191374	2951.303190
781.515294	2948.157510
781.839167	2951.134311
782.162995	2942.834052
782.486776	2951.164558
782.810511	2949.473251
783.134201	2935.973041
783.457844	2941.367076
783.781441	2932.237546
784.104993	2915.818508
784.428498	2914.623755
784.751958	2926.833429
785.075372	2921.918304
785.398739	2906.593197
785.722061	2921.608273
786.045337	2933.258380
786.368568	2920.078283
786.691752	2909.416243
787.014891	2960.687298
787.337983	2987.566730
787.661030	3017.158303
787.984031	3084.941658
788.306987	3131.479070
788.629897	3122.997328
788.952760	3104.211468
789.275579	3091.079263
789.598351	3030.855118
789.921078	2986.477841
790.243759	2981.509784
790.566395	2957.743264
790.888984	2938.846499
791.211529	2918.893612
791.534027	2908.271901
791.856480	2900.221178
792.178888	2884.034033
792.501249	2876.805018
792.823566	2877.367107
793.145836	2870.284286
793.468062	2866.450488
793.790241	2864.421424
794.112375	2871.148844
794.434464	2885.306924
794.756507	2888.629045
795.078505	2894.408728
795.400457	2908.203845
795.722364	2947.653395
796.044226	2970.285655
796.366042	2972.874287
796.687812	2960.079839
797.009538	2980.378045
797.331218	2968.992599
797.652852	2953.753191
797.974442	2937.160233
798.295986	2931.219233
798.617484	2923.982657
798.938938	2911.372210
799.260346	2896.762947
799.581709	2888.152656
799.903026	2882.801471
800.224299	2877.669576
800.545526	2866.647093
800.866708	2855.168386
801.187845	2841.922754
801.508936	2845.416274
801.829983	2852.007583
802.150984	2835.230623
802.471940	2827.109324
802.792851	2826.143943
803.113717	2824.434992
803.434538	2831.406907
803.755314	2823.066318
804.076045	2816.215390
804.396731	2816.936275
804.717372	2818.236893
805.037967	2809.918989
805.358518	2819.073725
805.679024	2832.092504
805.999485	2827.318532
806.319901	2832.412618
806.640272	2822.453818
806.960598	2826.693429
807.280879	2839.553412
807.601115	2846.321161
807.921306	2831.396825
808.241453	2829.100580
808.561554	2836.110304
808.881611	2835.492763
809.201623	2829.652586
809.521590	2832.062257
809.841513	2827.489931
810.161390	2828.961948
810.481223	2823.336020
810.801011	2811.862354
811.120755	2810.959987
811.440453	2817.266471
811.760107	2814.198929
812.079716	2814.264464
812.399281	2800.305509
812.718801	2793.063891
813.038276	2790.845784
813.357707	2797.064047
813.677093	2805.215593
813.996434	2798.072278
814.315731	2792.584982
814.634983	2788.935186
814.954191	2792.602626
815.273354	2804.033442
815.592473	2813.425112
815.911547	2813.132725
816.230577	2821.606904
816.549562	2831.364058
816.868502	2831.432113
817.187399	2841.804287
817.506250	2857.305835
817.825058	2849.058508
818.143821	2862.427648
818.462539	2876.235368
818.781213	2906.313413
819.099843	2942.115687
819.418429	2998.828668
819.736970	3061.747309
820.055466	3135.030563
820.373919	3238.059144
820.692327	3381.517780
821.010691	3550.865261
821.329011	3994.955627
821.647286	4902.141508
821.965517	6293.663807
822.283704	7058.522792
822.601847	7043.122067
822.919945	6395.663994
823.237999	5887.755141
823.556010	5302.036078
823.873976	4736.607660
824.191897	4326.260258
824.509775	4026.858569
824.827609	3749.824480
825.145398	3627.831077
825.463144	3616.730457
825.780845	3706.042059
826.098502	3810.766989
826.416116	4102.291874
826.733685	4419.060338
827.051210	4486.984845
827.368692	4369.110065
827.686129	4100.040999
828.003522	3770.097480
828.320872	3515.995600
828.638177	3313.807522
828.955439	3175.485822
829.272656	3090.512133
829.589830	3020.682070
829.906960	2970.769606
830.224046	2926.233532
830.541088	2891.109292
830.858086	2874.876777
831.175041	2858.518233
831.491952	2860.196937
831.808819	2871.559698
832.125642	2896.105076
832.442421	2940.691561
832.759157	3026.970909
833.075849	3200.283258
833.392497	3486.489726
833.709101	3693.439174
834.025662	3644.792039
834.342179	3483.094509
834.658653	3305.247643
834.975083	3150.544713
835.291469	3055.604663
835.607811	2967.838175
835.924110	2909.554874
836.240366	2857.441947
836.556578	2815.421409
836.872746	2793.031124
837.188871	2771.780140
837.504952	2752.757346
837.820990	2744.686458
838.136984	2727.196175
838.452935	2724.940259
838.768842	2721.396328
839.084706	2739.544482
839.400526	2818.894764
839.716303	2953.826288
840.032037	3033.065664
840.347727	3021.347502
840.663373	2960.752833
840.978977	2883.106461
841.294537	2809.493012
841.610054	2760.543408
841.925527	2737.676734
842.240957	2716.637478
842.556344	2696.145188
842.871687	2679.446366
843.186987	2668.665858
843.502244	2666.672082
843.817458	2661.061278
844.132629	2647.233393
844.447756	2639.832979
844.762840	2632.828296
845.077881	2636.659573
845.392879	2632.041876
845.707833	2629.622122
846.022745	2624.780094
846.337613	2624.578447
846.652438	2624.059209
846.967221	2624.228087
847.281960	2621.747840
847.596656	2622.398148
847.911309	2620.210288
848.225919	2617.992180
848.540485	2613.727364
848.855009	2615.534617
849.169490	2611.945316
849.483928	2613.608897
849.798323	2614.009668
850.112675	2612.688886
850.426984	2613.891201
850.741251	2610.551437
851.055474	2609.752414
851.369654	2616.116871
851.683792	2614.274329
851.997887	2611.869699
852.311938	2609.787702
852.625947	2612.734257
852.939914	2613.497991
853.253837	2617.742643
853.567718	2611.431118
853.881555	2607.922475
854.195350	2612.948506
854.509103	2613.407251
854.822812	2609.790223
855.136479	2609.361725
855.450103	2612.366252
855.763685	2612.141921
856.077224	2611.209307
856.390720	2610.493464
856.704173	2611.819287
857.017584	2612.968670
857.330953	2612.330964
857.644278	2618.299690
857.957561	2618.730709
858.270802	2614.410440
858.584000	2616.638630
858.897155	2619.726337
859.210268	2618.826491
859.523339	2615.358177
859.836367	2610.702672
860.149352	2605.535489
860.462295	2609.197887
860.775195	2608.938268
861.088054	2608.035901
861.400869	2606.306785
861.713642	2606.521034
862.026373	2605.205293
862.339062	2609.646550
862.651708	2611.743670
862.964312	2616.058897
863.276873	2611.486571
863.589392	2615.511932
863.901869	2622.756070
864.214303	2625.652213
864.526696	2628.182872
864.839045	2629.334776
865.151353	2631.545322
865.463619	2631.641104
865.775842	2632.861063
866.088023	2632.833337
866.400162	2631.270579
866.712258	2632.646814
867.024313	2630.910137
867.336325	2627.978706
867.648296	2631.850312
867.960224	2635.454737
868.272110	2633.108080
868.583954	2624.709517
868.895755	2626.418469
869.207515	2630.466515
869.519233	2638.973462
869.830909	2637.602268
870.142542	2629.773357
870.454134	2631.928450
870.765684	2637.110756
871.077191	2639.033956
871.388657	2644.768269
871.700081	2641.604945
872.011463	2643.838176
872.322803	2643.969246
872.634101	2647.344298
872.945357	2656.746050
873.256571	2657.839981
873.567744	2657.683705
873.878874	2655.510967
874.189963	2655.332007
874.501010	2659.687563
874.812015	2666.616629
875.122979	2664.821979
875.433900	2657.819816
875.744780	2654.694301
876.055618	2662.268634
876.366415	2667.095539
876.677169	2665.109324
876.987882	2664.227122
877.298554	2658.631442
877.609183	2670.836075
877.919771	2679.050635
878.230317	2686.904753
878.540822	2696.616536
878.851285	2708.783361
879.161707	2736.240005
879.472087	2774.164606
879.782425	2821.853921
880.092722	2935.809204
880.402977	3129.553349
880.713191	3393.815675
881.023363	3700.743806
881.333494	3897.555493
881.643583	4070.051175
881.953631	4067.835588
882.263637	3889.293042
882.573602	3668.442613
882.883526	3528.749719
883.193408	3412.190680
883.503248	3305.892910
883.813048	3192.857638
884.122806	3073.157961
884.432522	2987.715444
884.742197	2919.803540
885.051831	2879.968343
885.361424	2845.302848
885.670975	2809.172898
885.980485	2773.035387
886.289954	2761.881834
886.599382	2741.997003
886.908768	2732.058368
887.218113	2714.678990
887.527417	2700.034438
887.836680	2689.838705
888.145901	2686.745957
888.455082	2677.543330
888.764221	2667.440858
889.073319	2658.407110
889.382376	2660.821823
889.691392	2657.393838
890.000366	2661.368788
890.309300	2657.595485
890.618193	2658.003818
890.927044	2665.752072
891.235855	2661.225115
891.544625	2662.823161
891.853353	2661.837616
892.162041	2668.590241
892.470687	2689.150587
892.779293	2701.816486
893.087858	2711.485419
893.396381	2735.735890
893.704864	2775.767692
894.013306	2849.055987
894.321707	2944.936213
894.630068	2998.342197
894.938387	3019.192409
895.246665	3012.681759
895.554903	2965.786425
895.863100	2919.107861
896.171256	2861.132071
896.479371	2801.747279
896.787446	2761.052564
897.095480	2737.936353
897.403473	2731.745817
897.711425	2716.468600
898.019336	2698.585107
898.327207	2683.713703
898.635038	2681.719926
898.942827	2680.260512
899.250576	2671.143586
899.558284	2658.177738
899.865952	2653.582726
900.173579	2649.338075
900.481165	2652.027530
900.788711	2641.390696
901.096216	2635.825262
901.403681	2632.508182
901.711105	2631.973820
902.018489	2631.318470
902.325832	2632.031793
902.633135	2637.065386
902.940397	2651.019299
903.247619	2688.800227
903.554800	2759.935949
903.861941	2889.231463
904.169041	3020.049405
904.476101	3087.404262
904.783121	3079.590473
905.090100	3023.300949
905.397039	2945.531069
905.703938	2866.994933
906.010796	2803.851961
906.317614	2748.724423
906.624391	2710.330995
906.931129	2684.825277
907.237826	2662.525733
907.544483	2642.887918
907.851099	2629.236474
908.157675	2615.587550
908.464211	2609.296190
908.770707	2598.709767
909.077163	2596.756319
909.383578	2591.253900
909.689954	2591.127871
909.996289	2590.134764
910.302584	2587.183168
910.608839	2586.311049
910.915054	2586.560586
911.221229	2587.644434
911.527363	2591.969744
911.833458	2587.205853
912.139513	2590.795155
912.445527	2594.248345
912.751502	2598.535847
913.057436	2603.463575
913.363331	2608.938268
913.669186	2620.164917
913.975000	2635.726959
914.280775	2653.338230
914.586510	2674.095181
914.892205	2708.828731
915.197859	2775.445059
915.503475	2862.742720
915.809050	2934.438010
916.114585	2949.866461
916.420081	2968.856488
916.725536	2974.217755
917.030952	2947.524845
917.336328	2900.334604
917.641665	2847.677232
917.946961	2795.523974
918.252218	2760.694642
918.557435	2734.785632
918.862612	2712.932230
919.167750	2692.964220
919.472848	2675.766324
919.777906	2655.553817
920.082925	2645.920172
920.387904	2632.659417
920.692843	2630.952987
920.997743	2627.461987
921.302603	2618.466048
921.607423	2612.265429
921.912204	2604.698657
922.216946	2602.069696
922.521647	2598.606423
922.826310	2596.857143
923.130932	2590.515371
923.435516	2584.781058
923.740059	2584.586974
924.044564	2580.266705
924.349028	2577.998186
924.653454	2571.361507
924.957840	2569.768502
925.262186	2567.837740
925.566493	2565.768347
925.870761	2563.192317
926.174989	2564.407235
926.479178	2561.964796
926.783328	2562.181566
927.087438	2560.684343
927.391509	2558.864487
927.695541	2558.786349
927.999533	2556.749722
928.303486	2553.752757
928.607400	2555.655792
928.911275	2554.934907
929.215110	2553.316697
929.518906	2552.747046
929.822663	2553.546069
930.126381	2552.489947
930.430060	2554.519012
930.733699	2550.702858
931.037299	2555.781821
931.340861	2554.415668
931.644383	2557.168138
931.947866	2554.909701
932.251309	2555.928014
932.554714	2555.096224
932.858080	2554.037582
933.161407	2550.821326
933.464694	2553.750236
933.767943	2553.936759
934.071153	2552.124464
934.374323	2551.320400
934.677455	2551.854762
934.980548	2549.397200
935.283602	2551.796789
935.586617	2555.134033
935.889593	2550.009700
936.192530	2552.527756
936.495428	2553.220915
936.798287	2555.512119
937.101108	2554.249310
937.403890	2558.652758
937.706632	2559.857594
938.009336	2563.882955
938.312002	2567.200034
938.614628	2570.731363
938.917216	2574.219841
939.219765	2575.787640
939.522275	2574.371076
939.824747	2574.839903
940.127179	2569.264387
940.429573	2566.653069
940.731929	2567.442010
941.034246	2565.337328
941.336524	2567.378995
941.638763	2567.938563
941.940964	2567.810014
942.243126	2561.821123
942.545250	2563.343552
942.847335	2560.739796
943.149381	2559.537481
943.451389	2560.500341
943.753359	2557.757953
944.055290	2557.158056
944.357182	2554.887016
944.659036	2553.949362
944.960851	2555.292829
945.262628	2553.223435
945.564367	2556.013714
945.866067	2556.422047
946.167729	2556.661502
946.469352	2553.757798
946.770937	2555.320555
947.072484	2557.261400
947.373992	2554.723179
947.675462	2553.672098
947.976893	2553.399876
948.278286	2552.409289
948.579641	2553.009186
948.880958	2550.473486
949.182236	2553.034392
949.483476	2553.110009
949.784678	2551.504402
950.085841	2552.431974
950.386967	2551.396017
950.688054	2550.375183
950.989103	2550.347457
951.290114	2555.459187
951.591087	2555.365926
951.892021	2555.547407
952.192917	2561.468243
952.493776	2560.966648
952.794596	2560.830537
953.095378	2561.367419
953.396122	2561.453119
953.696828	2558.945145
953.997496	2559.759291
954.298126	2554.201419
954.598718	2550.440718
954.899272	2554.539177
955.199788	2552.615976
955.500266	2553.382232
955.800706	2546.503577
956.101108	2542.062321
956.401472	2543.254554
956.701798	2541.384286
957.002087	2541.487629
957.302337	2540.686086
957.602550	2541.147351
957.902724	2542.021992
958.202861	2539.425797
958.502960	2540.668442
958.803022	2540.726415
959.103045	2538.271373
959.403031	2537.994110
959.702979	2535.276928
960.002889	2538.904038
960.302762	2535.891948
960.602596	2536.925385
960.902393	2536.948070
961.202153	2536.391023
961.501875	2535.642411
961.801559	2535.188708
962.101205	2537.119469
962.400814	2535.559232
962.700385	2536.242309
962.999918	2536.663245
963.299414	2536.272556
963.598873	2535.861702
963.898293	2536.494366
964.197677	2535.357586
964.497022	2533.477236
964.796331	2536.481763
965.095601	2533.799870
965.394835	2535.634850
965.694030	2535.569315
965.993189	2534.624098
966.292309	2537.026208
966.591393	2534.644263
966.890439	2534.445137
967.189447	2534.959335
967.488419	2534.737524
967.787353	2535.115611
968.086249	2534.563604
968.385108	2534.177956
968.683930	2536.554860
968.982714	2535.244160
969.281462	2536.587628
969.580172	2533.600744
969.878844	2537.618544
970.177480	2536.484284
970.476078	2539.297248
970.774639	2535.531506
971.073162	2537.288348
971.371649	2533.746937
971.670098	2533.003367
971.968510	2534.929088
972.266885	2530.719725
972.565223	2534.467822
972.863524	2536.068389
973.161788	2535.516383
973.460014	2536.842206
973.758204	2537.353883
974.056356	2537.885725
974.354471	2537.162319
974.652550	2535.914634
974.950591	2537.182484
975.248595	2536.569984
975.546563	2537.116949
975.844493	2534.893800
976.142386	2533.910775
976.440243	2535.221475
976.738062	2538.168029
977.035845	2535.811290
977.333590	2534.939170
977.631299	2535.849099
977.928971	2534.591331
978.226606	2534.861032
978.524204	2532.146371
978.821765	2535.289531
979.119290	2532.990764
979.416777	2534.646783
979.714228	2534.361958
980.011642	2532.695857
980.309020	2536.582587
980.606360	2531.455733
980.903664	2534.009078
981.200931	2533.313398
981.498162	2537.396733
981.795356	2537.800025
982.092513	2540.209697
982.389633	2544.285470
982.686717	2549.954247
982.983764	2552.326110
983.280775	2551.995914
983.577749	2550.410472
983.874686	2549.568599
984.171587	2547.002652
984.468451	2543.151210
984.765279	2543.299924
985.062070	2538.964532
985.358824	2539.327495
985.655543	2540.192053
985.952224	2535.534027
986.248869	2536.890097
986.545478	2530.712163
986.842050	2529.635877
987.138586	2530.404652
987.435086	2531.619571
987.731549	2529.411545
988.027975	2532.768954
988.324366	2534.298944
988.620719	2532.922709
988.917037	2529.386339
989.213318	2531.531350
989.509563	2531.065044
989.805772	2533.585621
990.101944	2533.424304
990.398080	2530.392050
990.694180	2528.423479
990.990244	2530.694519
991.286271	2530.984385
991.582262	2533.288193
991.878217	2531.770805
992.174136	2531.614529
992.470019	2533.021011
992.765865	2529.300640
993.061676	2529.885414
993.357450	2530.901206
993.653188	2533.943543
993.948890	2531.763243
994.244556	2532.728624
994.540186	2533.290713
994.835780	2532.335414
995.131337	2534.125024
995.426859	2534.798018
995.722345	2533.472195
996.017795	2535.229037
996.313208	2536.149047
996.608586	2535.007226
996.903928	2537.926054
997.199234	2535.851619
997.494504	2534.432534
997.789738	2538.495704
998.084936	2535.463450
998.380099	2533.106711
998.675225	2534.641742
998.970316	2533.194931
999.265371	2533.386495
999.560390	2531.183511
999.855373	2532.738707
1000.150320	2530.573531
1000.445232	2534.160312
1000.740108	2531.528830
1001.034948	2528.413397
1001.329752	2532.204344
1001.624521	2530.356762
1001.919254	2525.688653
1002.213951	2526.583458
1002.508613	2524.745957
1002.803239	2527.795855
1003.097829	2526.825433
1003.392384	2531.158305
1003.686903	2528.557070
1003.981386	2530.850795
1004.275834	2528.431041
1004.570246	2532.095960
1004.864623	2529.318284
1005.158964	2528.322656
1005.453270	2527.216123
1005.747540	2527.223684
1006.041775	2529.409025
1006.335974	2529.144364
1006.630138	2532.529499
1006.924266	2530.515558
1007.218359	2526.888448
1007.512416	2529.255269
1007.806438	2527.634538
1008.100425	2530.525640
1008.394376	2529.164529
1008.688292	2527.574045
1008.982172	2529.000691
1009.276017	2529.988757
1009.569827	2529.000691
1009.863602	2530.613860
1010.157341	2527.014477
1010.451045	2529.356092
1010.744714	2529.101514
1011.038347	2530.583613
1011.331945	2529.111597
1011.625508	2528.458767
1011.919036	2530.230733
1012.212528	2528.680578
1012.505986	2527.899199
1012.799408	2529.109076
1013.092795	2528.231915
1013.386147	2527.132944
1013.679464	2527.107738
1013.972745	2529.865249
1014.265992	2528.418438
1014.559204	2529.461957
1014.852380	2532.020342
1015.145521	2530.019004
1015.438628	2526.175124
1015.731699	2531.004550
1016.024736	2526.928777
1016.317737	2529.252749
1016.610703	2530.044210
1016.903635	2529.179652
1017.196531	2526.112110
1017.489393	2526.953983
1017.782219	2521.794362
1018.075011	2527.163191
1018.367768	2528.567152
1018.660490	2528.166380
1018.953177	2528.166380
1019.245829	2528.166380
