Dividing Wavelength (nm)	Counts (n)	Blue Motor Position (mm): 0.000000	Red Motor Position (mm): 8.600000	
326.493990	2131.069651
326.888308	2131.069651
327.282561	2131.069651
327.676750	2099.501945
328.070874	2093.702098
328.464933	2098.342480
328.858929	2103.784405
329.252859	2115.953751
329.646726	2125.310132
330.040528	2137.555095
330.434265	2153.737199
330.827938	2173.251505
331.221547	2189.310101
331.615091	2207.526310
332.008571	2229.430124
332.401986	2249.022568
332.795338	2268.080650
333.188625	2285.419699
333.581847	2306.700930
333.975006	2323.866059
334.368100	2342.793071
334.761129	2358.864269
335.154095	2376.594008
335.546996	2394.747203
335.939833	2409.260684
336.332606	2423.973292
336.725315	2434.582400
337.117960	2444.604214
337.510540	2452.654937
337.903056	2466.278655
338.295508	2469.436938
338.687896	2480.373721
339.080220	2490.103148
339.472480	2494.680516
339.864676	2498.640342
340.256807	2505.070334
340.648875	2507.298524
341.040879	2508.760458
341.432818	2509.602331
341.824694	2513.980573
342.216506	2514.671211
342.608253	2511.870850
342.999937	2511.593587
343.391557	2512.997548
343.783113	2510.199708
344.174605	2510.625685
344.566033	2510.076200
344.957397	2505.143431
345.348697	2503.189983
345.739934	2504.137720
346.131106	2501.942298
346.522215	2501.347442
346.913260	2496.606237
347.304241	2496.684374
347.695159	2495.915598
348.086012	2492.807727
348.476802	2490.035093
348.867528	2488.590802
349.258191	2489.246152
349.648789	2488.608446
350.039324	2486.801192
350.429796	2485.548466
350.820203	2482.417909
351.210548	2483.771459
351.600828	2479.443628
351.991045	2482.606952
352.381198	2480.426653
352.771288	2482.889257
353.161314	2481.213073
353.551276	2482.375059
353.941175	2481.669298
354.331010	2481.991932
354.720782	2477.817856
355.110490	2479.937661
355.500135	2479.103350
355.889717	2480.081334
356.279235	2481.586119
356.668689	2484.731799
357.058080	2479.552013
357.447408	2477.631333
357.836672	2477.477578
358.225873	2479.491519
358.615010	2477.696868
359.004084	2485.235914
359.393095	2481.835656
359.782043	2482.541417
360.170927	2484.477220
360.559748	2487.368322
360.948505	2486.234063
361.337199	2488.956286
361.725830	2484.323465
362.114398	2489.057109
362.502903	2487.622900
362.891344	2490.014928
363.279722	2488.772283
363.668037	2489.793117
364.056289	2489.115082
364.444478	2490.657675
364.832603	2492.170021
365.220665	2493.105155
365.608665	2494.897285
365.996601	2492.752274
366.384474	2492.245638
366.772284	2492.976606
367.160031	2497.906854
367.547715	2498.642863
367.935336	2502.993378
368.322893	2504.253667
368.710388	2505.188801
369.097820	2513.925121
369.485189	2513.562158
369.872495	2520.715555
370.259738	2525.275278
370.646918	2536.764068
371.034035	2538.147865
371.421090	2552.492468
371.808081	2559.839950
372.195010	2567.966290
372.581875	2584.052612
372.968678	2596.930239
373.355418	2606.697475
373.742096	2623.207254
374.128710	2637.657721
374.515262	2653.257572
374.901751	2669.268276
375.288177	2679.680780
375.674540	2700.508307
376.060841	2716.148487
376.447079	2734.175653
376.833254	2748.704258
377.219367	2758.602564
377.605417	2791.556586
377.991404	2794.540949
378.377329	2809.011582
378.763191	2819.262768
379.148991	2844.992817
379.534727	2861.283306
379.920402	2878.115718
380.306013	2878.662684
380.691563	2911.825914
381.077049	2919.763211
381.462474	2922.853438
381.847835	2939.632919
382.233134	2944.235492
382.618371	2928.381063
383.003545	2967.238277
383.388657	2956.450208
383.773706	2961.375415
384.158693	2956.233438
384.543618	2950.484003
384.928480	2957.992801
385.313280	2964.629480
385.698017	2944.943774
386.082692	2955.444498
386.467305	2936.096549
386.851856	2931.645211
387.236344	2924.524581
387.620770	2912.163672
388.005133	2898.633215
388.389435	2887.862789
388.773674	2872.953577
389.157851	2861.061495
389.541965	2845.809484
389.926018	2812.762200
390.310008	2815.096254
390.693936	2800.398770
391.077802	2788.990639
391.461606	2765.350148
391.845348	2757.884199
392.229027	2739.216807
392.612645	2721.315669
392.996200	2719.125288
393.379694	2707.518031
393.763125	2699.222812
394.146494	2678.395285
394.529801	2669.762309
394.913047	2658.165135
395.296230	2641.413381
395.679351	2630.910137
396.062410	2621.301697
396.445408	2604.151692
396.828343	2593.867738
397.211217	2582.794844
397.594028	2570.161712
397.976778	2563.724159
398.359466	2557.901626
398.742092	2549.775286
399.124656	2547.652960
399.507158	2543.945192
399.889598	2542.233720
400.271977	2537.613503
400.654294	2534.669469
401.036549	2530.225692
401.418742	2527.132944
401.800874	2526.485155
402.182944	2522.938704
402.564952	2523.488189
402.946898	2521.048271
403.328783	2525.439116
403.710606	2518.535256
404.092367	2519.593898
404.474067	2519.707324
404.855705	2520.710514
405.237282	2518.217663
405.618797	2520.564320
406.000250	2517.716068
406.381642	2515.750018
406.762972	2518.792355
407.144240	2518.373939
407.525447	2519.689680
407.906593	2518.799916
408.287677	2518.535256
408.668700	2514.141890
409.049661	2520.612211
409.430560	2518.404186
409.811399	2520.299660
410.192176	2517.277488
410.572891	2518.613394
410.953545	2520.339989
411.334138	2516.929648
411.714669	2517.446367
412.095139	2520.508868
412.475547	2516.758249
412.855894	2517.663136
413.236180	2515.508043
413.616405	2517.905112
413.996568	2518.530215
414.376670	2519.422499
414.756711	2519.576254
415.136691	2521.507016
415.516609	2520.614732
415.896466	2519.551048
416.276262	2520.604649
416.655997	2515.192971
417.035670	2517.090965
417.415283	2519.223373
417.794834	2517.214473
418.174324	2519.919052
418.553753	2520.786131
418.933121	2521.083559
419.312428	2521.529701
419.691674	2519.916532
420.070859	2522.096831
420.449983	2520.206398
420.829045	2521.459125
421.208047	2524.045237
421.586988	2519.503157
421.965867	2522.303518
422.344686	2523.389887
422.723444	2522.742099
423.102141	2521.199506
423.480777	2523.508354
423.859352	2522.968951
424.237866	2520.818898
424.616319	2522.074146
424.994712	2524.173786
425.373044	2520.234125
425.751314	2524.115813
426.129524	2524.650175
426.507673	2522.704290
426.885762	2527.478263
427.263789	2523.740247
427.641756	2525.842408
428.019662	2526.371729
428.397508	2524.882068
428.775292	2525.837367
429.153016	2524.816533
429.530679	2525.509692
429.908282	2523.377284
430.285824	2524.945083
430.663305	2521.348220
431.040726	2526.033972
431.418086	2523.601615
431.795385	2527.016997
432.172624	2523.223529
432.549802	2525.802079
432.926920	2524.340144
433.303977	2525.532377
433.680974	2525.260155
434.057910	2524.161183
434.434786	2526.013808
434.811601	2524.740916
435.188355	2525.602953
435.565050	2527.193438
435.941683	2528.161339
436.318257	2524.698066
436.694770	2522.207736
437.071222	2523.379805
437.447614	2524.446009
437.823946	2523.286543
438.200218	2525.265196
438.576429	2527.879034
438.952580	2526.870804
439.328670	2526.147398
439.704700	2525.035824
440.080670	2528.342821
440.456580	2527.052285
440.832429	2528.887265
441.208218	2525.275278
441.583947	2528.950280
441.959616	2528.277286
442.335224	2532.179139
442.710773	2527.183355
443.086261	2529.474560
443.461689	2526.021369
443.837057	2529.615712
444.212365	2526.336441
444.587612	2530.470187
444.962800	2529.393901
445.337927	2529.971113
445.712995	2528.834333
446.088002	2530.608819
446.462949	2530.205527
446.837837	2529.998840
447.212664	2528.879703
447.587431	2532.302647
447.962139	2532.101001
448.336786	2533.194931
448.711374	2530.465146
449.085901	2528.733510
449.460369	2528.640249
449.834776	2531.669982
450.209124	2525.865093
450.583412	2531.281813
450.957640	2531.720394
451.331808	2532.683254
451.705917	2531.433048
452.079965	2532.804242
452.453954	2529.900537
452.827883	2530.717204
453.201752	2534.218285
453.575562	2529.595547
453.949311	2530.162677
454.323001	2529.913140
454.696632	2534.210724
455.070202	2531.617050
455.443713	2531.768285
455.817164	2531.102852
456.190556	2528.788963
456.563888	2531.117976
456.937160	2526.875845
457.310373	2532.892462
457.683526	2532.083357
458.056619	2530.558408
458.429653	2533.260466
458.802628	2531.158305
459.175542	2533.033614
459.548398	2532.416073
459.921194	2533.174767
460.293930	2533.724252
460.666607	2531.985054
461.039224	2533.774664
461.411782	2534.130065
461.784280	2535.828934
462.156719	2535.544109
462.529099	2536.174253
462.901419	2533.585621
463.273680	2536.161650
463.645882	2532.282482
464.018024	2532.940353
464.390106	2535.115611
464.762130	2537.046373
465.134094	2531.241484
465.505999	2538.508307
465.877845	2539.004861
466.249631	2540.673483
466.621358	2537.348842
466.993026	2540.320602
467.364634	2538.962011
467.736184	2538.208359
468.107674	2538.039480
468.479105	2536.335570
468.850477	2537.472350
469.221790	2536.945550
469.593043	2534.306506
469.964238	2538.440252
470.335373	2535.392874
470.706449	2534.961856
471.077467	2537.303472
471.448425	2540.607948
471.819324	2536.683410
472.190164	2538.447813
472.560945	2539.584594
472.931667	2537.061496
473.302330	2537.207690
473.672934	2536.214582
474.043479	2535.465971
474.413965	2534.198121
474.784393	2532.317770
475.154761	2535.302133
475.525070	2531.498583
475.895321	2533.318439
476.265513	2532.325332
476.635645	2539.355221
477.005719	2537.348842
477.375734	2536.622916
477.745691	2534.603934
478.115588	2535.680220
478.485427	2536.683410
478.855207	2540.822197
479.224928	2538.727598
479.594591	2541.827907
479.964194	2537.396733
480.333739	2541.023843
480.703226	2539.728267
481.072653	2538.735159
481.442022	2541.220448
481.811333	2537.946219
482.180584	2537.159799
482.549777	2539.269522
482.918912	2539.652649
483.287988	2541.117104
483.657005	2539.221631
484.025964	2540.612989
484.394864	2538.783050
484.763706	2538.334387
485.132489	2538.278935
485.501213	2543.869574
485.869879	2538.762886
486.238487	2537.419418
486.607036	2540.121477
486.975527	2538.319264
487.343959	2539.075437
487.712333	2541.974101
488.080648	2537.613503
488.448905	2539.448483
488.817104	2538.147865
489.185244	2538.994779
489.553326	2537.852957
489.921350	2540.073586
490.289315	2544.348484
490.657222	2543.609955
491.025070	2543.693134
491.392861	2542.132897
491.760593	2542.236241
492.128267	2541.636343
492.495883	2540.121477
492.863440	2542.455531
493.230939	2538.160468
493.598380	2539.995448
493.965763	2532.191742
494.333088	2538.213400
494.700354	2537.830272
495.067563	2538.034439
495.434713	2534.508152
495.801805	2542.871426
496.168839	2540.126518
496.535815	2539.430838
496.902733	2540.040818
497.269593	2541.699358
497.636395	2538.969573
498.003139	2537.923533
498.369825	2541.230530
498.736453	2539.198945
499.103023	2539.758513
499.469535	2542.014430
499.835989	2541.797660
500.202385	2541.406971
500.568723	2542.919317
500.935003	2540.602907
501.301226	2538.727597
501.667390	2540.363452
502.033497	2541.432177
502.399546	2541.404450
502.765537	2538.979655
503.131470	2543.070552
503.497345	2540.630633
503.863163	2544.628268
504.228923	2542.379913
504.594625	2542.357228
504.960269	2542.059800
505.325856	2539.012423
505.691385	2541.288504
506.056856	2541.583411
506.422270	2540.847403
506.787625	2540.451672
507.152924	2542.243802
507.518164	2545.023999
507.883347	2542.916796
508.248472	2542.697506
508.613540	2541.943854
508.978550	2540.701209
509.343503	2540.426466
509.708398	2543.050387
510.073236	2542.755479
510.438016	2541.104502
510.802738	2541.873277
511.167403	2544.547610
511.532010	2543.289842
511.896561	2543.879657
512.261053	2544.804708
512.625488	2538.258770
512.989866	2537.915972
513.354186	2543.665408
513.718449	2535.564273
514.082655	2543.380583
514.446803	2543.378062
514.810894	2544.260264
515.174927	2544.189688
515.538904	2545.578526
515.902822	2542.460572
516.266684	2541.648946
516.630488	2542.082485
516.994235	2540.885211
517.357925	2543.133566
517.721558	2541.525438
518.085133	2544.282949
518.448651	2542.306817
518.812112	2542.841179
519.175516	2544.177085
519.538863	2543.516694
519.902152	2542.984852
520.265385	2540.358411
520.628560	2545.389482
520.991678	2543.050387
521.354739	2543.620037
521.717743	2540.789429
522.080690	2542.561395
522.443580	2545.359235
522.806413	2543.226827
523.169189	2542.332022
523.531908	2545.094575
523.894569	2543.977959
524.257174	2545.666746
524.619722	2543.153731
524.982213	2545.926365
525.344647	2545.765048
525.707025	2543.320089
526.069345	2543.660367
526.431608	2541.533000
526.793815	2540.691127
527.155964	2546.286808
527.518057	2543.216745
527.880093	2544.424101
528.242072	2543.698175
528.603995	2546.183464
528.965860	2543.529297
529.327669	2543.050387
529.689421	2543.068031
530.051117	2545.243289
530.412755	2544.376210
530.774337	2543.809081
531.135862	2543.793957
531.497331	2541.333874
531.858743	2540.761703
532.220098	2539.776157
532.581396	2539.869419
532.942638	2544.287990
533.303824	2545.815460
533.664953	2544.865202
534.026025	2543.481406
534.387040	2542.659697
534.747999	2541.444779
535.108902	2544.532486
535.469748	2547.985677
535.830537	2543.118443
536.191270	2542.649615
536.551947	2543.748587
536.912567	2545.981818
537.273131	2544.696324
537.633638	2542.742877
537.994089	2544.885367
538.354483	2544.270346
538.714821	2545.591128
539.075103	2544.212373
539.435328	2544.383772
539.795497	2543.395706
540.155609	2545.162630
540.515665	2543.839328
540.875665	2542.347146
541.235609	2542.284132
541.595496	2543.988042
541.955328	2543.831766
542.315102	2548.288146
542.674821	2544.711447
543.034483	2544.903011
543.394090	2544.701365
543.753640	2545.177754
544.113134	2547.342929
544.472571	2545.578526
544.831953	2543.645243
545.191278	2543.872095
545.550548	2544.756817
545.909761	2544.313196
546.268918	2544.484595
546.628019	2543.685572
546.987064	2542.926879
547.346053	2545.371838
547.704986	2543.446118
548.063863	2542.967208
548.422684	2545.248330
548.781449	2543.357897
549.140158	2544.436704
549.498811	2546.057435
549.857408	2543.083154
550.215949	2543.327650
550.574434	2539.725746
550.932864	2539.130890
551.291237	2541.006199
551.649555	2544.968546
552.007817	2544.471992
552.366022	2543.569626
552.724173	2546.085162
553.082267	2542.760521
553.440305	2544.729091
553.798288	2543.778834
554.156215	2542.992414
554.514086	2545.810419
554.871902	2544.779503
555.229661	2545.933927
555.587365	2545.402085
555.945014	2546.518701
556.302606	2544.867723
556.660143	2547.887374
557.017625	2545.553320
557.375050	2544.585418
557.732421	2544.630789
558.089735	2545.127342
558.446994	2541.840510
558.804197	2545.475182
559.161345	2544.161961
559.518437	2545.913762
559.875474	2544.408978
560.232455	2545.023999
560.589381	2546.102806
560.946251	2548.935934
561.303065	2544.411498
561.659825	2544.308155
562.016528	2546.196067
562.373177	2545.029040
562.729770	2545.235727
563.086307	2547.232024
563.442789	2546.221273
563.799216	2546.105326
564.155587	2544.161961
564.511904	2544.275387
564.868164	2545.094575
565.224370	2546.206149
565.580520	2544.255223
565.936615	2548.038609
566.292654	2543.269677
566.648638	2547.756304
567.004567	2543.617517
567.360441	2544.537527
567.716260	2544.535007
568.072023	2545.218083
568.427732	2541.641384
568.783385	2545.631458
569.138982	2540.713812
569.494525	2543.176416
569.850013	2540.612989
570.205445	2545.326468
570.560823	2544.290511
570.916145	2544.353525
571.271412	2546.606921
571.626625	2544.953423
571.981782	2544.875285
572.336884	2545.167672
572.691931	2543.304965
573.046923	2541.898483
573.401860	2544.724050
573.756743	2547.365615
574.111570	2544.035933
574.466342	2543.678011
574.821059	2545.132383
575.175722	2546.606921
575.530330	2546.251520
575.884882	2546.465769
576.239380	2548.058773
576.593823	2546.259081
576.948211	2545.760007
577.302544	2545.447456
577.656823	2543.158772
578.011047	2548.333516
578.365216	2546.564071
578.719330	2546.755635
579.073389	2545.833104
579.427394	2543.113401
579.781344	2545.331509
580.135239	2545.724719
580.489080	2548.005841
580.842866	2544.479554
581.196597	2543.504091
581.550273	2545.326468
581.903895	2543.524255
582.257463	2545.029040
582.610975	2543.347815
582.964434	2545.162630
583.317837	2544.787064
583.671186	2546.354863
584.024481	2544.275387
584.377721	2544.802188
584.730906	2544.124153
585.084037	2546.387631
585.437113	2545.767569
585.790135	2542.523586
586.143103	2544.262784
586.496016	2547.136242
586.848874	2541.810263
587.201679	2542.725233
587.554428	2539.277083
587.907124	2542.342105
588.259765	2539.140972
588.612352	2544.426622
588.964884	2542.604245
589.317362	2542.851261
589.669786	2543.647764
590.022155	2544.066179
590.374470	2544.020809
590.726731	2545.051725
591.078937	2545.162630
591.431090	2547.226983
591.783188	2544.471992
592.135232	2543.126004
592.487222	2544.892929
592.839157	2545.046684
593.191038	2543.420912
593.542866	2544.429143
593.894639	2543.330171
594.246358	2545.104657
594.598022	2541.580891
594.949633	2547.133722
595.301190	2544.073741
595.652692	2543.158772
596.004141	2545.016437
596.355535	2545.815460
596.706876	2542.006868
597.058162	2542.112732
597.409395	2544.686241
597.760573	2547.753783
598.111698	2542.435366
598.462768	2546.269164
598.813785	2540.335726
599.164748	2545.470141
599.515657	2543.166333
599.866511	2545.661705
600.217312	2542.742877
600.568060	2545.429812
600.918753	2547.327806
601.269392	2545.041643
601.619978	2544.277908
601.970510	2543.751107
602.320988	2543.882177
602.671412	2542.720191
603.021783	2543.849410
603.372100	2541.689275
603.722363	2542.803370
604.072572	2544.524924
604.422728	2544.948381
604.772830	2541.986703
605.122878	2539.970242
605.472872	2542.395037
605.822813	2537.857998
606.172701	2543.403268
606.522534	2545.230686
606.872314	2544.497198
607.222041	2547.932744
607.571714	2545.018957
607.921333	2544.451828
608.270899	2543.675490
608.620411	2542.815973
608.969870	2546.004503
609.319276	2546.763197
609.668627	2544.096426
610.017926	2548.605738
610.367171	2551.338044
610.716362	2551.753939
611.065500	2548.217570
611.414585	2548.951057
611.763616	2545.823022
612.112594	2547.111036
612.461518	2549.140101
612.810389	2546.052394
613.159207	2547.479041
613.507971	2543.856972
613.856682	2545.041643
614.205340	2544.519883
614.553945	2547.179092
614.902496	2543.733463
615.250994	2545.858310
615.599439	2545.041643
615.947830	2545.407126
616.296169	2542.032074
616.644454	2544.658515
616.992686	2545.775131
617.340864	2545.258412
617.688990	2542.420243
618.037063	2543.693134
618.385082	2539.728267
618.733048	2545.500388
619.080961	2547.257230
619.428821	2546.339740
619.776628	2543.279759
620.124382	2545.023999
620.472083	2542.397558
620.819731	2544.880326
621.167326	2544.542568
621.514868	2543.607434
621.862357	2545.434853
622.209793	2541.472506
622.557176	2543.562064
622.904506	2539.609799
623.251783	2538.921682
623.599007	2539.657690
623.946179	2540.333205
624.293297	2540.686086
624.640363	2540.968390
624.987376	2542.349667
625.334336	2541.931251
625.681243	2543.332692
626.028097	2542.727753
626.374899	2544.068700
626.721647	2543.488967
627.068343	2543.829245
627.414987	2543.612476
627.761577	2541.906045
628.108115	2543.302445
628.454600	2543.884698
628.801032	2542.377393
629.147412	2541.376724
629.493739	2543.418391
629.840014	2545.122301
630.186236	2542.531148
630.532405	2543.859492
630.878521	2541.074255
631.224585	2542.498381
631.570597	2541.974101
631.916556	2542.374872
632.262462	2542.006868
632.608316	2542.576518
632.954117	2542.637012
633.299866	2542.011909
633.645562	2542.077444
633.991206	2542.374872
634.336797	2540.222300
634.682336	2540.764224
635.027823	2541.192722
635.373257	2540.605427
635.718639	2542.261446
636.063968	2540.756662
636.409245	2541.843031
636.754470	2542.531148
637.099642	2541.873278
637.444762	2544.066179
637.789829	2541.724563
638.134845	2544.444266
638.479808	2539.632485
638.824719	2542.684903
639.169577	2540.973432
639.514383	2538.674665
639.859137	2539.624923
640.203839	2541.278421
640.548489	2540.812115
640.893086	2537.731970
641.237632	2537.016126
641.582125	2540.413863
641.926566	2538.049562
642.270955	2541.510314
642.615292	2541.147351
642.959576	2540.686086
643.303809	2540.832279
643.647990	2542.785726
643.992118	2540.325643
644.336195	2542.291693
644.680219	2537.684079
645.024192	2539.294727
645.368112	2542.047197
645.711981	2539.471168
646.055797	2539.614841
646.399562	2544.126673
646.743274	2540.129038
647.086935	2539.758513
647.430544	2541.371683
647.774101	2541.096940
648.117606	2542.228679
648.461059	2543.995603
648.804460	2543.526776
649.147810	2540.817156
649.491108	2540.887732
649.834354	2538.415046
650.177548	2540.481919
650.520690	2539.708102
650.863781	2537.608461
651.206820	2540.187012
651.549807	2536.736342
651.892742	2543.138607
652.235626	2539.592155
652.578458	2544.293031
652.921238	2539.428318
653.263967	2541.480068
653.606644	2541.338915
653.949269	2537.870601
654.291843	2540.073586
654.634365	2539.715664
654.976836	2540.683565
655.319255	2541.472506
655.661622	2538.457896
656.003938	2543.693134
656.346203	2538.150385
656.688416	2539.430838
657.030577	2538.470499
657.372687	2539.672814
657.714746	2541.585932
658.056753	2542.415202
658.398708	2534.913965
658.740612	2539.524100
659.082465	2532.844571
659.424266	2538.588966
659.766016	2535.140817
660.107715	2538.644418
660.449362	2539.587114
660.790958	2538.697351
661.132503	2539.143493
661.473996	2537.237937
661.815438	2539.143493
662.156829	2541.462423
662.498168	2539.652649
662.839456	2538.415046
663.180693	2540.134079
663.521879	2540.484440
663.863013	2539.738349
664.204097	2539.264480
664.545129	2540.413863
664.886110	2539.753472
665.227040	2541.177598
665.567918	2539.982845
665.908746	2536.537216
666.249522	2539.798843
666.590248	2538.893956
666.930922	2538.236085
667.271545	2537.981507
667.612118	2540.118956
667.952639	2538.205838
668.293109	2541.258257
668.633528	2542.153062
668.973896	2535.135775
669.314213	2539.725746
669.654480	2538.674665
669.994695	2536.733821
670.334859	2541.061652
670.674973	2538.838503
671.015035	2536.759027
671.355047	2541.101981
671.695008	2538.173071
672.034918	2539.617361
672.374777	2537.313554
672.714585	2541.263298
673.054342	2540.154244
673.394049	2539.163657
673.733705	2539.055273
674.073310	2540.585263
674.412864	2538.604089
674.752368	2540.653318
675.091820	2540.544933
675.431223	2539.501415
675.770574	2541.921168
676.109875	2536.585107
676.449125	2536.340611
676.788324	2534.248532
677.127473	2538.049562
677.466571	2535.060158
677.805619	2539.370345
678.144616	2538.062165
678.483562	2537.353883
678.822458	2536.073430
679.161303	2537.928575
679.500098	2541.759852
679.838842	2537.386651
680.177535	2540.731456
680.516179	2538.914120
680.854771	2538.367155
681.193314	2540.595345
681.531805	2539.226672
681.870247	2538.508307
682.208638	2541.003678
682.546978	2540.000489
682.885268	2540.116435
683.223508	2537.290869
683.561697	2537.976466
683.899836	2537.953780
684.237925	2538.407484
684.575963	2536.902700
684.913951	2538.150385
685.251889	2540.398740
685.589776	2538.389840
685.927614	2538.130221
686.265401	2538.165509
686.603137	2540.391178
686.940824	2536.673327
687.278460	2541.459903
687.616046	2539.219110
687.953582	2538.954449
688.291068	2539.342618
688.628504	2539.345139
688.965889	2540.670962
689.303224	2539.330015
689.640510	2537.449665
689.977745	2540.683565
690.314930	2539.002340
690.652065	2540.305479
690.989150	2541.374203
691.326185	2539.945036
691.663170	2535.239119
692.000105	2537.394212
692.336990	2536.567463
692.673825	2538.639377
693.010610	2539.808925
693.347345	2532.821886
693.684030	2534.384643
694.020665	2537.101825
694.357251	2534.631660
694.693786	2535.985210
695.030272	2537.900848
695.366707	2539.362783
695.703093	2535.176105
696.039429	2537.323636
696.375716	2540.643236
696.711952	2539.488812
697.048139	2539.566950
697.384276	2538.127700
697.720363	2538.200797
698.056400	2538.677186
698.392388	2538.835982
698.728326	2535.927237
699.064214	2537.026208
699.400053	2540.214738
699.735842	2535.665097
700.071581	2541.006199
700.407270	2537.782381
700.742910	2537.666435
701.078501	2540.509645
701.414042	2538.760365
701.749533	2539.173740
702.084974	2537.850437
702.420366	2537.961342
702.755709	2537.159799
703.091002	2537.704243
703.426246	2539.685417
703.761440	2535.080323
704.096584	2537.270704
704.431679	2539.597197
704.766725	2536.577545
705.101721	2535.299613
705.436668	2536.297761
705.771565	2537.875643
706.106413	2536.905220
706.441212	2538.168029
706.775961	2539.574511
707.110661	2537.883204
707.445311	2535.823893
707.779913	2535.158461
708.114465	2538.241126
708.448967	2537.048893
708.783421	2535.644932
709.117825	2538.079809
709.452180	2535.743234
709.786485	2537.764737
710.120742	2539.151054
710.454949	2537.116949
710.789107	2538.553678
711.123216	2530.792821
711.457275	2534.112421
711.791286	2535.123173
712.125247	2535.357586
712.459159	2537.338760
712.793023	2534.588810
713.126837	2539.085519
713.460602	2538.621733
713.794318	2540.514687
714.127985	2533.699047
714.461602	2537.671476
714.795171	2535.171063
715.128691	2537.752134
715.462162	2537.222813
715.795584	2538.805735
716.128957	2535.758358
716.462281	2537.384130
716.795556	2540.313040
717.128782	2537.603420
717.461960	2538.188194
717.795088	2536.393543
718.128167	2537.870601
718.461198	2536.708615
718.794180	2537.479912
719.127113	2536.635519
719.459997	2537.023687
719.792833	2536.567463
720.125619	2537.610982
720.458357	2536.454037
720.791046	2537.976466
721.123686	2534.840868
721.456278	2537.820190
721.788821	2534.407329
722.121315	2538.694830
722.453761	2536.194418
722.786158	2538.513348
723.118506	2538.346990
723.450805	2535.995292
723.783056	2537.797505
724.115259	2534.858512
724.447412	2535.498738
724.779518	2535.576876
725.111574	2536.217103
725.443582	2535.730632
725.775542	2538.379758
726.107453	2536.141486
726.439315	2537.696682
726.771129	2538.031918
727.102895	2538.210879
727.434612	2537.432021
727.766281	2533.638553
728.097901	2537.376568
728.429473	2531.957328
728.760996	2535.377751
729.092471	2530.139992
729.423897	2534.533357
729.755276	2537.255581
730.086606	2536.862371
730.417887	2535.649973
730.749120	2536.383461
731.080305	2538.987217
731.411442	2534.853471
731.742530	2537.190046
732.073570	2538.294058
732.404562	2534.845909
732.735506	2536.834644
733.066401	2537.076620
733.397249	2537.116949
733.728048	2534.964376
734.058798	2538.034439
734.389501	2534.538399
734.720156	2537.880684
735.050762	2535.728111
735.381320	2537.124511
735.711831	2534.470343
736.042293	2535.665097
736.372707	2535.259284
736.703073	2536.587628
737.033391	2536.620395
737.363661	2534.558563
737.693883	2534.997144
738.024056	2539.778678
738.354182	2535.324819
738.684260	2536.824562
739.014290	2536.592669
739.344272	2533.933460
739.674207	2534.684592
740.004093	2541.107022
740.333931	2537.643749
740.663722	2535.274407
740.993464	2537.288348
741.323159	2533.744417
741.652806	2537.921013
741.982405	2535.198790
742.311956	2538.682227
742.641460	2537.641229
742.970915	2536.932947
743.300323	2537.593338
743.629683	2534.661907
743.958996	2534.581248
744.288260	2534.755168
744.617477	2536.471681
744.946647	2531.024714
745.275768	2535.334901
745.604842	2531.067564
745.933869	2533.414221
746.262847	2532.095960
746.591778	2536.975797
746.920662	2535.324819
747.249498	2535.869263
747.578286	2535.302133
747.907027	2534.399767
748.235720	2534.004036
748.564365	2534.835827
748.892963	2536.275076
749.221514	2535.077802
749.550017	2536.055786
749.878473	2534.634181
750.206881	2534.324150
750.535242	2535.846578
750.863555	2536.980838
751.191821	2535.123173
751.520039	2532.821886
751.848210	2536.300282
752.176334	2535.642411
752.504411	2534.001516
752.832440	2537.863040
753.160421	2534.389685
753.488356	2535.032432
753.816243	2537.550488
754.144082	2536.496887
754.471875	2538.203317
754.799620	2535.266845
755.127318	2535.254242
755.454969	2531.843902
755.782572	2537.074099
756.110129	2535.246681
756.437638	2533.618388
756.765100	2537.565612
757.092515	2535.082843
757.419882	2535.823893
757.747203	2537.547967
758.074477	2533.474715
758.401703	2535.647453
758.728882	2533.441948
759.056014	2536.068389
759.383099	2533.351207
759.710138	2534.293903
760.037129	2535.907072
760.364073	2536.302803
760.690970	2536.872453
761.017820	2534.878677
761.344623	2534.430014
761.671379	2535.004705
761.998088	2533.300795
762.324751	2532.925229
762.651366	2532.658048
762.977935	2535.309695
763.304456	2532.068233
763.630931	2535.665097
763.957359	2536.086033
764.283740	2535.748276
764.610074	2535.168543
764.936362	2536.448996
765.262602	2534.142668
765.588796	2535.115611
765.914943	2534.669469
766.241044	2533.076464
766.567097	2534.170394
766.893104	2536.073430
767.219064	2532.907585
767.544978	2537.457227
767.870845	2534.427493
768.196665	2532.060672
768.522438	2532.582431
768.848165	2535.168543
769.173846	2533.860363
769.499479	2535.712987
769.825066	2533.580579
770.150607	2534.361958
770.476101	2533.199972
770.801548	2535.193749
771.126949	2534.495549
771.452303	2532.524458
771.777611	2533.444468
772.102872	2534.883718
772.428087	2533.026053
772.753256	2537.064017
773.078378	2535.392874
773.403453	2531.664941
773.728482	2533.550332
774.053465	2535.244160
774.378401	2532.259797
774.703291	2535.473533
775.028135	2533.751979
775.352932	2537.762217
775.677683	2534.939170
776.002388	2536.627957
776.327046	2534.399767
776.651658	2536.501928
776.976224	2534.924047
777.300743	2531.281813
777.625216	2534.119983
777.949643	2532.121165
778.274024	2535.445806
778.598359	2530.069416
778.922647	2530.563449
779.246889	2529.610671
779.571086	2529.305681
779.895236	2535.382792
780.219339	2532.716022
780.543397	2536.113759
780.867409	2535.539068
781.191374	2534.457740
781.515294	2530.699560
781.839167	2534.452699
782.162995	2535.755837
782.486776	2532.844571
782.810511	2536.073430
783.134201	2536.141486
783.457844	2534.233409
783.781441	2533.981351
784.104993	2534.510672
784.428498	2536.186856
784.751958	2533.872966
785.075372	2533.537730
785.398739	2529.146885
785.722061	2534.215765
786.045337	2534.777853
786.368568	2534.195600
786.691752	2533.535209
787.014891	2534.787936
787.337983	2533.416742
787.661030	2536.302803
787.984031	2535.448327
788.306987	2533.751979
788.629897	2534.273738
788.952760	2537.220293
789.275579	2534.442617
789.598351	2532.693336
789.921078	2532.698377
790.243759	2533.716691
790.566395	2534.210724
790.888984	2531.450692
791.211529	2531.508665
791.534027	2533.252904
791.856480	2532.269879
792.178888	2533.265507
792.501249	2533.051258
792.823566	2535.347504
793.145836	2532.831968
793.468062	2534.770292
793.790241	2528.824251
794.112375	2533.477236
794.434464	2532.794159
794.756507	2534.006557
795.078505	2535.029911
795.400457	2530.722245
795.722364	2530.187883
796.044226	2533.424304
796.366042	2530.644107
796.687812	2532.476567
797.009538	2534.571166
797.331218	2532.640404
797.652852	2534.092257
797.974442	2534.482946
798.295986	2532.837009
798.617484	2535.135775
798.938938	2535.012267
799.260346	2534.513193
799.581709	2532.640404
799.903026	2533.691485
800.224299	2531.082688
800.545526	2533.336083
800.866708	2533.109232
801.187845	2534.082174
801.508936	2534.364479
801.829983	2533.199972
802.150984	2532.947915
802.471940	2533.981351
802.792851	2534.624098
803.113717	2532.204344
803.434538	2533.772143
803.755314	2535.055117
804.076045	2533.036135
804.396731	2532.569828
804.717372	2533.353728
805.037967	2534.240971
805.358518	2532.232071
805.679024	2533.678882
805.999485	2534.424973
806.319901	2535.541588
806.640272	2531.601927
806.960598	2531.364992
807.280879	2535.234078
807.601115	2534.440096
807.921306	2534.291382
808.241453	2536.093595
808.561554	2531.339787
808.881611	2535.755837
809.201623	2534.475384
809.521590	2533.235260
809.841513	2531.937163
810.161390	2531.715353
810.481223	2533.625950
810.801011	2534.170394
811.120755	2533.951104
811.440453	2533.535209
811.760107	2531.498583
812.079716	2528.652852
812.399281	2529.575383
812.718801	2531.024714
813.038276	2529.547656
813.357707	2533.540250
813.677093	2532.655528
813.996434	2531.753161
814.315731	2533.164684
814.634983	2534.339273
814.954191	2533.575538
815.273354	2532.910106
815.592473	2532.781557
815.911547	2532.859694
816.230577	2531.506145
816.549562	2534.540919
816.868502	2535.541588
817.187399	2532.970600
817.506250	2534.397246
817.825058	2532.353058
818.143821	2533.000847
818.462539	2534.283820
818.781213	2531.919519
819.099843	2533.492359
819.418429	2535.077802
819.736970	2533.840199
820.055466	2534.624098
820.373919	2533.207534
820.692327	2533.323481
821.010691	2535.864222
821.329011	2535.289531
821.647286	2540.151723
821.965517	2544.464431
822.283704	2546.874102
822.601847	2546.473330
822.919945	2545.132383
823.237999	2540.688606
823.556010	2539.884542
823.873976	2537.308513
824.191897	2537.058976
824.509775	2533.268028
824.827609	2538.702392
825.145398	2531.818696
825.463144	2537.598379
825.780845	2535.937319
826.098502	2535.007226
826.416116	2537.991589
826.733685	2536.587628
827.051210	2535.546629
827.368692	2536.416228
827.686129	2536.796836
828.003522	2535.513862
828.320872	2531.929602
828.638177	2531.624612
828.955439	2528.052954
829.272656	2530.124868
829.589830	2527.977337
829.906960	2534.810621
830.224046	2533.240302
830.541088	2536.113759
830.858086	2532.892462
831.175041	2531.904396
831.491952	2534.619057
831.808819	2531.236443
832.125642	2530.273583
832.442421	2532.317770
832.759157	2532.436238
833.075849	2534.029242
833.392497	2534.944212
833.709101	2537.968904
834.025662	2532.000178
834.342179	2534.417411
834.658653	2532.380785
834.975083	2531.861546
835.291469	2537.918492
835.607811	2532.206865
835.924110	2529.449354
836.240366	2531.133099
836.556578	2530.757533
836.872746	2531.947246
837.188871	2531.133099
837.504952	2532.322812
837.820990	2532.360620
838.136984	2531.566638
838.452935	2529.840043
838.768842	2532.048069
839.084706	2530.520599
839.400526	2532.557225
839.716303	2531.990095
840.032037	2534.934129
840.347727	2533.779705
840.663373	2532.516896
840.978977	2531.886752
841.294537	2529.003212
841.610054	2529.280475
841.925527	2531.281813
842.240957	2531.372554
842.556344	2534.487987
842.871687	2533.177287
843.186987	2534.092257
843.502244	2530.571011
843.817458	2531.130579
844.132629	2530.835671
844.447756	2533.600744
844.762840	2529.020856
845.077881	2530.966741
845.392879	2527.954652
845.707833	2530.931453
846.022745	2525.822244
846.337613	2533.401618
846.652438	2531.468336
846.967221	2533.928419
847.281960	2530.545805
847.596656	2533.903213
847.911309	2530.621422
848.225919	2532.179139
848.540485	2530.003881
848.855009	2529.923222
849.169490	2531.183511
849.483928	2533.522606
849.798323	2529.963552
850.112675	2529.305681
850.426984	2531.102852
850.741251	2534.233409
851.055474	2532.373223
851.369654	2530.119827
851.683792	2531.564118
851.997887	2532.690816
852.311938	2531.354910
852.625947	2534.414890
852.939914	2531.433048
853.253837	2533.565456
853.567718	2528.766278
853.881555	2530.452543
854.195350	2532.285003
854.509103	2532.504293
854.822812	2530.936494
855.136479	2530.578572
855.450103	2529.300640
855.763685	2532.138809
856.077224	2529.466998
856.390720	2531.405322
856.704173	2529.025897
857.017584	2532.804242
857.330953	2530.129910
857.644278	2531.370033
857.957561	2534.780374
858.270802	2531.879190
858.584000	2529.860208
858.897155	2532.398429
859.210268	2531.228881
859.523339	2530.581093
859.836367	2530.107224
860.149352	2531.337266
860.462295	2531.700229
860.775195	2526.936339
861.088054	2525.204702
861.400869	2529.925743
861.713642	2526.006246
862.026373	2531.105373
862.339062	2533.106711
862.651708	2529.910619
862.964312	2530.213089
863.276873	2533.010929
863.589392	2530.187883
863.901869	2531.047400
864.214303	2532.811803
864.526696	2533.033614
864.839045	2529.277955
865.151353	2532.751310
865.463619	2531.221319
865.775842	2527.682429
866.088023	2533.457071
866.400162	2531.052441
866.712258	2533.232740
867.024313	2532.511855
867.336325	2530.739889
867.648296	2528.995650
867.960224	2532.148892
868.272110	2531.244005
868.583954	2530.823068
868.895755	2531.503624
869.207515	2531.536392
869.519233	2531.004550
869.830909	2531.531350
870.142542	2531.743079
870.454134	2532.973120
870.765684	2531.276772
871.077191	2531.463295
871.388657	2530.843233
871.700081	2529.267872
872.011463	2530.054292
872.322803	2530.681916
872.634101	2530.969262
872.945357	2528.985568
873.256571	2529.456916
873.567744	2527.387522
873.878874	2532.421114
874.189963	2531.954807
874.501010	2532.224509
874.812015	2532.509334
875.122979	2533.073943
875.433900	2529.930784
875.744780	2532.610157
876.055618	2529.782070
876.366415	2532.161495
876.677169	2531.322143
876.987882	2531.138140
877.298554	2525.544980
877.609183	2527.485824
877.919771	2527.632018
878.230317	2528.312574
878.540822	2533.898172
878.851285	2530.263500
879.161707	2532.494211
879.472087	2530.485311
879.782425	2526.470032
880.092722	2530.724766
880.402977	2532.244674
880.713191	2534.155271
881.023363	2534.377082
881.333494	2535.828934
881.643583	2535.748276
881.953631	2538.190715
882.263637	2534.823224
882.573602	2535.090405
882.883526	2536.280117
883.193408	2534.901362
883.503248	2533.590662
883.813048	2534.359438
884.122806	2534.639222
884.432522	2532.161495
884.742197	2532.723583
885.051831	2534.036804
885.361424	2532.564787
885.670975	2531.879190
885.980485	2529.204858
886.289954	2531.299457
886.599382	2532.128727
886.908768	2529.998840
887.218113	2528.410876
887.527417	2531.876669
887.836680	2531.004550
888.145901	2530.341638
888.455082	2529.958510
888.764221	2533.847761
889.073319	2531.463295
889.382376	2529.845084
889.691392	2529.777029
890.000366	2530.661751
890.309300	2531.841381
890.618193	2531.586803
890.927044	2530.734848
891.235855	2531.594365
891.544625	2531.700229
891.853353	2531.548994
892.162041	2528.713345
892.470687	2531.730476
892.779293	2529.633356
893.087858	2530.709642
893.396381	2526.195289
893.704864	2529.587986
894.013306	2527.700073
894.321707	2531.178470
894.630068	2532.421114
894.938387	2531.491021
895.246665	2530.218130
895.554903	2532.398429
895.863100	2530.762574
896.171256	2529.598068
896.479371	2528.307532
896.787446	2529.983716
897.095480	2531.743079
897.403473	2531.944725
897.711425	2530.681916
898.019336	2532.005219
898.327207	2531.155784
898.635038	2530.530681
898.942827	2533.348686
899.250576	2527.594209
899.558284	2527.095135
899.865952	2529.691329
900.173579	2531.284334
900.481165	2528.057995
900.788711	2533.941022
901.096216	2531.281813
901.403681	2531.808614
901.711105	2530.467667
902.018489	2528.766278
902.325832	2531.901875
902.633135	2531.170908
902.940397	2530.255938
903.247619	2529.708973
903.554800	2529.870290
903.861941	2526.769981
904.169041	2533.116793
904.476101	2534.190559
904.783121	2533.391536
905.090100	2530.510517
905.397039	2529.479601
905.703938	2532.738707
906.010796	2531.785929
906.317614	2529.124199
906.624391	2530.434899
906.931129	2529.600588
907.237826	2529.494724
907.544483	2529.081350
907.851099	2530.979344
908.157675	2528.683098
908.464211	2533.235260
908.770707	2524.614887
909.077163	2527.904240
909.383578	2525.761750
909.689954	2523.457943
909.996289	2523.909126
910.302584	2527.664785
910.608839	2529.840043
910.915054	2531.738038
911.221229	2529.469518
911.527363	2529.109076
911.833458	2528.310053
912.139513	2530.520599
912.445527	2528.720907
912.751502	2530.266021
913.057436	2529.124199
913.363331	2529.061185
913.669186	2527.677388
913.975000	2530.863398
914.280775	2526.512882
914.586510	2530.298788
914.892205	2531.047400
915.197859	2529.570342
915.503475	2530.334076
915.809050	2532.486649
916.114585	2530.303829
916.420081	2532.965559
916.725536	2533.570497
917.030952	2533.353728
917.336328	2531.591844
917.641665	2531.753161
917.946961	2530.790301
918.252218	2530.729807
918.557435	2531.012112
918.862612	2529.179652
919.167750	2532.090918
919.472848	2528.536905
919.777906	2527.841226
920.082925	2532.597554
920.387904	2529.855167
920.692843	2530.124868
920.997743	2528.005063
921.302603	2530.860877
921.607423	2530.853315
921.912204	2529.391381
922.216946	2532.267359
922.521647	2530.389529
922.826310	2529.920702
923.130932	2529.671165
923.435516	2530.472708
923.740059	2528.289888
924.044564	2530.500434
924.349028	2531.705270
924.653454	2524.430885
924.957840	2526.651513
925.262186	2523.888961
925.566493	2526.250742
925.870761	2525.799558
926.174989	2529.530012
926.479178	2531.009591
926.783328	2529.497245
927.087438	2529.159487
927.391509	2530.860877
927.695541	2528.153777
927.999533	2531.745599
928.303486	2528.524302
928.607400	2528.093283
928.911275	2530.644107
929.215110	2527.760567
929.518906	2529.202337
929.822663	2530.316432
930.126381	2527.969775
930.430060	2528.846936
930.733699	2528.025228
931.037299	2525.237470
931.340861	2528.983047
931.644383	2528.544467
931.947866	2526.240659
932.251309	2529.126720
932.554714	2527.337110
932.858080	2528.683098
933.161407	2529.192255
933.464694	2528.519261
933.767943	2528.438603
934.071153	2524.345186
934.374323	2531.276772
934.677455	2527.911802
934.980548	2527.309384
935.283602	2527.175793
935.586617	2528.352903
935.889593	2527.732841
936.192530	2526.475073
936.495428	2528.057995
936.798287	2529.250228
937.101108	2527.611853
937.403890	2528.423479
937.706632	2529.005732
938.009336	2527.311905
938.312002	2528.980527
938.614628	2529.615712
938.917216	2531.634694
939.219765	2528.690660
939.522275	2530.117307
939.824747	2531.143182
940.127179	2525.529857
940.429573	2523.105062
940.731929	2525.933149
941.034246	2524.493900
941.336524	2528.166380
941.638763	2527.846267
941.940964	2528.539426
942.243126	2526.568334
942.545250	2528.859539
942.847335	2529.298119
943.149381	2529.850126
943.451389	2527.251411
943.753359	2529.653521
944.055290	2526.875845
944.357182	2528.544467
944.659036	2527.949611
944.960851	2527.163191
945.262628	2528.763757
945.564367	2529.401463
945.866067	2526.689322
946.167729	2530.626463
946.469352	2527.737882
946.770937	2527.982378
947.072484	2528.622605
947.373992	2528.418438
947.675462	2530.011443
947.976893	2525.814682
948.278286	2526.175124
948.579641	2529.330887
948.880958	2529.333407
949.182236	2529.020856
949.483476	2527.979857
949.784678	2529.978675
950.085841	2526.601102
950.386967	2529.381298
950.688054	2526.071781
950.989103	2528.615043
951.290114	2528.078160
951.591087	2526.449867
951.892021	2530.671834
952.192917	2527.765608
952.493776	2529.565300
952.794596	2528.786442
953.095378	2526.782583
953.396122	2528.121010
953.696828	2528.695701
953.997496	2527.911802
954.298126	2527.062368
954.598718	2528.466329
954.899272	2532.095960
955.199788	2529.288037
955.500266	2529.716535
955.800706	2527.551359
956.101108	2524.509023
956.401472	2523.576410
956.701798	2524.297295
957.002087	2525.476925
957.302337	2526.777542
957.602550	2525.121523
957.902724	2528.458767
958.202861	2527.337110
958.502960	2529.454395
958.803022	2528.667975
959.103045	2529.262831
959.403031	2527.518592
959.702979	2527.730320
960.002889	2529.663603
960.302762	2530.497914
960.602596	2528.940197
960.902393	2530.306350
961.202153	2529.482121
961.501875	2525.688653
961.801559	2526.638911
962.101205	2526.888448
962.400814	2527.934487
962.700385	2526.873324
962.999918	2529.182173
963.299414	2531.982534
963.598873	2528.456247
963.898293	2528.516740
964.197677	2527.712676
964.497022	2526.956503
964.796331	2528.042872
965.095601	2528.312574
965.394835	2527.914322
965.694030	2526.379291
965.993189	2526.701925
966.292309	2525.527336
966.591393	2527.077491
966.890439	2528.088242
967.189447	2526.147398
967.488419	2527.037162
967.787353	2524.330062
968.086249	2525.572707
968.385108	2528.867101
968.683930	2528.610002
968.982714	2529.456916
969.281462	2530.399611
969.580172	2525.930628
969.878844	2528.899868
970.177480	2527.271575
970.476078	2526.354085
970.774639	2526.464991
971.073162	2527.299302
971.371649	2524.569517
971.670098	2524.609846
971.968510	2526.167563
972.266885	2520.123219
972.565223	2525.156811
972.863524	2527.143026
973.161788	2527.753006
973.460014	2527.901720
973.758204	2528.123530
974.056356	2527.836185
974.354471	2529.214940
974.652550	2528.204189
974.950591	2526.585978
975.248595	2528.047913
975.546563	2525.822244
975.844493	2525.673530
976.142386	2528.630166
976.440243	2528.342821
976.738062	2527.566483
977.035845	2530.094622
977.333590	2527.226205
977.631299	2526.457429
977.928971	2529.898017
978.226606	2527.296781
978.524204	2526.442306
978.821765	2528.310053
979.119290	2526.507841
979.416777	2526.240659
979.714228	2527.561442
980.011642	2524.148581
980.309020	2532.224509
980.606360	2527.989940
980.903664	2525.786956
981.200931	2524.912315
981.498162	2527.342152
981.795356	2525.882738
982.092513	2526.568334
982.389633	2528.617563
982.686717	2527.304343
982.983764	2526.802748
983.280775	2526.593540
983.577749	2526.507841
983.874686	2528.378109
984.171587	2526.031452
984.468451	2528.748633
984.765279	2525.270237
985.062070	2527.276617
985.358824	2526.565814
985.655543	2527.309384
985.952224	2526.328880
986.248869	2525.484486
986.545478	2522.976512
986.842050	2525.698735
987.138586	2522.941224
987.435086	2523.465504
987.731549	2522.308559
988.027975	2529.214940
988.324366	2526.747295
988.620719	2526.775022
988.917037	2526.147398
989.213318	2526.374250
989.509563	2526.341482
989.805772	2527.793335
990.101944	2529.585465
990.398080	2527.102697
990.694180	2523.694877
990.990244	2527.198479
991.286271	2525.993643
991.582262	2527.367357
991.878217	2524.473735
992.174136	2526.991791
992.470019	2525.965917
992.765865	2527.339631
993.061676	2526.603623
993.357450	2526.419620
993.653188	2526.921215
993.948890	2530.346679
994.244556	2526.709487
994.540186	2526.250742
994.835780	2526.767460
995.131337	2525.239990
995.426859	2526.850639
995.722345	2524.932480
996.017795	2525.774353
996.313208	2524.057840
996.608586	2527.160670
996.903928	2527.342152
997.199234	2527.211082
997.494504	2525.681091
997.789738	2526.661596
998.084936	2526.321318
998.380099	2528.151257
998.675225	2527.669827
998.970316	2524.367871
999.265371	2526.709487
999.560390	2524.927439
999.855373	2529.242667
1000.150320	2526.570855
1000.445232	2526.835516
1000.740108	2525.504651
1001.034948	2529.272913
1001.329752	2526.354085
1001.624521	2526.114631
1001.919254	2521.791841
1002.213951	2524.458612
1002.508613	2524.262007
1002.803239	2524.866945
1003.097829	2522.749660
1003.392384	2526.807789
1003.686903	2523.901564
1003.981386	2526.901051
1004.275834	2527.634538
1004.570246	2526.780063
1004.864623	2525.900382
1005.158964	2526.782583
1005.453270	2526.724610
1005.747540	2528.562111
1006.041775	2527.826102
1006.335974	2525.935670
1006.630138	2525.358457
1006.924266	2526.780063
1007.218359	2526.669157
1007.512416	2527.281658
1007.806438	2528.312574
1008.100425	2528.914992
1008.394376	2524.992974
1008.688292	2527.614374
1008.982172	2524.017511
1009.276017	2529.540095
1009.569827	2524.040196
1009.863602	2528.254600
1010.157341	2526.396935
1010.451045	2528.035310
1010.744714	2526.646472
1011.038347	2526.616225
1011.331945	2524.083046
1011.625508	2526.807789
1011.919036	2528.269724
1012.212528	2527.493386
1012.505986	2526.323838
1012.799408	2522.933663
1013.092795	2523.362161
1013.386147	2527.087573
1013.679464	2527.022038
1013.972745	2525.287881
1014.265992	2526.364168
1014.559204	2524.824095
1014.852380	2529.030938
1015.145521	2526.144877
1015.438628	2528.226874
1015.731699	2525.829805
1016.024736	2525.557583
1016.317737	2527.601771
1016.610703	2528.252080
1016.903635	2523.457942
1017.196531	2520.637417
1017.489393	2525.368540
1017.782219	2522.870648
1018.075011	2525.159332
1018.367768	2526.686802
1018.660490	2527.606812
1018.953177	2527.606812
1019.245829	2527.606812
