Dividing Wavelength (nm)	Counts (n)	Blue Motor Position (mm): 0.000000	Red Motor Position (mm): 6.300000	
326.493990	2127.618981
326.888308	2127.618981
327.282561	2127.618981
327.676750	2095.650504
328.070874	2091.670513
328.464933	2095.945411
328.858929	2104.820363
329.252859	2114.469131
329.646726	2124.735441
330.040528	2135.357152
330.434265	2154.342137
330.827938	2172.608758
331.221547	2185.977898
331.615091	2207.087730
332.008571	2226.453323
332.401986	2248.538618
332.795338	2266.643922
333.188625	2287.103444
333.581847	2304.598769
333.975006	2321.035451
334.368100	2339.531444
334.761129	2357.866121
335.154095	2374.905221
335.546996	2394.220402
335.939833	2405.499984
336.332606	2419.584968
336.725315	2433.828748
337.117960	2445.307455
337.510540	2452.123095
337.903056	2464.441154
338.295508	2471.274438
338.687896	2480.305666
339.080220	2486.395379
339.472480	2493.926863
339.864676	2497.828716
340.256807	2503.966321
340.648875	2505.892042
341.040879	2508.896570
341.432818	2508.054697
341.824694	2510.913031
342.216506	2512.120388
342.608253	2511.656601
342.999937	2513.907477
343.391557	2509.771210
343.783113	2507.606034
344.174605	2511.369256
344.566033	2505.987824
344.957397	2505.987824
345.348697	2502.675786
345.739934	2503.157216
346.131106	2501.564211
346.522215	2498.589931
346.913260	2499.005826
347.304241	2497.864004
347.695159	2493.778149
348.086012	2495.625732
348.476802	2493.127840
348.867528	2488.250524
349.258191	2487.862355
349.648789	2486.460914
350.039324	2485.661892
350.429796	2485.228352
350.820203	2481.303814
351.210548	2482.105357
351.600828	2481.881026
351.991045	2480.156952
352.381198	2480.386324
352.771288	2481.782724
353.161314	2475.693010
353.551276	2479.683083
353.941175	2478.001858
354.331010	2480.492188
354.720782	2476.308031
355.110490	2479.645274
355.500135	2479.630151
355.889717	2476.108905
356.279235	2476.459265
356.668689	2480.174596
357.058080	2477.356591
357.447408	2479.786427
357.836672	2475.937506
358.225873	2477.598566
358.615010	2475.672845
359.004084	2478.601756
359.393095	2481.457569
359.782043	2481.974288
360.170927	2482.526294
360.559748	2480.673670
360.948505	2481.689462
361.337199	2482.937148
361.725830	2484.948568
362.114398	2484.847745
362.502903	2485.858497
362.891344	2487.048209
363.279722	2487.075935
363.668037	2487.113744
364.056289	2486.493682
364.444478	2489.137767
364.832603	2488.802530
365.220665	2491.736482
365.608665	2488.800010
365.996601	2490.682881
366.384474	2489.702376
366.772284	2495.340907
367.160031	2493.188334
367.547715	2499.209992
367.935336	2496.452481
368.322893	2499.353665
368.710388	2501.775940
369.097820	2509.977897
369.485189	2512.624503
369.872495	2516.329751
370.259738	2523.838550
370.646918	2527.516071
371.034035	2534.104859
371.421090	2545.064328
371.808081	2551.645554
372.195010	2560.618808
372.581875	2567.862946
372.968678	2578.928279
373.355418	2585.350709
373.742096	2599.455857
374.128710	2605.580859
374.515262	2614.216356
374.901751	2618.599639
375.288177	2624.885958
375.674540	2636.790643
376.060841	2645.526962
376.447079	2652.975267
376.833254	2657.287974
377.219367	2658.104641
377.605417	2673.041580
377.991404	2668.658297
378.377329	2674.594255
378.763191	2673.497804
379.148991	2683.910308
379.534727	2689.122861
379.920402	2691.736699
380.306013	2687.406348
380.691563	2696.031762
381.077049	2694.746268
381.462474	2690.972964
381.847835	2690.524302
382.233134	2685.861234
382.618371	2677.543330
383.003545	2681.419978
383.388657	2673.008812
383.773706	2668.522186
384.158693	2661.119251
384.543618	2653.252531
384.928480	2651.515853
385.313280	2645.915131
385.698017	2637.299799
386.082692	2632.624129
386.467305	2624.477624
386.851856	2616.116871
387.236344	2606.692434
387.620770	2600.794284
388.005133	2591.934456
388.389435	2585.204515
388.773674	2576.460634
389.157851	2567.946125
389.541965	2562.383212
389.926018	2556.795093
390.310008	2552.615976
390.693936	2543.698175
391.077802	2540.111394
391.461606	2537.762217
391.845348	2532.244674
392.229027	2528.373067
392.612645	2524.171266
392.996200	2523.369722
393.379694	2522.101872
393.763125	2522.749660
394.146494	2514.691376
394.529801	2517.963085
394.913047	2515.548372
395.296230	2514.935872
395.679351	2514.038547
396.062410	2513.100892
396.445408	2510.227434
396.828343	2510.824811
397.211217	2504.183091
397.594028	2511.192815
397.976778	2507.530417
398.359466	2508.604183
398.742092	2505.710560
399.124656	2510.426560
399.507158	2511.414626
399.889598	2509.211642
400.271977	2510.040912
400.654294	2511.258350
401.036549	2508.679800
401.418742	2511.364214
401.800874	2509.314985
402.182944	2512.329595
402.564952	2510.981087
402.946898	2510.111488
403.328783	2510.688700
403.710606	2510.759276
404.092367	2509.680469
404.474067	2512.937054
404.855705	2513.927641
405.237282	2512.765655
405.618797	2509.748525
406.000250	2511.812877
406.381642	2511.459996
406.762972	2515.460152
407.144240	2511.591066
407.525447	2514.499812
407.906593	2514.807323
408.287677	2515.714730
408.668700	2511.243227
409.049661	2514.225069
409.430560	2516.768331
409.811399	2513.194153
410.192176	2516.163393
410.572891	2516.423012
410.953545	2513.166427
411.334138	2514.542662
411.714669	2516.032323
412.095139	2514.900584
412.475547	2515.876047
412.855894	2516.488547
413.236180	2515.392096
413.616405	2519.664474
413.996568	2515.518125
414.376670	2517.484175
414.756711	2515.061901
415.136691	2515.520646
415.516609	2514.341016
415.896466	2516.241531
416.276262	2517.746315
416.655997	2513.826818
417.035670	2512.183402
417.415283	2515.316479
417.794834	2512.485871
418.174324	2515.833197
418.553753	2516.818743
418.933121	2518.154649
419.312428	2520.438291
419.691674	2520.685308
420.070859	2517.332941
420.449983	2518.101717
420.829045	2518.079031
421.208047	2518.547859
421.586988	2521.285205
421.965867	2522.510206
422.344686	2517.847138
422.723444	2521.494413
423.102141	2520.471059
423.480777	2519.233456
423.859352	2520.841584
424.237866	2521.358302
424.616319	2518.663805
424.994712	2520.284536
425.373044	2521.373425
425.751314	2519.311593
426.129524	2520.012314
426.507673	2522.069105
426.885762	2519.639268
427.263789	2520.040040
427.641756	2520.826460
428.019662	2523.415093
428.397508	2519.679598
428.775292	2520.816378
429.153016	2520.314783
429.530679	2521.393590
429.908282	2521.784279
430.285824	2523.475587
430.663305	2523.581451
431.040726	2520.120699
431.418086	2522.111954
431.795385	2522.966430
432.172624	2522.933662
432.549802	2521.852335
432.926920	2522.457273
433.303977	2523.331914
433.680974	2520.566841
434.057910	2522.913498
434.434786	2520.017355
434.811601	2523.107582
435.188355	2520.934845
435.565050	2521.759074
435.941683	2524.239321
436.318257	2520.571882
436.694770	2519.389731
437.071222	2522.366533
437.447614	2517.395955
437.823946	2521.202026
438.200218	2520.914680
438.576429	2523.369722
438.952580	2522.164887
439.328670	2523.359640
439.704700	2527.062368
440.080670	2523.712521
440.456580	2525.214785
440.832429	2522.550535
441.208218	2523.405010
441.583947	2523.979702
441.959616	2523.137829
442.335224	2527.289219
442.710773	2521.265041
443.086261	2522.719413
443.461689	2522.106913
443.837057	2523.684794
444.212365	2525.192099
444.587612	2524.130937
444.962800	2523.757891
445.337927	2524.042716
445.712995	2524.730834
446.088002	2525.570186
446.462949	2525.134126
446.837837	2525.310567
447.212664	2526.696884
447.587431	2524.962727
447.962139	2527.808458
448.336786	2529.908099
448.711374	2526.802748
449.085901	2529.651000
449.460369	2527.458098
449.834776	2528.612522
450.209124	2527.097656
450.583412	2526.820392
450.957640	2526.427182
451.331808	2524.917357
451.705917	2526.434744
452.079965	2530.820548
452.453954	2529.204858
452.827883	2527.873993
453.201752	2527.178314
453.575562	2529.091432
453.949311	2524.332583
454.323001	2529.275434
454.696632	2525.706297
455.070202	2529.106555
455.443713	2527.309384
455.817164	2526.706966
456.190556	2525.746626
456.563888	2527.004394
456.937160	2523.420134
457.310373	2527.258972
457.683526	2528.320135
458.056619	2530.850795
458.429653	2529.840043
458.802628	2528.156298
459.175542	2526.684281
459.548398	2528.564631
459.921194	2528.478932
460.293930	2530.530681
460.666607	2526.820392
461.039224	2530.697039
461.411782	2527.853829
461.784280	2530.167718
462.156719	2530.137471
462.529099	2529.474560
462.901419	2526.160001
463.273680	2530.956659
463.645882	2528.763757
464.018024	2530.979344
464.390106	2529.865249
464.762130	2530.439941
465.134094	2530.810465
465.505999	2532.932791
465.877845	2530.316432
466.249631	2530.543284
466.621358	2531.395239
466.993026	2533.474715
467.364634	2536.000333
467.736184	2531.657379
468.107674	2527.332069
468.479105	2529.232584
468.850477	2530.225692
469.221790	2531.874149
469.593043	2527.679909
469.964238	2530.210568
470.335373	2528.078160
470.706449	2531.780888
471.077467	2532.811803
471.448425	2531.397760
471.819324	2531.803573
472.190164	2532.675692
472.560945	2529.658562
472.931667	2531.433048
473.302330	2531.438089
473.672934	2532.385826
474.043479	2532.174098
474.413965	2533.139478
474.784393	2526.994312
475.154761	2529.976154
475.525070	2526.759898
475.895321	2529.827440
476.265513	2525.580268
476.635645	2531.841381
477.005719	2531.586803
477.375734	2533.305837
477.745691	2529.600588
478.115588	2533.446989
478.485427	2535.786084
478.855207	2532.713501
479.224928	2530.230733
479.594591	2532.552184
479.964194	2533.585621
480.333739	2533.855322
480.703226	2533.295754
481.072653	2533.197452
481.442022	2534.266176
481.811333	2532.645445
482.180584	2534.303985
482.549777	2530.722245
482.918912	2529.955990
483.287988	2535.004705
483.657005	2536.101156
484.025964	2534.576207
484.394864	2534.611495
484.763706	2532.589993
485.132489	2534.485467
485.501213	2535.491177
485.869879	2535.082843
486.238487	2530.825589
486.607036	2533.835158
486.975527	2534.603934
487.343959	2532.957997
487.712333	2534.487987
488.080648	2531.198634
488.448905	2534.626619
488.817104	2535.057638
489.185244	2535.256763
489.553326	2533.409180
489.921350	2534.591331
490.289315	2534.220806
490.657222	2532.983203
491.025070	2535.027391
491.392861	2538.583925
491.760593	2534.369520
492.128267	2535.173584
492.495883	2534.601413
492.863440	2534.311547
493.230939	2534.505631
493.598380	2535.516383
493.965763	2532.471526
494.333088	2533.290713
494.700354	2531.291896
495.067563	2535.720549
495.434713	2529.988757
495.801805	2535.733152
496.168839	2536.383461
496.535815	2535.327339
496.902733	2534.369520
497.269593	2538.039480
497.636395	2533.872966
498.003139	2537.074099
498.369825	2535.718029
498.736453	2534.261135
499.103023	2535.057638
499.469535	2534.356917
499.835989	2534.419932
500.202385	2535.891948
500.568723	2534.626619
500.935003	2536.968235
501.301226	2532.264838
501.667390	2538.162988
502.033497	2536.043183
502.399546	2534.238450
502.765537	2533.446989
503.131470	2535.748276
503.497345	2535.609644
503.863163	2533.361289
504.228923	2535.097967
504.594625	2534.455220
504.960269	2535.723070
505.325856	2536.867412
505.691385	2537.124511
506.056856	2538.500746
506.422270	2535.062679
506.787625	2537.676517
507.152924	2535.513862
507.518164	2536.753986
507.883347	2536.887576
508.248472	2535.592000
508.613540	2536.403626
508.978550	2535.718029
509.343503	2535.193749
509.708398	2537.376568
510.073236	2536.630478
510.438016	2538.067206
510.802738	2534.205682
511.167403	2539.937474
511.532010	2534.036804
511.896561	2537.187525
512.261053	2537.641229
512.625488	2532.438758
512.989866	2534.452699
513.354186	2534.263656
513.718449	2532.421114
514.082655	2534.893800
514.446803	2535.347504
514.810894	2536.080992
515.174927	2536.796836
515.538904	2535.344983
515.902822	2534.029242
516.266684	2537.663914
516.630488	2537.452186
516.994235	2537.616023
517.357925	2537.096784
517.721558	2536.774150
518.085133	2536.859850
518.448651	2536.239788
518.812112	2538.407484
519.175516	2539.098122
519.538863	2537.089222
519.902152	2539.120807
520.265385	2536.932947
520.628560	2536.910262
520.991678	2537.235416
521.354739	2535.574356
521.717743	2536.973276
522.080690	2536.196938
522.443580	2534.510672
522.806413	2539.738349
523.169189	2534.714839
523.531908	2537.613503
523.894569	2538.120138
524.257174	2536.280117
524.619722	2535.957483
524.982213	2535.960004
525.344647	2537.507638
525.707025	2534.926568
526.069345	2534.480425
526.431608	2536.471681
526.793815	2536.960673
527.155964	2539.481250
527.518057	2536.322967
527.880093	2540.139121
528.242072	2536.312885
528.603995	2537.926054
528.965860	2537.333718
529.327669	2538.677186
529.689421	2537.487474
530.051117	2539.430838
530.412755	2536.300282
530.774337	2536.862371
531.135862	2538.478060
531.497331	2539.609799
531.858743	2536.804397
532.220098	2535.954963
532.581396	2534.931609
532.942638	2533.953625
533.303824	2543.819163
533.664953	2538.591486
534.026025	2541.051569
534.387040	2538.430169
534.747999	2536.116280
535.108902	2536.527134
535.469748	2537.820190
535.830537	2537.079140
536.191270	2536.625436
536.551947	2541.376724
536.912567	2535.133255
537.273131	2538.493184
537.633638	2539.002340
537.994089	2541.396888
538.354483	2538.112577
538.714821	2537.142155
539.075103	2539.037628
539.435328	2536.393543
539.795497	2538.263811
540.155609	2541.303627
540.515665	2540.192053
540.875665	2539.186343
541.235609	2539.153575
541.595496	2539.219110
541.955328	2537.857998
542.315102	2537.409336
542.674821	2538.805735
543.034483	2542.563916
543.394090	2538.377237
543.753640	2543.050387
544.113134	2538.193235
544.472571	2539.418236
544.831953	2540.055942
545.191278	2538.662062
545.550548	2536.310364
545.909761	2538.304141
546.268918	2538.455375
546.628019	2538.523431
546.987064	2540.267670
547.346053	2540.565098
547.704986	2538.677186
548.063863	2537.391692
548.422684	2539.019984
548.781449	2537.132072
549.140158	2538.389840
549.498811	2540.373534
549.857408	2537.875642
550.215949	2537.172402
550.574434	2533.018491
550.932864	2538.944367
551.291237	2534.530837
551.649555	2538.800694
552.007817	2539.461085
552.366022	2539.937474
552.724173	2537.948739
553.082267	2537.066537
553.440305	2537.835313
553.798288	2541.701878
554.156215	2540.242464
554.514086	2536.557381
554.871902	2538.979655
555.229661	2540.144162
555.587365	2539.277083
555.945014	2540.532331
556.302606	2539.761034
556.660143	2540.381096
557.017625	2538.916641
557.375050	2539.715664
557.732421	2536.575025
558.089735	2540.295396
558.446994	2541.190201
558.804197	2537.933616
559.161345	2539.027546
559.518437	2539.597197
559.875474	2538.157947
560.232455	2540.391178
560.589381	2536.496887
560.946251	2543.952753
561.303065	2536.925385
561.659825	2539.009902
562.016528	2536.683410
562.373177	2538.152906
562.729770	2538.034439
563.086307	2539.478729
563.442789	2539.171219
563.799216	2540.560057
564.155587	2537.888245
564.511904	2539.461085
564.868164	2540.814635
565.224370	2542.052238
565.580520	2539.662732
565.936615	2540.063503
566.292654	2538.677186
566.648638	2538.702392
567.004567	2537.966383
567.360441	2541.643905
567.716260	2539.831610
568.072023	2539.997968
568.427732	2535.816331
568.783385	2541.046528
569.138982	2536.353214
569.494525	2538.636857
569.850013	2534.203162
570.205445	2541.137269
570.560823	2541.550644
570.916145	2538.858667
571.271412	2539.703061
571.626625	2540.766744
571.981782	2538.188194
572.336884	2539.156096
572.691931	2540.305479
573.046923	2539.254398
573.401860	2537.217772
573.756743	2538.271373
574.111570	2536.413708
574.466342	2539.418236
574.821059	2539.390509
575.175722	2539.584594
575.530330	2539.501415
575.884882	2540.227341
576.239380	2538.639377
576.593823	2540.106353
576.948211	2537.313554
577.302544	2540.461754
577.656823	2538.697351
578.011047	2542.389996
578.365216	2536.184335
578.719330	2541.923689
579.073389	2539.660211
579.427394	2539.599717
579.781344	2540.297917
580.135239	2541.222969
580.489080	2539.554347
580.842866	2539.095602
581.196597	2543.501570
581.550273	2536.932947
581.903895	2538.052083
582.257463	2538.324305
582.610975	2537.222813
582.964434	2539.440921
583.317837	2540.219779
583.671186	2541.956457
584.024481	2540.648277
584.377721	2541.457382
584.730906	2538.624254
585.084037	2543.521735
585.437113	2538.833462
585.790135	2540.035777
586.143103	2536.847247
586.496016	2540.570139
586.848874	2534.820703
587.201679	2534.982020
587.554428	2536.892618
587.907124	2538.765406
588.259765	2533.184849
588.612352	2538.818338
588.964884	2538.251208
589.317362	2539.224151
589.669786	2538.563760
590.022155	2540.807073
590.374470	2538.843544
590.726731	2540.915458
591.078937	2539.335057
591.431090	2537.172402
591.783188	2537.225334
592.135232	2538.500746
592.487222	2536.174253
592.839157	2541.185160
593.191038	2538.329346
593.542866	2537.716846
593.894639	2541.084337
594.246358	2535.919675
594.598022	2539.393030
594.949633	2539.904707
595.301190	2539.675334
595.652692	2540.310520
596.004141	2537.986548
596.355535	2539.214069
596.706876	2539.571991
597.058162	2538.659542
597.409395	2538.162988
597.760573	2539.294727
598.111698	2538.848585
598.462768	2541.918648
598.813785	2539.244316
599.164748	2538.520910
599.515657	2539.995448
599.866511	2537.457227
600.217312	2542.551313
600.568060	2539.458565
600.918753	2540.756662
601.269392	2539.929913
601.619978	2538.548637
601.970510	2539.118287
602.320988	2541.782537
602.671412	2539.319933
603.021783	2537.772299
603.372100	2540.086188
603.722363	2540.038298
604.072572	2538.561239
604.422728	2540.854964
604.772830	2533.741896
605.122878	2535.854140
605.472872	2536.597710
605.822813	2531.191073
606.172701	2536.668286
606.522534	2538.462937
606.872314	2538.851106
607.222041	2537.265663
607.571714	2538.188194
607.921333	2537.981507
608.270899	2537.346321
608.620411	2538.026877
608.969870	2537.636188
609.319276	2539.438400
609.668627	2544.023330
610.017926	2545.608772
610.367171	2545.727240
610.716362	2544.466951
611.065500	2542.891591
611.414585	2542.760521
611.763616	2542.815973
612.112594	2540.154244
612.461518	2539.526620
612.810389	2541.734646
613.159207	2540.522248
613.507971	2540.716333
613.856682	2540.466796
614.205340	2541.331353
614.553945	2541.782537
614.902496	2538.556198
615.250994	2538.823379
615.599439	2539.871939
615.947830	2537.369007
616.296169	2539.324974
616.644454	2541.792619
616.992686	2537.333718
617.340864	2538.127700
617.688990	2538.178112
618.037063	2539.821528
618.385082	2539.289686
618.733048	2539.824048
619.080961	2539.307330
619.428821	2538.934285
619.776628	2541.170037
620.124382	2534.992103
620.472083	2540.602907
620.819731	2538.130221
621.167326	2538.669624
621.514868	2539.146013
621.862357	2537.265663
622.209793	2539.962680
622.557176	2538.210879
622.904506	2533.998995
623.251783	2534.661907
623.599007	2538.621733
623.946179	2531.372554
624.293297	2533.557894
624.640363	2538.760365
624.987376	2537.673996
625.334336	2539.269522
625.681243	2539.685417
626.028097	2538.233564
626.374899	2537.507638
626.721647	2535.982689
627.068343	2541.011240
627.414987	2539.057793
627.761577	2539.420756
628.108115	2538.977135
628.454600	2534.989582
628.801032	2538.692309
629.147412	2539.254398
629.493739	2539.135931
629.840014	2540.910417
630.186236	2538.122659
630.532405	2540.620551
630.878521	2536.378420
631.224585	2541.762372
631.570597	2537.419418
631.916556	2539.924872
632.262462	2537.558050
632.608316	2536.577545
632.954117	2536.683410
633.299866	2537.406815
633.645562	2538.049562
633.991206	2539.952598
634.336797	2537.129552
634.682336	2537.923533
635.027823	2537.109387
635.373257	2538.382278
635.718639	2538.626774
636.063968	2538.563760
636.409245	2537.472350
636.754470	2536.527134
637.099642	2533.787267
637.444762	2541.235572
637.789829	2538.087371
638.134845	2536.731301
638.479808	2537.268183
638.824719	2536.985879
639.169577	2535.019829
639.514383	2538.021836
639.859137	2538.029398
640.203839	2535.377751
640.548489	2539.138452
640.893086	2535.241640
641.237632	2531.249046
641.582125	2535.153419
641.926566	2531.672503
642.270955	2536.592669
642.615292	2534.097298
642.959576	2537.008564
643.303809	2534.820703
643.647990	2535.692823
643.992118	2535.778523
644.336195	2538.510828
644.680219	2537.623585
645.024192	2537.537885
645.368112	2533.908254
645.711981	2535.342463
646.055797	2535.639891
646.399562	2534.941691
646.743274	2536.877494
647.086935	2535.874304
647.430544	2537.172402
647.774101	2538.099974
648.117606	2537.805066
648.461059	2536.360776
648.804460	2538.916641
649.147810	2536.161650
649.491108	2539.138452
649.834354	2536.466640
650.177548	2538.616692
650.520690	2537.058976
650.863781	2538.183153
651.206820	2540.260108
651.549807	2538.306661
651.892742	2535.665097
652.235626	2534.707277
652.578458	2536.355735
652.921238	2537.802546
653.263967	2537.603420
653.606644	2536.292720
653.949269	2538.599048
654.291843	2535.057637
654.634365	2537.507638
654.976836	2538.389840
655.319255	2537.865560
655.661622	2537.686599
656.003938	2537.232895
656.346203	2536.471681
656.688416	2540.343287
657.030577	2534.959335
657.372687	2537.530323
657.714746	2538.538554
658.056753	2534.760209
658.398708	2535.299613
658.740612	2532.277441
659.082465	2531.619571
659.424266	2531.543953
659.766016	2532.224509
660.107715	2536.703574
660.449362	2536.527134
660.790958	2538.102494
661.132503	2536.756506
661.473996	2537.444624
661.815438	2536.249870
662.156829	2537.384130
662.498168	2536.479243
662.839456	2535.967566
663.180693	2535.299613
663.521879	2539.317413
663.863013	2538.783050
664.204097	2536.512010
664.545129	2536.310364
664.886110	2535.846578
665.227040	2536.794315
665.567918	2539.645088
665.908746	2537.154757
666.249522	2535.796167
666.590248	2536.209541
666.930922	2536.340611
667.271545	2537.744573
667.612118	2538.218441
667.952639	2537.517721
668.293109	2537.046373
668.633528	2535.385312
668.973896	2533.870446
669.314213	2533.615867
669.654480	2536.282638
669.994695	2540.108874
670.334859	2537.278266
670.674973	2535.027391
671.015035	2537.868081
671.355047	2535.839016
671.695008	2535.491177
672.034918	2535.521424
672.374777	2536.680889
672.714585	2536.315405
673.054342	2535.672658
673.394049	2538.833462
673.733705	2536.396064
674.073310	2536.645601
674.412864	2537.119469
674.752368	2536.065868
675.091820	2537.149716
675.431223	2534.225847
675.770574	2537.961342
676.109875	2532.670651
676.449125	2535.536547
676.788324	2532.315250
677.127473	2533.285672
677.466571	2533.096629
677.805619	2535.496218
678.144616	2536.501928
678.483562	2536.348173
678.822458	2536.217103
679.161303	2534.530837
679.500098	2537.089222
679.838842	2534.490508
680.177535	2536.635519
680.516179	2536.063348
680.854771	2536.844727
681.193314	2535.297092
681.531805	2536.748945
681.870247	2537.369007
682.208638	2537.472350
682.546978	2537.101825
682.885268	2535.004705
683.223508	2536.380940
683.561697	2534.397246
683.899836	2536.159130
684.237925	2533.457071
684.575963	2536.990920
684.913951	2534.908923
685.251889	2539.592155
685.589776	2536.481763
685.927614	2537.938657
686.265401	2535.281969
686.603137	2535.932278
686.940824	2534.792977
687.278460	2534.775333
687.616046	2536.207021
687.953582	2536.670807
688.291068	2535.907072
688.628504	2538.420087
688.965889	2534.762730
689.303224	2536.259953
689.640510	2534.906403
689.977745	2535.322298
690.314930	2536.133924
690.652065	2536.242309
690.989150	2536.423790
691.326185	2536.905220
691.663170	2537.409336
692.000105	2534.351876
692.336990	2535.463450
692.673825	2535.841537
693.010610	2540.187012
693.347345	2533.729293
693.684030	2532.494211
694.020665	2531.339787
694.357251	2532.106042
694.693786	2531.463295
695.030272	2536.060827
695.366707	2537.447144
695.703093	2535.229037
696.039429	2533.956145
696.375716	2533.842719
696.711952	2531.531350
697.048139	2533.628470
697.384276	2536.577545
697.720363	2535.740714
698.056400	2534.878677
698.392388	2535.097967
698.728326	2534.198121
699.064214	2534.482946
699.400053	2534.833306
699.735842	2534.661907
700.071581	2533.260466
700.407270	2536.842206
700.742910	2532.625281
701.078501	2537.046373
701.414042	2534.157792
701.749533	2535.418080
702.084974	2534.735004
702.420366	2536.237267
702.755709	2535.672658
703.091002	2533.462112
703.426246	2534.926568
703.761440	2534.404808
704.096584	2537.326157
704.431679	2535.806249
704.766725	2534.387164
705.101721	2532.514375
705.436668	2534.677030
705.771565	2536.650642
706.106413	2533.305837
706.441212	2533.625950
706.775961	2536.479243
707.110661	2531.894313
707.445311	2536.126362
707.779913	2534.951773
708.114465	2536.244829
708.448967	2537.308513
708.783421	2534.437576
709.117825	2536.587628
709.452180	2536.126362
709.786485	2536.000333
710.120742	2538.404964
710.454949	2535.682741
710.789107	2533.678882
711.123216	2529.098994
711.457275	2533.021011
711.791286	2534.598893
712.125247	2532.360620
712.459159	2533.827596
712.793023	2538.009233
713.126837	2536.204500
713.460602	2536.118800
713.794318	2534.442617
714.127985	2535.120652
714.461602	2536.325488
714.795171	2535.927237
715.128691	2534.460261
715.462162	2534.964376
715.795584	2532.421114
716.128957	2536.345652
716.462281	2536.612833
716.795556	2534.830786
717.128782	2534.863553
717.461960	2532.547143
717.795088	2532.413552
718.128167	2535.007226
718.461198	2534.808100
718.794180	2536.138965
719.127113	2534.508152
719.459997	2535.740714
719.792833	2533.487318
720.125619	2537.981507
720.458357	2537.346321
720.791046	2533.237781
721.123686	2534.800539
721.456278	2534.772812
721.788821	2533.769623
722.121315	2538.319264
722.453761	2534.853471
722.786158	2532.564787
723.118506	2531.967410
723.450805	2534.233409
723.783056	2533.628470
724.115259	2533.326001
724.447412	2532.161495
724.779518	2534.901362
725.111574	2535.198790
725.443582	2537.220293
725.775542	2533.953625
726.107453	2534.193080
726.439315	2534.198121
726.771129	2540.449152
727.102895	2534.430014
727.434612	2533.961187
727.766281	2534.548481
728.097901	2529.996319
728.429473	2532.862215
728.760996	2533.676361
729.092471	2531.574200
729.423897	2535.191228
729.755276	2535.690302
730.086606	2536.738862
730.417887	2534.339273
730.749120	2535.997813
731.080305	2534.470343
731.411442	2535.471012
731.742530	2535.574356
732.073570	2537.210210
732.404562	2533.852802
732.735506	2536.539737
733.066401	2536.512010
733.397249	2534.054448
733.728048	2532.587472
734.058798	2535.990251
734.389501	2533.426824
734.720156	2534.984541
735.050762	2535.193749
735.381320	2534.387164
735.711831	2534.525796
736.042293	2533.744417
736.372707	2533.033614
736.703073	2534.424973
737.033391	2533.252904
737.363661	2533.545291
737.693883	2533.361289
738.024056	2536.310364
738.354182	2534.631660
738.684260	2534.921526
739.014290	2533.462112
739.344272	2532.501772
739.674207	2534.631660
740.004093	2534.296423
740.333931	2532.597554
740.663722	2532.942873
740.993464	2533.053779
741.323159	2536.383461
741.652806	2534.165353
741.982405	2533.288192
742.311956	2532.131248
742.641460	2533.751979
742.970915	2535.241640
743.300323	2533.802390
743.629683	2532.461443
743.958996	2535.523944
744.288260	2531.896834
744.617477	2534.160312
744.946647	2528.874662
745.275768	2530.812986
745.604842	2531.548994
745.933869	2531.428007
746.262847	2529.968593
746.591778	2533.096629
746.920662	2533.131917
747.249498	2536.479243
747.578286	2534.177956
747.907027	2535.886907
748.235720	2534.457740
748.564365	2535.594520
748.892963	2533.605785
749.221514	2532.970600
749.550017	2533.308357
749.878473	2533.799870
750.206881	2535.339942
750.535242	2534.442617
750.863555	2532.469005
751.191821	2535.841537
751.520039	2530.427338
751.848210	2532.574869
752.176334	2531.929602
752.504411	2534.188038
752.832440	2533.840199
753.160421	2532.582431
753.488356	2531.775846
753.816243	2536.733821
754.144082	2532.035466
754.471875	2532.859694
754.799620	2533.378933
755.127318	2534.729963
755.454969	2533.462112
755.782572	2532.978162
756.110129	2532.582431
756.437638	2531.455733
756.765100	2532.592513
757.092515	2531.256608
757.419882	2535.508821
757.747203	2533.865405
758.074477	2529.837523
758.401703	2534.528316
758.728882	2533.701567
759.056014	2535.302133
759.383099	2531.899355
759.710138	2534.979500
760.037129	2533.699047
760.364073	2536.388502
760.690970	2534.175436
761.017820	2533.764582
761.344623	2532.859694
761.671379	2534.545960
761.998088	2530.177801
762.324751	2528.967924
762.651366	2530.162677
762.977935	2532.496731
763.304456	2533.230219
763.630931	2535.024870
763.957359	2533.872966
764.283740	2532.282482
764.610074	2535.241640
764.936362	2533.615868
765.262602	2534.462781
765.588796	2534.896321
765.914943	2537.467309
766.241044	2534.188038
766.567097	2534.644263
766.893104	2532.653007
767.219064	2531.702750
767.544978	2529.340969
767.870845	2533.242822
768.196665	2533.875487
768.522438	2531.657379
768.848165	2529.991278
769.173846	2532.451361
769.499479	2534.157792
769.825066	2531.997657
770.150607	2533.734335
770.476101	2531.276772
770.801548	2533.641073
771.126949	2531.188552
771.452303	2533.194931
771.777611	2530.331556
772.102872	2532.126207
772.428087	2533.404139
772.753256	2535.450847
773.078378	2532.332894
773.403453	2533.993954
773.728482	2531.460774
774.053465	2532.877338
774.378401	2530.407173
774.703291	2532.227030
775.028135	2531.637215
775.352932	2531.314581
775.677683	2533.973789
776.002388	2531.773326
776.327046	2530.122348
776.651658	2533.250384
776.976224	2531.193593
777.300743	2529.149405
777.625216	2535.329860
777.949643	2531.980013
778.274024	2532.287523
778.598359	2529.149405
778.922647	2528.685619
779.246889	2526.394415
779.571086	2525.933149
779.895236	2531.790970
780.219339	2531.980013
780.543397	2530.402132
780.867409	2529.895496
781.191374	2529.494724
781.515294	2534.800539
781.839167	2529.514889
782.162995	2531.884231
782.486776	2532.363141
782.810511	2532.174098
783.134201	2532.010260
783.457844	2529.663603
783.781441	2533.661238
784.104993	2532.973120
784.428498	2529.721576
784.751958	2531.599406
785.075372	2531.576721
785.398739	2531.090249
785.722061	2532.837009
786.045337	2533.857843
786.368568	2533.371372
786.691752	2530.215609
787.014891	2534.092257
787.337983	2528.340300
787.661030	2530.893644
787.984031	2531.304498
788.306987	2532.302647
788.629897	2528.942718
788.952760	2532.375744
789.275579	2530.402132
789.598351	2532.526978
789.921078	2533.414221
790.243759	2530.407173
790.566395	2530.621422
790.888984	2532.579910
791.211529	2530.679395
791.534027	2531.322142
791.856480	2531.233922
792.178888	2531.929602
792.501249	2533.862884
792.823566	2535.082843
793.145836	2532.209386
793.468062	2532.743748
793.790241	2530.195445
794.112375	2532.380785
794.434464	2530.563449
794.756507	2532.365661
795.078505	2534.127545
795.400457	2529.676206
795.722364	2529.313243
796.044226	2527.153108
796.366042	2526.727131
796.687812	2527.755526
797.009538	2532.595034
797.331218	2527.553880
797.652852	2534.344314
797.974442	2532.053110
798.295986	2531.995137
798.617484	2532.952956
798.938938	2530.296268
799.260346	2531.370033
799.581709	2528.713345
799.903026	2533.323481
800.224299	2532.027904
800.545526	2531.465815
800.866708	2529.320804
801.187845	2529.575383
801.508936	2529.416586
801.829983	2534.805580
802.150984	2533.409180
802.471940	2533.880528
802.792851	2531.014632
803.113717	2532.254756
803.434538	2531.395239
803.755314	2531.697708
804.076045	2533.530168
804.396731	2529.691329
804.717372	2528.320135
805.037967	2531.054961
805.358518	2530.417255
805.679024	2533.532688
805.999485	2531.216278
806.319901	2533.648635
806.640272	2527.634538
806.960598	2530.807945
807.280879	2533.106711
807.601115	2531.823737
807.921306	2529.640918
808.241453	2530.283665
808.561554	2531.165867
808.881611	2534.137627
809.201623	2530.560928
809.521590	2531.836340
809.841513	2529.847605
810.161390	2531.546474
810.481223	2530.281144
810.801011	2530.414735
811.120755	2532.025383
811.440453	2531.178470
811.760107	2530.755013
812.079716	2526.827954
812.399281	2528.415917
812.718801	2527.090094
813.038276	2528.148736
813.357707	2530.311391
813.677093	2530.321473
813.996434	2532.821886
814.315731	2531.115455
814.634983	2529.439272
814.954191	2533.000847
815.273354	2530.255938
815.592473	2531.352389
815.911547	2530.785260
816.230577	2531.894313
816.549562	2532.469005
816.868502	2528.945238
817.187399	2531.175949
817.506250	2531.165867
817.825058	2531.080167
818.143821	2529.761905
818.462539	2532.494211
818.781213	2527.793335
819.099843	2533.164684
819.418429	2531.793490
819.736970	2531.445651
820.055466	2529.726617
820.373919	2532.322812
820.692327	2529.202337
821.010691	2529.434230
821.329011	2532.405991
821.647286	2536.718698
821.965517	2537.220292
822.283704	2534.694674
822.601847	2536.932947
822.919945	2537.961342
823.237999	2535.881866
823.556010	2534.170394
823.873976	2534.460261
824.191897	2532.693336
824.509775	2530.001360
824.827609	2533.378933
825.145398	2530.399611
825.463144	2533.696526
825.780845	2530.578572
826.098502	2534.777853
826.416116	2532.070754
826.733685	2535.662576
827.051210	2534.540919
827.368692	2534.137627
827.686129	2534.122503
828.003522	2530.457585
828.320872	2529.033459
828.638177	2531.617050
828.955439	2528.327697
829.272656	2529.514889
829.589830	2526.039013
829.906960	2530.019004
830.224046	2529.204858
830.541088	2531.848943
830.858086	2530.273582
831.175041	2531.387678
831.491952	2528.884745
831.808819	2533.731814
832.125642	2530.664272
832.442421	2530.432379
832.759157	2531.972451
833.075849	2533.177287
833.392497	2532.032945
833.709101	2533.600744
834.025662	2530.644107
834.342179	2531.576721
834.658653	2530.913809
834.975083	2531.158305
835.291469	2533.958666
835.607811	2531.027235
835.924110	2528.902389
836.240366	2529.870290
836.556578	2528.393232
836.872746	2531.780888
837.188871	2531.801052
837.504952	2531.780887
837.820990	2529.184693
838.136984	2530.291227
838.452935	2528.642769
838.768842	2528.804086
839.084706	2529.905578
839.400526	2528.945238
839.716303	2529.560259
840.032037	2530.994467
840.347727	2530.127389
840.663373	2531.859025
840.978977	2529.209899
841.294537	2528.620084
841.610054	2530.578572
841.925527	2532.736186
842.240957	2529.809796
842.556344	2528.413397
842.871687	2530.712163
843.186987	2530.013963
843.502244	2529.346010
843.817458	2531.969931
844.132629	2529.620753
844.447756	2527.120341
844.762840	2526.273427
845.077881	2527.253931
845.392879	2525.892820
845.707833	2530.233253
846.022745	2524.007428
846.337613	2527.342152
846.652438	2526.838036
846.967221	2532.529499
847.281960	2527.274096
847.596656	2532.242153
847.911309	2524.957686
848.225919	2529.807276
848.540485	2529.550177
848.855009	2530.429858
849.169490	2529.267872
849.483928	2532.189221
849.798323	2528.675537
850.112675	2531.488501
850.426984	2530.785260
850.741251	2530.903727
851.055474	2526.913653
851.369654	2527.349713
851.683792	2531.198634
851.997887	2531.690147
852.311938	2527.919364
852.625947	2532.784077
852.939914	2528.768798
853.253837	2530.535723
853.567718	2531.896834
853.881555	2528.831812
854.195350	2531.054961
854.509103	2529.282996
854.822812	2529.388860
855.136479	2528.216792
855.450103	2527.836185
855.763685	2530.641587
856.077224	2530.966741
856.390720	2529.058664
856.704173	2529.560259
857.017584	2527.359796
857.330953	2531.856505
857.644278	2530.094622
857.957561	2533.499921
858.270802	2528.126051
858.584000	2530.787780
858.897155	2529.214940
859.210268	2526.863242
859.523339	2528.867101
859.836367	2531.014632
860.149352	2527.654703
860.462295	2529.454395
860.775195	2526.275947
861.088054	2526.762419
861.400869	2526.825433
861.713642	2522.510206
862.026373	2528.234436
862.339062	2528.733510
862.651708	2531.054961
862.964312	2528.110927
863.276873	2530.485311
863.589392	2527.163191
863.901869	2529.245187
864.214303	2528.657893
864.526696	2531.793490
864.839045	2528.178983
865.151353	2529.782070
865.463619	2529.986237
865.775842	2529.454395
866.088023	2529.305681
866.400162	2529.277955
866.712258	2528.158818
867.024313	2531.007070
867.336325	2530.621422
867.648296	2530.266021
867.960224	2529.716535
868.272110	2529.920702
868.583954	2528.219312
868.895755	2529.096473
869.207515	2530.651669
869.519233	2528.108407
869.830909	2530.293747
870.142542	2529.587986
870.454134	2529.898017
870.765684	2527.463139
871.077191	2526.275947
871.388657	2529.910619
871.700081	2531.100332
872.011463	2531.692667
872.322803	2527.717718
872.634101	2527.679909
872.945357	2527.632018
873.256571	2528.413397
873.567744	2528.587317
873.878874	2529.356093
874.189963	2530.127389
874.501010	2530.271062
874.812015	2527.684950
875.122979	2528.980527
875.433900	2531.501103
875.744780	2527.266534
876.055618	2528.582275
876.366415	2530.492873
876.677169	2530.117307
876.987882	2529.751823
877.298554	2525.451719
877.609183	2527.188396
877.919771	2524.559435
878.230317	2526.134795
878.540822	2530.571011
878.851285	2527.737882
879.161707	2528.224353
879.472087	2528.136133
879.782425	2529.683767
880.092722	2531.274252
880.402977	2529.892975
880.713191	2533.431865
881.023363	2534.460261
881.333494	2532.721063
881.643583	2531.533871
881.953631	2533.570497
882.263637	2530.825589
882.573602	2530.966741
882.883526	2532.504293
883.193408	2530.860877
883.503248	2529.885414
883.813048	2530.981865
884.122806	2530.059333
884.432522	2530.276103
884.742197	2529.358613
885.051831	2530.893644
885.361424	2529.923222
885.670975	2530.712163
885.980485	2529.734179
886.289954	2532.267359
886.599382	2529.923222
886.908768	2527.881555
887.218113	2528.826771
887.527417	2529.073788
887.836680	2526.459950
888.145901	2528.340300
888.455082	2530.515558
888.764221	2530.334076
889.073319	2527.942049
889.382376	2529.391381
889.691392	2529.653521
890.000366	2529.751823
890.309300	2526.951462
890.618193	2525.965917
890.927044	2526.369209
891.235855	2529.038500
891.544625	2527.957172
891.853353	2527.274096
892.162041	2530.795342
892.470687	2529.446833
892.779293	2527.609333
893.087858	2527.160670
893.396381	2524.995494
893.704864	2527.823582
894.013306	2524.773684
894.321707	2531.054961
894.630068	2529.414066
894.938387	2528.998171
895.246665	2530.558408
895.554903	2527.788294
895.863100	2530.901206
896.171256	2529.151926
896.479371	2526.021369
896.787446	2530.941535
897.095480	2530.397091
897.403473	2529.270393
897.711425	2527.291740
898.019336	2528.501617
898.327207	2529.167049
898.635038	2527.173273
898.942827	2528.685619
899.250576	2529.381298
899.558284	2528.509179
899.865952	2528.844415
900.173579	2528.476411
900.481165	2528.398273
900.788711	2527.455578
901.096216	2529.313243
901.403681	2527.914322
901.711105	2530.124868
902.018489	2527.102697
902.325832	2534.230888
902.633135	2530.989426
902.940397	2528.657893
903.247619	2529.104035
903.554800	2528.068078
903.861941	2530.013963
904.169041	2530.122348
904.476101	2530.996988
904.783121	2529.812317
905.090100	2528.967924
905.397039	2526.321318
905.703938	2526.366688
906.010796	2529.784591
906.317614	2526.480114
906.624391	2530.439941
906.931129	2528.715866
907.237826	2526.888448
907.544483	2525.449198
907.851099	2530.553367
908.157675	2525.784435
908.464211	2526.850639
908.770707	2522.394259
909.077163	2527.190917
909.383578	2523.231091
909.689954	2526.593540
909.996289	2523.571368
910.302584	2529.310722
910.608839	2526.903571
910.915054	2528.854498
911.221229	2527.720238
911.527363	2526.843077
911.833458	2528.229395
912.139513	2527.576565
912.445527	2529.078829
912.751502	2527.518592
913.057436	2529.255269
913.363331	2526.666637
913.669186	2529.056144
913.975000	2527.538757
914.280775	2527.059847
914.586510	2526.926256
914.892205	2527.453057
915.197859	2529.479601
915.503475	2529.270393
915.809050	2528.955321
916.114585	2529.051103
916.420081	2529.303160
916.725536	2530.613860
917.030952	2530.971782
917.336328	2528.660413
917.641665	2529.282996
917.946961	2529.416586
918.252218	2526.278468
918.557435	2529.519930
918.862612	2527.873993
919.167750	2525.691174
919.472848	2527.342152
919.777906	2526.182686
920.082925	2528.342821
920.387904	2528.572193
920.692843	2527.742923
920.997743	2529.474560
921.302603	2528.171421
921.607423	2526.938859
921.912204	2528.506658
922.216946	2527.634538
922.521647	2528.335259
922.826310	2526.223015
923.130932	2529.517409
923.435516	2528.204189
923.740059	2527.251411
924.044564	2528.645290
924.349028	2526.102028
924.653454	2522.611029
924.957840	2522.026255
925.262186	2525.401307
925.566493	2528.415917
925.870761	2520.629855
926.174989	2525.915505
926.479178	2527.591689
926.783328	2526.717048
927.087438	2528.637728
927.391509	2528.584796
927.695541	2527.758047
927.999533	2527.430372
928.303486	2528.035310
928.607400	2526.585978
928.911275	2527.798376
929.215110	2528.426000
929.518906	2525.018180
929.822663	2528.952800
930.126381	2527.654703
930.430060	2527.130423
930.733699	2528.138654
931.037299	2528.405835
931.340861	2529.129241
931.644383	2527.125382
931.947866	2526.278468
932.251309	2525.227387
932.554714	2526.248221
932.858080	2529.923222
933.161407	2527.662265
933.464694	2528.872142
933.767943	2524.972809
934.071153	2527.533715
934.374323	2528.080681
934.677455	2526.003725
934.980548	2527.180835
935.283602	2526.714528
935.586617	2527.518592
935.889593	2528.247039
936.192530	2528.128572
936.495428	2526.359127
936.798287	2527.664785
937.101108	2525.391225
937.403890	2524.551873
937.706632	2528.370547
938.009336	2527.470701
938.312002	2529.605630
938.614628	2525.602953
938.917216	2529.071267
939.219765	2526.228057
939.522275	2528.315094
939.824747	2528.415917
940.127179	2522.772346
940.429573	2524.816533
940.731929	2525.015659
941.034246	2524.493900
941.336524	2526.517923
941.638763	2523.369722
941.940964	2527.311905
942.243126	2526.245701
942.545250	2527.546318
942.847335	2528.216792
943.149381	2527.019518
943.451389	2526.114631
943.753359	2527.569003
944.055290	2528.231915
944.357182	2526.233098
944.659036	2528.806607
944.960851	2525.076153
945.262628	2524.519105
945.564367	2527.253931
945.866067	2526.525485
946.167729	2526.464991
946.469352	2526.172604
946.770937	2526.412059
947.072484	2528.667975
947.373992	2526.008766
947.675462	2524.582120
947.976893	2526.124713
948.278286	2528.040351
948.579641	2526.858201
948.880958	2526.354085
949.182236	2527.793335
949.483476	2524.536749
949.784678	2530.444982
950.085841	2526.061698
950.386967	2528.473891
950.688054	2524.032634
950.989103	2528.267203
951.290114	2526.195289
951.591087	2525.330731
951.892021	2526.878365
952.192917	2528.123530
952.493776	2527.677388
952.794596	2527.730320
953.095378	2525.192099
953.396122	2528.882224
953.696828	2526.832995
953.997496	2526.371729
954.298126	2526.016328
954.598718	2525.423992
954.899272	2528.662934
955.199788	2526.780063
955.500266	2527.853829
955.800706	2522.537932
956.101108	2523.044568
956.401472	2523.271420
956.701798	2522.348889
957.002087	2521.176820
957.302337	2524.806451
957.602550	2527.400125
957.902724	2525.855011
958.202861	2527.873993
958.502960	2526.830474
958.803022	2527.611853
959.103045	2524.587161
959.403031	2527.725279
959.702979	2527.480783
960.002889	2525.572707
960.302762	2527.866432
960.602596	2526.843077
960.902393	2525.660927
961.202153	2526.628828
961.501875	2524.904754
961.801559	2525.398787
962.101205	2526.364168
962.400814	2527.478263
962.700385	2527.362316
962.999918	2527.957172
963.299414	2522.333765
963.598873	2528.146216
963.898293	2525.403828
964.197677	2526.278468
964.497022	2525.895340
964.796331	2528.473891
965.095601	2523.924249
965.394835	2524.869466
965.694030	2527.574045
965.993189	2527.521113
966.292309	2524.715710
966.591393	2524.319980
966.890439	2528.526823
967.189447	2527.289219
967.488419	2525.499610
967.787353	2526.749816
968.086249	2527.601771
968.385108	2524.710669
968.683930	2526.472552
968.982714	2525.973478
969.281462	2527.137985
969.580172	2528.249559
969.878844	2526.754857
970.177480	2526.417100
970.476078	2527.606812
970.774639	2525.504651
971.073162	2526.966586
971.371649	2526.228057
971.670098	2521.196985
971.968510	2524.935001
972.266885	2521.844773
972.565223	2527.269055
972.863524	2525.852491
973.161788	2525.287881
973.460014	2526.749816
973.758204	2526.326359
974.056356	2523.168076
974.354471	2528.942718
974.652550	2522.542973
974.950591	2527.717717
975.248595	2525.890299
975.546563	2527.755526
975.844493	2526.553211
976.142386	2525.766791
976.440243	2525.295443
976.738062	2524.942562
977.035845	2527.213602
977.333590	2525.335772
977.631299	2525.754188
977.928971	2526.931297
978.226606	2527.480783
978.524204	2527.962213
978.821765	2525.842408
979.119290	2526.039013
979.416777	2526.994312
979.714228	2524.962727
980.011642	2522.754702
980.309020	2529.908099
980.606360	2527.132944
980.903664	2526.026410
981.200931	2526.265865
981.498162	2524.824095
981.795356	2523.795700
982.092513	2526.454908
982.389633	2527.009435
982.686717	2527.238808
982.983764	2523.359640
983.280775	2526.502799
983.577749	2523.324352
983.874686	2523.959537
984.171587	2526.344003
984.468451	2526.767460
984.765279	2525.343334
985.062070	2522.421985
985.358824	2526.233098
985.655543	2524.221677
985.952224	2524.075484
986.248869	2524.214116
986.545478	2521.265041
986.842050	2521.998528
987.138586	2523.271420
987.435086	2519.719927
987.731549	2519.374608
988.027975	2527.095135
988.324366	2527.551359
988.620719	2524.471214
988.917037	2527.148067
989.213318	2527.639580
989.509563	2524.922398
989.805772	2527.279137
990.101944	2525.504651
990.398080	2525.391225
990.694180	2523.503313
990.990244	2525.839888
991.286271	2524.521626
991.582262	2525.728982
991.878217	2527.332069
992.174136	2525.857532
992.470019	2527.332069
992.765865	2528.383150
993.061676	2524.098169
993.357450	2525.744106
993.653188	2522.689167
993.948890	2521.890144
994.244556	2525.504651
994.540186	2523.195802
994.835780	2523.558766
995.131337	2525.058509
995.426859	2524.975330
995.722345	2524.365350
996.017795	2527.248890
996.313208	2523.636903
996.608586	2524.627490
996.903928	2527.770650
997.199234	2524.962727
997.494504	2527.193438
997.789738	2526.825433
998.084936	2527.047244
998.380099	2524.630011
998.675225	2524.781245
998.970316	2527.175793
999.265371	2523.694877
999.560390	2523.999867
999.855373	2524.186389
1000.150320	2526.366688
1000.445232	2527.064888
1000.740108	2524.935001
1001.034948	2526.109589
1001.329752	2525.880217
1001.624521	2526.931297
1001.919254	2521.000380
1002.213951	2523.853673
1002.508613	2521.743950
1002.803239	2525.464322
1003.097829	2518.041223
1003.392384	2525.262676
1003.686903	2524.317459
1003.981386	2523.011800
1004.275834	2523.881399
1004.570246	2526.719569
1004.864623	2522.711852
1005.158964	2521.854856
1005.453270	2524.869466
1005.747540	2525.973478
1006.041775	2524.040196
1006.335974	2523.047088
1006.630138	2525.053468
1006.924266	2524.589682
1007.218359	2524.985412
1007.512416	2525.638242
1007.806438	2523.475587
1008.100425	2524.705628
1008.394376	2523.946934
1008.688292	2526.898530
1008.982172	2523.848632
1009.276017	2526.628828
1009.569827	2523.359640
1009.863602	2526.591020
1010.157341	2522.500123
1010.451045	2524.720752
1010.744714	2524.146060
1011.038347	2525.499610
1011.331945	2524.400638
1011.625508	2524.009949
1011.919036	2524.851822
1012.212528	2528.103366
1012.505986	2527.016997
1012.799408	2526.643952
1013.092795	2522.691687
1013.386147	2523.833508
1013.679464	2524.138498
1013.972745	2526.732172
1014.265992	2526.717048
1014.559204	2525.096317
1014.852380	2525.897861
1015.145521	2523.762932
1015.438628	2524.045237
1015.731699	2523.989784
1016.024736	2521.660771
1016.317737	2524.977850
1016.610703	2525.376102
1016.903635	2522.578261
1017.196531	2520.052643
1017.489393	2518.409227
1017.782219	2520.518950
1018.075011	2523.132788
1018.367768	2524.627490
1018.660490	2525.691174
1018.953177	2525.691174
1019.245829	2525.691174
