Dividing Wavelength (nm)	Counts (n)	Blue Motor Position (mm): 0.000000	Red Motor Position (mm): 6.000000	
326.493990	2151.012455
326.888308	2151.012455
327.282561	2151.012455
327.676750	2121.549432
328.070874	2125.206789
328.464933	2131.982099
328.858929	2141.151958
329.252859	2150.536066
329.646726	2164.999137
330.040528	2178.156548
330.434265	2199.019363
330.827938	2217.089379
331.221547	2235.043449
331.615091	2254.247724
332.008571	2275.191198
332.401986	2297.649538
332.795338	2316.843732
333.188625	2335.773264
333.581847	2355.743795
333.975006	2376.830942
334.368100	2395.090001
334.761129	2411.844276
335.154095	2424.578230
335.546996	2445.367949
335.939833	2458.795062
336.332606	2473.989100
336.725315	2484.204998
337.117960	2488.739516
337.510540	2499.905672
337.903056	2508.132835
338.295508	2515.195491
338.687896	2519.959382
339.080220	2530.308871
339.472480	2534.561084
339.864676	2535.778523
340.256807	2541.737166
340.648875	2545.165151
341.040879	2545.570964
341.432818	2548.439380
341.824694	2547.761345
342.216506	2548.726726
342.608253	2552.157231
342.999937	2548.401572
343.391557	2546.667415
343.783113	2544.499719
344.174605	2544.167003
344.566033	2542.765562
344.957397	2541.112063
345.348697	2537.303472
345.739934	2537.767258
346.131106	2532.998326
346.522215	2534.578728
346.913260	2530.225692
347.304241	2529.530012
347.695159	2528.859539
348.086012	2529.517409
348.476802	2527.750485
348.867528	2525.587830
349.258191	2522.293436
349.648789	2522.530370
350.039324	2521.930473
350.429796	2521.307890
350.820203	2519.422499
351.210548	2520.518950
351.600828	2517.784124
351.991045	2517.025430
352.381198	2516.574247
352.771288	2515.596263
353.161314	2512.737929
353.551276	2519.538445
353.941175	2515.840759
354.331010	2516.314628
354.720782	2518.295801
355.110490	2518.779752
355.500135	2519.588857
355.889717	2517.012827
356.279235	2516.919566
356.668689	2516.521315
357.058080	2518.736902
357.447408	2516.312107
357.836672	2515.505522
358.225873	2515.886129
358.615010	2515.134997
359.004084	2522.001049
359.393095	2521.214629
359.782043	2522.779907
360.170927	2521.222191
360.559748	2523.286543
360.948505	2522.691687
361.337199	2523.571368
361.725830	2524.718231
362.114398	2525.295443
362.502903	2522.162366
362.891344	2525.988602
363.279722	2525.353416
363.668037	2522.800072
364.056289	2524.803931
364.444478	2525.635721
364.832603	2527.926925
365.220665	2528.347862
365.608665	2527.579086
365.996601	2528.312574
366.384474	2529.225022
366.772284	2526.845598
367.160031	2527.258972
367.547715	2530.732328
367.935336	2528.657893
368.322893	2527.773170
368.710388	2529.779549
369.097820	2533.920857
369.485189	2528.867101
369.872495	2528.768798
370.259738	2530.986906
370.646918	2532.521937
371.034035	2533.288192
371.421090	2531.974972
371.808081	2530.596216
372.195010	2534.170394
372.581875	2532.796680
372.968678	2534.062010
373.355418	2535.534027
373.742096	2535.312216
374.128710	2541.283463
374.515262	2536.086033
374.901751	2539.758513
375.288177	2539.957639
375.674540	2539.703061
376.060841	2543.791437
376.447079	2541.384286
376.833254	2545.081972
377.219367	2544.598021
377.605417	2546.080120
377.991404	2550.264278
378.377329	2548.935934
378.763191	2553.989691
379.148991	2557.594116
379.534727	2566.080898
379.920402	2565.049982
380.306013	2567.610888
380.691563	2569.672720
381.077049	2576.236303
381.462474	2581.451376
381.847835	2583.714854
382.233134	2584.826429
382.618371	2587.611666
383.003545	2595.198603
383.388657	2599.924685
383.773706	2601.512648
384.158693	2603.082967
384.543618	2606.568925
384.928480	2611.126128
385.313280	2615.431274
385.698017	2619.060905
386.082692	2627.149436
386.467305	2625.392594
386.851856	2629.922071
387.236344	2633.070271
387.620770	2635.333749
388.005133	2640.778195
388.389435	2643.772641
388.773674	2645.526962
389.157851	2646.507467
389.541965	2650.265647
389.926018	2646.139462
390.310008	2653.973416
390.693936	2656.829229
391.077802	2652.272026
391.461606	2656.693118
391.845348	2655.483241
392.229027	2654.522901
392.612645	2656.829229
392.996200	2657.005670
393.379694	2656.809065
393.763125	2659.211174
394.146494	2656.557007
394.529801	2659.256545
394.913047	2655.992398
395.296230	2651.452839
395.679351	2643.860861
396.062410	2647.619041
396.445408	2640.195942
396.828343	2638.822228
397.211217	2633.065230
397.594028	2624.835546
397.976778	2622.982922
398.359466	2620.374125
398.742092	2614.014710
399.124656	2615.537138
399.507158	2611.889863
399.889598	2605.235540
400.271977	2606.931888
400.654294	2603.561877
401.036549	2595.110383
401.418742	2594.122317
401.800874	2590.858169
402.182944	2588.604774
402.564952	2584.871799
402.946898	2583.603949
403.328783	2577.166396
403.710606	2578.482137
404.092367	2577.279822
404.474067	2577.047928
404.855705	2568.619119
405.237282	2569.236661
405.618797	2570.151630
406.000250	2565.397822
406.381642	2564.676937
406.762972	2564.855898
407.144240	2561.483366
407.525447	2562.857080
407.906593	2559.459343
408.287677	2561.513613
408.668700	2558.062943
409.049661	2557.629404
409.430560	2556.038920
409.811399	2557.513457
410.192176	2557.589075
410.572891	2555.549928
410.953545	2554.866852
411.334138	2553.656975
411.714669	2554.957592
412.095139	2556.754764
412.475547	2554.224104
412.855894	2556.497665
413.236180	2554.229146
413.616405	2555.701163
413.996568	2555.592778
414.376670	2554.055226
414.756711	2556.361554
415.136691	2554.400545
415.516609	2556.507747
415.896466	2550.627241
416.276262	2556.472459
416.655997	2550.743188
417.035670	2553.193188
417.415283	2552.976419
417.794834	2549.941644
418.174324	2553.793086
418.553753	2555.280226
418.933121	2556.550597
419.312428	2554.271995
419.691674	2555.794424
420.070859	2558.020093
420.449983	2554.118240
420.829045	2557.309291
421.208047	2558.388097
421.586988	2559.051009
421.965867	2557.972202
422.344686	2557.021945
422.723444	2558.700649
423.102141	2555.113868
423.480777	2558.191492
423.859352	2555.469269
424.237866	2560.187789
424.616319	2557.145453
424.994712	2557.062274
425.373044	2559.968499
425.751314	2557.994888
426.129524	2557.488252
426.507673	2560.528067
426.885762	2558.793910
427.263789	2559.560166
427.641756	2557.992367
428.019662	2560.891030
428.397508	2558.312480
428.775292	2561.095197
429.153016	2561.180897
429.530679	2559.222408
429.908282	2558.998077
430.285824	2560.918757
430.663305	2560.512944
431.040726	2558.151163
431.418086	2560.134857
431.795385	2561.248952
432.172624	2561.869014
432.549802	2559.436658
432.926920	2561.553942
433.303977	2561.248952
433.680974	2564.094684
434.057910	2563.217523
434.434786	2564.225754
434.811601	2563.209961
435.188355	2562.179045
435.565050	2562.544529
435.941683	2562.695763
436.318257	2559.706359
436.694770	2558.241904
437.071222	2560.187789
437.447614	2556.638817
437.823946	2558.231822
438.200218	2563.189797
438.576429	2563.300702
438.952580	2564.802966
439.328670	2562.705846
439.704700	2561.911864
440.080670	2565.740620
440.456580	2561.639642
440.832429	2564.981927
441.208218	2564.976886
441.583947	2564.692060
441.959616	2562.408418
442.335224	2565.009653
442.710773	2563.565363
443.086261	2565.803635
443.461689	2564.545867
443.837057	2562.476473
444.212365	2563.759447
444.587612	2564.901268
444.962800	2564.124931
445.337927	2564.739951
445.712995	2565.360013
446.088002	2562.605023
446.462949	2562.310115
446.837837	2566.201886
447.212664	2566.237174
447.587431	2566.078378
447.962139	2565.047462
448.336786	2566.960580
448.711374	2566.685837
449.085901	2568.125086
449.460369	2565.148285
449.834776	2564.830692
450.209124	2565.768347
450.583412	2568.223389
450.957640	2562.773901
451.331808	2565.097873
451.705917	2563.295661
452.079965	2566.103583
452.453954	2568.147771
452.827883	2565.854046
453.201752	2568.120045
453.575562	2565.894376
453.949311	2565.639797
454.323001	2564.916392
454.696632	2566.879921
455.070202	2570.529717
455.443713	2566.927812
455.817164	2563.041083
456.190556	2564.434962
456.563888	2562.839436
456.937160	2563.832544
457.310373	2569.085426
457.683526	2567.961249
458.056619	2569.576938
458.429653	2566.665672
458.802628	2569.501321
459.175542	2568.916547
459.548398	2567.620971
459.921194	2566.438820
460.293930	2571.409398
460.666607	2566.713563
461.039224	2571.142217
461.411782	2571.351425
461.784280	2568.291444
462.156719	2568.132648
462.529099	2573.854357
462.901419	2569.781105
463.273680	2567.242884
463.645882	2570.383523
464.018024	2569.599624
464.390106	2569.849161
464.762130	2572.117680
465.134094	2571.492577
465.505999	2572.150447
465.877845	2572.526013
466.249631	2573.072979
466.621358	2571.916034
466.993026	2575.013823
467.364634	2574.905438
467.736184	2570.562484
468.107674	2572.508369
468.479105	2570.517114
468.850477	2572.082392
469.221790	2572.057186
469.593043	2570.673389
469.964238	2570.338153
470.335373	2572.636919
470.706449	2571.369069
471.077467	2569.750858
471.448425	2572.246229
471.819324	2572.150447
472.190164	2575.681776
472.560945	2572.440314
472.931667	2571.033832
473.302330	2571.575756
473.672934	2572.543657
474.043479	2570.393605
474.413965	2571.641291
474.784393	2567.562997
475.154761	2568.031825
475.525070	2567.724314
475.895321	2569.181208
476.265513	2568.094839
476.635645	2569.206414
477.005719	2570.869994
477.375734	2573.022567
477.745691	2571.038873
478.115588	2574.723957
478.485427	2573.433421
478.855207	2571.784964
479.224928	2573.803946
479.594591	2573.047773
479.964194	2575.732187
480.333739	2574.071127
480.703226	2572.009295
481.072653	2573.113308
481.442022	2573.486353
481.811333	2573.425859
482.180584	2571.653894
482.549777	2574.280335
482.918912	2571.694223
483.287988	2574.862588
483.657005	2572.994841
484.025964	2573.413257
484.394864	2576.455593
484.763706	2574.824780
485.132489	2574.663463
485.501213	2574.348391
485.869879	2572.432752
486.238487	2572.689851
486.607036	2572.508369
486.975527	2571.744635
487.343959	2572.150447
487.712333	2575.074317
488.080648	2573.710685
488.448905	2575.132290
488.817104	2573.907290
489.185244	2575.598597
489.553326	2574.406364
489.921350	2576.508525
490.289315	2574.151786
490.657222	2574.872671
491.025070	2574.902917
491.392861	2578.391396
491.760593	2574.280335
492.128267	2574.471899
492.495883	2573.791343
492.863440	2575.379307
493.230939	2576.851323
493.598380	2573.110787
493.965763	2570.910324
494.333088	2570.854871
494.700354	2573.488874
495.067563	2571.651373
495.434713	2569.859243
495.801805	2573.761096
496.168839	2574.129100
496.535815	2574.187074
496.902733	2575.306210
497.269593	2573.183884
497.636395	2574.970973
498.003139	2576.982393
498.369825	2575.671693
498.736453	2574.499625
499.103023	2573.556929
499.469535	2573.362845
499.835989	2572.921744
500.202385	2577.035326
500.568723	2575.033988
500.935003	2571.749676
501.301226	2575.848134
501.667390	2575.308730
502.033497	2575.099522
502.399546	2574.010633
502.765537	2573.877043
503.131470	2572.949470
503.497345	2575.820408
503.863163	2576.594225
504.228923	2574.459296
504.594625	2572.200859
504.960269	2575.316292
505.325856	2576.238823
505.691385	2574.434090
506.056856	2572.946950
506.422270	2571.394274
506.787625	2573.269584
507.152924	2574.267732
507.518164	2575.137331
507.883347	2575.409553
508.248472	2574.784450
508.613540	2574.217321
508.978550	2574.832341
509.343503	2575.472568
509.708398	2575.124728
510.073236	2574.187074
510.438016	2577.040367
510.802738	2573.100705
511.167403	2574.766806
511.532010	2575.086920
511.896561	2576.327043
512.261053	2579.939030
512.625488	2574.376117
512.989866	2572.659604
513.354186	2574.270253
513.718449	2570.479305
514.082655	2572.899059
514.446803	2577.249575
514.810894	2578.414081
515.174927	2578.731674
515.538904	2574.645819
515.902822	2575.129769
516.266684	2575.003741
516.630488	2575.165057
516.994235	2576.390058
517.357925	2577.544482
517.721558	2576.291755
518.085133	2576.503484
518.448651	2577.148752
518.812112	2575.028946
519.175516	2575.414595
519.538863	2577.302507
519.902152	2575.666652
520.265385	2576.629513
520.628560	2572.919223
520.991678	2576.783268
521.354739	2576.611869
521.717743	2575.969122
522.080690	2578.068762
522.443580	2576.624472
522.806413	2578.731674
523.169189	2576.715212
523.531908	2575.079358
523.894569	2576.632033
524.257174	2576.989955
524.619722	2575.585994
524.982213	2575.923751
525.344647	2575.661611
525.707025	2575.931313
526.069345	2573.662794
526.431608	2575.341498
526.793815	2575.739749
527.155964	2576.972311
527.518057	2576.692527
527.880093	2577.231931
528.242072	2578.121694
528.603995	2578.265367
528.965860	2575.896025
529.327669	2575.457444
529.689421	2576.518607
530.051117	2575.838052
530.412755	2574.827300
530.774337	2574.234965
531.135862	2576.974832
531.497331	2572.629357
531.858743	2573.027608
532.220098	2573.062896
532.581396	2572.180694
532.942638	2572.972156
533.303824	2579.223186
533.664953	2578.900552
534.026025	2578.073803
534.387040	2577.932651
534.747999	2577.305027
535.108902	2575.386868
535.469748	2577.143710
535.830537	2578.928279
536.191270	2576.221179
536.551947	2576.569019
536.912567	2578.777044
537.273131	2575.714543
537.633638	2577.045408
537.994089	2577.272260
538.354483	2579.407188
538.714821	2575.243195
539.075103	2576.138000
539.435328	2577.476427
539.795497	2579.046746
540.155609	2576.967270
540.515665	2576.569019
540.875665	2577.027764
541.235609	2575.999368
541.595496	2577.032805
541.955328	2575.530541
542.315102	2577.163875
542.674821	2575.422156
543.034483	2580.712847
543.394090	2576.052301
543.753640	2580.702765
544.113134	2577.902404
544.472571	2577.158834
544.831953	2577.153793
545.191278	2577.816704
545.550548	2577.836869
545.909761	2573.395613
546.268918	2574.852506
546.628019	2577.988104
546.987064	2575.580953
547.346053	2576.327043
547.704986	2576.868967
548.063863	2574.832341
548.422684	2578.988773
548.781449	2577.156313
549.140158	2577.083217
549.498811	2579.886098
549.857408	2576.745459
550.215949	2574.925603
550.574434	2574.993658
550.932864	2571.845458
551.291237	2572.094995
551.649555	2578.230079
552.007817	2579.167734
552.366022	2580.428022
552.724173	2580.082703
553.082267	2574.023236
553.440305	2577.922569
553.798288	2578.522466
554.156215	2574.088771
554.514086	2578.187229
554.871902	2579.339133
555.229661	2577.579770
555.587365	2575.706982
555.945014	2577.615058
556.302606	2576.851323
556.660143	2578.162023
557.017625	2578.855182
557.375050	2576.705130
557.732421	2577.317630
558.089735	2578.877867
558.446994	2576.369893
558.804197	2578.998855
559.161345	2578.104050
559.518437	2576.841241
559.875474	2576.793350
560.232455	2578.751838
560.589381	2577.146231
560.946251	2580.266705
561.303065	2577.622620
561.659825	2578.053639
562.016528	2578.046077
562.373177	2576.652198
562.729770	2579.266036
563.086307	2576.425346
563.442789	2577.279822
563.799216	2579.185378
564.155587	2575.684296
564.511904	2577.269739
564.868164	2577.743608
565.224370	2579.578588
565.580520	2578.623289
565.936615	2578.829976
566.292654	2579.565985
566.648638	2576.546334
567.004567	2578.240161
567.360441	2575.094481
567.716260	2578.759400
568.072023	2577.574729
568.427732	2572.815880
568.783385	2573.493915
569.138982	2576.821077
569.494525	2574.633216
569.850013	2572.921744
570.205445	2576.581622
570.560823	2577.897363
570.916145	2577.539441
571.271412	2579.152610
571.626625	2580.652353
571.981782	2577.375603
572.336884	2578.318299
572.691931	2575.419636
573.046923	2580.755697
573.401860	2576.516087
573.756743	2577.867116
574.111570	2574.726477
574.466342	2577.486509
574.821059	2578.207394
575.175722	2578.595563
575.530330	2577.642785
575.884882	2578.202353
576.239380	2576.846282
576.593823	2580.276787
576.948211	2574.766806
577.302544	2576.974832
577.656823	2575.417115
578.011047	2581.002714
578.365216	2577.720923
578.719330	2579.200501
579.073389	2577.804102
579.427394	2577.075655
579.781344	2579.354256
580.135239	2579.666808
580.489080	2575.207907
580.842866	2576.596745
581.196597	2581.400965
581.550273	2578.340984
581.903895	2581.005234
582.257463	2577.705799
582.610975	2575.800243
582.964434	2579.933989
583.317837	2578.167065
583.671186	2577.592373
584.024481	2577.224369
584.377721	2578.824935
584.730906	2577.020202
585.084037	2579.102199
585.437113	2574.668504
585.790135	2577.239492
586.143103	2577.284863
586.496016	2577.418453
586.848874	2571.908472
587.201679	2574.885273
587.554428	2572.856209
587.907124	2573.859399
588.259765	2573.743452
588.612352	2577.521797
588.964884	2577.380645
589.317362	2579.460121
589.669786	2579.697055
590.022155	2578.454410
590.374470	2577.788978
590.726731	2579.611355
591.078937	2577.534400
591.431090	2578.497260
591.783188	2579.318968
592.135232	2577.615058
592.487222	2577.070614
592.839157	2577.998186
593.191038	2578.209914
593.542866	2577.993145
593.894639	2579.450038
594.246358	2575.608679
594.598022	2576.400140
594.949633	2579.704617
595.301190	2576.614389
595.652692	2577.410892
596.004141	2578.109091
596.355535	2577.610017
596.706876	2581.385841
597.058162	2580.813670
597.409395	2576.445511
597.760573	2578.020871
598.111698	2577.357959
598.462768	2577.199163
598.813785	2579.450038
599.164748	2579.782754
599.515657	2576.654718
599.866511	2575.853175
600.217312	2576.397620
600.568060	2576.115315
600.918753	2576.669842
601.269392	2578.681262
601.619978	2576.100192
601.970510	2575.076837
602.320988	2578.398958
602.671412	2575.366704
603.021783	2578.567836
603.372100	2579.505491
603.722363	2576.178329
604.072572	2579.762590
604.422728	2579.737384
604.772830	2573.456106
605.122878	2573.766137
605.472872	2574.761765
605.822813	2572.997361
606.172701	2574.272773
606.522534	2577.478947
606.872314	2577.894842
607.222041	2576.130438
607.571714	2578.441807
607.921333	2576.521128
608.270899	2574.018195
608.620411	2576.851323
608.969870	2574.350911
609.319276	2578.283011
609.668627	2579.659246
610.017926	2576.735377
610.367171	2577.337795
610.716362	2577.564647
611.065500	2578.920717
611.414585	2579.548341
611.763616	2577.093299
612.112594	2576.957188
612.461518	2578.903073
612.810389	2576.717733
613.159207	2578.071283
613.507971	2573.897207
613.856682	2578.623289
614.205340	2576.997517
614.553945	2578.754359
614.902496	2577.489029
615.250994	2575.878381
615.599439	2578.754359
615.947830	2578.111612
616.296169	2579.500450
616.644454	2579.092116
616.992686	2576.009451
617.340864	2576.538772
617.688990	2578.509863
618.037063	2580.372569
618.385082	2577.035326
618.733048	2578.658577
619.080961	2578.749318
619.428821	2576.359811
619.776628	2580.952302
620.124382	2578.277970
620.472083	2579.722261
620.819731	2579.729822
621.167326	2577.693196
621.514868	2577.809143
621.862357	2577.209245
622.209793	2577.952816
622.557176	2578.146900
622.904506	2576.679924
623.251783	2571.457289
623.599007	2573.632547
623.946179	2573.526682
624.293297	2572.329408
624.640363	2578.318299
624.987376	2577.504153
625.334336	2577.801581
625.681243	2577.055490
626.028097	2574.454255
626.374899	2577.554564
626.721647	2576.639595
627.068343	2580.238979
627.414987	2576.715212
627.761577	2577.862075
628.108115	2577.486509
628.454600	2578.804771
628.801032	2577.975501
629.147412	2575.633885
629.493739	2575.772517
629.840014	2574.953329
630.186236	2576.367373
630.532405	2577.113463
630.878521	2577.821746
631.224585	2578.613207
631.570597	2576.833679
631.916556	2576.831159
632.262462	2578.356108
632.608316	2572.289079
632.954117	2576.017012
633.299866	2576.188412
633.645562	2577.259657
633.991206	2575.293607
634.336797	2575.588514
634.682336	2573.289748
635.027823	2576.783268
635.373257	2574.585325
635.718639	2575.308730
636.063968	2578.588001
636.409245	2576.753021
636.754470	2574.368555
637.099642	2578.194791
637.444762	2578.900552
637.789829	2576.652198
638.134845	2577.884760
638.479808	2579.205542
638.824719	2575.180181
639.169577	2575.996848
639.514383	2574.348391
639.859137	2576.725295
640.203839	2574.923082
640.548489	2574.252609
640.893086	2574.784450
641.237632	2573.660273
641.582125	2573.385530
641.926566	2569.960066
642.270955	2578.532548
642.615292	2576.626992
642.959576	2577.642785
643.303809	2574.625654
643.647990	2573.831672
643.992118	2576.306879
644.336195	2576.808474
644.680219	2579.422312
645.024192	2578.141859
645.368112	2575.182702
645.711981	2574.797053
646.055797	2577.070614
646.399562	2576.921900
646.743274	2576.879050
647.086935	2578.436766
647.430544	2575.512897
647.774101	2579.008937
648.117606	2575.263360
648.461059	2576.039698
648.804460	2578.507342
649.147810	2576.684965
649.491108	2573.851837
649.834354	2576.233782
650.177548	2576.755542
650.520690	2575.888463
650.863781	2574.194635
651.206820	2580.801067
651.549807	2575.212948
651.892742	2576.236303
652.235626	2576.463155
652.578458	2576.952147
652.921238	2574.983576
653.263967	2576.274111
653.606644	2575.069276
653.949269	2574.073648
654.291843	2575.903587
654.634365	2572.677248
654.976836	2577.000037
655.319255	2575.865778
655.661622	2575.785119
656.003938	2574.741601
656.346203	2575.638926
656.688416	2578.666139
657.030577	2572.878894
657.372687	2574.769327
657.714746	2576.705130
658.056753	2575.545665
658.398708	2574.837382
658.740612	2570.229768
659.082465	2572.546178
659.424266	2573.216652
659.766016	2571.515262
660.107715	2575.827969
660.449362	2574.474419
660.790958	2574.550037
661.132503	2575.336457
661.473996	2577.196642
661.815438	2576.435428
662.156829	2573.511559
662.498168	2577.816704
662.839456	2578.467013
663.180693	2576.274111
663.521879	2576.921900
663.863013	2576.896694
664.204097	2577.060531
664.545129	2574.812177
664.886110	2576.470716
665.227040	2575.253278
665.567918	2577.078175
665.908746	2572.795715
666.249522	2574.887794
666.590248	2573.584656
666.930922	2575.538103
667.271545	2575.328895
667.612118	2576.125397
667.952639	2575.961560
668.293109	2577.647826
668.633528	2573.057855
668.973896	2577.178998
669.314213	2575.369224
669.654480	2576.921900
669.994695	2573.503997
670.334859	2576.266550
670.674973	2574.754203
671.015035	2577.983062
671.355047	2574.126580
671.695008	2577.400809
672.034918	2575.270922
672.374777	2577.534400
672.714585	2575.281004
673.054342	2572.745304
673.394049	2577.743608
673.733705	2575.124728
674.073310	2574.749162
674.412864	2578.832497
674.752368	2576.127918
675.091820	2575.969122
675.431223	2576.916858
675.770574	2575.228072
676.109875	2571.600962
676.449125	2571.525344
676.788324	2572.773030
677.127473	2573.355283
677.466571	2573.040211
677.805619	2575.863257
678.144616	2575.928792
678.483562	2574.867629
678.822458	2576.329564
679.161303	2575.585994
679.500098	2575.601117
679.838842	2573.171281
680.177535	2575.512897
680.516179	2576.160685
680.854771	2576.697568
681.193314	2575.903587
681.531805	2573.960222
681.870247	2577.274780
682.208638	2576.876529
682.546978	2576.952147
682.885268	2576.523648
683.223508	2575.205387
683.561697	2576.929461
683.899836	2576.314441
684.237925	2573.534244
684.575963	2576.901735
684.913951	2573.753534
685.251889	2575.429718
685.589776	2576.087589
685.927614	2575.885942
686.265401	2572.941909
686.603137	2574.381158
686.940824	2575.407033
687.278460	2574.660942
687.616046	2575.865778
687.953582	2576.085068
688.291068	2576.173288
688.628504	2575.119687
688.965889	2574.383679
689.303224	2575.260839
689.640510	2572.767989
689.977745	2572.503328
690.314930	2575.217990
690.652065	2572.962073
690.989150	2576.652198
691.326185	2576.223700
691.663170	2572.457958
692.000105	2575.341498
692.336990	2574.431570
692.673825	2578.267888
693.010610	2576.884091
693.347345	2569.032494
693.684030	2570.880077
694.020665	2571.888307
694.357251	2573.801425
694.693786	2572.309244
695.030272	2574.176991
695.366707	2575.800243
695.703093	2575.616241
696.039429	2573.735890
696.375716	2575.795202
696.711952	2575.369224
697.048139	2573.577094
697.384276	2574.527352
697.720363	2573.148596
698.056400	2576.672362
698.392388	2573.458627
698.728326	2574.398802
699.064214	2574.804615
699.400053	2574.386199
699.735842	2573.768658
700.071581	2572.891497
700.407270	2575.167578
700.742910	2575.308730
701.078501	2575.432239
701.414042	2573.156158
701.749533	2571.704305
702.084974	2572.256312
702.420366	2575.192784
702.755709	2575.376786
703.091002	2573.947619
703.426246	2572.079871
703.761440	2574.562640
704.096584	2575.989286
704.431679	2574.217321
704.766725	2573.224213
705.101721	2573.632547
705.436668	2572.309244
705.771565	2574.618092
706.106413	2572.228585
706.441212	2571.933678
706.775961	2572.702454
707.110661	2573.952660
707.445311	2572.447876
707.779913	2573.670355
708.114465	2576.954667
708.448967	2575.439800
708.783421	2575.207907
709.117825	2574.124059
709.452180	2573.277145
709.786485	2573.977866
710.120742	2572.609192
710.454949	2575.795202
710.789107	2569.428224
711.123216	2572.478123
711.457275	2572.354614
711.791286	2569.017370
712.125247	2571.666497
712.459159	2573.209090
712.793023	2575.442321
713.126837	2574.812177
713.460602	2572.558781
713.794318	2572.684810
714.127985	2574.587845
714.461602	2572.994841
714.795171	2573.534244
715.128691	2574.527352
715.462162	2574.267732
715.795584	2572.946950
716.128957	2572.294120
716.462281	2573.914851
716.795556	2574.623133
717.128782	2575.686817
717.461960	2576.117836
717.795088	2573.062896
718.128167	2572.210941
718.461198	2572.551219
718.794180	2572.720098
719.127113	2574.827300
719.459997	2571.669017
719.792833	2572.856209
720.125619	2574.333267
720.458357	2572.072310
720.791046	2573.347722
721.123686	2573.549368
721.456278	2576.364852
721.788821	2574.217321
722.121315	2572.604151
722.453761	2574.527352
722.786158	2573.279666
723.118506	2573.662794
723.450805	2573.146075
723.783056	2574.865109
724.115259	2572.906621
724.447412	2573.398133
724.779518	2575.706982
725.111574	2574.786971
725.443582	2572.094995
725.775542	2575.160016
726.107453	2571.795046
726.439315	2571.981569
726.771129	2575.545665
727.102895	2568.891342
727.434612	2576.523648
727.766281	2574.406364
728.097901	2568.535940
728.429473	2567.739438
728.760996	2569.438307
729.092471	2568.238512
729.423897	2574.408884
729.755276	2570.829665
730.086606	2574.149265
730.417887	2572.662125
730.749120	2573.614903
731.080305	2573.153637
731.411442	2573.801425
731.742530	2572.868812
732.073570	2571.810170
732.404562	2573.791343
732.735506	2571.122052
733.066401	2572.357135
733.397249	2572.649522
733.728048	2570.754048
734.058798	2574.716395
734.389501	2572.460478
734.720156	2570.610375
735.050762	2572.334450
735.381320	2571.777402
735.711831	2573.556929
736.042293	2572.997361
736.372707	2570.348235
736.703073	2574.824780
737.033391	2572.082392
737.363661	2573.526682
737.693883	2573.587176
738.024056	2576.364852
738.354182	2571.323698
738.684260	2574.517269
739.014290	2573.156158
739.344272	2574.797053
739.674207	2571.946281
740.004093	2574.751683
740.333931	2573.027608
740.663722	2571.963925
740.993464	2571.593400
741.323159	2575.021385
741.652806	2573.829152
741.982405	2572.624316
742.311956	2574.797053
742.641460	2572.251271
742.970915	2572.442834
743.300323	2573.556929
743.629683	2571.933678
743.958996	2570.476784
744.288260	2570.209603
744.617477	2572.619275
744.946647	2568.546022
745.275768	2568.354459
745.604842	2571.946281
745.933869	2568.051989
746.262847	2566.262380
746.591778	2573.529203
746.920662	2572.263873
747.249498	2573.894687
747.578286	2572.949470
747.907027	2572.745304
748.235720	2573.728329
748.564365	2571.802608
748.892963	2571.759758
749.221514	2572.760427
749.550017	2569.634912
749.878473	2571.028791
750.206881	2572.329408
750.535242	2574.229923
750.863555	2571.447207
751.191821	2572.773030
751.520039	2574.305541
751.848210	2573.246898
752.176334	2574.517269
752.504411	2573.216652
752.832440	2573.244378
753.160421	2571.588359
753.488356	2571.215313
753.816243	2574.784450
754.144082	2571.626167
754.471875	2575.868298
754.799620	2574.749162
755.127318	2571.691702
755.454969	2572.364697
755.782572	2570.617937
756.110129	2572.483164
756.437638	2570.207083
756.765100	2569.965107
757.092515	2571.714388
757.419882	2573.325036
757.747203	2573.067938
758.074477	2572.273956
758.401703	2573.786302
758.728882	2572.394943
759.056014	2571.850499
759.383099	2573.856878
759.710138	2573.146075
760.037129	2572.135324
760.364073	2569.294634
760.690970	2571.724470
761.017820	2570.633060
761.344623	2574.192115
761.671379	2570.670869
761.998088	2566.965621
762.324751	2566.955538
762.651366	2569.340004
762.977935	2573.188925
763.304456	2565.725497
763.630931	2572.198338
763.957359	2572.513411
764.283740	2572.982238
764.610074	2574.101374
764.936362	2574.368555
765.262602	2571.144737
765.588796	2570.229768
765.914943	2574.736559
766.241044	2568.120045
766.567097	2572.465520
766.893104	2570.650704
767.219064	2570.784295
767.544978	2574.441652
767.870845	2572.430232
768.196665	2573.030129
768.522438	2572.957032
768.848165	2572.858730
769.173846	2571.086764
769.499479	2572.528534
769.825066	2571.210272
770.150607	2571.842937
770.476101	2571.900910
770.801548	2571.371589
771.126949	2572.566343
771.452303	2572.609192
771.777611	2569.559294
772.102872	2571.709347
772.428087	2567.996537
772.753256	2572.218503
773.078378	2573.130952
773.403453	2573.816549
773.728482	2570.002916
774.053465	2572.735221
774.378401	2569.453430
774.703291	2570.449058
775.028135	2571.986610
775.352932	2572.110118
775.677683	2571.474933
776.002388	2572.057186
776.327046	2572.523493
776.651658	2572.687330
776.976224	2570.640622
777.300743	2571.260684
777.625216	2571.111970
777.949643	2571.023750
778.274024	2572.488205
778.598359	2570.310426
778.922647	2567.749520
779.246889	2565.826320
779.571086	2565.947308
779.895236	2570.128945
780.219339	2571.734552
780.543397	2572.578946
780.867409	2567.845302
781.191374	2569.942422
781.515294	2573.627506
781.839167	2569.216496
782.162995	2572.301682
782.486776	2571.411918
782.810511	2569.166084
783.134201	2570.917885
783.457844	2570.978379
783.781441	2570.552402
784.104993	2571.472412
784.428498	2572.352094
784.751958	2569.776064
785.075372	2572.198338
785.398739	2569.564336
785.722061	2568.820765
786.045337	2569.927299
786.368568	2572.291600
786.691752	2570.471743
787.014891	2569.531568
787.337983	2572.052145
787.661030	2570.194480
787.984031	2569.939902
788.306987	2572.382341
788.629897	2571.910993
788.952760	2570.348235
789.275579	2569.032494
789.598351	2572.614234
789.921078	2569.057700
790.243759	2569.740776
790.566395	2571.038873
790.888984	2569.012329
791.211529	2568.815724
791.534027	2571.626167
791.856480	2572.309244
792.178888	2571.210272
792.501249	2572.314285
792.823566	2569.317319
793.145836	2569.876887
793.468062	2572.586507
793.790241	2572.936867
794.112375	2571.278328
794.434464	2568.077195
794.756507	2570.459140
795.078505	2570.171795
795.400457	2569.095508
795.722364	2566.438820
796.044226	2569.708008
796.366042	2566.307750
796.687812	2567.941084
797.009538	2568.719942
797.331218	2573.965263
797.652852	2570.683472
797.974442	2572.702454
798.295986	2570.693554
798.617484	2566.917730
798.938938	2567.963769
799.260346	2571.593400
799.581709	2569.503842
799.903026	2571.474933
800.224299	2571.374110
800.545526	2572.203380
800.866708	2570.554922
801.187845	2570.393605
801.508936	2571.192628
801.829983	2569.826476
802.150984	2569.821434
802.471940	2569.571897
802.792851	2569.483677
803.113717	2572.158009
803.434538	2568.483008
803.755314	2572.994841
804.076045	2568.835889
804.396731	2568.155333
804.717372	2571.885787
805.037967	2568.074675
805.358518	2570.499470
805.679024	2573.045252
805.999485	2569.566856
806.319901	2572.079871
806.640272	2572.273956
806.960598	2571.590879
807.280879	2570.219686
807.601115	2568.984603
807.921306	2570.234809
808.241453	2570.829665
808.561554	2572.200859
808.881611	2573.093143
809.201623	2570.653225
809.521590	2570.930488
809.841513	2570.539799
810.161390	2570.562484
810.481223	2571.260684
810.801011	2568.596434
811.120755	2571.346383
811.440453	2569.597103
811.760107	2570.580128
812.079716	2569.914696
812.399281	2568.760272
812.718801	2566.733728
813.038276	2567.389078
813.357707	2571.389233
813.677093	2571.326219
813.996434	2571.842937
814.315731	2571.109449
814.634983	2572.629357
814.954191	2571.195149
815.273354	2570.600293
815.592473	2567.454613
815.911547	2571.558112
816.230577	2568.840930
816.549562	2568.104922
816.868502	2568.914027
817.187399	2570.035683
817.506250	2567.331104
817.825058	2568.747669
818.143821	2570.784295
818.462539	2569.299675
818.781213	2569.019891
819.099843	2571.784964
819.418429	2569.571897
819.736970	2569.813873
820.055466	2571.875705
820.373919	2570.990982
820.692327	2568.009140
821.010691	2571.742114
821.329011	2572.145406
821.647286	2574.287897
821.965517	2571.348904
822.283704	2573.650191
822.601847	2574.686148
822.919945	2574.597928
823.237999	2573.362845
823.556010	2572.687330
823.873976	2573.814028
824.191897	2573.660273
824.509775	2572.256312
824.827609	2573.498956
825.145398	2569.841599
825.463144	2572.281517
825.780845	2570.433935
826.098502	2574.076168
826.416116	2569.899572
826.733685	2569.201372
827.051210	2571.416960
827.368692	2571.243040
827.686129	2571.265725
828.003522	2569.347566
828.320872	2568.760272
828.638177	2567.200034
828.955439	2568.523337
829.272656	2564.135013
829.589830	2566.521999
829.906960	2569.352607
830.224046	2570.015519
830.541088	2568.803121
830.858086	2566.519479
831.175041	2571.190108
831.491952	2569.831517
831.808819	2568.677092
832.125642	2569.024932
832.442421	2569.435786
832.759157	2572.173133
833.075849	2568.578790
833.392497	2569.614747
833.709101	2570.411249
834.025662	2571.580797
834.342179	2567.704150
834.658653	2570.930488
834.975083	2567.789849
835.291469	2574.907959
835.607811	2571.832855
835.924110	2568.893862
836.240366	2570.088616
836.556578	2567.699109
836.872746	2570.713719
837.188871	2569.317319
837.504952	2572.553740
837.820990	2567.913358
838.136984	2567.499983
838.452935	2570.721280
838.768842	2568.059551
839.084706	2568.147771
839.400526	2569.685323
839.716303	2569.564336
840.032037	2570.834706
840.347727	2567.517627
840.663373	2569.886969
840.978977	2565.223902
841.294537	2568.553584
841.610054	2570.494428
841.925527	2570.680951
842.240957	2569.244222
842.556344	2567.182390
842.871687	2566.335477
843.186987	2571.638770
843.502244	2565.866649
843.817458	2570.469223
844.132629	2568.190621
844.447756	2568.059551
844.762840	2565.193655
845.077881	2568.379664
845.392879	2567.215158
845.707833	2566.713563
846.022745	2561.190979
846.337613	2567.507545
846.652438	2569.982751
846.967221	2571.422001
847.281960	2568.553584
847.596656	2568.805642
847.911309	2569.370251
848.225919	2569.614747
848.540485	2566.322874
848.855009	2569.599624
849.169490	2568.311609
849.483928	2566.133830
849.798323	2567.636094
850.112675	2568.659448
850.426984	2570.837227
850.741251	2569.345045
851.055474	2567.767164
851.369654	2569.022412
851.683792	2568.102401
851.997887	2570.365879
852.311938	2568.767833
852.625947	2568.465364
852.939914	2569.481157
853.253837	2568.578790
853.567718	2569.932340
853.881555	2568.268759
854.195350	2569.130796
854.509103	2568.036866
854.822812	2566.769016
855.136479	2568.349417
855.450103	2569.549212
855.763685	2568.803121
856.077224	2569.196331
856.390720	2568.258677
856.704173	2568.656928
857.017584	2567.031156
857.330953	2567.726835
857.644278	2566.648028
857.957561	2569.138358
858.270802	2568.654407
858.584000	2569.473595
858.897155	2566.700960
859.210268	2569.937381
859.523339	2568.397308
859.836367	2569.811352
860.149352	2568.914027
860.462295	2571.598441
860.775195	2563.010836
861.088054	2562.869683
861.400869	2563.855229
861.713642	2565.138202
862.026373	2565.362534
862.339062	2567.842782
862.651708	2570.305385
862.964312	2568.336815
863.276873	2569.733214
863.589392	2566.360682
863.901869	2569.554253
864.214303	2568.787998
864.526696	2569.191290
864.839045	2569.269428
865.151353	2568.296485
865.463619	2570.093657
865.775842	2568.883780
866.088023	2568.228430
866.400162	2566.776578
866.712258	2569.390416
867.024313	2567.908317
867.336325	2568.180539
867.648296	2567.086608
867.960224	2567.091650
868.272110	2570.151630
868.583954	2569.970148
868.895755	2566.998388
869.207515	2568.200703
869.519233	2570.287741
869.830909	2566.022925
870.142542	2570.212124
870.454134	2567.568039
870.765684	2566.015363
871.077191	2565.450754
871.388657	2569.166084
871.700081	2569.629871
872.011463	2567.936043
872.322803	2566.330435
872.634101	2567.820096
872.945357	2566.025446
873.256571	2567.550395
873.567744	2567.315981
873.878874	2565.738100
874.189963	2565.571742
874.501010	2568.896383
874.812015	2569.425704
875.122979	2567.353790
875.433900	2568.362020
875.744780	2567.280693
876.055618	2568.568708
876.366415	2567.757082
876.677169	2565.531413
876.987882	2565.226423
877.298554	2562.789025
877.609183	2564.376988
877.919771	2566.242215
878.230317	2567.429407
878.540822	2571.119532
878.851285	2568.452761
879.161707	2569.730694
879.472087	2567.429407
879.782425	2566.970662
880.092722	2568.377144
880.402977	2569.143399
880.713191	2568.130127
881.023363	2569.292113
881.333494	2571.409398
881.643583	2570.133986
881.953631	2568.757751
882.263637	2569.844120
882.573602	2570.386044
882.883526	2570.050807
883.193408	2573.589697
883.503248	2569.017370
883.813048	2567.918399
884.122806	2568.510734
884.432522	2570.222206
884.742197	2569.660117
885.051831	2568.546022
885.361424	2570.355797
885.670975	2569.644994
885.980485	2567.527709
886.289954	2569.405539
886.599382	2566.436300
886.908768	2569.125755
887.218113	2566.622822
887.527417	2568.412432
887.836680	2567.598286
888.145901	2568.893862
888.455082	2565.203738
888.764221	2565.927143
889.073319	2566.126269
889.382376	2567.242884
889.691392	2565.541495
890.000366	2565.186093
890.309300	2570.501990
890.618193	2570.454099
890.927044	2568.288924
891.235855	2567.323543
891.544625	2569.055179
891.853353	2567.036197
892.162041	2568.606516
892.470687	2568.845971
892.779293	2565.997719
893.087858	2565.208779
893.396381	2564.180383
893.704864	2564.021587
894.013306	2560.548232
894.321707	2569.208934
894.630068	2567.111814
894.938387	2568.949315
895.246665	2569.786146
895.554903	2567.411763
895.863100	2569.319840
896.171256	2568.324212
896.479371	2568.364541
896.787446	2566.020404
897.095480	2562.930177
897.403473	2569.750858
897.711425	2567.623491
898.019336	2568.475446
898.327207	2568.339335
898.635038	2566.731207
898.942827	2566.872359
899.250576	2568.031825
899.558284	2568.230950
899.865952	2569.531568
900.173579	2567.321022
900.481165	2565.362534
900.788711	2568.757751
901.096216	2570.527196
901.403681	2566.844633
901.711105	2566.821948
902.018489	2566.892524
902.325832	2571.424521
902.633135	2567.981413
902.940397	2568.115004
903.247619	2566.774057
903.554800	2567.820096
903.861941	2566.895045
904.169041	2569.914696
904.476101	2565.846485
904.783121	2567.182390
905.090100	2566.315312
905.397039	2568.714901
905.703938	2569.813873
906.010796	2570.716239
906.317614	2567.678944
906.624391	2566.539643
906.931129	2568.825807
907.237826	2566.839592
907.544483	2568.782957
907.851099	2568.760272
908.157675	2567.817576
908.464211	2566.128789
908.770707	2562.569735
909.077163	2566.358162
909.383578	2562.957903
909.689954	2562.587379
909.996289	2562.239539
910.302584	2565.523851
910.608839	2568.825807
910.915054	2566.557287
911.221229	2566.222051
911.527363	2566.078378
911.833458	2567.056362
912.139513	2565.352452
912.445527	2565.765826
912.751502	2565.382698
913.057436	2568.551064
913.363331	2566.433779
913.669186	2565.387740
913.975000	2569.095508
914.280775	2565.634756
914.586510	2564.132492
914.892205	2566.935374
915.197859	2566.640466
915.503475	2567.530230
915.809050	2567.754561
916.114585	2567.610888
916.420081	2566.922771
916.725536	2569.652556
917.030952	2569.002247
917.336328	2566.605178
917.641665	2571.666497
917.946961	2565.889334
918.252218	2565.181052
918.557435	2564.117369
918.862612	2569.352607
919.167750	2567.479818
919.472848	2566.935374
919.777906	2566.524520
920.082925	2567.396639
920.387904	2567.368913
920.692843	2566.925292
920.997743	2568.384706
921.302603	2568.256156
921.607423	2564.634087
921.912204	2564.538305
922.216946	2565.281875
922.521647	2566.322874
922.826310	2566.312791
923.130932	2567.285734
923.435516	2566.055693
923.740059	2567.520148
924.044564	2565.448233
924.349028	2568.510734
924.653454	2562.224416
924.957840	2562.960424
925.262186	2562.758778
925.566493	2562.645352
925.870761	2560.840619
926.174989	2564.011505
926.479178	2565.690209
926.783328	2566.963100
927.087438	2565.347410
927.391509	2563.711556
927.695541	2563.824982
927.999533	2568.856053
928.303486	2566.539643
928.607400	2568.019222
928.911275	2566.501835
929.215110	2566.774057
929.518906	2565.821279
929.822663	2567.079047
930.126381	2568.382185
930.430060	2565.244067
930.733699	2565.385219
931.037299	2567.857905
931.340861	2566.237174
931.644383	2566.539643
931.947866	2566.138872
932.251309	2564.467729
932.554714	2568.117524
932.858080	2567.663821
933.161407	2564.969324
933.464694	2565.163408
933.767943	2564.954200
934.071153	2565.123079
934.374323	2566.423697
934.677455	2564.984447
934.980548	2567.842782
935.283602	2566.617781
935.586617	2565.216340
935.889593	2566.983265
936.192530	2565.604509
936.495428	2564.729869
936.798287	2565.992678
937.101108	2566.348079
937.403890	2565.544015
937.706632	2564.540826
938.009336	2565.574262
938.312002	2568.911506
938.614628	2563.522513
938.917216	2564.979406
939.219765	2566.355641
939.522275	2566.973182
939.824747	2568.546022
940.127179	2561.561504
940.429573	2562.794066
940.731929	2563.192317
941.034246	2564.334138
941.336524	2560.099569
941.638763	2565.849005
941.940964	2567.663821
942.243126	2567.449572
942.545250	2565.818758
942.847335	2568.140210
943.149381	2563.031000
943.451389	2566.857236
943.753359	2568.072154
944.055290	2567.699109
944.357182	2567.968810
944.659036	2566.368244
944.960851	2566.637946
945.262628	2565.831361
945.564367	2566.668193
945.866067	2566.869839
946.167729	2566.090981
946.469352	2565.667524
946.770937	2568.392267
947.072484	2561.576627
947.373992	2566.567370
947.675462	2565.009653
947.976893	2563.610733
948.278286	2566.980744
948.579641	2564.871021
948.880958	2564.969324
949.182236	2566.098542
949.483476	2566.090981
949.784678	2565.637277
950.085841	2565.695250
950.386967	2565.274314
950.688054	2565.014694
950.989103	2565.440672
951.290114	2565.286917
951.591087	2566.363203
951.892021	2564.656772
952.192917	2567.179870
952.493776	2567.116855
952.794596	2566.025446
953.095378	2563.328428
953.396122	2566.446382
953.696828	2566.544684
953.997496	2565.072667
954.298126	2565.291958
954.598718	2567.179870
954.899272	2564.016546
955.199788	2566.786660
955.500266	2564.634087
955.800706	2563.376319
956.101108	2562.358006
956.401472	2565.591906
956.701798	2561.677450
957.002087	2560.669220
957.302337	2565.062585
957.602550	2567.210117
957.902724	2564.145095
958.202861	2568.092319
958.502960	2563.378840
958.803022	2566.121228
959.103045	2563.852708
959.403031	2564.896227
959.702979	2564.450085
960.002889	2566.315312
960.302762	2565.478480
960.602596	2566.567370
960.902393	2565.533933
961.202153	2565.296999
961.501875	2564.538305
961.801559	2565.501166
962.101205	2565.483522
962.400814	2563.245249
962.700385	2565.566701
962.999918	2563.754406
963.299414	2566.360682
963.598873	2570.156671
963.898293	2564.717266
964.197677	2568.031825
964.497022	2564.361865
964.796331	2565.024777
965.095601	2564.450085
965.394835	2569.672720
965.694030	2564.732390
965.993189	2565.685168
966.292309	2565.259190
966.591393	2563.983778
966.890439	2563.298181
967.189447	2566.335477
967.488419	2565.952349
967.787353	2564.455126
968.086249	2563.207441
968.385108	2565.571742
968.683930	2566.078378
968.982714	2564.997050
969.281462	2563.482183
969.580172	2565.801114
969.878844	2567.575600
970.177480	2564.286247
970.476078	2565.644838
970.774639	2562.305074
971.073162	2563.847667
971.371649	2562.040413
971.670098	2561.831206
971.968510	2560.646534
972.266885	2560.931360
972.565223	2565.125600
972.863524	2566.106104
973.161788	2564.608881
973.460014	2564.331618
973.758204	2564.871021
974.056356	2564.528223
974.354471	2565.541495
974.652550	2564.689540
974.950591	2564.039231
975.248595	2562.882286
975.546563	2565.397822
975.844493	2564.709704
976.142386	2562.665517
976.440243	2565.516289
976.738062	2565.017215
977.035845	2562.141237
977.333590	2565.133161
977.631299	2563.986299
977.928971	2565.014694
978.226606	2564.364385
978.524204	2562.988150
978.821765	2564.344221
979.119290	2565.944787
979.416777	2566.849674
979.714228	2567.673903
980.011642	2564.729869
980.309020	2565.463357
980.606360	2566.078378
980.903664	2565.382698
981.200931	2565.377657
981.498162	2566.143913
981.795356	2564.412276
982.092513	2564.508058
982.389633	2565.095353
982.686717	2564.651731
982.983764	2564.750034
983.280775	2563.824982
983.577749	2564.485373
983.874686	2565.513768
984.171587	2566.085939
984.468451	2564.868501
984.765279	2567.411763
985.062070	2566.058213
985.358824	2564.717266
985.655543	2564.508058
985.952224	2564.621484
986.248869	2565.128120
986.545478	2561.279199
986.842050	2561.702656
987.138586	2561.039744
987.435086	2560.959086
987.731549	2561.062430
988.027975	2566.169118
988.324366	2565.591906
988.620719	2563.651062
988.917037	2562.292471
989.213318	2564.714746
989.509563	2565.725497
989.805772	2565.851526
990.101944	2564.379509
990.398080	2563.242729
990.694180	2565.223902
990.990244	2562.398335
991.286271	2564.543346
991.582262	2568.591393
991.878217	2565.029818
992.174136	2562.836916
992.470019	2563.613253
992.765865	2567.346228
993.061676	2564.230795
993.357450	2566.234653
993.653188	2565.972513
993.948890	2566.423697
994.244556	2564.278686
994.540186	2563.252811
994.835780	2562.680640
995.131337	2564.487894
995.426859	2563.976217
995.722345	2562.599982
996.017795	2562.174004
996.313208	2566.370765
996.608586	2564.099725
996.903928	2566.353121
997.199234	2562.587379
997.494504	2563.658624
997.789738	2566.280024
998.084936	2564.818089
998.380099	2565.291958
998.675225	2563.565362
998.970316	2563.767009
999.265371	2565.506207
999.560390	2563.963614
999.855373	2563.194838
1000.150320	2562.773901
1000.445232	2563.482183
1000.740108	2562.640311
1001.034948	2566.464026
1001.329752	2564.926474
1001.624521	2565.854046
1001.919254	2560.969168
1002.213951	2560.976730
1002.508613	2558.854404
1002.803239	2562.085784
1003.097829	2559.592933
1003.392384	2565.266752
1003.686903	2563.787173
1003.981386	2563.469581
1004.275834	2561.221226
1004.570246	2563.046124
1004.864623	2563.003274
1005.158964	2562.053016
1005.453270	2561.705177
1005.747540	2565.178532
1006.041775	2564.293809
1006.335974	2565.037379
1006.630138	2565.357493
1006.924266	2567.689026
1007.218359	2564.687019
1007.512416	2563.971175
1007.806438	2561.619477
1008.100425	2562.385733
1008.394376	2563.824982
1008.688292	2563.545198
1008.982172	2563.983778
1009.276017	2565.586865
1009.569827	2561.251473
1009.863602	2562.872204
1010.157341	2562.854560
1010.451045	2562.660475
1010.744714	2562.758778
1011.038347	2562.211813
1011.331945	2563.066288
1011.625508	2564.399673
1011.919036	2562.100907
1012.212528	2562.017728
1012.505986	2562.547049
1012.799408	2563.467060
1013.092795	2565.057544
1013.386147	2562.310115
1013.679464	2564.150136
1013.972745	2563.547718
1014.265992	2561.324570
1014.559204	2566.751372
1014.852380	2563.366237
1015.145521	2565.246587
1015.438628	2563.638459
1015.731699	2563.313305
1016.024736	2562.484035
1016.317737	2565.843964
1016.610703	2565.312122
1016.903635	2560.177707
1017.196531	2560.097049
1017.489393	2561.937070
1017.782219	2561.906823
1018.075011	2561.901782
1018.367768	2563.467060
1018.660490	2563.971175
1018.953177	2563.971175
1019.245829	2563.971175
