Dividing Wavelength (nm)	Counts (n)	Blue Motor Position (mm): 0.000000	Red Motor Position (mm): 15.500000	
326.493990	2146.230921
326.888308	2146.230921
327.282561	2146.230921
327.676750	2124.193517
328.070874	2125.652931
328.464933	2126.499845
328.858929	2135.465537
329.252859	2147.433236
329.646726	2162.445792
330.040528	2177.748215
330.434265	2197.401153
330.827938	2218.269009
331.221547	2235.356000
331.615091	2254.381315
332.008571	2275.387803
332.401986	2297.198355
332.795338	2315.505305
333.188625	2333.789570
333.581847	2353.883609
333.975006	2374.958153
334.368100	2392.859290
334.761129	2410.021899
335.154095	2428.598551
335.546996	2444.009358
335.939833	2455.740123
336.332606	2470.949284
336.725315	2483.605101
337.117960	2487.857314
337.510540	2498.350476
337.903056	2505.829028
338.295508	2514.973681
338.687896	2521.814526
339.080220	2529.383819
339.472480	2532.441279
339.864676	2537.679037
340.256807	2541.129707
340.648875	2540.890252
341.040879	2542.619368
341.432818	2546.438042
341.824694	2547.809236
342.216506	2546.203629
342.608253	2547.060625
342.999937	2547.589946
343.391557	2544.900490
343.783113	2542.800850
344.174605	2540.618030
344.566033	2540.459234
344.957397	2537.111908
345.348697	2538.510828
345.739934	2533.668800
346.131106	2532.395908
346.522215	2532.925229
346.913260	2531.909437
347.304241	2527.838705
347.695159	2526.512882
348.086012	2527.155629
348.476802	2523.268899
348.867528	2524.327542
349.258191	2521.338137
349.648789	2521.383508
350.039324	2519.377128
350.429796	2519.566172
350.820203	2519.125071
351.210548	2517.191788
351.600828	2517.811850
351.991045	2516.259175
352.381198	2517.859741
352.771288	2514.129287
353.161314	2514.557785
353.551276	2513.849503
353.941175	2515.681963
354.331010	2518.081552
354.720782	2513.794051
355.110490	2518.247910
355.500135	2518.086593
355.889717	2518.363857
356.279235	2514.860255
356.668689	2516.750687
357.058080	2516.682632
357.447408	2514.565347
357.836672	2515.767662
358.225873	2515.984432
358.615010	2514.925790
359.004084	2519.409896
359.393095	2518.948630
359.782043	2519.838394
360.170927	2519.346882
360.559748	2522.661440
360.948505	2520.760925
361.337199	2522.207736
361.725830	2519.641789
362.114398	2524.446009
362.502903	2520.581964
362.891344	2521.595236
363.279722	2523.273940
363.668037	2525.265196
364.056289	2527.982378
364.444478	2523.084897
364.832603	2525.895340
365.220665	2526.717048
365.608665	2525.902902
365.996601	2525.993643
366.384474	2525.577748
366.772284	2528.741072
367.160031	2527.914322
367.547715	2530.616381
367.935336	2531.007070
368.322893	2528.781401
368.710388	2528.201668
369.097820	2532.537061
369.485189	2528.385670
369.872495	2531.115455
370.259738	2530.790301
370.646918	2531.133099
371.034035	2529.174611
371.421090	2532.264838
371.808081	2532.834489
372.195010	2531.415404
372.581875	2532.579910
372.968678	2533.242822
373.355418	2535.246681
373.742096	2534.167874
374.128710	2537.449665
374.515262	2537.023687
374.901751	2540.353370
375.288177	2540.534851
375.674540	2540.691127
376.060841	2542.846220
376.447079	2542.654656
376.833254	2547.537014
377.219367	2543.473844
377.605417	2548.915769
377.991404	2551.159083
378.377329	2554.231666
378.763191	2553.437684
379.148991	2562.831875
379.534727	2565.065106
379.920402	2567.321022
380.306013	2569.776064
380.691563	2576.647157
381.077049	2578.683783
381.462474	2583.545976
381.847835	2588.057808
382.233134	2595.554004
382.618371	2598.666917
383.003545	2605.658997
383.388657	2613.092178
383.773706	2617.291460
384.158693	2625.032151
384.543618	2633.188738
384.928480	2636.873822
385.313280	2645.567292
385.698017	2654.149856
386.082692	2661.431803
386.467305	2667.050169
386.851856	2675.093330
387.236344	2687.091276
387.620770	2690.788962
388.005133	2700.561239
388.389435	2712.680173
388.773674	2720.975391
389.157851	2728.214488
389.541965	2737.275962
389.926018	2740.323340
390.310008	2756.172727
390.693936	2765.755961
391.077802	2773.287445
391.461606	2783.258847
391.845348	2793.177317
392.229027	2801.250725
392.612645	2814.516522
392.996200	2822.700835
393.379694	2834.991168
393.763125	2852.433560
394.146494	2860.895137
394.529801	2872.351159
394.913047	2889.975033
395.296230	2890.877399
395.679351	2895.129613
396.062410	2916.115936
396.445408	2911.946902
396.828343	2918.873447
397.211217	2929.379212
397.594028	2921.038623
397.976778	2938.362548
398.359466	2950.728498
398.742092	2948.959053
399.124656	2963.086887
399.507158	2975.384782
399.889598	2981.635813
400.271977	2997.598626
400.654294	3003.181704
401.036549	3013.846265
401.418742	3018.050588
401.800874	3040.637477
402.182944	3047.117881
402.564952	3077.460586
402.946898	3065.324008
403.328783	3077.074937
403.710606	3088.273861
404.092367	3112.461317
404.474067	3137.924185
404.855705	3123.980353
405.237282	3125.061681
405.618797	3153.050167
406.000250	3175.037159
406.381642	3202.483722
406.762972	3205.120245
407.144240	3195.181610
407.525447	3211.671224
407.906593	3208.583518
408.287677	3225.753688
408.668700	3241.608117
409.049661	3231.329204
409.430560	3246.228334
409.811399	3246.603900
410.192176	3258.793410
410.572891	3258.001949
410.953545	3287.976650
411.334138	3253.827873
411.714669	3293.418575
412.095139	3237.187025
412.475547	3278.063221
412.855894	3261.054367
413.236180	3280.132614
413.616405	3251.582039
413.996568	3264.956221
414.376670	3258.193513
414.756711	3244.209352
415.136691	3253.469952
415.516609	3260.240221
415.896466	3257.223091
416.276262	3263.849687
416.655997	3272.689351
417.035670	3265.157867
417.415283	3303.306798
417.794834	3303.929381
418.174324	3279.769651
418.553753	3263.138885
418.933121	3278.789147
419.312428	3260.129316
419.691674	3237.217272
420.070859	3246.127511
420.449983	3219.008624
420.829045	3231.745099
421.208047	3208.074361
421.586988	3214.204404
421.965867	3213.115515
422.344686	3199.736293
422.723444	3202.710573
423.102141	3133.649286
423.480777	3167.470387
423.859352	3132.709111
424.237866	3160.664830
424.616319	3132.769605
424.994712	3140.878301
425.373044	3116.360649
425.751314	3119.229066
426.129524	3071.660738
426.507673	3091.041454
426.885762	3060.514747
427.263789	3050.664332
427.641756	3029.511651
428.019662	3022.080990
428.397508	3003.595079
428.775292	2993.749705
429.153016	2975.271356
429.530679	2956.699745
429.908282	2941.553598
430.285824	2919.758170
430.663305	2918.318920
431.040726	2887.376318
431.418086	2871.897455
431.795385	2869.109697
432.172624	2857.517564
432.549802	2835.830520
432.926920	2822.216884
433.303977	2809.341777
433.680974	2800.781898
434.057910	2791.009621
434.434786	2774.164606
434.811601	2762.237236
435.188355	2759.073912
435.565050	2743.774010
435.941683	2732.660786
436.318257	2725.530074
436.694770	2715.256202
437.071222	2707.452496
437.447614	2692.588654
437.823946	2683.106244
438.200218	2675.773885
438.576429	2670.415139
438.952580	2663.113027
439.328670	2654.666574
439.704700	2648.203815
440.080670	2640.700057
440.456580	2636.483132
440.832429	2633.713018
441.208218	2623.960906
441.583947	2620.590895
441.959616	2616.951182
442.335224	2612.953547
442.710773	2609.205449
443.086261	2606.891559
443.461689	2602.848554
443.837057	2599.735641
444.212365	2598.664396
444.587612	2594.954107
444.962800	2592.615012
445.337927	2590.767429
445.712995	2586.235431
446.088002	2586.855493
446.462949	2588.808940
446.837837	2588.508992
447.212664	2583.062025
447.587431	2587.150401
447.962139	2587.094948
448.336786	2591.213571
448.711374	2588.002356
449.085901	2586.013621
449.460369	2581.179154
449.834776	2583.094793
450.209124	2583.062025
450.583412	2579.888619
450.957640	2581.567323
451.331808	2578.845100
451.705917	2579.787796
452.079965	2580.594380
452.453954	2575.807805
452.827883	2579.145048
453.201752	2579.071952
453.575562	2580.261664
453.949311	2579.278639
454.323001	2580.634709
454.696632	2578.925758
455.070202	2578.620768
455.443713	2581.804257
455.817164	2577.189081
456.190556	2578.386355
456.563888	2575.953998
456.937160	2574.426528
457.310373	2579.495409
457.683526	2578.714030
458.056619	2581.451376
458.429653	2579.888619
458.802628	2576.523648
459.175542	2579.427353
459.548398	2581.043043
459.921194	2578.701427
460.293930	2579.855851
460.666607	2580.312076
461.039224	2582.600759
461.411782	2581.272415
461.784280	2581.597570
462.156719	2584.607139
462.529099	2586.469845
462.901419	2580.067580
463.273680	2583.861048
463.645882	2582.149576
464.018024	2581.219483
464.390106	2582.988928
464.762130	2586.638724
465.134094	2586.963878
465.505999	2586.923549
465.877845	2592.496544
466.249631	2591.987388
466.621358	2589.862542
466.993026	2594.215578
467.364634	2592.143664
467.736184	2590.502768
468.107674	2588.395566
468.479105	2589.257603
468.850477	2589.580237
469.221790	2586.396748
469.593043	2586.313569
469.964238	2584.705441
470.335373	2584.186202
470.706449	2587.518405
471.077467	2589.492017
471.448425	2590.906060
471.819324	2592.917481
472.190164	2593.741709
472.560945	2590.694332
472.931667	2590.293560
473.302330	2588.927407
473.672934	2589.325659
474.043479	2584.503795
474.413965	2588.282140
474.784393	2584.211408
475.154761	2587.251224
475.525070	2584.181161
475.895321	2583.339288
476.265513	2581.950451
476.635645	2588.120823
477.005719	2588.536718
477.375734	2589.880186
477.745691	2589.282809
478.115588	2592.488983
478.485427	2589.552511
478.855207	2593.366143
479.224928	2594.981833
479.594591	2595.952255
479.964194	2596.325301
480.333739	2598.049375
480.703226	2593.845053
481.072653	2598.823192
481.442022	2596.315218
481.811333	2598.026690
482.180584	2594.644076
482.549777	2596.824375
482.918912	2596.448809
483.287988	2598.356886
483.657005	2595.183479
484.025964	2593.290526
484.394864	2596.907554
484.763706	2596.106011
485.132489	2589.645772
485.501213	2596.486618
485.869879	2593.272882
486.238487	2593.587954
486.607036	2593.033427
486.975527	2594.142481
487.343959	2595.496031
487.712333	2592.562079
488.080648	2590.835484
488.448905	2593.096442
488.817104	2591.758015
489.185244	2594.124837
489.553326	2595.347317
489.921350	2594.437389
490.289315	2598.568614
490.657222	2594.787749
491.025070	2598.487956
491.392861	2596.998295
491.760593	2598.329159
492.128267	2598.500559
492.495883	2595.879159
492.863440	2595.755650
493.230939	2593.572831
493.598380	2594.361771
493.965763	2587.331882
494.333088	2589.111410
494.700354	2590.860690
495.067563	2588.912284
495.434713	2587.677201
495.801805	2592.178952
496.168839	2592.352872
496.535815	2591.657192
496.902733	2591.311873
497.269593	2591.674836
497.636395	2590.354054
498.003139	2591.982347
498.369825	2591.200968
498.736453	2590.462439
499.103023	2592.925042
499.469535	2590.742223
499.835989	2591.397573
500.202385	2591.896647
500.568723	2587.619228
500.935003	2589.391194
501.301226	2589.512181
501.667390	2593.517378
502.033497	2593.608119
502.399546	2593.592995
502.765537	2589.890268
503.131470	2591.523602
503.497345	2589.668457
503.863163	2589.013107
504.228923	2589.728951
504.594625	2591.009404
504.960269	2590.311204
505.325856	2592.194075
505.691385	2589.456729
506.056856	2591.737851
506.422270	2592.362954
506.787625	2589.401276
507.152924	2593.915629
507.518164	2595.312029
507.883347	2588.503951
508.248472	2592.403283
508.613540	2591.518561
508.978550	2588.698035
509.343503	2590.351533
509.708398	2592.514188
510.073236	2589.436564
510.438016	2592.441092
510.802738	2589.179465
511.167403	2591.846236
511.532010	2591.105186
511.896561	2592.378077
512.261053	2592.584765
512.625488	2586.328693
512.989866	2589.386152
513.354186	2587.165524
513.718449	2588.471183
514.082655	2585.693507
514.446803	2589.048395
514.810894	2591.672316
515.174927	2590.144846
515.538904	2588.934969
515.902822	2591.319435
516.266684	2589.852459
516.630488	2591.478231
516.994235	2590.480083
517.357925	2593.421596
517.721558	2593.771956
518.085133	2591.755495
518.448651	2592.022676
518.812112	2589.003025
519.175516	2590.033941
519.538863	2591.158118
519.902152	2592.118458
520.265385	2589.280288
520.628560	2593.761874
520.991678	2591.891606
521.354739	2589.756677
521.717743	2593.144333
522.080690	2592.657861
522.443580	2590.732141
522.806413	2589.555031
523.169189	2587.820874
523.531908	2590.217943
523.894569	2592.196596
524.257174	2591.233735
524.619722	2589.113930
524.982213	2594.230701
525.344647	2589.524784
525.707025	2589.161821
526.069345	2590.830443
526.431608	2589.250041
526.793815	2591.445464
527.155964	2592.158787
527.518057	2590.596029
527.880093	2590.855649
528.242072	2591.695001
528.603995	2590.827922
528.965860	2591.591657
529.327669	2590.727099
529.689421	2589.118971
530.051117	2588.955134
530.412755	2589.547469
530.774337	2591.410176
531.135862	2591.745412
531.497331	2585.612849
531.858743	2587.926738
532.220098	2589.071080
532.581396	2585.829618
532.942638	2586.820205
533.303824	2588.022520
533.664953	2591.069898
534.026025	2590.197778
534.387040	2589.935638
534.747999	2589.817171
535.108902	2590.318766
535.469748	2590.734661
535.830537	2590.291040
536.191270	2592.962851
536.551947	2587.553693
536.912567	2590.689291
537.273131	2590.301122
537.633638	2588.582088
537.994089	2588.148549
538.354483	2592.761205
538.714821	2589.451687
539.075103	2588.806420
539.435328	2587.727613
539.795497	2588.541759
540.155609	2589.824733
540.515665	2591.299270
540.875665	2588.453539
541.235609	2589.393714
541.595496	2591.175762
541.955328	2592.735999
542.315102	2586.734506
542.674821	2590.318766
543.034483	2589.131574
543.394090	2593.010742
543.753640	2592.241966
544.113134	2589.340782
544.472571	2589.025710
544.831953	2589.686101
545.191278	2589.560072
545.550548	2590.412027
545.909761	2587.357088
546.268918	2590.205340
546.628019	2590.233066
546.987064	2589.915474
547.346053	2591.100145
547.704986	2587.445308
548.063863	2588.410689
548.422684	2586.951275
548.781449	2589.189547
549.140158	2589.849939
549.498811	2587.778024
549.857408	2588.115782
550.215949	2586.346337
550.574434	2585.088569
550.932864	2585.723754
551.291237	2585.718713
551.649555	2589.512181
552.007817	2589.799527
552.366022	2587.077304
552.724173	2585.688466
553.082267	2588.236769
553.440305	2590.316245
553.798288	2590.623756
554.156215	2589.696183
554.514086	2588.609815
554.871902	2590.545618
555.229661	2590.696852
555.587365	2590.729620
555.945014	2589.486976
556.302606	2591.793303
556.660143	2588.561924
557.017625	2587.868765
557.375050	2586.091758
557.732421	2588.945052
558.089735	2590.901019
558.446994	2590.127202
558.804197	2588.761049
559.161345	2589.411358
559.518437	2589.708786
559.875474	2592.446133
560.232455	2591.306832
560.589381	2590.006214
560.946251	2591.904209
561.303065	2589.930597
561.659825	2588.960175
562.016528	2588.861872
562.373177	2587.122674
562.729770	2588.851790
563.086307	2593.232553
563.442789	2588.710638
563.799216	2590.507809
564.155587	2586.200143
564.511904	2588.435895
564.868164	2588.456060
565.224370	2591.274065
565.580520	2590.598550
565.936615	2589.335741
566.292654	2590.298601
566.648638	2587.848601
567.004567	2590.207861
567.360441	2590.659044
567.716260	2589.166862
568.072023	2588.420772
568.427732	2586.006059
568.783385	2587.999835
569.138982	2586.182499
569.494525	2586.643765
569.850013	2586.588312
570.205445	2589.494537
570.560823	2587.954465
570.916145	2588.355237
571.271412	2591.087542
571.626625	2588.025041
571.981782	2589.958323
572.336884	2590.500247
572.691931	2587.089907
573.046923	2589.683581
573.401860	2587.467993
573.756743	2587.989753
574.111570	2590.278437
574.466342	2591.321956
574.821059	2589.388673
575.175722	2588.902202
575.530330	2589.391194
575.884882	2589.708786
576.239380	2588.229208
576.593823	2591.206009
576.948211	2590.689291
577.302544	2591.624425
577.656823	2585.627972
578.011047	2590.190217
578.365216	2589.756677
578.719330	2587.147880
579.073389	2588.299784
579.427394	2585.985894
579.781344	2586.036306
580.135239	2586.825246
580.489080	2587.682243
580.842866	2587.747777
581.196597	2588.897161
581.550273	2588.589650
581.903895	2588.834146
582.257463	2590.313725
582.610975	2588.186358
582.964434	2589.797007
583.317837	2589.469332
583.671186	2588.932449
584.024481	2588.030082
584.377721	2589.277768
584.730906	2589.512181
585.084037	2588.761049
585.437113	2585.791810
585.790135	2589.413879
586.143103	2586.764752
586.496016	2586.618559
586.848874	2583.737540
587.201679	2587.241142
587.554428	2584.904567
587.907124	2584.758373
588.259765	2583.760225
588.612352	2587.268868
588.964884	2589.454208
589.317362	2591.586616
589.669786	2586.648806
590.022155	2588.032603
590.374470	2586.016141
590.726731	2590.346492
591.078937	2586.623600
591.431090	2585.244845
591.783188	2588.932449
592.135232	2588.894640
592.487222	2588.395566
592.839157	2588.269537
593.191038	2586.003538
593.542866	2586.991604
593.894639	2588.622418
594.246358	2588.143508
594.598022	2585.880030
594.949633	2587.899012
595.301190	2586.999166
595.652692	2584.980184
596.004141	2586.164855
596.355535	2585.925400
596.706876	2587.626790
597.058162	2585.862386
597.409395	2583.460276
597.760573	2586.812643
598.111698	2585.617890
598.462768	2587.772983
598.813785	2586.658888
599.164748	2587.241142
599.515657	2587.899012
599.866511	2584.778538
600.217312	2585.128898
600.568060	2584.334916
600.918753	2586.769794
601.269392	2586.512695
601.619978	2585.002869
601.970510	2585.726275
602.320988	2586.996646
602.671412	2588.922366
603.021783	2586.681573
603.372100	2586.457242
603.722363	2584.508836
604.072572	2583.959350
604.422728	2587.180648
604.772830	2581.988259
605.122878	2583.838363
605.472872	2579.777713
605.822813	2581.400965
606.172701	2582.071438
606.522534	2586.396748
606.872314	2585.718713
607.222041	2587.352047
607.571714	2587.220977
607.921333	2584.902046
608.270899	2584.120667
608.620411	2585.491861
608.969870	2584.531521
609.319276	2585.978332
609.668627	2588.022520
610.017926	2586.288363
610.367171	2586.406831
610.716362	2584.768456
611.065500	2586.333734
611.414585	2586.114444
611.763616	2585.738878
612.112594	2586.744588
612.461518	2584.745770
612.810389	2584.574371
613.159207	2586.517736
613.507971	2583.004052
613.856682	2586.553024
614.205340	2585.506985
614.553945	2583.649319
614.902496	2585.126377
615.250994	2588.246852
615.599439	2587.619228
615.947830	2586.006059
616.296169	2583.359453
616.644454	2590.051585
616.992686	2584.607139
617.340864	2584.902046
617.688990	2588.009917
618.037063	2587.094948
618.385082	2583.896336
618.733048	2585.622931
619.080961	2587.513364
619.428821	2588.322469
619.776628	2587.788107
620.124382	2584.289546
620.472083	2588.380442
620.819731	2586.817685
621.167326	2585.761563
621.514868	2586.951275
621.862357	2586.134608
622.209793	2586.343816
622.557176	2586.273240
622.904506	2581.763928
623.251783	2581.774010
623.599007	2582.600759
623.946179	2582.999011
624.293297	2583.039340
624.640363	2584.344999
624.987376	2584.619742
625.334336	2586.283322
625.681243	2583.881212
626.028097	2585.443970
626.374899	2584.909608
626.721647	2586.908425
627.068343	2588.012438
627.414987	2584.778538
627.761577	2584.707962
628.108115	2583.765266
628.454600	2585.096131
628.801032	2583.798033
629.147412	2583.311562
629.493739	2581.738722
629.840014	2585.630493
630.186236	2586.971440
630.532405	2583.752663
630.878521	2584.284505
631.224585	2586.482448
631.570597	2583.908939
631.916556	2585.975812
632.262462	2583.203177
632.608316	2585.131419
632.954117	2584.672674
633.299866	2583.465317
633.645562	2581.340471
633.991206	2583.553537
634.336797	2583.256109
634.682336	2583.049422
635.027823	2583.954309
635.373257	2583.946747
635.718639	2583.755184
636.063968	2588.219125
636.409245	2583.815678
636.754470	2582.658733
637.099642	2580.682600
637.444762	2580.992631
637.789829	2581.736202
638.134845	2582.625965
638.479808	2582.714185
638.824719	2580.904411
639.169577	2581.136304
639.514383	2583.069587
639.859137	2581.854669
640.203839	2583.432550
640.548489	2580.307034
640.893086	2578.555233
641.237632	2579.371900
641.582125	2579.099678
641.926566	2579.404668
642.270955	2585.098651
642.615292	2581.395924
642.959576	2583.329206
643.303809	2581.947930
643.647990	2582.149576
643.992118	2582.225193
644.336195	2584.128229
644.680219	2585.688466
645.024192	2583.188054
645.368112	2582.648650
645.711981	2582.888105
646.055797	2583.724937
646.399562	2580.244020
646.743274	2582.615883
647.086935	2584.410534
647.430544	2581.612693
647.774101	2584.158476
648.117606	2584.876840
648.461059	2583.351891
648.804460	2583.679566
649.147810	2583.034299
649.491108	2586.164855
649.834354	2582.991449
650.177548	2582.101685
650.520690	2583.059504
650.863781	2580.652353
651.206820	2584.743250
651.549807	2582.719227
651.892742	2579.480285
652.235626	2579.492888
652.578458	2580.102868
652.921238	2582.333578
653.263967	2583.054463
653.606644	2579.439956
653.949269	2579.326530
654.291843	2579.891139
654.634365	2580.662436
654.976836	2579.041705
655.319255	2582.205029
655.661622	2581.844586
656.003938	2580.576736
656.346203	2579.361818
656.688416	2581.123701
657.030577	2581.005234
657.372687	2581.910121
657.714746	2581.312745
658.056753	2580.541448
658.398708	2580.143197
658.740612	2577.219328
659.082465	2577.857034
659.424266	2579.707137
659.766016	2575.124728
660.107715	2580.541448
660.449362	2578.852662
660.790958	2580.004565
661.132503	2578.260326
661.473996	2582.076479
661.815438	2580.775862
662.156829	2580.861561
662.498168	2580.221335
662.839456	2582.779720
663.180693	2579.949112
663.521879	2583.266192
663.863013	2581.050605
664.204097	2580.314596
664.545129	2579.013978
664.886110	2579.676890
665.227040	2582.620924
665.567918	2581.978177
665.908746	2580.538927
666.249522	2580.455748
666.590248	2580.372569
666.930922	2580.695203
667.271545	2582.066397
667.612118	2582.731829
667.952639	2580.715368
668.293109	2583.898857
668.633528	2581.017837
668.973896	2578.492219
669.314213	2580.617065
669.654480	2579.583629
669.994695	2582.996490
670.334859	2579.263516
670.674973	2583.223342
671.015035	2581.620255
671.355047	2581.040522
671.695008	2581.647981
672.034918	2580.226376
672.374777	2580.009606
672.714585	2579.944071
673.054342	2578.978690
673.394049	2581.942889
673.733705	2582.313414
674.073310	2582.293249
674.412864	2580.879205
674.752368	2582.852817
675.091820	2581.922724
675.431223	2579.518094
675.770574	2580.972467
676.109875	2574.255129
676.449125	2577.925089
676.788324	2578.736715
677.127473	2578.920717
677.466571	2574.630695
677.805619	2582.005903
678.144616	2581.040522
678.483562	2578.751838
678.822458	2578.940882
679.161303	2581.133784
679.500098	2580.725450
679.838842	2578.043556
680.177535	2581.534555
680.516179	2578.361149
680.854771	2578.542631
681.193314	2581.907601
681.531805	2577.549523
681.870247	2579.003896
682.208638	2582.104206
682.546978	2581.002714
682.885268	2583.833322
683.223508	2579.951633
683.561697	2581.796695
683.899836	2581.549679
684.237925	2581.158989
684.575963	2579.933989
684.913951	2579.823084
685.251889	2582.857858
685.589776	2578.063721
685.927614	2580.347364
686.265401	2578.651015
686.603137	2581.733681
686.940824	2580.932137
687.278460	2580.571695
687.616046	2579.893660
687.953582	2579.271077
688.291068	2579.195460
688.628504	2581.479103
688.965889	2581.469020
689.303224	2582.767117
689.640510	2580.617065
689.977745	2580.622107
690.314930	2580.919535
690.652065	2580.854000
690.989150	2582.711665
691.326185	2582.457087
691.663170	2581.113619
692.000105	2579.001376
692.336990	2579.964236
692.673825	2581.811819
693.010610	2579.039184
693.347345	2576.735377
693.684030	2574.197156
694.020665	2576.957188
694.357251	2576.463155
694.693786	2576.861406
695.030272	2579.417271
695.366707	2578.386355
695.703093	2575.863257
696.039429	2578.703947
696.375716	2577.632702
696.711952	2577.791499
697.048139	2576.009451
697.384276	2574.739080
697.720363	2578.028433
698.056400	2578.706468
698.392388	2578.703947
698.728326	2577.083217
699.064214	2578.764441
699.400053	2577.007599
699.735842	2577.302507
700.071581	2576.344687
700.407270	2578.325861
700.742910	2576.642116
701.078501	2578.915676
701.414042	2579.598752
701.749533	2575.959039
702.084974	2577.186560
702.420366	2576.211097
702.755709	2578.109091
703.091002	2576.674883
703.426246	2578.517425
703.761440	2576.823597
704.096584	2577.640264
704.431679	2576.758062
704.766725	2576.644636
705.101721	2577.042887
705.436668	2576.120356
705.771565	2577.368042
706.106413	2577.478947
706.441212	2575.089440
706.775961	2578.648495
707.110661	2577.821746
707.445311	2574.381158
707.779913	2578.552713
708.114465	2576.427867
708.448967	2575.424677
708.783421	2576.868968
709.117825	2578.814853
709.452180	2579.734863
709.786485	2578.782085
710.120742	2577.378124
710.454949	2580.811150
710.789107	2572.901579
711.123216	2573.120870
711.457275	2575.175140
711.791286	2576.720253
712.125247	2574.353432
712.459159	2576.939544
712.793023	2582.787282
713.126837	2577.040367
713.460602	2576.783268
713.794318	2578.124215
714.127985	2578.857703
714.461602	2577.320151
714.795171	2577.494071
715.128691	2577.431056
715.462162	2577.181519
715.795584	2577.431056
716.128957	2577.380645
716.462281	2576.803432
716.795556	2575.091961
717.128782	2576.601786
717.461960	2577.753690
717.795088	2577.851993
718.128167	2576.349729
718.461198	2577.786457
718.794180	2575.480130
719.127113	2575.049111
719.459997	2575.568350
719.792833	2576.695048
720.125619	2573.582135
720.458357	2578.550192
720.791046	2577.063052
721.123686	2576.700089
721.456278	2576.440469
721.788821	2573.803946
722.121315	2576.967270
722.453761	2574.507187
722.786158	2575.880901
723.118506	2576.158165
723.450805	2577.647826
723.783056	2575.333936
724.115259	2576.624472
724.447412	2575.845613
724.779518	2576.385017
725.111574	2574.635736
725.443582	2576.110274
725.775542	2577.393248
726.107453	2575.144893
726.439315	2577.728484
726.771129	2581.650502
727.102895	2576.967270
727.434612	2577.355439
727.766281	2577.448700
728.097901	2573.156158
728.429473	2572.064748
728.760996	2573.047773
729.092471	2572.815880
729.423897	2576.674883
729.755276	2575.603638
730.086606	2575.097002
730.417887	2575.689337
730.749120	2576.755542
731.080305	2575.659091
731.411442	2577.252095
731.742530	2576.843762
732.073570	2577.090778
732.404562	2578.280491
732.735506	2577.771334
733.066401	2575.565829
733.397249	2573.267063
733.728048	2575.475088
734.058798	2574.897876
734.389501	2573.032649
734.720156	2575.076837
735.050762	2572.548699
735.381320	2576.503484
735.711831	2578.542631
736.042293	2574.628175
736.372707	2576.818556
736.703073	2575.901066
737.033391	2574.602969
737.363661	2574.358473
737.693883	2575.896025
738.024056	2581.673187
738.354182	2575.427197
738.684260	2577.526838
739.014290	2575.482650
739.344272	2574.577763
739.674207	2576.644636
740.004093	2575.480130
740.333931	2574.131621
740.663722	2574.605489
740.993464	2575.255798
741.323159	2574.983576
741.652806	2574.781930
741.982405	2573.922413
742.311956	2574.124059
742.641460	2576.934502
742.970915	2574.227403
743.300323	2575.578432
743.629683	2575.643967
743.958996	2573.156158
744.288260	2577.582291
744.617477	2574.890315
744.946647	2573.050293
745.275768	2571.827814
745.604842	2572.934347
745.933869	2571.999213
746.262847	2570.025601
746.591778	2572.992320
746.920662	2572.420149
747.249498	2574.943247
747.578286	2575.018864
747.907027	2575.376786
748.235720	2574.544996
748.564365	2576.997517
748.892963	2572.354614
749.221514	2574.797053
749.550017	2576.425346
749.878473	2574.960891
750.206881	2575.427198
750.535242	2571.772361
750.863555	2574.300500
751.191821	2574.333267
751.520039	2575.296128
751.848210	2574.418967
752.176334	2574.537434
752.504411	2574.489543
752.832440	2573.917372
753.160421	2573.521641
753.488356	2573.879563
753.816243	2575.008782
754.144082	2574.978535
754.471875	2573.395612
754.799620	2572.793195
755.127318	2572.891497
755.454969	2570.423852
755.782572	2573.859399
756.110129	2572.846127
756.437638	2573.377968
756.765100	2573.325036
757.092515	2574.799574
757.419882	2571.779923
757.747203	2575.742270
758.074477	2573.206569
758.401703	2575.021385
758.728882	2575.717064
759.056014	2574.378637
759.383099	2572.730180
759.710138	2570.585169
760.037129	2572.815880
760.364073	2575.437280
760.690970	2573.297310
761.017820	2574.020716
761.344623	2573.942578
761.671379	2572.515931
761.998088	2570.688513
762.324751	2571.018708
762.651366	2574.645819
762.977935	2575.553226
763.304456	2571.729511
763.630931	2576.881570
763.957359	2576.735377
764.283740	2579.036664
764.610074	2577.420974
764.936362	2577.988104
765.262602	2577.405850
765.588796	2578.217476
765.914943	2575.878381
766.241044	2574.781930
766.567097	2575.512897
766.893104	2572.455437
767.219064	2576.377455
767.544978	2571.537947
767.870845	2573.433421
768.196665	2573.771178
768.522438	2572.498287
768.848165	2570.912844
769.173846	2574.663463
769.499479	2573.433421
769.825066	2571.817731
770.150607	2575.172619
770.476101	2570.983420
770.801548	2571.338822
771.126949	2573.199007
771.452303	2571.449727
771.777611	2573.498956
772.102872	2573.753534
772.428087	2571.202711
772.753256	2570.973338
773.078378	2571.545509
773.403453	2572.634398
773.728482	2572.412587
774.053465	2568.987123
774.378401	2569.176167
774.703291	2571.903431
775.028135	2574.214800
775.352932	2571.235478
775.677683	2570.053327
776.002388	2571.951322
776.327046	2570.398647
776.651658	2572.745304
776.976224	2570.224727
777.300743	2571.542988
777.625216	2572.984758
777.949643	2573.297310
778.274024	2573.698082
778.598359	2568.117524
778.922647	2568.621640
779.246889	2569.128276
779.571086	2569.032494
779.895236	2566.169118
780.219339	2571.048955
780.543397	2572.082392
780.867409	2573.844275
781.191374	2573.415777
781.515294	2573.650191
781.839167	2569.980231
782.162995	2570.237330
782.486776	2573.919892
782.810511	2571.084243
783.134201	2571.487536
783.457844	2573.483833
783.781441	2568.709860
784.104993	2567.971331
784.428498	2568.467885
784.751958	2569.690364
785.075372	2573.128431
785.398739	2572.064748
785.722061	2569.125755
786.045337	2570.224727
786.368568	2572.735221
786.691752	2571.056517
787.014891	2569.791187
787.337983	2572.152968
787.661030	2574.013154
787.984031	2568.677092
788.306987	2573.471230
788.629897	2572.016857
788.952760	2572.831003
789.275579	2577.015161
789.598351	2572.599110
789.921078	2570.534758
790.243759	2572.087433
790.566395	2570.708677
790.888984	2570.771692
791.211529	2572.583987
791.534027	2571.341342
791.856480	2571.172464
792.178888	2574.134142
792.501249	2569.418142
792.823566	2571.880746
793.145836	2568.064592
793.468062	2573.090623
793.790241	2570.131465
794.112375	2573.423339
794.434464	2569.554253
794.756507	2571.384192
795.078505	2572.571384
795.400457	2569.110632
795.722364	2567.565518
796.044226	2566.975703
796.366042	2566.189283
796.687812	2566.499314
797.009538	2571.172464
797.331218	2572.654563
797.652852	2571.548030
797.974442	2570.938050
798.295986	2571.505180
798.617484	2572.392423
798.938938	2571.570715
799.260346	2573.657752
799.581709	2569.811352
799.903026	2572.498287
800.224299	2570.701116
800.545526	2571.505180
800.866708	2571.230437
801.187845	2572.334450
801.508936	2567.951166
801.829983	2572.488205
802.150984	2570.615416
802.471940	2571.900910
802.792851	2570.890159
803.113717	2570.907803
803.434538	2572.387382
803.755314	2570.421332
804.076045	2572.357135
804.396731	2572.861250
804.717372	2570.900241
805.037967	2570.360838
805.358518	2573.428380
805.679024	2571.792526
805.999485	2569.786146
806.319901	2573.322516
806.640272	2570.212124
806.960598	2570.842268
807.280879	2571.031311
807.601115	2572.873853
807.921306	2569.907134
808.241453	2570.222206
808.561554	2569.627350
808.881611	2570.910324
809.201623	2572.969635
809.521590	2571.222875
809.841513	2569.889490
810.161390	2572.616754
810.481223	2571.490056
810.801011	2570.549881
811.120755	2571.646332
811.440453	2573.090623
811.760107	2568.059551
812.079716	2566.325394
812.399281	2566.499314
812.718801	2567.142061
813.038276	2566.910168
813.357707	2567.520148
813.677093	2569.513924
813.996434	2569.050138
814.315731	2571.202711
814.634983	2572.132803
814.954191	2569.589541
815.273354	2570.249932
815.592473	2569.677762
815.911547	2570.781774
816.230577	2570.580128
816.549562	2568.475446
816.868502	2570.673389
817.187399	2571.628688
817.506250	2569.960066
817.825058	2571.749676
818.143821	2571.177505
818.462539	2573.193966
818.781213	2572.591548
819.099843	2571.832855
819.418429	2571.172464
819.736970	2573.640108
820.055466	2573.720767
820.373919	2574.050963
820.692327	2574.434090
821.010691	2575.885942
821.329011	2582.736871
821.647286	2590.525453
821.965517	2595.422934
822.283704	2600.771598
822.601847	2605.585900
822.919945	2604.116404
823.237999	2597.043665
823.556010	2598.072061
823.873976	2593.151894
824.191897	2590.911102
824.509775	2586.069073
824.827609	2584.450863
825.145398	2581.174113
825.463144	2581.068249
825.780845	2580.395255
826.098502	2581.458938
826.416116	2578.383834
826.733685	2583.374577
827.051210	2583.508167
827.368692	2585.133939
827.686129	2581.708475
828.003522	2578.759400
828.320872	2574.698751
828.638177	2574.784450
828.955439	2572.805797
829.272656	2571.217834
829.589830	2568.656928
829.906960	2574.161868
830.224046	2571.530386
830.541088	2573.914851
830.858086	2571.467371
831.175041	2572.518452
831.491952	2570.796898
831.808819	2571.532906
832.125642	2571.001064
832.442421	2570.590210
832.759157	2572.165571
833.075849	2574.645819
833.392497	2575.573391
833.709101	2576.599266
834.025662	2575.502815
834.342179	2576.654718
834.658653	2575.825449
834.975083	2576.780747
835.291469	2575.686817
835.607811	2572.982238
835.924110	2571.301013
836.240366	2569.811352
836.556578	2571.157340
836.872746	2572.536096
837.188871	2570.524675
837.504952	2570.227247
837.820990	2571.076682
838.136984	2568.593913
838.452935	2569.574418
838.768842	2569.985272
839.084706	2569.899572
839.400526	2571.280848
839.716303	2569.594582
840.032037	2570.312947
840.347727	2568.697257
840.663373	2571.747155
840.978977	2571.593400
841.294537	2570.239850
841.610054	2569.846640
841.925527	2568.838409
842.240957	2567.646177
842.556344	2568.896383
842.871687	2567.832699
843.186987	2571.868143
843.502244	2569.955025
843.817458	2565.992678
844.132629	2570.501990
844.447756	2568.293965
844.762840	2562.259704
845.077881	2564.833213
845.392879	2565.107956
845.707833	2566.353121
846.022745	2564.208110
846.337613	2569.029973
846.652438	2567.951166
846.967221	2566.416135
847.281960	2569.579459
847.596656	2570.938050
847.911309	2569.788667
848.225919	2567.026115
848.540485	2570.292782
848.855009	2566.605178
849.169490	2569.418142
849.483928	2567.946125
849.798323	2566.327915
850.112675	2569.584500
850.426984	2568.009140
850.741251	2568.140210
851.055474	2567.807493
851.369654	2566.993347
851.683792	2567.573080
851.997887	2565.148285
852.311938	2564.727348
852.625947	2568.286403
852.939914	2567.575600
853.253837	2568.790518
853.567718	2569.854202
853.881555	2567.212637
854.195350	2567.620971
854.509103	2570.370920
854.822812	2567.353790
855.136479	2566.025446
855.450103	2567.459654
855.763685	2567.492421
856.077224	2568.314129
856.390720	2569.786146
856.704173	2566.884962
857.017584	2567.973852
857.330953	2565.632236
857.644278	2566.474108
857.957561	2569.206414
858.270802	2569.866805
858.584000	2567.946125
858.897155	2567.532751
859.210268	2566.892524
859.523339	2568.399829
859.836367	2567.346228
860.149352	2568.493090
860.462295	2569.067782
860.775195	2564.621484
861.088054	2564.500497
861.400869	2564.714746
861.713642	2562.731052
862.026373	2563.202399
862.339062	2565.904458
862.651708	2567.804973
862.964312	2565.755744
863.276873	2567.033676
863.589392	2567.477298
863.901869	2564.906309
864.214303	2568.553584
864.526696	2565.854046
864.839045	2568.046948
865.151353	2567.545353
865.463619	2568.578790
865.775842	2567.293296
866.088023	2567.994016
866.400162	2567.736917
866.712258	2567.394119
867.024313	2568.062072
867.336325	2566.781619
867.648296	2568.117524
867.960224	2567.656259
868.272110	2569.503842
868.583954	2566.784139
868.895755	2568.742627
869.207515	2567.157185
869.519233	2568.006619
869.830909	2565.954869
870.142542	2566.153995
870.454134	2568.523337
870.765684	2567.976372
871.077191	2565.949828
871.388657	2568.911506
871.700081	2569.738255
872.011463	2567.005950
872.322803	2567.074006
872.634101	2566.070816
872.945357	2569.854202
873.256571	2566.527040
873.567744	2566.718604
873.878874	2569.892011
874.189963	2567.638615
874.501010	2568.520817
874.812015	2568.228430
875.122979	2569.219017
875.433900	2566.287586
875.744780	2568.152813
876.055618	2566.393450
876.366415	2566.645508
876.677169	2569.092988
876.987882	2565.428069
877.298554	2561.876576
877.609183	2565.483522
877.919771	2565.733059
878.230317	2562.559652
878.540822	2572.931826
878.851285	2568.959397
879.161707	2567.845302
879.472087	2566.579972
879.782425	2572.112639
880.092722	2570.229768
880.402977	2574.086251
880.713191	2579.802919
881.023363	2582.696541
881.333494	2583.281315
881.643583	2586.076635
881.953631	2586.794999
882.263637	2588.687953
882.573602	2583.369535
882.883526	2584.839032
883.193408	2582.779720
883.503248	2578.794688
883.813048	2579.999524
884.122806	2578.933320
884.432522	2577.612538
884.742197	2576.763103
885.051831	2574.701271
885.361424	2573.007444
885.670975	2572.717577
885.980485	2573.355283
886.289954	2571.114490
886.599382	2571.278328
886.908768	2573.322516
887.218113	2567.252967
887.527417	2569.917216
887.836680	2567.968810
888.145901	2568.528378
888.455082	2569.413101
888.764221	2569.062741
889.073319	2569.130796
889.382376	2567.978893
889.691392	2567.888152
890.000366	2567.878070
890.309300	2566.383368
890.618193	2567.731876
890.927044	2567.651218
891.235855	2566.151474
891.544625	2568.598955
891.853353	2566.902606
892.162041	2567.482339
892.470687	2567.492421
892.779293	2567.273131
893.087858	2566.635425
893.396381	2566.030487
893.704864	2567.522668
894.013306	2565.937225
894.321707	2571.502659
894.630068	2571.079202
894.938387	2570.721280
895.246665	2573.171281
895.554903	2573.176322
895.863100	2572.760427
896.171256	2570.759089
896.479371	2570.953173
896.787446	2569.801270
897.095480	2568.384706
897.403473	2571.109449
897.711425	2565.992678
898.019336	2570.111301
898.327207	2569.299675
898.635038	2570.204562
898.942827	2565.665003
899.250576	2569.443348
899.558284	2567.482339
899.865952	2568.669531
900.173579	2568.387226
900.481165	2566.302709
900.788711	2566.816907
901.096216	2567.205076
901.403681	2566.927812
901.711105	2569.592062
902.018489	2567.212637
902.325832	2568.251115
902.633135	2567.457133
902.940397	2568.183059
903.247619	2569.052658
903.554800	2567.268090
903.861941	2569.566856
904.169041	2572.480643
904.476101	2573.869481
904.783121	2575.104564
905.090100	2572.994841
905.397039	2572.704974
905.703938	2571.900910
906.010796	2572.649522
906.317614	2569.188770
906.624391	2571.623647
906.931129	2568.848492
907.237826	2569.077864
907.544483	2569.675241
907.851099	2569.100549
908.157675	2568.735066
908.464211	2567.063923
908.770707	2563.343552
909.077163	2562.935218
909.383578	2565.919581
909.689954	2562.864642
909.996289	2563.179714
910.302584	2567.008471
910.608839	2566.151474
910.915054	2566.234653
911.221229	2567.401681
911.527363	2567.683985
911.833458	2565.856567
912.139513	2565.569221
912.445527	2570.663307
912.751502	2568.097360
913.057436	2566.766495
913.363331	2566.184242
913.669186	2567.520148
913.975000	2566.280024
914.280775	2566.408573
914.586510	2567.726835
914.892205	2567.857905
915.197859	2569.486198
915.503475	2571.099367
915.809050	2571.888307
916.114585	2574.093812
916.420081	2575.288566
916.725536	2572.432752
917.030952	2574.920562
917.336328	2571.699264
917.641665	2576.876529
917.946961	2573.897207
918.252218	2570.176836
918.557435	2571.734552
918.862612	2571.162381
919.167750	2569.440827
919.472848	2569.488718
919.777906	2567.951166
920.082925	2570.617937
920.387904	2567.875549
920.692843	2567.678944
920.997743	2568.102401
921.302603	2566.607699
921.607423	2570.877556
921.912204	2566.363203
922.216946	2570.358317
922.521647	2568.223389
922.826310	2566.169118
923.130932	2568.084757
923.435516	2566.239695
923.740059	2568.059551
924.044564	2564.394632
924.349028	2566.136351
924.653454	2562.988150
924.957840	2564.142575
925.262186	2563.865311
925.566493	2564.019066
925.870761	2562.302553
926.174989	2566.343038
926.479178	2564.888665
926.783328	2567.331104
927.087438	2564.394632
927.391509	2566.375806
927.695541	2566.693398
927.999533	2563.565363
928.303486	2564.341700
928.607400	2569.087947
928.911275	2563.088973
929.215110	2566.766495
929.518906	2563.812379
929.822663	2565.906978
930.126381	2564.709704
930.430060	2564.989488
930.733699	2563.809858
931.037299	2566.796742
931.340861	2564.369427
931.644383	2563.991340
931.947866	2563.519992
932.251309	2565.133161
932.554714	2564.838254
932.858080	2567.724314
933.161407	2565.062585
933.464694	2565.027297
933.767943	2562.355486
934.071153	2566.017884
934.374323	2562.158881
934.677455	2565.264231
934.980548	2562.542008
935.283602	2566.733728
935.586617	2562.526885
935.889593	2564.349262
936.192530	2566.504355
936.495428	2566.370765
936.798287	2564.651731
937.101108	2565.153326
937.403890	2564.470250
937.706632	2563.915723
938.009336	2567.545353
938.312002	2566.451423
938.614628	2566.280024
938.917216	2564.356824
939.219765	2566.214489
939.522275	2566.431258
939.824747	2567.555436
940.127179	2562.375650
940.429573	2559.247614
940.731929	2558.937583
941.034246	2561.692574
941.336524	2561.682492
941.638763	2565.677606
941.940964	2563.308264
942.243126	2563.462019
942.545250	2565.354972
942.847335	2565.284396
943.149381	2564.376988
943.451389	2564.923953
943.753359	2566.083419
944.055290	2564.268603
944.357182	2565.634756
944.659036	2565.894376
944.960851	2565.070147
945.262628	2564.560990
945.564367	2565.969993
945.866067	2564.394632
946.167729	2564.641649
946.469352	2563.827502
946.770937	2565.632236
947.072484	2564.082081
947.373992	2564.765157
947.675462	2566.312791
947.976893	2566.663152
948.278286	2563.492266
948.579641	2560.646534
948.880958	2563.199879
949.182236	2564.586196
949.483476	2565.009653
949.784678	2564.719787
950.085841	2563.096535
950.386967	2566.151474
950.688054	2565.264231
950.989103	2565.372616
951.290114	2563.918243
951.591087	2565.604509
951.892021	2565.110476
952.192917	2563.114179
952.493776	2565.060065
952.794596	2566.950497
953.095378	2562.418500
953.396122	2564.321536
953.696828	2565.044941
953.997496	2566.234653
954.298126	2563.784653
954.598718	2564.495455
954.899272	2564.245918
955.199788	2563.744323
955.500266	2564.233315
955.800706	2561.959755
956.101108	2562.557132
956.401472	2559.058571
956.701798	2560.394477
957.002087	2559.567727
957.302337	2564.954200
957.602550	2562.894889
957.902724	2563.951011
958.202861	2564.452606
958.502960	2563.729200
958.803022	2563.121741
959.103045	2563.754406
959.403031	2562.922615
959.702979	2562.610064
960.002889	2568.026784
960.302762	2564.888665
960.602596	2565.780950
960.902393	2562.824313
961.202153	2561.677450
961.501875	2566.292627
961.801559	2562.393294
962.101205	2564.152657
962.400814	2561.755588
962.700385	2565.092832
962.999918	2564.926474
963.299414	2562.602502
963.598873	2563.603171
963.898293	2561.654765
964.197677	2563.537636
964.497022	2564.351782
964.796331	2566.126269
965.095601	2564.871021
965.394835	2564.981927
965.694030	2565.002091
965.993189	2567.202555
966.292309	2562.078222
966.591393	2562.809189
966.890439	2563.487225
967.189447	2564.288768
967.488419	2563.351113
967.787353	2563.930846
968.086249	2562.400856
968.385108	2564.997050
968.683930	2562.196689
968.982714	2563.391443
969.281462	2562.557132
969.580172	2563.590568
969.878844	2562.640311
970.177480	2564.543346
970.476078	2563.144426
970.774639	2565.370096
971.073162	2563.146947
971.371649	2560.452450
971.670098	2557.510937
971.968510	2559.403890
972.266885	2558.788869
972.565223	2564.064437
972.863524	2561.102759
973.161788	2561.707697
973.460014	2563.719118
973.758204	2562.345403
974.056356	2564.150136
974.354471	2564.828172
974.652550	2563.081412
974.950591	2563.782132
975.248595	2562.801628
975.546563	2563.000753
975.844493	2565.110476
976.142386	2562.693243
976.440243	2563.048644
976.738062	2561.712738
977.035845	2563.126782
977.333590	2562.133675
977.631299	2565.503686
977.928971	2564.722307
978.226606	2562.801628
978.524204	2563.378840
978.821765	2562.947821
979.119290	2562.221895
979.416777	2561.838767
979.714228	2564.021587
980.011642	2562.375650
980.309020	2568.556105
980.606360	2562.305074
980.903664	2563.759447
981.200931	2566.658110
981.498162	2561.763150
981.795356	2564.550908
982.092513	2563.658624
982.389633	2562.078222
982.686717	2567.265569
982.983764	2564.281206
983.280775	2561.737944
983.577749	2565.347410
983.874686	2565.954869
984.171587	2564.369427
984.468451	2564.034190
984.765279	2563.424210
985.062070	2564.876062
985.358824	2562.347924
985.655543	2564.142575
985.952224	2564.215671
986.248869	2560.361709
986.545478	2559.577810
986.842050	2562.007646
987.138586	2561.069991
987.435086	2561.558983
987.731549	2559.940773
988.027975	2564.140054
988.324366	2563.325908
988.620719	2564.485373
988.917037	2562.002605
989.213318	2565.102914
989.509563	2563.696433
989.805772	2564.931515
990.101944	2561.090156
990.398080	2562.055537
990.694180	2561.889179
990.990244	2562.773901
991.286271	2560.603685
991.582262	2563.005794
991.878217	2560.994374
992.174136	2564.366906
992.470019	2560.563355
992.765865	2563.245249
993.061676	2564.795404
993.357450	2560.633932
993.653188	2567.033676
993.948890	2563.290620
994.244556	2561.778273
994.540186	2563.139385
994.835780	2564.306412
995.131337	2563.031000
995.426859	2563.441854
995.722345	2559.073694
996.017795	2562.688202
996.313208	2562.368088
996.608586	2561.853891
996.903928	2564.518141
997.199234	2563.797256
997.494504	2562.559652
997.789738	2561.501010
998.084936	2565.102914
998.380099	2562.993192
998.675225	2561.654765
998.970316	2564.240877
999.265371	2563.761967
999.560390	2561.979920
999.855373	2565.170970
1000.150320	2561.720300
1000.445232	2562.743654
1000.740108	2564.802966
1001.034948	2562.688202
1001.329752	2561.196020
1001.624521	2562.925136
1001.919254	2558.098231
1002.213951	2558.546894
1002.508613	2557.226112
1002.803239	2558.546894
1003.097829	2557.117727
1003.392384	2562.756257
1003.686903	2563.877914
1003.981386	2559.469425
1004.275834	2563.454457
1004.570246	2564.969324
1004.864623	2559.645865
1005.158964	2561.952193
1005.453270	2562.544529
1005.747540	2563.257852
1006.041775	2560.666699
1006.335974	2562.264745
1006.630138	2562.473953
1006.924266	2560.621329
1007.218359	2562.564693
1007.512416	2561.259035
1007.806438	2563.109138
1008.100425	2559.103941
1008.394376	2561.543860
1008.688292	2562.153839
1008.982172	2562.612584
1009.276017	2562.998233
1009.569827	2562.189127
1009.863602	2564.288768
1010.157341	2561.755588
1010.451045	2560.107131
1010.744714	2563.010836
1011.038347	2560.303736
1011.331945	2561.697615
1011.625508	2563.094015
1011.919036	2561.616957
1012.212528	2563.686350
1012.505986	2561.848850
1012.799408	2560.172666
1013.092795	2562.501679
1013.386147	2562.105948
1013.679464	2563.086453
1013.972745	2559.282902
1014.265992	2558.972871
1014.559204	2560.596123
1014.852380	2563.131823
1015.145521	2560.651576
1015.438628	2561.304405
1015.731699	2563.898079
1016.024736	2559.842470
1016.317737	2562.380691
1016.610703	2564.008984
1016.903635	2558.330124
1017.196531	2557.384908
1017.489393	2558.425906
1017.782219	2556.815257
1018.075011	2558.937583
1018.367768	2562.274827
1018.660490	2561.019580
1018.953177	2561.019580
1019.245829	2561.019580
