Dividing Wavelength (nm)	Counts (n)	Blue Motor Position (mm): 0.000000	Red Motor Position (mm): 29.100000	
326.493990	2126.583024
326.888308	2126.583024
327.282561	2126.583024
327.676750	2096.225195
328.070874	2094.062540
328.464933	2097.331728
328.858929	2102.052769
329.252859	2112.944182
329.646726	2124.193517
330.040528	2136.251957
330.434265	2156.020842
330.827938	2173.256547
331.221547	2188.251459
331.615091	2211.468493
332.008571	2225.550956
332.401986	2248.480644
332.795338	2265.865063
333.188625	2286.763167
333.581847	2304.523152
333.975006	2322.361274
334.368100	2342.435149
334.761129	2356.351254
335.154095	2375.888246
335.546996	2394.144785
335.939833	2411.251940
336.332606	2424.679053
336.725315	2440.092381
337.117960	2448.785851
337.510540	2457.411265
337.903056	2467.163378
338.295508	2476.040849
338.687896	2482.586788
339.080220	2491.726400
339.472480	2497.304436
339.864676	2502.948008
340.256807	2508.715088
340.648875	2508.273987
341.040879	2512.196005
341.432818	2517.121212
341.824694	2517.005266
342.216506	2517.723630
342.608253	2517.592560
342.999937	2514.761952
343.391557	2518.111799
343.783113	2515.329082
344.174605	2512.795902
344.566033	2514.877899
344.957397	2512.891684
345.348697	2508.379851
345.739934	2509.589728
346.131106	2506.486898
346.522215	2502.847185
346.913260	2505.148472
347.304241	2500.931547
347.695159	2498.867194
348.086012	2498.673110
348.476802	2495.093890
348.867528	2493.294198
349.258191	2493.687408
349.648789	2491.244969
350.039324	2491.129023
350.429796	2489.639362
350.820203	2488.855463
351.210548	2487.287664
351.600828	2487.905205
351.991045	2484.820019
352.381198	2484.880513
352.771288	2485.949237
353.161314	2486.622231
353.551276	2486.319762
353.941175	2485.450163
354.331010	2487.436378
354.720782	2483.274905
355.110490	2485.815647
355.500135	2480.711478
355.889717	2488.207674
356.279235	2488.361429
356.668689	2490.393014
357.058080	2487.678353
357.447408	2485.785400
357.836672	2481.815491
358.225873	2484.721716
358.615010	2482.503609
359.004084	2488.318580
359.393095	2487.572489
359.782043	2488.363950
360.170927	2490.818992
360.559748	2491.678509
360.948505	2490.791266
361.337199	2493.389980
361.725830	2493.150526
362.114398	2495.051041
362.502903	2493.334528
362.891344	2493.916781
363.279722	2495.587923
363.668037	2494.667913
364.056289	2494.952738
364.444478	2497.052379
364.832603	2495.648417
365.220665	2499.013388
365.608665	2498.839468
365.996601	2502.131341
366.384474	2501.362565
366.772284	2502.678306
367.160031	2502.650580
367.547715	2503.915910
367.935336	2507.885818
368.322893	2512.674914
368.710388	2513.237003
369.097820	2524.042716
369.485189	2523.457943
369.872495	2530.250897
370.259738	2536.285158
370.646918	2544.885367
371.034035	2550.889381
371.421090	2563.330949
371.808081	2572.079871
372.195010	2582.474731
372.581875	2593.338417
372.968678	2606.112701
373.355418	2619.844804
373.742096	2635.971455
374.128710	2650.545431
374.515262	2664.290137
374.901751	2680.562982
375.288177	2693.586802
375.674540	2717.489433
376.060841	2732.741444
376.447079	2754.920001
376.833254	2773.710902
377.219367	2786.971657
377.605417	2824.553459
377.991404	2833.607371
378.377329	2857.618387
378.763191	2870.647249
379.148991	2913.371028
379.534727	2936.935902
379.920402	2963.477577
380.306013	2977.751604
380.691563	3027.472504
381.077049	3049.774569
381.462474	3066.372568
381.847835	3103.062085
382.233134	3126.382463
382.618371	3128.293060
383.003545	3196.371322
383.388657	3204.497662
383.773706	3235.220975
384.158693	3251.292173
384.543618	3276.490381
384.928480	3316.960764
385.313280	3358.005838
385.698017	3358.721682
386.082692	3412.760331
386.467305	3417.471289
386.851856	3447.246864
387.236344	3469.264104
387.620770	3503.206192
388.005133	3526.035058
388.389435	3555.341806
388.773674	3568.027869
389.157851	3609.897172
389.541965	3625.560037
389.926018	3585.306424
390.310008	3660.016324
390.693936	3678.431659
391.077802	3719.630489
391.461606	3711.325188
391.845348	3770.830968
392.229027	3771.524127
392.612645	3783.963174
392.996200	3859.804813
393.379694	3903.004981
393.763125	3968.771874
394.146494	3931.600926
394.529801	3995.792458
394.913047	4046.791291
395.296230	4011.813245
395.679351	4065.108324
396.062410	4085.391406
396.445408	4070.817430
396.828343	4105.132565
397.211217	4127.573261
397.594028	4046.375396
397.976778	4111.020632
398.359466	4141.617916
398.742092	4169.387112
399.124656	4089.046243
399.507158	4170.836443
399.889598	4195.833005
400.271977	4258.827263
400.654294	4227.788879
401.036549	4237.014190
401.418742	4206.139644
401.800874	4307.814676
402.182944	4332.100434
402.564952	4395.573602
402.946898	4381.770923
403.328783	4379.847723
403.710606	4291.269609
404.092367	4484.973425
404.474067	4448.858598
404.855705	4452.500832
405.237282	4386.108836
405.618797	4493.293849
406.000250	4529.287687
406.381642	4609.893217
406.762972	4571.988781
407.144240	4582.527313
407.525447	4579.318619
407.906593	4637.100324
408.287677	4682.344680
408.668700	4608.607723
409.049661	4666.583512
409.430560	4703.719172
409.811399	4632.323831
410.192176	4795.364829
410.572891	4730.371753
410.953545	4835.381508
411.334138	4716.178384
411.714669	4782.111635
412.095139	4678.349566
412.475547	4818.344928
412.855894	4801.691477
413.236180	4809.301098
413.616405	4763.761835
413.996568	4849.839537
414.376670	4792.055311
414.756711	4744.701232
415.136691	4775.618629
415.516609	4857.494529
415.896466	4895.277977
416.276262	4929.245272
416.655997	4906.930604
417.035670	5089.105302
417.415283	5183.931926
417.794834	5124.605107
418.174324	5079.776646
418.553753	4984.410618
418.933121	5173.348023
419.312428	5237.617694
419.691674	5179.261297
420.070859	5304.425585
420.449983	5212.749682
420.829045	5330.185881
421.208047	5235.853290
421.586988	5314.094518
421.965867	5320.280014
422.344686	5454.760355
422.723444	5305.295184
423.102141	5127.186178
423.480777	5425.441004
423.859352	5193.905849
424.237866	5454.551147
424.616319	5444.100835
424.994712	5554.849944
425.373044	5428.722795
425.751314	5575.216205
426.129524	5375.011821
426.507673	5573.512295
426.885762	5651.907279
427.263789	5585.220375
427.641756	5467.073373
428.019662	5587.493935
428.397508	5597.341829
428.775292	5541.125402
429.153016	5638.880937
429.530679	5567.583898
429.908282	5655.657897
430.285824	5523.935068
430.663305	5795.920441
431.040726	5532.991501
431.418086	5536.404362
431.795385	5636.720803
432.172624	5650.417618
432.549802	5642.056864
432.926920	5654.155633
433.303977	5662.009751
433.680974	5701.834866
434.057910	5723.710953
434.434786	5728.363938
434.811601	5693.693403
435.188355	5932.465134
435.565050	5804.608870
435.941683	5787.234533
436.318257	5999.071379
436.694770	5979.925077
437.071222	6019.987127
437.447614	5947.228153
437.823946	5861.500812
438.200218	6015.560994
438.576429	5881.128544
438.952580	5978.942052
439.328670	6028.912490
439.704700	5933.864054
440.080670	5915.521816
440.456580	6188.457447
440.832429	6074.555097
441.208218	5921.911479
441.583947	6073.040230
441.959616	6073.647689
442.335224	6001.632286
442.710773	6138.222349
443.086261	6166.097409
443.461689	5966.457635
443.837057	6110.158246
444.212365	6267.981649
444.587612	6158.139948
444.962800	6308.686446
445.337927	6293.147089
445.712995	5902.540845
446.088002	6478.848073
446.462949	6307.315252
446.837837	6240.721610
447.212664	6415.884062
447.587431	6554.495628
447.962139	7100.767662
448.336786	8025.479114
448.711374	7764.559074
449.085901	6839.703948
449.460369	6759.473984
449.834776	6691.698192
450.209124	7084.666216
450.583412	7231.812456
450.957640	7380.516412
451.331808	7144.540000
451.705917	6695.083326
452.079965	6619.221523
452.453954	6828.255488
452.827883	6710.347940
453.201752	6799.107536
453.575562	6594.232523
453.949311	6796.667618
454.323001	6686.044538
454.696632	6755.511638
455.070202	6897.659573
455.443713	7047.260855
455.817164	7146.226266
456.190556	7229.100315
456.563888	7302.282745
456.937160	7340.857655
457.310373	6995.788153
457.683526	7013.288519
458.056619	6905.853969
458.429653	6889.021556
458.802628	6819.443551
459.175542	6925.315343
459.548398	7269.757221
459.921194	7421.518637
460.293930	7420.341527
460.666607	7939.285466
461.039224	8226.709373
461.411782	8342.487033
461.784280	8354.681584
462.156719	8241.908452
462.529099	8118.299360
462.901419	7702.643622
463.273680	7585.184738
463.645882	7592.761592
464.018024	7445.945548
464.390106	7600.124197
464.762130	7971.732853
465.134094	8394.521823
465.505999	9349.931382
465.877845	10492.249282
466.249631	11103.038002
466.621358	10720.669004
466.993026	10105.867525
467.364634	9846.379172
467.736184	9475.007450
468.107674	9142.258529
468.479105	9144.718612
468.850477	8903.396057
469.221790	8668.367382
469.593043	8339.260694
469.964238	8188.850308
470.335373	8172.935385
470.706449	8195.965896
471.077467	8144.190726
471.448425	9291.827043
471.819324	10206.856960
472.190164	10215.139576
472.560945	9066.013598
472.931667	8320.956265
473.302330	8173.129469
473.672934	7814.532032
474.043479	8094.978982
474.413965	8004.959098
474.784393	7857.981737
475.154761	7951.943803
475.525070	7986.039647
475.895321	7793.117210
476.265513	7902.958911
476.635645	7997.843509
477.005719	7937.548788
477.375734	7990.866552
477.745691	8122.198692
478.115588	8174.631733
478.485427	8304.023029
478.855207	8659.376484
479.224928	9195.639307
479.594591	9593.308207
479.964194	9383.865909
480.333739	9287.950396
480.703226	9134.913568
481.072653	9124.518708
481.442022	9190.951034
481.811333	9252.286753
482.180584	9037.919247
482.549777	8744.272036
482.918912	8546.505050
483.287988	8471.641394
483.657005	8402.010457
484.025964	8104.859643
484.394864	8110.046991
484.763706	8002.143613
485.132489	7769.232223
485.501213	7654.518247
485.869879	7636.264229
486.238487	7426.847136
486.607036	7436.039680
486.975527	7210.813529
487.343959	7238.847386
487.712333	7173.874475
488.080648	7059.218472
488.448905	6989.950497
488.817104	6877.931018
489.185244	6934.006292
489.553326	6914.479383
489.921350	7095.706343
490.289315	7489.352403
490.657222	7566.058600
491.025070	7415.013028
491.392861	7265.094153
491.760593	7001.595563
492.128267	6748.970740
492.495883	6515.678743
492.863440	6282.570748
493.230939	6051.176746
493.598380	5940.591474
493.965763	5798.645185
494.333088	5700.940062
494.700354	5582.528399
495.067563	5536.671543
495.434713	5390.364655
495.801805	5364.332137
496.168839	5263.113329
496.535815	5164.682280
496.902733	5099.941262
497.269593	4996.998380
497.636395	4966.287670
498.003139	4885.959404
498.369825	4787.848468
498.736453	4754.286987
499.103023	4680.323177
499.469535	4623.244713
499.835989	4560.741967
500.202385	4484.549968
500.568723	4392.611924
500.935003	4392.493457
501.301226	4276.962814
501.667390	4287.917241
502.033497	4242.493925
502.399546	4162.150535
502.765537	4086.898711
503.131470	4045.722567
503.497345	4017.361035
503.863163	3910.549067
504.228923	3903.723345
504.594625	3871.500290
504.960269	3781.543420
505.325856	3767.614712
505.691385	3693.219884
506.056856	3670.706091
506.422270	3625.998618
506.787625	3580.469437
507.152924	3549.105898
507.518164	3510.871267
507.883347	3461.699852
508.248472	3418.608069
508.613540	3405.939650
508.978550	3356.501054
509.343503	3324.693894
509.708398	3303.014412
510.073236	3278.519445
510.438016	3245.464599
510.802738	3215.285732
511.167403	3191.781352
511.532010	3154.076042
511.896561	3149.365083
512.261053	3122.566310
512.625488	3086.350660
512.989866	3058.158008
513.354186	3035.941643
513.718449	3003.630367
514.082655	3000.038545
514.446803	2973.484267
514.810894	2963.296095
515.174927	2936.298196
515.538904	2921.245310
515.902822	2906.482291
516.266684	2887.399003
516.630488	2869.339070
516.994235	2860.738861
517.357925	2841.751355
517.721558	2835.346569
518.085133	2821.301915
518.448651	2809.195584
518.812112	2797.101856
519.175516	2784.209105
519.538863	2778.207611
519.902152	2766.562546
520.265385	2760.374529
520.628560	2751.429002
520.991678	2741.578587
521.354739	2737.091960
521.717743	2728.433778
522.080690	2719.339537
522.443580	2715.571274
522.806413	2709.615151
523.169189	2705.068030
523.531908	2700.911599
523.894569	2693.322142
524.257174	2692.384487
524.619722	2687.648323
524.982213	2683.970802
525.344647	2678.233968
525.707025	2672.779440
526.069345	2671.105777
526.431608	2667.405570
526.793815	2666.672082
527.155964	2661.749395
527.518057	2659.198572
527.880093	2656.612460
528.242072	2655.226142
528.603995	2650.870585
528.965860	2651.117602
529.327669	2647.843372
529.689421	2645.438742
530.051117	2644.274236
530.412755	2642.295583
530.774337	2642.008237
531.135862	2637.713174
531.497331	2636.997330
531.858743	2630.922740
532.220098	2632.772843
532.581396	2628.679426
532.942638	2629.153295
533.303824	2631.003398
533.664953	2629.745630
534.026025	2627.580455
534.387040	2625.296812
534.747999	2624.976699
535.108902	2626.602471
535.469748	2621.788169
535.830537	2622.390587
536.191270	2622.141050
536.551947	2623.648355
536.912567	2621.566358
537.273131	2618.781121
537.633638	2618.675256
537.994089	2616.779782
538.354483	2615.232148
538.714821	2620.122067
539.075103	2616.119391
539.435328	2616.222735
539.795497	2614.473455
540.155609	2618.748353
540.515665	2615.128805
540.875665	2614.554113
541.235609	2611.927672
541.595496	2615.459000
541.955328	2613.823146
542.315102	2615.033023
542.674821	2612.320882
543.034483	2613.939092
543.394090	2611.685697
543.753640	2611.650408
544.113134	2612.426746
544.472571	2612.265429
544.831953	2611.844493
545.191278	2612.731736
545.550548	2608.275356
545.909761	2610.296859
546.268918	2612.734257
546.628019	2611.317692
546.987064	2610.410285
547.346053	2609.651591
547.704986	2612.681324
548.063863	2612.298197
548.422684	2609.810387
548.781449	2607.486415
549.140158	2608.222424
549.498811	2611.441201
549.857408	2607.430963
550.215949	2607.965325
550.574434	2605.512804
550.932864	2607.390633
551.291237	2605.767382
551.649555	2608.192177
552.007817	2611.090840
552.366022	2609.417177
552.724173	2609.011364
553.082267	2609.671756
553.440305	2610.790892
553.798288	2606.563884
554.156215	2609.964143
554.514086	2609.202928
554.871902	2606.521034
555.229661	2609.122270
555.587365	2608.754266
555.945014	2608.265274
556.302606	2609.273504
556.660143	2609.908690
557.017625	2608.683689
557.375050	2606.647063
557.732421	2607.420880
558.089735	2605.853082
558.446994	2607.309975
558.804197	2611.731067
559.161345	2610.445573
559.518437	2608.673607
559.875474	2605.318719
560.232455	2606.614296
560.589381	2605.870726
560.946251	2608.779471
561.303065	2605.371651
561.659825	2607.740994
562.016528	2607.824173
562.373177	2604.204624
562.729770	2605.306116
563.086307	2605.439707
563.442789	2606.271497
563.799216	2604.900303
564.155587	2607.274687
564.511904	2605.101950
564.868164	2606.654625
565.224370	2607.370469
565.580520	2605.038935
565.936615	2605.779985
566.292654	2602.951897
566.648638	2608.030860
567.004567	2604.164295
567.360441	2606.263936
567.716260	2604.300406
568.072023	2604.824686
568.427732	2603.151023
568.783385	2604.217227
569.138982	2601.787391
569.494525	2603.982813
569.850013	2596.579879
570.205445	2603.667741
570.560823	2601.295878
570.916145	2602.964500
571.271412	2603.695468
571.626625	2602.543564
571.981782	2602.435179
572.336884	2602.646908
572.691931	2601.164808
573.046923	2601.381578
573.401860	2602.669593
573.756743	2601.676486
574.111570	2600.789242
574.466342	2601.857967
574.821059	2601.641197
575.175722	2600.015425
575.530330	2603.750920
575.884882	2599.728080
576.239380	2596.665579
576.593823	2602.906527
576.948211	2600.088522
577.302544	2600.927874
577.656823	2602.541043
578.011047	2601.638677
578.365216	2601.033738
578.719330	2599.463419
579.073389	2598.626587
579.427394	2596.690784
579.781344	2598.487956
580.135239	2597.520054
580.489080	2599.261773
580.842866	2597.091556
581.196597	2599.660024
581.550273	2598.303954
581.903895	2594.800352
582.257463	2598.825713
582.610975	2595.866556
582.964434	2595.576689
583.317837	2596.534509
583.671186	2597.401587
584.024481	2598.883686
584.377721	2595.178438
584.730906	2592.657861
585.084037	2595.677513
585.437113	2593.015783
585.790135	2596.776484
586.143103	2596.950404
586.496016	2596.544591
586.848874	2594.286154
587.201679	2590.923704
587.554428	2591.306832
587.907124	2593.656010
588.259765	2589.166862
588.612352	2593.461925
588.964884	2591.735330
589.317362	2596.169025
589.669786	2593.696339
590.022155	2597.416711
590.374470	2593.545104
590.726731	2596.688264
591.078937	2594.240784
591.431090	2593.252717
591.783188	2594.409662
592.135232	2590.487645
592.487222	2593.023345
592.839157	2591.621904
593.191038	2591.153077
593.542866	2591.354723
593.894639	2589.320618
594.246358	2593.456884
594.598022	2592.685588
594.949633	2588.957654
595.301190	2590.709455
595.652692	2590.396904
596.004141	2593.751792
596.355535	2591.977306
596.706876	2593.683736
597.058162	2589.645772
597.409395	2589.532346
597.760573	2590.225505
598.111698	2588.831626
598.462768	2589.794486
598.813785	2591.994950
599.164748	2590.759867
599.515657	2589.529825
599.866511	2590.606112
600.217312	2591.669795
600.568060	2586.822726
600.918753	2592.186513
601.269392	2587.412541
601.619978	2587.581419
601.970510	2588.163673
602.320988	2587.568817
602.671412	2589.655854
603.021783	2587.200812
603.372100	2588.521595
603.722363	2587.921697
604.072572	2590.152408
604.422728	2590.785073
604.772830	2586.679053
605.122878	2582.144535
605.472872	2586.041347
605.822813	2583.931624
606.172701	2586.913467
606.522534	2588.491348
606.872314	2591.594178
607.222041	2587.238621
607.571714	2589.421441
607.921333	2589.507140
608.270899	2584.211408
608.620411	2589.053436
608.969870	2589.532346
609.319276	2592.506627
609.668627	2593.955958
610.017926	2593.598037
610.367171	2597.875456
610.716362	2596.733634
611.065500	2596.108531
611.414585	2594.334045
611.763616	2593.116606
612.112594	2592.887234
612.461518	2592.244487
612.810389	2590.974116
613.159207	2591.415217
613.507971	2588.234249
613.856682	2591.253900
614.205340	2591.833633
614.553945	2590.981678
614.902496	2587.475555
615.250994	2591.463108
615.599439	2590.719538
615.947830	2589.643251
616.296169	2588.834146
616.644454	2588.929928
616.992686	2589.623087
617.340864	2591.458067
617.688990	2589.895309
618.037063	2591.269023
618.385082	2589.161821
618.733048	2591.586616
619.080961	2587.662078
619.428821	2589.996132
619.776628	2588.148549
620.124382	2590.701894
620.472083	2590.719538
620.819731	2590.054105
621.167326	2587.798189
621.514868	2586.321131
621.862357	2588.400607
622.209793	2586.394228
622.557176	2590.308684
622.904506	2583.402303
623.251783	2584.191243
623.599007	2579.210583
623.946179	2582.671336
624.293297	2581.342992
624.640363	2581.519432
624.987376	2585.786769
625.334336	2582.051274
625.681243	2585.580081
626.028097	2583.266192
626.374899	2587.152921
626.721647	2583.326686
627.068343	2584.460945
627.414987	2584.014803
627.761577	2582.976325
628.108115	2582.686459
628.454600	2582.230235
628.801032	2584.211408
629.147412	2583.901377
629.493739	2580.052456
629.840014	2581.310224
630.186236	2585.108733
630.532405	2579.344174
630.878521	2579.301324
631.224585	2581.194277
631.570597	2581.307703
631.916556	2581.650502
632.262462	2579.941551
632.608316	2579.901222
632.954117	2580.317117
633.299866	2580.881726
633.645562	2579.891139
633.991206	2580.042374
634.336797	2577.652867
634.682336	2579.296283
635.027823	2577.897363
635.373257	2577.418453
635.718639	2576.059862
636.063968	2574.885273
636.409245	2575.565829
636.754470	2575.172619
637.099642	2575.827969
637.444762	2575.689338
637.789829	2576.576581
638.134845	2576.223700
638.479808	2574.731518
638.824719	2572.266394
639.169577	2575.220510
639.514383	2573.156158
639.859137	2574.146744
640.203839	2574.174471
640.548489	2573.894687
640.893086	2571.459809
641.237632	2569.783626
641.582125	2571.575756
641.926566	2568.964438
642.270955	2574.214800
642.615292	2572.029460
642.959576	2573.425859
643.303809	2572.268915
643.647990	2572.815880
643.992118	2573.148596
644.336195	2572.223544
644.680219	2572.616754
645.024192	2571.439645
645.368112	2574.192115
645.711981	2571.358986
646.055797	2573.141034
646.399562	2573.277145
646.743274	2574.174471
647.086935	2575.013823
647.430544	2575.086920
647.774101	2575.482650
648.117606	2573.738411
648.461059	2573.866960
648.804460	2575.696899
649.147810	2574.250088
649.491108	2575.011302
649.834354	2573.191446
650.177548	2571.215313
650.520690	2573.554409
650.863781	2573.821590
651.206820	2575.283525
651.549807	2573.574573
651.892742	2572.289079
652.235626	2570.164233
652.578458	2574.265212
652.921238	2567.260528
653.263967	2572.200859
653.606644	2572.704974
653.949269	2570.073492
654.291843	2570.028122
654.634365	2570.527196
654.976836	2569.410580
655.319255	2572.548699
655.661622	2570.030642
656.003938	2572.364697
656.346203	2571.273287
656.688416	2570.048286
657.030577	2569.123235
657.372687	2573.141034
657.714746	2569.491239
658.056753	2570.363358
658.398708	2564.288768
658.740612	2564.566032
659.082465	2566.360682
659.424266	2568.724983
659.766016	2564.240877
660.107715	2567.570559
660.449362	2570.355797
660.790958	2569.042576
661.132503	2569.634912
661.473996	2569.425704
661.815438	2568.609037
662.156829	2569.627350
662.498168	2568.803121
662.839456	2570.045766
663.180693	2566.847154
663.521879	2567.252967
663.863013	2567.933522
664.204097	2570.113821
664.545129	2566.083419
664.886110	2569.927299
665.227040	2574.010633
665.567918	2568.629202
665.908746	2571.306054
666.249522	2568.104922
666.590248	2568.447720
666.930922	2571.900910
667.271545	2570.486867
667.612118	2573.443503
667.952639	2572.029460
668.293109	2568.561146
668.633528	2569.821434
668.973896	2569.060220
669.314213	2571.779923
669.654480	2571.076682
669.994695	2567.245405
670.334859	2568.598955
670.674973	2567.326063
671.015035	2569.579459
671.355047	2569.350087
671.695008	2568.961918
672.034918	2568.946794
672.374777	2569.014850
672.714585	2570.625498
673.054342	2569.844120
673.394049	2570.214644
673.733705	2569.029973
674.073310	2571.285890
674.412864	2570.922927
674.752368	2568.344376
675.091820	2566.789180
675.431223	2568.540981
675.770574	2567.983934
676.109875	2561.634601
676.449125	2563.905640
676.788324	2564.518141
677.127473	2564.984447
677.466571	2560.558314
677.805619	2568.654407
678.144616	2566.839592
678.483562	2569.415622
678.822458	2567.177349
679.161303	2567.683985
679.500098	2567.351269
679.838842	2564.659293
680.177535	2567.666341
680.516179	2567.636094
680.854771	2568.936712
681.193314	2567.507545
681.531805	2568.392267
681.870247	2570.486867
682.208638	2569.168605
682.546978	2574.098853
682.885268	2568.656928
683.223508	2569.831517
683.561697	2569.584500
683.899836	2569.745817
684.237925	2570.285221
684.575963	2571.122052
684.913951	2566.743810
685.251889	2570.088616
685.589776	2566.138872
685.927614	2567.867987
686.265401	2567.389078
686.603137	2568.183059
686.940824	2566.640466
687.278460	2569.765982
687.616046	2568.636763
687.953582	2571.177505
688.291068	2570.557443
688.628504	2569.987792
688.965889	2572.031980
689.303224	2569.695406
689.640510	2572.432752
689.977745	2568.452761
690.314930	2566.340518
690.652065	2567.794891
690.989150	2564.840774
691.326185	2565.115517
691.663170	2562.584858
692.000105	2567.066444
692.336990	2566.625343
692.673825	2561.964796
693.010610	2566.590055
693.347345	2558.506565
693.684030	2559.088818
694.020665	2559.729044
694.357251	2553.412479
694.693786	2560.117213
695.030272	2562.443706
695.366707	2559.787018
695.703093	2560.628890
696.039429	2559.499672
696.375716	2559.819785
696.711952	2558.824157
697.048139	2558.158725
697.384276	2564.167780
697.720363	2560.601164
698.056400	2559.408931
698.392388	2558.514126
698.728326	2559.373643
699.064214	2558.080587
699.400053	2559.794579
699.735842	2557.445402
700.071581	2557.609239
700.407270	2558.337686
700.742910	2559.537481
701.078501	2558.604867
701.414042	2559.217367
701.749533	2557.894064
702.084974	2559.469425
702.420366	2556.815257
702.755709	2560.258366
703.091002	2555.126471
703.426246	2553.984650
703.761440	2556.623694
704.096584	2554.997922
704.431679	2554.912222
704.766725	2558.882131
705.101721	2554.844166
705.436668	2554.312325
705.771565	2556.911039
706.106413	2555.060936
706.441212	2555.232335
706.775961	2556.233004
707.110661	2556.467418
707.445311	2555.892726
707.779913	2553.843497
708.114465	2556.081770
708.448967	2557.198385
708.783421	2558.821637
709.117825	2556.827860
709.452180	2558.569579
709.786485	2559.487069
710.120742	2559.716442
710.454949	2559.870197
710.789107	2558.831719
711.123216	2555.582695
711.457275	2558.599826
711.791286	2558.047820
712.125247	2557.558828
712.459159	2561.679971
712.793023	2561.168294
713.126837	2560.124775
713.460602	2562.206772
713.794318	2561.427913
714.127985	2560.681822
714.461602	2559.953376
714.795171	2560.296174
715.128691	2557.256358
715.462162	2561.755588
715.795584	2555.653272
716.128957	2558.529250
716.462281	2555.844835
716.795556	2555.592778
717.128782	2555.507078
717.461960	2556.323745
717.795088	2554.382901
718.128167	2554.105637
718.461198	2554.292160
718.794180	2556.550597
719.127113	2555.035730
719.459997	2553.067160
719.792833	2550.854093
720.125619	2555.653272
720.458357	2550.178578
720.791046	2551.562375
721.123686	2554.985319
721.456278	2551.199412
721.788821	2552.285781
722.121315	2551.849721
722.453761	2551.461552
722.786158	2552.217725
723.118506	2553.077242
723.450805	2552.691594
723.783056	2555.418858
724.115259	2551.302756
724.447412	2552.323589
724.779518	2554.614794
725.111574	2550.077755
725.443582	2553.183106
725.775542	2554.569423
726.107453	2552.971378
726.439315	2552.827705
726.771129	2555.436502
727.102895	2555.577654
727.434612	2555.751574
727.766281	2556.202757
728.097901	2551.617828
728.429473	2550.604556
728.760996	2554.244269
729.092471	2547.836962
729.423897	2552.875596
729.755276	2553.727551
730.086606	2554.723179
730.417887	2554.138405
730.749120	2556.268292
731.080305	2557.790721
731.411442	2557.876420
731.742530	2555.633107
732.073570	2556.800134
732.404562	2558.874569
732.735506	2559.305587
733.066401	2558.320042
733.397249	2555.804506
733.728048	2558.085628
734.058798	2552.195040
734.389501	2552.799978
734.720156	2553.263765
735.050762	2553.445246
735.381320	2550.836449
735.711831	2552.588250
736.042293	2553.246121
736.372707	2552.522715
736.703073	2551.879968
737.033391	2552.500030
737.363661	2551.000287
737.693883	2552.363919
738.024056	2555.789383
738.354182	2550.649926
738.684260	2550.614638
739.014290	2553.500699
739.344272	2552.893240
739.674207	2554.070349
740.004093	2552.500030
740.333931	2553.790565
740.663722	2553.798127
740.993464	2550.365101
741.323159	2553.909032
741.652806	2553.606563
741.982405	2554.324927
742.311956	2551.358208
742.641460	2551.975750
742.970915	2553.596481
743.300323	2552.207643
743.629683	2553.120092
743.958996	2554.203940
744.288260	2550.077755
744.617477	2551.948023
744.946647	2544.698844
745.275768	2547.418547
745.604842	2547.549617
745.933869	2546.362425
746.262847	2546.382590
746.591778	2551.453990
746.920662	2548.956099
747.249498	2551.607746
747.578286	2548.141952
747.907027	2550.027344
748.235720	2548.230173
748.564365	2550.604556
748.892963	2548.751932
749.221514	2550.201264
749.550017	2550.042467
749.878473	2549.182951
750.206881	2548.557848
750.535242	2549.152704
750.863555	2550.743188
751.191821	2549.530790
751.520039	2549.364432
751.848210	2551.421223
752.176334	2549.767724
752.504411	2547.695810
752.832440	2547.741181
753.160421	2551.010369
753.488356	2545.482744
753.816243	2552.227808
754.144082	2548.315872
754.471875	2549.329144
754.799620	2548.635985
755.127318	2545.734801
755.454969	2549.185471
755.782572	2549.813095
756.110129	2547.264792
756.437638	2545.586087
756.765100	2546.964843
757.092515	2547.665563
757.419882	2548.973743
757.747203	2547.383259
758.074477	2550.453321
758.401703	2549.583722
758.728882	2549.119936
759.056014	2549.127498
759.383099	2548.217570
759.710138	2549.891233
760.037129	2551.252344
760.364073	2550.554144
760.690970	2548.051212
761.017820	2550.123126
761.344623	2547.821839
761.671379	2550.158414
761.998088	2543.632640
762.324751	2546.745553
762.651366	2552.399207
762.977935	2560.893551
763.304456	2564.306412
763.630931	2568.130127
763.957359	2565.145764
764.283740	2560.278530
764.610074	2557.820968
764.936362	2557.614280
765.262602	2553.818292
765.588796	2552.205122
765.914943	2549.742519
766.241044	2550.213867
766.567097	2548.494833
766.893104	2548.812426
767.219064	2545.069369
767.544978	2545.054246
767.870845	2547.421067
768.196665	2545.616334
768.522438	2546.019627
768.848165	2543.700696
769.173846	2544.207332
769.499479	2545.472661
769.825066	2543.032743
770.150607	2546.196067
770.476101	2543.289842
770.801548	2545.099616
771.126949	2543.945192
771.452303	2544.598021
771.777611	2544.754297
772.102872	2543.236910
772.428087	2543.143648
772.753256	2543.367980
773.078378	2542.891591
773.403453	2542.752959
773.728482	2545.021478
774.053465	2544.232537
774.378401	2544.015768
774.703291	2543.536858
775.028135	2543.494008
775.352932	2542.614327
775.677683	2540.754141
776.002388	2547.027857
776.327046	2542.584080
776.651658	2543.315048
776.976224	2542.614327
777.300743	2540.103833
777.625216	2542.107691
777.949643	2541.724563
778.274024	2541.469985
778.598359	2537.779861
778.922647	2536.811959
779.246889	2540.229861
779.571086	2536.020498
779.895236	2540.237423
780.219339	2541.091899
780.543397	2540.350849
780.867409	2541.265818
781.191374	2544.789585
781.515294	2540.542413
781.839167	2539.640046
782.162995	2542.105171
782.486776	2540.101312
782.810511	2538.881353
783.134201	2540.358411
783.457844	2541.936292
783.781441	2541.613658
784.104993	2541.333874
784.428498	2538.639377
784.751958	2539.186343
785.075372	2540.577701
785.398739	2543.287321
785.722061	2544.187167
786.045337	2540.325643
786.368568	2541.870757
786.691752	2542.500901
787.014891	2542.120294
787.337983	2539.713143
787.661030	2545.465100
787.984031	2543.564585
788.306987	2545.845707
788.629897	2541.603576
788.952760	2542.458051
789.275579	2542.160623
789.598351	2545.558361
789.921078	2543.678011
790.243759	2542.256405
790.566395	2542.299255
790.888984	2544.618186
791.211529	2542.064841
791.534027	2541.220448
791.856480	2539.695499
792.178888	2540.549975
792.501249	2540.005530
792.823566	2543.514173
793.145836	2540.096271
793.468062	2541.613658
793.790241	2541.117104
794.112375	2542.919317
794.434464	2540.711292
794.756507	2539.834131
795.078505	2541.434697
795.400457	2538.324305
795.722364	2540.968390
796.044226	2539.917310
796.366042	2538.341949
796.687812	2540.915458
797.009538	2541.714481
797.331218	2542.873947
797.652852	2543.925027
797.974442	2542.115253
798.295986	2542.092568
798.617484	2540.494522
798.938938	2541.827907
799.260346	2542.231199
799.581709	2540.857485
799.903026	2542.498381
800.224299	2540.353370
800.545526	2540.171888
800.866708	2536.388502
801.187845	2541.780016
801.508936	2539.939995
801.829983	2539.841692
802.150984	2538.717515
802.471940	2539.403112
802.792851	2539.254398
803.113717	2541.326312
803.434538	2540.144162
803.755314	2539.201466
804.076045	2541.555685
804.396731	2539.481250
804.717372	2538.755324
805.037967	2537.467309
805.358518	2540.116435
805.679024	2540.446631
805.999485	2538.210879
806.319901	2539.236754
806.640272	2538.110056
806.960598	2540.146682
807.280879	2539.216589
807.601115	2538.583925
807.921306	2540.181970
808.241453	2539.839172
808.561554	2540.151723
808.881611	2541.548123
809.201623	2539.715664
809.521590	2539.987886
809.841513	2538.808256
810.161390	2541.535520
810.481223	2536.411187
810.801011	2538.969573
811.120755	2539.357742
811.440453	2540.804553
811.760107	2540.159285
812.079716	2535.115611
812.399281	2535.407998
812.718801	2536.958153
813.038276	2535.410518
813.357707	2538.808256
813.677093	2537.759696
813.996434	2542.274049
814.315731	2539.718184
814.634983	2537.187525
814.954191	2537.777340
815.273354	2540.003009
815.592473	2540.348328
815.911547	2540.076106
816.230577	2545.845707
816.549562	2540.053421
816.868502	2540.063503
817.187399	2541.084337
817.506250	2542.689944
817.825058	2539.657690
818.143821	2541.820345
818.462539	2540.103832
818.781213	2545.112219
819.099843	2539.700540
819.418429	2545.795295
819.736970	2546.619524
820.055466	2548.482230
820.373919	2551.164124
820.692327	2553.651933
821.010691	2561.170814
821.329011	2574.620613
821.647286	2604.827207
821.965517	2631.613378
822.283704	2651.523415
822.601847	2658.205464
822.919945	2645.118629
823.237999	2624.041565
823.556010	2608.330809
823.873976	2591.488314
824.191897	2582.273084
824.509775	2573.297310
824.827609	2567.300857
825.145398	2564.359344
825.463144	2563.628377
825.780845	2561.843808
826.098502	2567.764644
826.416116	2574.582804
826.733685	2581.862230
827.051210	2590.013776
827.368692	2583.677046
827.686129	2575.530541
828.003522	2566.784139
828.320872	2558.451112
828.638177	2552.938610
828.955439	2547.126160
829.272656	2547.153886
829.589830	2540.970911
829.906960	2542.561395
830.224046	2543.879657
830.541088	2545.397044
830.858086	2542.337064
831.175041	2543.804039
831.491952	2543.183978
831.808819	2541.795140
832.125642	2543.330171
832.442421	2545.636499
832.759157	2544.398896
833.075849	2553.735113
833.392497	2559.121585
833.709101	2561.874055
834.025662	2561.488407
834.342179	2562.650393
834.658653	2555.088662
834.975083	2552.421892
835.291469	2552.784855
835.607811	2545.205480
835.924110	2542.397557
836.240366	2544.819832
836.556578	2541.462423
836.872746	2541.908566
837.188871	2538.616692
837.504952	2538.034439
837.820990	2540.411343
838.136984	2534.682072
838.452935	2535.599562
838.768842	2538.339429
839.084706	2535.619726
839.400526	2540.431507
839.716303	2541.263298
840.032037	2547.567261
840.347727	2548.827549
840.663373	2544.323278
840.978977	2542.455531
841.294537	2541.175078
841.610054	2539.022505
841.925527	2538.732639
842.240957	2539.592155
842.556344	2537.527803
842.871687	2535.728111
843.186987	2535.912113
843.502244	2533.590662
843.817458	2537.288348
844.132629	2535.803728
844.447756	2534.671989
844.762840	2530.069416
845.077881	2534.387164
845.392879	2530.729807
845.707833	2532.998326
846.022745	2529.832482
846.337613	2534.805580
846.652438	2535.902031
846.967221	2533.341125
847.281960	2535.899510
847.596656	2533.139478
847.911309	2533.759540
848.225919	2534.772812
848.540485	2534.503111
848.855009	2534.210724
849.169490	2533.436907
849.483928	2534.447658
849.798323	2533.749458
850.112675	2534.913965
850.426984	2534.208203
850.741251	2533.489839
851.055474	2536.050745
851.369654	2533.973789
851.683792	2533.552853
851.997887	2531.198634
852.311938	2535.660055
852.625947	2535.075282
852.939914	2531.740558
853.253837	2537.285827
853.567718	2532.176618
853.881555	2533.336083
854.195350	2531.415404
854.509103	2533.149561
854.822812	2534.152750
855.136479	2534.684592
855.450103	2533.812472
855.763685	2533.167205
856.077224	2532.201824
856.390720	2531.349869
856.704173	2531.654859
857.017584	2533.578059
857.330953	2532.900024
857.644278	2533.116793
857.957561	2537.174922
858.270802	2536.549819
858.584000	2533.419263
858.897155	2533.706608
859.210268	2533.247863
859.523339	2532.055630
859.836367	2532.960517
860.149352	2534.619057
860.462295	2536.789274
860.775195	2532.622760
861.088054	2531.634694
861.400869	2532.549663
861.713642	2527.952131
862.026373	2531.785929
862.339062	2534.200641
862.651708	2533.726773
862.964312	2533.187369
863.276873	2535.692823
863.589392	2536.103677
863.901869	2534.062010
864.214303	2533.993954
864.526696	2537.726928
864.839045	2534.296423
865.151353	2532.746268
865.463619	2534.913965
865.775842	2535.216434
866.088023	2536.733821
866.400162	2532.365661
866.712258	2537.429500
867.024313	2534.979500
867.336325	2535.997813
867.648296	2535.327339
867.960224	2533.290713
868.272110	2536.149047
868.583954	2533.394057
868.895755	2534.954294
869.207515	2534.397246
869.519233	2536.464119
869.830909	2533.638553
870.142542	2537.227854
870.454134	2534.296423
870.765684	2536.645601
871.077191	2535.639891
871.388657	2535.725590
871.700081	2535.758358
872.011463	2540.008051
872.322803	2534.062010
872.634101	2535.748276
872.945357	2537.621064
873.256571	2535.960004
873.567744	2535.155940
873.878874	2535.483615
874.189963	2537.426980
874.501010	2536.955632
874.812015	2535.534027
875.122979	2536.290200
875.433900	2538.636857
875.744780	2536.517052
876.055618	2534.321629
876.366415	2538.452855
876.677169	2537.016126
876.987882	2536.242309
877.298554	2534.001516
877.609183	2534.629139
877.919771	2531.990095
878.230317	2537.220292
878.540822	2541.885880
878.851285	2537.608461
879.161707	2542.016950
879.472087	2543.302445
879.782425	2545.644061
880.092722	2551.693445
880.402977	2560.328942
880.713191	2575.202866
881.023363	2588.405648
881.333494	2605.379213
881.643583	2603.357710
881.953631	2601.414346
882.263637	2598.873604
882.573602	2593.477049
882.883526	2583.397262
883.193408	2577.700758
883.503248	2569.455951
883.813048	2567.454613
884.122806	2560.074363
884.432522	2557.581513
884.742197	2551.839639
885.051831	2551.269988
885.361424	2549.732436
885.670975	2547.988197
885.980485	2541.202804
886.289954	2542.344625
886.599382	2541.638864
886.908768	2544.454348
887.218113	2540.123997
887.527417	2537.971424
887.836680	2539.801363
888.145901	2536.549819
888.455082	2538.054603
888.764221	2537.673996
889.073319	2537.875643
889.382376	2536.648122
889.691392	2536.668286
890.000366	2539.995448
890.309300	2536.532175
890.618193	2539.660211
890.927044	2536.917823
891.235855	2537.154757
891.544625	2538.798174
891.853353	2534.956814
892.162041	2537.923533
892.470687	2540.247505
892.779293	2539.536703
893.087858	2538.505787
893.396381	2538.425128
893.704864	2544.063659
894.013306	2539.871939
894.321707	2552.575647
894.630068	2557.916750
894.938387	2560.765002
895.246665	2561.690053
895.554903	2556.142263
895.863100	2550.632282
896.171256	2548.630944
896.479371	2547.504246
896.787446	2544.842517
897.095480	2542.087527
897.403473	2539.665252
897.711425	2539.962680
898.019336	2540.250026
898.327207	2538.946888
898.635038	2539.395550
898.942827	2540.507125
899.250576	2536.363296
899.558284	2538.566281
899.865952	2536.161650
900.173579	2537.850437
900.481165	2536.290200
900.788711	2533.699047
901.096216	2538.099974
901.403681	2537.525282
901.711105	2535.622247
902.018489	2537.106867
902.325832	2537.212731
902.633135	2536.995961
902.940397	2535.496218
903.247619	2536.121321
903.554800	2545.896118
903.861941	2553.848538
904.169041	2563.003274
904.476101	2564.762637
904.783121	2568.692216
905.090100	2561.226267
905.397039	2557.208467
905.703938	2550.728064
906.010796	2547.665563
906.317614	2546.203629
906.624391	2542.964687
906.931129	2541.008720
907.237826	2537.235416
907.544483	2535.148378
907.851099	2536.186856
908.157675	2531.430527
908.464211	2535.183666
908.770707	2530.366844
909.077163	2533.230219
909.383578	2529.794673
909.689954	2530.661751
909.996289	2528.453726
910.302584	2534.971938
910.608839	2533.424304
910.915054	2533.328522
911.221229	2535.496218
911.527363	2530.717204
911.833458	2532.733666
912.139513	2535.400436
912.445527	2531.962369
912.751502	2536.179294
913.057436	2533.149561
913.363331	2536.668286
913.669186	2534.805580
913.975000	2536.653163
914.280775	2538.853626
914.586510	2543.582229
914.892205	2547.085831
915.197859	2546.417878
915.503475	2552.681511
915.809050	2559.323232
916.114585	2563.739282
916.420081	2565.360013
916.725536	2562.219374
917.030952	2558.647717
917.336328	2556.737120
917.641665	2557.916750
917.946961	2548.812426
918.252218	2549.064483
918.557435	2545.591128
918.862612	2542.924358
919.167750	2542.158103
919.472848	2542.014430
919.777906	2541.530479
920.082925	2538.198276
920.387904	2534.982020
920.692843	2539.677855
920.997743	2534.160312
921.302603	2538.392361
921.607423	2535.985210
921.912204	2534.951773
922.216946	2534.752648
922.521647	2535.450848
922.826310	2534.409849
923.130932	2535.912113
923.435516	2531.831299
923.740059	2534.782895
924.044564	2532.572349
924.349028	2534.457740
924.653454	2530.906247
924.957840	2529.580424
925.262186	2528.259642
925.566493	2534.026722
925.870761	2525.577748
926.174989	2529.260311
926.479178	2531.836340
926.783328	2532.834489
927.087438	2530.412214
927.391509	2532.350538
927.695541	2531.072605
927.999533	2533.378933
928.303486	2530.243336
928.607400	2531.117976
928.911275	2532.655528
929.215110	2532.670651
929.518906	2529.361134
929.822663	2532.005219
930.126381	2528.965403
930.430060	2530.366844
930.733699	2530.500434
931.037299	2532.020342
931.340861	2529.403983
931.644383	2530.807945
931.947866	2530.757533
932.251309	2531.354910
932.554714	2531.128058
932.858080	2529.154446
933.161407	2530.848274
933.464694	2530.061854
933.767943	2529.698891
934.071153	2531.974972
934.374323	2529.204858
934.677455	2530.848274
934.980548	2528.713345
935.283602	2531.627132
935.586617	2528.599919
935.889593	2531.342307
936.192530	2532.098480
936.495428	2530.316432
936.798287	2531.939684
937.101108	2532.380785
937.403890	2528.337779
937.706632	2533.482277
938.009336	2530.906247
938.312002	2530.477749
938.614628	2532.214427
938.917216	2529.288037
939.219765	2532.481608
939.522275	2534.021680
939.824747	2532.577390
940.127179	2530.092101
940.429573	2529.328366
940.731929	2530.409694
941.034246	2529.555218
941.336524	2532.025383
941.638763	2530.145033
941.940964	2534.664428
942.243126	2529.378778
942.545250	2531.317101
942.847335	2531.584282
943.149381	2531.518748
943.451389	2531.987575
943.753359	2532.635363
944.055290	2533.530168
944.357182	2528.481452
944.659036	2529.774508
944.960851	2529.416586
945.262628	2529.819879
945.564367	2530.891124
945.866067	2527.737882
946.167729	2530.858356
946.469352	2530.762574
946.770937	2531.183511
947.072484	2528.889786
947.373992	2530.966741
947.675462	2529.285516
947.976893	2531.178470
948.278286	2531.780888
948.579641	2532.103521
948.880958	2527.689991
949.182236	2529.466998
949.483476	2526.923736
949.784678	2530.379447
950.085841	2528.683098
950.386967	2529.240146
950.688054	2528.930115
950.989103	2529.371216
951.290114	2530.323994
951.591087	2529.373737
951.892021	2532.138809
952.192917	2532.612678
952.493776	2529.741741
952.794596	2533.063861
953.095378	2530.293747
953.396122	2534.029242
953.696828	2529.769467
953.997496	2530.969262
954.298126	2530.928933
954.598718	2530.951618
954.899272	2530.470187
955.199788	2531.188552
955.500266	2529.242667
955.800706	2525.376102
956.101108	2525.938190
956.401472	2528.025228
956.701798	2524.350227
957.002087	2525.832326
957.302337	2528.282327
957.602550	2530.520599
957.902724	2528.279806
958.202861	2530.356762
958.502960	2526.873324
958.803022	2530.255938
959.103045	2529.560259
959.403031	2530.515558
959.702979	2526.006246
960.002889	2529.769467
960.302762	2525.499610
960.602596	2526.827954
960.902393	2526.782583
961.202153	2529.865249
961.501875	2527.841226
961.801559	2527.783253
962.101205	2528.743592
962.400814	2528.267203
962.700385	2528.312574
962.999918	2528.564631
963.299414	2525.852491
963.598873	2527.896678
963.898293	2526.979188
964.197677	2526.812830
964.497022	2528.005063
964.796331	2527.390043
965.095601	2526.996832
965.394835	2530.719725
965.694030	2526.737213
965.993189	2526.669158
966.292309	2524.761081
966.591393	2528.368026
966.890439	2528.985568
967.189447	2527.069929
967.488419	2528.569673
967.787353	2526.918695
968.086249	2528.466329
968.385108	2530.313912
968.683930	2525.499610
968.982714	2528.882224
969.281462	2529.156967
969.580172	2528.473891
969.878844	2526.485155
970.177480	2524.521626
970.476078	2526.679240
970.774639	2531.130579
971.073162	2527.813499
971.371649	2526.497758
971.670098	2521.678415
971.968510	2525.217305
972.266885	2522.979033
972.565223	2527.266534
972.863524	2528.854498
973.161788	2526.165042
973.460014	2526.835516
973.758204	2528.410876
974.056356	2526.666637
974.354471	2527.216123
974.652550	2529.015815
974.950591	2527.609333
975.248595	2530.364323
975.546563	2526.679240
975.844493	2529.411545
976.142386	2531.007070
976.440243	2527.052285
976.738062	2527.495907
977.035845	2527.785773
977.333590	2525.696215
977.631299	2526.243180
977.928971	2528.809127
978.226606	2526.858201
978.524204	2527.695032
978.821765	2527.508510
979.119290	2529.759385
979.416777	2527.178314
979.714228	2526.691843
980.011642	2527.299302
980.309020	2528.738551
980.606360	2527.500948
980.903664	2529.119158
981.200931	2527.604292
981.498162	2528.209230
981.795356	2525.640762
982.092513	2528.514220
982.389633	2528.710825
982.686717	2528.801566
982.983764	2529.162008
983.280775	2526.974147
983.577749	2526.918695
983.874686	2529.328366
984.171587	2528.897348
984.468451	2528.214271
984.765279	2527.163191
985.062070	2529.388860
985.358824	2530.402132
985.655543	2524.340144
985.952224	2527.344672
986.248869	2525.764270
986.545478	2521.852335
986.842050	2525.907943
987.138586	2523.105062
987.435086	2525.754188
987.731549	2523.894002
988.027975	2525.862573
988.324366	2523.339475
988.620719	2527.667306
988.917037	2528.070598
989.213318	2527.538757
989.509563	2525.928108
989.805772	2526.694363
990.101944	2526.225536
990.398080	2528.002543
990.694180	2528.025228
990.990244	2528.390712
991.286271	2523.841070
991.582262	2527.798376
991.878217	2524.619928
992.174136	2528.461288
992.470019	2527.158149
992.765865	2526.449867
993.061676	2528.499096
993.357450	2527.150588
993.653188	2527.652183
993.948890	2526.701925
994.244556	2526.240659
994.540186	2528.168901
994.835780	2526.263345
995.131337	2527.001874
995.426859	2525.764270
995.722345	2524.871986
996.017795	2526.016328
996.313208	2526.575896
996.608586	2527.793335
996.903928	2525.958355
997.199234	2531.027235
997.494504	2527.203520
997.789738	2525.867614
998.084936	2527.155629
998.380099	2525.975999
998.675225	2525.902902
998.970316	2525.290402
999.265371	2526.585978
999.560390	2525.766791
999.855373	2526.154960
1000.150320	2524.244362
1000.445232	2529.466998
1000.740108	2527.521113
1001.034948	2527.042203
1001.329752	2526.313756
1001.624521	2528.693181
1001.919254	2523.455422
1002.213951	2523.682274
1002.508613	2524.541791
1002.803239	2523.657068
1003.097829	2522.258148
1003.392384	2525.348375
1003.686903	2526.792666
1003.981386	2526.157480
1004.275834	2523.284023
1004.570246	2526.495238
1004.864623	2527.919364
1005.158964	2528.521782
1005.453270	2526.081863
1005.747540	2526.459950
1006.041775	2525.305525
1006.335974	2524.950124
1006.630138	2523.861235
1006.924266	2527.160670
1007.218359	2528.143695
1007.512416	2529.933305
1007.806438	2525.892820
1008.100425	2525.202182
1008.394376	2528.978006
1008.688292	2526.096987
1008.982172	2527.057326
1009.276017	2527.513551
1009.569827	2525.686132
1009.863602	2527.765608
1010.157341	2526.712007
1010.451045	2525.706297
1010.744714	2522.958868
1011.038347	2525.547501
1011.331945	2527.127902
1011.625508	2525.789476
1011.919036	2527.442975
1012.212528	2525.867614
1012.505986	2527.206040
1012.799408	2525.252593
1013.092795	2527.208561
1013.386147	2524.393077
1013.679464	2525.948272
1013.972745	2526.870804
1014.265992	2523.271420
1014.559204	2524.814013
1014.852380	2524.945083
1015.145521	2527.122861
1015.438628	2527.553880
1015.731699	2524.350227
1016.024736	2526.659075
1016.317737	2524.965248
1016.610703	2528.854498
1016.903635	2521.595236
1017.196531	2519.072139
1017.489393	2523.742768
1017.782219	2520.561800
1018.075011	2526.321318
1018.367768	2523.621780
1018.660490	2522.956348
1018.953177	2522.956348
1019.245829	2522.956348
