Dividing Wavelength (nm)	Counts (n)	Blue Motor Position (mm): 0.000000	Red Motor Position (mm): 31.500000	
326.493990	2080.045612
326.888308	2080.045612
327.282561	2080.045612
327.676750	2055.565769
328.070874	2056.029555
328.464933	2064.072716
328.858929	2075.639643
329.252859	2085.984091
329.646726	2099.607809
330.040528	2116.593977
330.434265	2135.279014
330.827938	2157.026552
331.221547	2174.151351
331.615091	2195.601461
332.008571	2217.172558
332.401986	2237.521176
332.795338	2255.974319
333.188625	2274.808070
333.581847	2295.292799
333.975006	2314.113947
334.368100	2330.316215
334.761129	2350.301870
335.154095	2362.650176
335.546996	2389.824516
335.939833	2419.935328
336.332606	2437.352514
336.725315	2446.497167
337.117960	2456.566872
337.510540	2463.264045
337.903056	2472.338122
338.295508	2477.459934
338.687896	2485.581233
339.080220	2494.299909
339.472480	2499.782163
339.864676	2501.060096
340.256807	2500.634118
340.648875	2504.979593
341.040879	2508.213493
341.432818	2510.116529
341.824694	2508.483195
342.216506	2507.611075
342.608253	2508.624347
342.999937	2507.777433
343.391557	2509.027640
343.783113	2506.950684
344.174605	2505.899604
344.566033	2502.312823
344.957397	2500.676968
345.348697	2498.410970
345.739934	2498.413490
346.131106	2494.766215
346.522215	2496.223109
346.913260	2495.489621
347.304241	2493.117758
347.695159	2491.043323
348.086012	2490.082983
348.476802	2489.500730
348.867528	2484.056284
349.258191	2484.618373
349.648789	2484.830101
350.039324	2483.736171
350.429796	2483.655512
350.820203	2482.614514
351.210548	2482.163331
351.600828	2480.691314
351.991045	2484.164669
352.381198	2479.935141
352.771288	2483.829432
353.161314	2479.098309
353.551276	2484.535194
353.941175	2481.177785
354.331010	2481.550831
354.720782	2481.500419
355.110490	2482.637199
355.500135	2484.784731
355.889717	2484.416727
356.279235	2482.478403
356.668689	2487.716162
357.058080	2485.180461
357.447408	2483.726088
357.836672	2481.321458
358.225873	2484.696511
358.615010	2482.569144
359.004084	2493.021976
359.393095	2487.302787
359.782043	2487.713641
360.170927	2488.736995
360.559748	2491.643221
360.948505	2491.454177
361.337199	2494.718324
361.725830	2493.405104
362.114398	2494.904847
362.502903	2497.392657
362.891344	2494.098262
363.279722	2498.980620
363.668037	2499.562873
364.056289	2498.680671
364.444478	2499.310816
364.832603	2497.727893
365.220665	2502.572442
365.608665	2503.268121
365.996601	2503.363903
366.384474	2503.041269
366.772284	2506.058400
367.160031	2506.202073
367.547715	2507.061590
367.935336	2508.624347
368.322893	2505.844151
368.710388	2508.493277
369.097820	2510.923113
369.485189	2510.212311
369.872495	2514.288084
370.259738	2515.190450
370.646918	2516.682632
371.034035	2517.443846
371.421090	2518.830163
371.808081	2523.669671
372.195010	2524.894671
372.581875	2533.406660
372.968678	2536.696013
373.355418	2543.131045
373.742096	2555.476831
374.128710	2559.872717
374.515262	2573.317475
374.901751	2586.056470
375.288177	2601.016094
375.674540	2617.649382
376.060841	2635.275776
376.447079	2660.327790
376.833254	2681.581295
377.219367	2699.225333
377.605417	2733.061558
377.991404	2757.992584
378.377329	2794.611526
378.763191	2826.834581
379.148991	2875.673279
379.534727	2920.385793
379.920402	2965.141157
380.306013	3007.779237
380.691563	3067.955490
381.077049	3123.289715
381.462474	3172.141017
381.847835	3242.830596
382.233134	3309.840134
382.618371	3364.730738
383.003545	3448.557564
383.388657	3525.253679
383.773706	3610.350876
384.158693	3679.089530
384.543618	3768.486831
384.928480	3846.332329
385.313280	3944.823872
385.698017	4043.950601
386.082692	4155.392868
386.467305	4218.102302
386.851856	4335.092359
387.236344	4483.599710
387.620770	4544.655645
388.005133	4655.926513
388.389435	4794.936331
388.773674	4876.421541
389.157851	5007.650338
389.541965	5132.154235
389.926018	5159.661291
390.310008	5328.018185
390.693936	5450.356907
391.077802	5565.249844
391.461606	5688.102763
391.845348	5798.073014
392.229027	5916.595582
392.612645	6132.614065
392.996200	6242.604481
393.379694	6414.031438
393.763125	6628.572863
394.146494	6712.452622
394.529801	6844.346851
394.913047	7086.801145
395.296230	7078.727737
395.679351	7132.882332
396.062410	7382.505147
396.445408	7285.238604
396.828343	7437.047911
397.211217	7567.994403
397.594028	7460.663196
397.976778	7660.345821
398.359466	7821.766087
398.742092	7808.608676
399.124656	7944.752597
399.507158	8134.312585
399.889598	8160.120772
400.271977	8369.361424
400.654294	8404.100015
401.036549	8599.928677
401.418742	8620.501626
401.800874	8916.596318
402.182944	9008.012602
402.564952	9355.950520
402.946898	9198.943783
403.328783	9248.881453
403.710606	9444.309344
404.092367	9704.357265
404.474067	10051.975070
404.855705	9857.144556
405.237282	9809.351897
405.618797	10232.256813
406.000250	10478.585234
406.381642	10833.968937
406.762972	10782.292068
407.144240	10602.685839
407.525447	10850.942502
407.906593	10795.656167
408.287677	11056.442618
408.668700	11207.263858
409.049661	11197.194153
409.430560	11348.698471
409.811399	11330.381438
410.192176	11490.057466
410.572891	11570.443705
410.953545	12043.422403
411.334138	11534.132274
411.714669	12113.451591
412.095139	11459.361880
412.475547	11935.735795
412.855894	11807.982874
413.236180	12130.180660
413.616405	11817.591313
413.996568	12091.469640
414.376670	12074.110427
414.756711	11969.047739
415.136691	12241.489337
415.516609	12409.211046
415.896466	12492.105260
416.276262	12782.269034
416.655997	13239.559661
417.035670	13288.998257
417.415283	13897.447882
417.794834	13984.110358
418.174324	13732.967635
418.553753	13645.811126
418.933121	14132.632832
419.312428	13963.154281
419.691674	13874.470303
420.070859	14338.337115
420.449983	13987.697139
420.829045	14546.057859
421.208047	14308.574143
421.586988	14754.890178
421.965867	14997.190717
422.344686	15009.927192
422.723444	15573.296299
423.102141	14276.154482
423.480777	15462.398476
423.859352	14961.262413
424.237866	16069.799541
424.616319	15782.930161
424.994712	16426.549396
425.373044	16221.538272
425.751314	16911.775577
426.129524	16045.198711
426.507673	17126.185933
426.885762	16855.851537
427.263789	17030.010800
427.641756	17209.780866
428.019662	17273.274199
428.397508	17325.634143
428.775292	17611.631404
429.153016	17591.247498
429.530679	17655.900297
429.908282	17712.668730
430.285824	17438.883665
430.663305	18148.892375
431.040726	17768.363398
431.418086	17608.629397
431.795385	18232.459583
432.172624	18672.169186
432.549802	18233.750118
432.926920	18453.849415
433.303977	18319.658941
433.680974	18589.496783
434.057910	18892.076919
434.434786	18925.240150
434.811601	18862.744966
435.188355	19901.212576
435.565050	19562.164732
435.941683	19530.455875
436.318257	20426.301681
436.694770	20234.173225
437.071222	20827.174235
437.447614	19898.167719
437.823946	19932.046793
438.200218	20108.867785
438.576429	19879.790192
438.952580	20188.366781
439.328670	20153.403858
439.704700	20577.006975
440.080670	20141.068155
440.456580	20759.781569
440.832429	20936.136254
441.208218	19941.294790
441.583947	20387.925897
441.959616	20500.988896
442.335224	20761.649317
442.710773	20903.010833
443.086261	21456.947941
443.461689	20788.430447
443.837057	20949.099582
444.212365	21603.189293
444.587612	21605.243563
444.962800	21208.585414
445.337927	21642.316209
445.712995	20343.241109
446.088002	22246.551429
446.462949	22451.295372
446.837837	22641.054485
447.212664	22660.251199
447.587431	25619.045544
447.962139	28596.635830
448.336786	30913.744222
448.711374	29234.253572
449.085901	25514.713824
449.460369	25521.796645
449.834776	25515.643917
450.209124	28066.709738
450.583412	27553.885760
450.957640	28043.414566
451.331808	26691.830808
451.705917	25316.097403
452.079965	25360.701532
452.453954	25736.514511
452.827883	25652.435626
453.201752	25450.882734
453.575562	25616.661078
453.949311	26749.436073
454.323001	26823.341909
454.696632	26610.814425
455.070202	28217.425115
455.443713	28400.522343
455.817164	28971.148191
456.190556	29543.820747
456.563888	28935.235011
456.937160	29380.016015
457.310373	27663.979519
457.683526	28115.755124
458.056619	28108.029556
458.429653	28085.898890
458.802628	28699.828250
459.175542	28847.110600
459.548398	30215.360413
459.921194	31855.600640
460.293930	32589.151539
460.666607	34679.798697
461.039224	36486.462536
461.411782	36832.005906
461.784280	35545.942025
462.156719	34985.209441
462.529099	34421.159778
462.901419	33082.957764
463.273680	32023.476104
463.645882	32178.945288
464.018024	32158.715138
464.390106	33099.608695
464.762130	36010.985946
465.134094	40343.789622
465.505999	45834.165728
465.877845	50377.944212
466.249631	51376.271635
466.621358	49527.254542
466.993026	47295.308882
467.364634	45145.985214
467.736184	43169.994058
468.107674	41891.010478
468.479105	41111.514502
468.850477	40388.436601
469.221790	38939.654356
469.593043	37155.963055
469.964238	36244.104024
470.335373	36199.772117
470.706449	38054.203409
471.077467	40821.597745
471.448425	45495.475807
471.819324	48255.376468
472.190164	46256.974863
472.560945	42609.548821
472.931667	39458.721802
473.302330	38354.404120
473.672934	37494.431165
474.043479	38055.803975
474.413965	37246.673577
474.784393	36873.706330
475.154761	37802.549009
475.525070	37837.816921
475.895321	37340.837290
476.265513	37984.902667
476.635645	38971.199376
477.005719	38819.823608
477.375734	39311.429369
477.745691	40045.358355
478.115588	41396.584191
478.485427	43512.623641
478.855207	46982.437231
479.224928	49610.312593
479.594591	51176.747807
479.964194	50052.487320
480.333739	50190.942610
480.703226	50248.968812
481.072653	50909.445665
481.442022	51365.297043
481.811333	51550.829148
482.180584	50260.076994
482.549777	49719.027596
482.918912	49161.052524
483.287988	48827.585238
483.657005	47992.175305
484.025964	47283.706667
484.394864	47262.753111
484.763706	46798.120043
485.132489	45900.681233
485.501213	45713.130145
485.869879	45843.622933
486.238487	45409.766109
486.607036	45571.877014
486.975527	44978.926416
487.343959	45167.105128
487.712333	45209.720522
488.080648	45056.988684
488.448905	45481.375700
488.817104	45251.020175
489.185244	46213.489870
489.553326	47912.217564
489.921350	50616.756273
490.289315	53406.949227
490.657222	53902.744187
491.025070	54074.962606
491.392861	53093.414664
491.760593	51747.348449
492.128267	49988.515078
492.495883	48364.247747
492.863440	46901.430929
493.230939	45481.683210
493.598380	44304.233509
493.965763	43919.006176
494.333088	43021.164073
494.700354	42457.903351
495.067563	42093.385078
495.434713	41866.313865
495.801805	41840.442663
496.168839	41363.937678
496.535815	40957.459362
496.902733	40872.841074
497.269593	40364.196212
497.636395	40188.161641
498.003139	40468.212860
498.369825	39825.387607
498.736453	40009.160350
499.103023	39436.860839
499.469535	39205.199655
499.835989	39161.074435
500.202385	38692.476500
500.568723	38590.057898
500.935003	38638.299220
501.301226	38308.489291
501.667390	38736.337059
502.033497	38820.602466
502.399546	38139.860174
502.765537	37360.553243
503.131470	37565.924809
503.497345	37739.925275
503.863163	36356.957814
504.228923	36767.471575
504.594625	36975.381362
504.960269	36148.644734
505.325856	36605.355629
505.691385	35868.780037
506.056856	35827.979459
506.422270	36039.838990
506.787625	35469.437474
507.152924	35457.850382
507.518164	35374.255448
507.883347	34499.063249
508.248472	34520.432701
508.613540	34764.532932
508.978550	34805.157070
509.343503	34407.712501
509.708398	34365.823033
510.073236	34612.552225
510.438016	34389.029984
510.802738	33735.303236
511.167403	34042.140627
511.532010	34001.176210
511.896561	34033.875655
512.261053	34499.670708
512.625488	33890.696803
512.989866	33572.927671
513.354186	33223.187540
513.718449	32983.561333
514.082655	33284.195584
514.446803	32783.702268
514.810894	32957.564103
515.174927	32639.638694
515.538904	32319.800168
515.902822	32583.152566
516.266684	31924.629159
516.630488	31983.041009
516.994235	31633.719294
517.357925	31797.345066
517.721558	31662.877328
518.085133	31631.337349
518.448651	31454.798662
518.812112	31022.239936
519.175516	30841.053305
519.538863	30812.104479
519.902152	30503.784989
520.265385	30561.596941
520.628560	30315.737347
520.991678	29896.608255
521.354739	29783.235226
521.717743	29719.885566
522.080690	29368.471772
522.443580	29452.999319
522.806413	29214.484687
523.169189	28891.588701
523.531908	28715.904489
523.894569	28350.975362
524.257174	28170.711262
524.619722	28063.644717
524.982213	27762.680270
525.344647	27435.673223
525.707025	27196.399897
526.069345	27148.153534
526.431608	26819.906363
526.793815	26712.713788
527.155964	26173.506932
527.518057	25987.185886
527.880093	25589.574958
528.242072	25595.092501
528.603995	25156.068495
528.965860	24876.355033
529.327669	24645.865917
529.689421	24329.956970
530.051117	24028.816083
530.412755	23843.447815
530.774337	23588.546912
531.135862	23233.649682
531.497331	23046.055744
531.858743	22729.740984
532.220098	22621.288121
532.581396	22219.566133
532.942638	21789.401954
533.303824	21680.220644
533.664953	21396.718755
534.026025	21011.231803
534.387040	20966.471398
534.747999	20699.529699
535.108902	20506.032570
535.469748	20038.190808
535.830537	19834.208079
536.191270	19659.484207
536.551947	19276.754766
536.912567	19154.728596
537.273131	18955.235015
537.633638	18513.090535
537.994089	18404.975429
538.354483	17997.486361
538.714821	17975.345613
539.075103	17859.981328
539.435328	17528.139814
539.795497	17239.954693
540.155609	17012.344076
540.515665	16938.183662
540.875665	16536.983433
541.235609	16406.898978
541.595496	16180.404977
541.955328	16172.533216
542.315102	15751.697692
542.674821	15462.653054
543.034483	15257.546148
543.394090	15045.663932
543.753640	14815.368901
544.113134	14899.606581
544.472571	14410.324792
544.831953	14549.785792
545.191278	14128.902378
545.550548	13854.749309
545.909761	13775.343574
546.268918	13635.544816
546.628019	13511.910518
546.987064	13211.351885
547.346053	12836.733660
547.704986	12849.807893
548.063863	12552.732696
548.422684	12410.352868
548.781449	12192.935464
549.140158	12106.711569
549.498811	11898.965619
549.857408	11608.431320
550.215949	11602.777666
550.574434	11420.413925
550.932864	11206.497603
551.291237	11181.929540
551.649555	10947.379775
552.007817	10831.324851
552.366022	10609.957704
552.724173	10480.367282
553.082267	10392.825125
553.440305	10291.772676
553.798288	10023.447180
554.156215	9929.863200
554.514086	9814.229213
554.871902	9627.794741
555.229661	9489.200819
555.587365	9319.412237
555.945014	9198.243063
556.302606	9057.027741
556.660143	8955.690466
557.017625	8831.718411
557.375050	8676.770986
557.732421	8591.620856
558.089735	8459.580434
558.446994	8325.621853
558.804197	8263.386288
559.161345	8126.266903
559.518437	7918.934328
559.875474	7834.371493
560.232455	7740.149807
560.589381	7643.523490
560.946251	7499.331367
561.303065	7459.271838
561.659825	7331.647467
562.016528	7186.812596
562.373177	7054.494910
562.729770	7006.455235
563.086307	6862.880653
563.442789	6808.569782
563.799216	6717.241718
564.155587	6603.195695
564.511904	6514.559607
564.868164	6437.162772
565.224370	6368.910590
565.580520	6261.292038
565.936615	6193.405340
566.292654	6091.047231
566.648638	6035.224014
567.004567	5945.579696
567.360441	5875.507658
567.716260	5791.295183
568.072023	5744.606536
568.427732	5667.549979
568.783385	5569.738992
569.138982	5527.756262
569.494525	5463.128670
569.850013	5381.666144
570.205445	5317.557791
570.560823	5254.422380
570.916145	5187.395199
571.271412	5131.725737
571.626625	5064.214604
571.981782	5008.487169
572.336884	4938.894040
572.691931	4908.831119
573.046923	4837.428216
573.401860	4779.361686
573.756743	4726.396803
574.111570	4686.327192
574.466342	4632.908605
574.821059	4592.024847
575.175722	4531.377246
575.530330	4486.815966
575.884882	4428.595681
576.239380	4386.307962
576.593823	4350.044421
576.948211	4310.075633
577.302544	4254.030605
577.656823	4217.467116
578.011047	4194.474414
578.365216	4150.691993
578.719330	4111.161785
579.073389	4074.200045
579.427394	4043.509500
579.781344	4013.930530
580.135239	3974.428048
580.489080	3950.656487
580.842866	3905.676792
581.196597	3896.771594
581.550273	3869.342676
581.903895	3843.327801
582.257463	3829.147036
582.610975	3793.140594
582.964434	3776.787091
583.317837	3744.291813
583.671186	3717.644274
584.024481	3702.712377
584.377721	3670.943025
584.730906	3657.037002
585.084037	3641.449754
585.437113	3613.332719
585.790135	3595.192127
586.143103	3568.370668
586.496016	3556.002197
586.848874	3535.509906
587.201679	3524.893236
587.554428	3495.301663
587.907124	3486.464521
588.259765	3468.510451
588.612352	3463.060964
588.964884	3438.518106
589.317362	3429.743978
589.669786	3416.783172
590.022155	3401.944535
590.374470	3397.163001
590.726731	3376.461503
591.078937	3353.050384
591.431090	3343.913293
591.783188	3329.213288
592.135232	3312.138900
592.487222	3305.880308
592.839157	3299.094914
593.191038	3284.820887
593.542866	3272.127262
593.894639	3255.897267
594.246358	3253.371649
594.598022	3242.848240
594.949633	3228.927094
595.301190	3222.043398
595.652692	3213.881770
596.004141	3208.560832
596.355535	3186.319262
596.706876	3178.931451
597.058162	3169.151612
597.409395	3170.326201
597.760573	3169.988444
598.111698	3155.177534
598.462768	3149.412974
598.813785	3144.303765
599.164748	3133.193062
599.515657	3129.903709
599.866511	3119.181175
600.217312	3122.720065
600.568060	3102.883124
600.918753	3109.393775
601.269392	3102.908330
601.619978	3093.499017
601.970510	3092.059767
602.320988	3088.392328
602.671412	3089.718151
603.021783	3080.495360
603.372100	3071.393557
603.722363	3070.420614
604.072572	3067.897517
604.422728	3066.312074
604.772830	3054.049467
605.122878	3049.013354
605.472872	3047.690052
605.822813	3043.556305
606.172701	3044.370452
606.522534	3041.625543
606.872314	3039.669576
607.222041	3036.549102
607.571714	3036.128165
607.921333	3023.873120
608.270899	3024.193233
608.620411	3025.163656
608.969870	3021.390352
609.319276	3019.688963
609.668627	3012.928775
610.017926	3017.269209
610.367171	3015.824918
610.716362	3014.095802
611.065500	3007.557426
611.414585	3005.586335
611.763616	3008.560615
612.112594	3003.695902
612.461518	3002.770850
612.810389	3001.699605
613.159207	2999.481497
613.507971	2993.943790
613.856682	2999.108452
614.205340	2990.931700
614.553945	2999.446209
614.902496	2988.801813
615.250994	2992.582678
615.599439	2988.504385
615.947830	2990.165445
616.296169	2986.228304
616.644454	2986.432471
616.992686	2982.802840
617.340864	2986.187975
617.688990	2980.378045
618.037063	2984.194198
618.385082	2978.674135
618.733048	2980.640185
619.080961	2979.150524
619.428821	2976.569453
619.776628	2975.883856
620.124382	2973.491829
620.472083	2971.054431
620.819731	2968.564101
621.167326	2963.341465
621.514868	2961.355251
621.862357	2951.812347
622.209793	2953.659929
622.557176	2945.881429
622.904506	2940.744493
623.251783	2930.153029
623.599007	2931.262083
623.946179	2924.385949
624.293297	2922.094745
624.640363	2919.128026
624.987376	2915.531162
625.334336	2912.173754
625.681243	2908.715522
626.028097	2906.515059
626.374899	2904.944739
626.721647	2901.342835
627.068343	2900.042217
627.414987	2895.500138
627.761577	2889.622152
628.108115	2891.999056
628.454600	2886.473952
628.801032	2889.027296
629.147412	2884.891029
629.493739	2883.550082
629.840014	2879.625544
630.186236	2880.931203
630.532405	2874.780995
630.878521	2876.678990
631.224585	2873.397198
631.570597	2870.785881
631.916556	2868.776981
632.262462	2867.826723
632.608316	2868.998792
632.954117	2864.106352
633.299866	2863.569469
633.645562	2859.914632
633.991206	2860.063347
634.336797	2851.954651
634.682336	2853.298118
635.027823	2848.042715
635.373257	2845.111284
635.718639	2840.314626
636.063968	2840.062569
636.409245	2832.548729
636.754470	2833.380519
637.099642	2830.557473
637.444762	2823.283088
637.789829	2826.043120
638.134845	2822.100937
638.479808	2820.472645
638.824719	2819.398879
639.169577	2817.387459
639.514383	2815.789413
639.859137	2811.285142
640.203839	2813.404947
640.548489	2809.961839
640.893086	2804.204841
641.237632	2803.678041
641.582125	2802.548822
641.926566	2802.221147
642.270955	2802.415232
642.615292	2802.148051
642.959576	2801.583441
643.303809	2800.681075
643.647990	2801.061682
643.992118	2801.071764
644.336195	2799.395581
644.680219	2801.407001
645.024192	2800.134110
645.368112	2804.083854
645.711981	2803.529327
646.055797	2808.147024
646.399562	2810.256747
646.743274	2813.800678
647.086935	2816.396872
647.430544	2815.058446
647.774101	2816.573312
648.117606	2812.555513
648.461059	2817.503405
648.804460	2817.200936
649.147810	2807.602579
649.491108	2806.301961
649.834354	2804.325829
650.177548	2797.389201
650.520690	2792.912657
650.863781	2793.384005
651.206820	2792.337965
651.549807	2788.829322
651.892742	2784.642644
652.235626	2782.522839
652.578458	2785.111471
652.921238	2777.509411
653.263967	2780.529062
653.606644	2776.690224
653.949269	2775.681993
654.291843	2769.158740
654.634365	2772.889194
654.976836	2770.661004
655.319255	2771.495315
655.661622	2767.437186
656.003938	2767.492638
656.346203	2766.557504
656.688416	2766.945673
657.030577	2766.313008
657.372687	2765.138420
657.714746	2765.163625
658.056753	2763.716814
658.398708	2756.944024
658.740612	2759.315887
659.082465	2757.964858
659.424266	2758.670619
659.766016	2757.440578
660.107715	2760.528284
660.449362	2759.346134
660.790958	2757.851432
661.132503	2760.261103
661.473996	2759.741864
661.815438	2761.919643
662.156829	2761.327307
662.498168	2758.635331
662.839456	2760.719848
663.180693	2759.227667
663.521879	2759.434354
663.863013	2759.772111
664.204097	2758.431164
664.545129	2762.496855
664.886110	2762.741351
665.227040	2762.065836
665.567918	2764.614140
665.908746	2762.620363
666.249522	2766.141609
666.590248	2763.989037
666.930922	2763.048861
667.271545	2764.624222
667.612118	2764.969541
667.952639	2761.574324
668.293109	2763.184972
668.633528	2761.861670
668.973896	2758.617687
669.314213	2760.399735
669.654480	2756.213057
669.994695	2756.979312
670.334859	2756.775145
670.674973	2755.688777
671.015035	2757.649786
671.355047	2754.592326
671.695008	2754.829260
672.034918	2753.153076
672.374777	2755.731627
672.714585	2754.194075
673.054342	2754.128540
673.394049	2754.582243
673.733705	2756.026534
674.073310	2752.530494
674.412864	2753.291708
674.752368	2748.487488
675.091820	2749.871285
675.431223	2749.901532
675.770574	2748.414392
676.109875	2742.385172
676.449125	2738.896693
676.788324	2737.918709
677.127473	2739.783936
677.466571	2735.461147
677.805619	2734.321846
678.144616	2735.471229
678.483562	2738.460633
678.822458	2734.891497
679.161303	2732.217164
679.500098	2731.811352
679.838842	2732.890158
680.177535	2733.081722
680.516179	2734.278996
680.854771	2734.568863
681.193314	2738.543812
681.531805	2747.569998
681.870247	2752.737181
682.208638	2753.692480
682.546978	2759.262955
682.885268	2756.449991
683.223508	2752.931266
683.561697	2752.984198
683.899836	2750.403127
684.237925	2749.667118
684.575963	2745.155286
684.913951	2744.452045
685.251889	2748.263157
685.589776	2743.262332
685.927614	2741.535737
686.265401	2742.483474
686.603137	2746.463465
686.940824	2748.815163
687.278460	2753.760535
687.616046	2751.897829
687.953582	2756.208016
688.291068	2752.797675
688.628504	2756.081987
688.965889	2755.169538
689.303224	2752.747263
689.640510	2750.937489
689.977745	2747.880029
690.314930	2740.449369
690.652065	2740.401478
690.989150	2733.477453
691.326185	2729.857904
691.663170	2725.023438
692.000105	2717.862479
692.336990	2712.712940
692.673825	2709.784030
693.010610	2706.109029
693.347345	2701.980324
693.684030	2697.836495
694.020665	2693.957327
694.357251	2689.279137
694.693786	2691.673685
695.030272	2693.216278
695.366707	2686.967768
695.703093	2686.229238
696.039429	2685.911646
696.375716	2683.678415
696.711952	2683.854855
697.048139	2681.362004
697.384276	2684.661440
697.720363	2682.057684
698.056400	2682.534073
698.392388	2681.929134
698.728326	2679.806808
699.064214	2677.374452
699.400053	2678.735563
699.735842	2676.091478
700.071581	2674.014523
700.407270	2670.145437
700.742910	2671.710715
701.078501	2671.095695
701.414042	2668.617967
701.749533	2664.529592
702.084974	2662.382060
702.420366	2664.295178
702.755709	2659.518685
703.091002	2658.749909
703.426246	2660.907523
703.761440	2659.165804
704.096584	2655.876451
704.431679	2655.697490
704.766725	2660.549601
705.101721	2654.139774
705.436668	2658.560866
705.771565	2651.263795
706.106413	2656.564569
706.441212	2653.348312
706.775961	2656.257058
707.110661	2656.148673
707.445311	2659.674961
707.779913	2657.197233
708.114465	2661.920795
708.448967	2661.930877
708.783421	2665.963800
709.117825	2667.428255
709.452180	2671.899759
709.786485	2670.402536
710.120742	2677.044256
710.454949	2678.927127
710.789107	2679.030471
711.123216	2681.979546
711.457275	2682.387879
711.791286	2689.256451
712.125247	2690.279806
712.459159	2691.156966
712.793023	2694.834488
713.126837	2685.462983
713.460602	2690.630166
713.794318	2687.706297
714.127985	2687.229907
714.461602	2680.726819
714.795171	2679.121212
715.128691	2674.067455
715.462162	2668.781805
715.795584	2667.307267
716.128957	2662.112358
716.462281	2660.627739
716.795556	2659.629590
717.128782	2658.591112
717.461960	2652.612304
717.795088	2651.702376
718.128167	2649.396048
718.461198	2646.197436
718.794180	2644.188536
719.127113	2640.664769
719.459997	2640.009419
719.792833	2638.093781
720.125619	2641.184008
720.458357	2637.756024
720.791046	2637.665283
721.123686	2634.814510
721.456278	2632.654376
721.788821	2634.469191
722.121315	2629.813686
722.453761	2629.319653
722.786158	2632.538429
723.118506	2632.256125
723.450805	2630.627832
723.783056	2633.208903
724.115259	2630.176649
724.447412	2627.577934
724.779518	2632.157822
725.111574	2629.261679
725.443582	2633.347535
725.775542	2633.380302
726.107453	2635.351393
726.439315	2636.120169
726.771129	2645.968063
727.102895	2644.105357
727.434612	2643.787764
727.766281	2646.177271
728.097901	2645.668115
728.429473	2645.655512
728.760996	2650.033754
729.092471	2644.488485
729.423897	2650.094248
729.755276	2647.147693
730.086606	2647.785399
730.417887	2651.588950
730.749120	2655.173210
731.080305	2657.787048
731.411442	2660.874755
731.742530	2661.477173
732.073570	2665.638646
732.404562	2666.188131
732.735506	2663.153357
733.066401	2662.543377
733.397249	2656.652789
733.728048	2651.198260
734.058798	2645.955460
734.389501	2642.378762
734.720156	2637.753503
735.050762	2634.060858
735.381320	2630.151443
735.711831	2628.999539
736.042293	2627.131792
736.372707	2628.190434
736.703073	2625.233797
737.033391	2627.986267
737.363661	2628.397122
737.693883	2627.008284
738.024056	2632.934160
738.354182	2631.633542
738.684260	2634.325518
739.014290	2634.907772
739.344272	2636.253760
739.674207	2639.684265
740.004093	2639.343987
740.333931	2640.702578
740.663722	2642.282980
740.993464	2641.370531
741.323159	2639.893473
741.652806	2639.364152
741.982405	2638.933133
742.311956	2631.520116
742.641460	2631.489869
742.970915	2631.464664
743.300323	2627.714045
743.629683	2624.681791
743.958996	2624.626338
744.288260	2622.435957
744.617477	2617.644340
744.946647	2615.814402
745.275768	2616.925976
745.604842	2612.875409
745.933869	2611.295007
746.262847	2607.529265
746.591778	2612.378855
746.920662	2611.705861
747.249498	2611.841972
747.578286	2613.719802
747.907027	2614.183588
748.235720	2615.249792
748.564365	2618.075359
748.892963	2615.930348
749.221514	2617.389762
749.550017	2614.947323
749.878473	2618.259361
750.206881	2612.121756
750.535242	2613.122425
750.863555	2611.955398
751.191821	2611.768876
751.520039	2612.542693
751.848210	2614.055039
752.176334	2612.996397
752.504411	2611.156375
752.832440	2608.600510
753.160421	2612.071345
753.488356	2609.099585
753.816243	2609.112187
754.144082	2609.631426
754.471875	2608.240068
754.799620	2608.696292
755.127318	2607.856940
755.454969	2605.616147
755.782572	2607.173864
756.110129	2606.828545
756.437638	2608.708895
756.765100	2606.153030
757.092515	2605.323760
757.419882	2607.007506
757.747203	2606.921806
758.074477	2606.027001
758.401703	2607.809049
758.728882	2608.882815
759.056014	2609.656632
759.383099	2609.187805
759.710138	2614.503702
760.037129	2613.984463
760.364073	2615.015379
760.690970	2613.132508
761.017820	2612.484719
761.344623	2613.883640
761.671379	2619.885133
761.998088	2619.633076
762.324751	2638.116466
762.651366	2661.615805
762.977935	2696.538398
763.304456	2715.084803
763.630931	2724.247100
763.957359	2714.840307
764.283740	2698.184335
764.610074	2681.074659
764.936362	2663.022287
765.262602	2647.389669
765.588796	2636.568832
765.914943	2626.340331
766.241044	2614.181068
766.567097	2609.661673
766.893104	2604.648246
767.219064	2601.116917
767.544978	2598.528285
767.870845	2590.336410
768.196665	2593.656010
768.522438	2588.952613
768.848165	2588.241811
769.173846	2586.369022
769.499479	2586.555545
769.825066	2583.364494
770.150607	2580.584298
770.476101	2583.132601
770.801548	2581.922724
771.126949	2579.893660
771.452303	2580.700244
771.777611	2575.409553
772.102872	2574.507187
772.428087	2574.678586
772.753256	2572.331929
773.078378	2574.116497
773.403453	2570.018039
773.728482	2567.492421
774.053465	2571.381672
774.378401	2567.245405
774.703291	2567.986454
775.028135	2565.276834
775.352932	2566.093501
775.677683	2564.729869
776.002388	2566.343038
776.327046	2563.646021
776.651658	2564.346741
776.976224	2562.829354
777.300743	2562.360527
777.625216	2564.147616
777.949643	2563.003274
778.274024	2564.944118
778.598359	2558.882131
778.922647	2557.316852
779.246889	2558.004970
779.571086	2556.094373
779.895236	2559.169476
780.219339	2560.152501
780.543397	2560.606205
780.867409	2562.347924
781.191374	2562.204251
781.515294	2563.194838
781.839167	2562.478994
782.162995	2563.346072
782.486776	2560.943963
782.810511	2559.630742
783.134201	2562.088304
783.457844	2558.322562
783.781441	2560.644014
784.104993	2562.110990
784.428498	2561.309446
784.751958	2556.754764
785.075372	2557.717624
785.398739	2557.415155
785.722061	2558.231822
786.045337	2555.980947
786.368568	2560.656617
786.691752	2559.741647
787.014891	2566.378326
787.337983	2566.703481
787.661030	2574.391240
787.984031	2579.581108
788.306987	2580.249061
788.629897	2582.736871
788.952760	2582.094123
789.275579	2582.389031
789.598351	2578.245202
789.921078	2573.120870
790.243759	2567.416804
790.566395	2567.358831
790.888984	2566.365723
791.211529	2566.302709
791.534027	2560.036555
791.856480	2559.330793
792.178888	2560.182748
792.501249	2558.362892
792.823566	2557.770556
793.145836	2556.149825
793.468062	2557.669733
793.790241	2553.281409
794.112375	2557.243756
794.434464	2558.877089
794.756507	2558.491441
795.078505	2557.553787
795.400457	2561.430434
795.722364	2561.044786
796.044226	2566.151474
796.366042	2565.995199
796.687812	2568.235992
797.009538	2568.664490
797.331218	2571.416960
797.652852	2568.823286
797.974442	2565.155847
798.295986	2566.103583
798.617484	2565.662482
798.938938	2564.477811
799.260346	2562.569735
799.581709	2559.913047
799.903026	2561.937070
800.224299	2558.758622
800.545526	2561.236349
800.866708	2555.917932
801.187845	2560.487738
801.508936	2555.197047
801.829983	2556.996739
802.150984	2553.936759
802.471940	2554.350133
802.792851	2556.109496
803.113717	2554.103117
803.434538	2553.286450
803.755314	2553.800648
804.076045	2551.890050
804.396731	2552.247972
804.717372	2554.748384
805.037967	2550.768393
805.358518	2552.527756
805.679024	2554.876934
805.999485	2553.599001
806.319901	2554.907181
806.640272	2554.385421
806.960598	2554.513971
807.280879	2556.414486
807.601115	2557.939435
807.921306	2553.737633
808.241453	2558.738458
808.561554	2557.125288
808.881611	2556.328786
809.201623	2552.999104
809.521590	2553.727551
809.841513	2553.102448
810.161390	2557.417675
810.481223	2553.495658
810.801011	2554.554300
811.120755	2552.668908
811.440453	2556.197716
811.760107	2552.527756
812.079716	2550.276881
812.399281	2548.235214
812.718801	2550.171017
813.038276	2547.317724
813.357707	2551.489278
813.677093	2552.091696
813.996434	2551.471634
814.315731	2551.927859
814.634983	2552.719320
814.954191	2552.280740
815.273354	2552.608415
815.592473	2554.844166
815.911547	2555.819630
816.230577	2556.996739
816.549562	2557.589075
816.868502	2557.442881
817.187399	2557.470607
817.506250	2562.564693
817.825058	2561.501010
818.143821	2560.860783
818.462539	2569.188770
818.781213	2570.751527
819.099843	2578.562795
819.418429	2589.613004
819.736970	2600.481732
820.055466	2612.204935
820.373919	2627.552728
820.692327	2651.868734
821.010691	2695.893130
821.329011	2791.866617
821.647286	2938.007147
821.965517	3093.693101
822.283704	3183.024868
822.601847	3208.913713
822.919945	3142.473826
823.237999	3066.249059
823.556010	2991.317349
823.873976	2920.557193
824.191897	2854.891123
824.509775	2806.974955
824.827609	2762.164139
825.145398	2736.734038
825.463144	2722.424723
825.780845	2726.477811
826.098502	2745.601428
826.416116	2779.886315
826.733685	2815.244968
827.051210	2820.835608
827.368692	2803.965387
827.686129	2767.837957
828.003522	2730.989643
828.320872	2692.235773
828.638177	2664.131341
828.955439	2643.024029
829.272656	2623.850001
829.589830	2608.766868
829.906960	2598.253542
830.224046	2590.399424
830.541088	2579.936510
830.858086	2577.476427
831.175041	2575.134811
831.491952	2570.083574
831.808819	2573.075499
832.125642	2578.557754
832.442421	2588.531677
832.759157	2607.859461
833.075849	2640.137969
833.392497	2672.907989
833.709101	2688.964064
834.025662	2682.907118
834.342179	2668.527227
834.658653	2646.343629
834.975083	2628.071967
835.291469	2615.625358
835.607811	2600.227154
835.924110	2587.263827
836.240366	2580.564133
836.556578	2572.518452
836.872746	2563.270455
837.188871	2556.936245
837.504952	2553.077242
837.820990	2550.019782
838.136984	2548.197405
838.452935	2546.243958
838.768842	2547.113557
839.084706	2553.813250
839.400526	2568.974521
839.716303	2582.976325
840.032037	2596.000146
840.347727	2592.078129
840.663373	2581.915162
840.978977	2571.563153
841.294537	2564.661813
841.610054	2554.899619
841.925527	2548.517518
842.240957	2545.414688
842.556344	2543.993083
842.871687	2538.341949
843.186987	2536.562422
843.502244	2532.547143
843.817458	2531.296937
844.132629	2531.465815
844.447756	2532.108563
844.762840	2524.708149
845.077881	2524.314939
845.392879	2526.039013
845.707833	2522.817716
846.022745	2522.754702
846.337613	2525.819723
846.652438	2525.789476
846.967221	2525.005577
847.281960	2522.991636
847.596656	2526.724610
847.911309	2520.085411
848.225919	2526.386853
848.540485	2523.984743
848.855009	2523.402490
849.169490	2521.640607
849.483928	2522.968951
849.798323	2523.442819
850.112675	2523.757891
850.426984	2521.612880
850.741251	2522.716893
851.055474	2523.914167
851.369654	2521.822088
851.683792	2521.922911
851.997887	2522.026255
852.311938	2520.949968
852.625947	2524.166225
852.939914	2521.829650
853.253837	2523.921729
853.567718	2520.851666
853.881555	2522.611029
854.195350	2522.482479
854.509103	2523.906605
854.822812	2522.608508
855.136479	2520.826460
855.450103	2523.175638
855.763685	2521.968282
856.077224	2520.690349
856.390720	2521.789321
856.704173	2520.163548
857.017584	2524.201513
857.330953	2523.843591
857.644278	2523.213447
857.957561	2526.031452
858.270802	2523.417613
858.584000	2523.528519
858.897155	2527.672347
859.210268	2525.058509
859.523339	2520.869310
859.836367	2520.365195
860.149352	2524.672861
860.462295	2524.844260
860.775195	2518.636079
861.088054	2520.080369
861.400869	2520.491223
861.713642	2516.934689
862.026373	2522.530370
862.339062	2519.251100
862.651708	2523.334434
862.964312	2521.832170
863.276873	2522.618590
863.589392	2524.060360
863.901869	2523.962058
864.214303	2526.901051
864.526696	2528.047913
864.839045	2526.752337
865.151353	2526.074301
865.463619	2527.586647
865.775842	2526.467511
866.088023	2526.805269
866.400162	2527.702594
866.712258	2527.279137
867.024313	2526.744775
867.336325	2528.005063
867.648296	2527.967255
867.960224	2528.894827
868.272110	2529.018335
868.583954	2526.896009
868.895755	2528.103366
869.207515	2529.227543
869.519233	2528.388191
869.830909	2529.950949
870.142542	2529.832482
870.454134	2529.061185
870.765684	2531.322143
871.077191	2529.572862
871.388657	2532.978162
871.700081	2529.643438
872.011463	2530.019004
872.322803	2529.618232
872.634101	2531.513706
872.945357	2530.432379
873.256571	2534.540919
873.567744	2536.789274
873.878874	2534.561084
874.189963	2537.555529
874.501010	2536.514531
874.812015	2534.321629
875.122979	2537.621064
875.433900	2533.328522
875.744780	2538.926723
876.055618	2536.907741
876.366415	2536.774150
876.677169	2537.512679
876.987882	2537.061496
877.298554	2537.028729
877.609183	2537.197607
877.919771	2540.607948
878.230317	2540.358411
878.540822	2551.529608
878.851285	2554.743343
879.161707	2561.710218
879.472087	2575.021385
879.782425	2593.325814
880.092722	2626.983078
880.402977	2678.483506
880.713191	2732.159191
881.023363	2792.713531
881.333494	2823.709066
881.643583	2834.623164
881.953631	2832.009325
882.263637	2814.158600
882.573602	2792.917698
882.883526	2767.525406
883.193408	2746.145872
883.503248	2723.213664
883.813048	2699.096784
884.122806	2679.058197
884.432522	2659.685043
884.742197	2639.359111
885.051831	2624.951493
885.361424	2608.771910
885.670975	2596.370671
885.980485	2588.403127
886.289954	2575.374265
886.599382	2571.933678
886.908768	2568.684654
887.218113	2562.627708
887.527417	2557.891544
887.836680	2551.138918
888.145901	2551.030533
888.455082	2548.774617
888.764221	2545.964174
889.073319	2542.392516
889.382376	2542.591642
889.691392	2539.085519
890.000366	2543.365459
890.309300	2541.885880
890.618193	2539.571991
890.927044	2542.238761
891.235855	2543.463762
891.544625	2540.791950
891.853353	2540.670962
892.162041	2542.432846
892.470687	2548.038609
892.779293	2551.030533
893.087858	2553.788045
893.396381	2561.992522
893.704864	2576.364852
894.013306	2591.059816
894.321707	2615.171654
894.630068	2624.563324
894.938387	2626.665485
895.246665	2623.827316
895.554903	2614.501181
895.863100	2604.015581
896.171256	2596.468974
896.479371	2589.169383
896.787446	2580.289390
897.095480	2572.581466
897.403473	2570.633060
897.711425	2565.385219
898.019336	2560.477656
898.327207	2558.955227
898.635038	2552.709238
898.942827	2550.775955
899.250576	2547.862168
899.558284	2543.378062
899.865952	2541.873277
900.173579	2539.017464
900.481165	2537.971424
900.788711	2534.669469
901.096216	2534.863553
901.403681	2536.441434
901.711105	2533.063861
902.018489	2535.463450
902.325832	2540.645757
902.633135	2537.273225
902.940397	2545.384441
903.247619	2558.985474
903.554800	2584.561768
903.861941	2616.280708
904.169041	2639.023874
904.476101	2645.816829
904.783121	2638.877680
905.090100	2626.615074
905.397039	2614.279370
905.703938	2601.444592
906.010796	2591.044692
906.317614	2583.651840
906.624391	2574.925603
906.931129	2569.040056
907.237826	2559.280382
907.544483	2556.117058
907.851099	2545.268495
908.157675	2543.345294
908.464211	2536.771630
908.770707	2526.681760
909.077163	2526.182686
909.383578	2521.005421
909.689954	2520.581964
909.996289	2519.573733
910.302584	2522.676564
910.608839	2519.747653
910.915054	2523.924249
911.221229	2519.901408
911.527363	2522.394259
911.833458	2522.409383
912.139513	2523.067253
912.445527	2522.943745
912.751502	2526.283509
913.057436	2527.072450
913.363331	2529.154446
913.669186	2532.196783
913.975000	2537.981507
914.280775	2543.761190
914.586510	2552.605894
914.892205	2571.154820
915.197859	2587.031934
915.503475	2608.116560
915.809050	2626.852008
916.114585	2637.801394
916.420081	2638.902886
916.725536	2642.698875
917.030952	2632.109931
917.336328	2624.502830
917.641665	2618.864300
917.946961	2608.744183
918.252218	2601.119438
918.557435	2593.403952
918.862612	2586.217787
919.167750	2580.067580
919.472848	2573.975345
919.777906	2565.259190
920.082925	2559.182079
920.387904	2552.678991
920.692843	2547.612631
920.997743	2544.782023
921.302603	2540.451672
921.607423	2538.853626
921.912204	2533.464633
922.216946	2534.926567
922.521647	2530.177801
922.826310	2530.835671
923.130932	2525.829805
923.435516	2523.341996
923.740059	2526.752337
924.044564	2521.622962
924.349028	2524.070443
924.653454	2515.893691
924.957840	2514.701458
925.262186	2517.005266
925.566493	2514.610717
925.870761	2512.017044
926.174989	2515.404699
926.479178	2516.208763
926.783328	2513.589884
927.087438	2513.269771
927.391509	2512.780779
927.695541	2512.271622
927.999533	2510.809688
928.303486	2510.028309
928.607400	2512.924452
928.911275	2510.282887
929.215110	2513.549555
929.518906	2510.093844
929.822663	2511.807836
930.126381	2511.215500
930.430060	2510.066117
930.733699	2513.541993
931.037299	2511.530573
931.340861	2512.304390
931.644383	2512.904287
931.947866	2513.375635
932.251309	2511.858248
932.554714	2508.016888
932.858080	2511.913700
933.161407	2512.062414
933.464694	2511.265912
933.767943	2510.350943
934.071153	2511.381858
934.374323	2511.278515
934.677455	2510.277846
934.980548	2509.919924
935.283602	2509.438494
935.586617	2509.630058
935.889593	2511.626354
936.192530	2512.498474
936.495428	2511.152486
936.798287	2510.454286
937.101108	2513.390758
937.403890	2513.186592
937.706632	2514.343536
938.009336	2516.659947
938.312002	2518.391583
938.614628	2519.654392
938.917216	2521.350740
939.219765	2518.290760
939.522275	2521.025586
939.824747	2521.229752
940.127179	2518.119361
940.429573	2516.246572
940.731929	2515.792868
941.034246	2513.683145
941.336524	2517.131294
941.638763	2515.187930
941.940964	2520.405524
942.243126	2518.205060
942.545250	2516.843949
942.847335	2515.278670
943.149381	2518.484844
943.451389	2517.680780
943.753359	2514.093999
944.055290	2513.007631
944.357182	2516.168434
944.659036	2514.943434
944.960851	2512.266581
945.262628	2510.628206
945.564367	2512.528721
945.866067	2512.062414
946.167729	2512.657270
946.469352	2514.250275
946.770937	2513.257168
947.072484	2511.986797
947.373992	2512.589215
947.675462	2513.282373
947.976893	2509.695592
948.278286	2511.628875
948.579641	2514.761952
948.880958	2510.494615
949.182236	2511.444873
949.483476	2511.724657
949.784678	2510.003103
950.085841	2511.901097
950.386967	2512.430418
950.688054	2511.560819
950.989103	2512.848834
951.290114	2512.432939
951.591087	2513.075686
951.892021	2515.898732
952.192917	2511.820439
952.493776	2515.508043
952.794596	2515.981911
953.095378	2515.634072
953.396122	2516.478465
953.696828	2515.384535
953.997496	2517.227076
954.298126	2512.213649
954.598718	2514.388907
954.899272	2512.599297
955.199788	2512.352281
955.500266	2512.684997
955.800706	2508.571415
956.101108	2505.521517
956.401472	2506.716271
956.701798	2504.462875
957.002087	2507.091837
957.302337	2507.560664
957.602550	2508.493277
957.902724	2506.852382
958.202861	2507.527896
958.502960	2503.215189
958.803022	2506.081085
959.103045	2504.573780
959.403031	2504.624192
959.702979	2503.429438
960.002889	2504.704850
960.302762	2502.789212
960.602596	2502.338028
960.902393	2502.353152
961.202153	2502.693430
961.501875	2504.314161
961.801559	2503.106804
962.101205	2502.141423
962.400814	2502.635457
962.700385	2502.030518
962.999918	2504.606548
963.299414	2502.539675
963.598873	2500.893738
963.898293	2502.017915
964.197677	2501.559170
964.497022	2500.606392
964.796331	2501.196207
965.095601	2499.958604
965.394835	2501.334839
965.694030	2501.849037
965.993189	2502.401043
966.292309	2500.881135
966.591393	2500.734942
966.890439	2501.460868
967.189447	2501.866681
967.488419	2499.144458
967.787353	2500.775271
968.086249	2501.294510
968.385108	2503.595796
968.683930	2501.720487
968.982714	2498.587410
969.281462	2499.159581
969.580172	2501.370127
969.878844	2502.413646
970.177480	2503.510097
970.476078	2502.305261
970.774639	2501.705364
971.073162	2500.714777
971.371649	2501.531444
971.670098	2497.455671
971.968510	2498.736124
972.266885	2498.771412
972.565223	2502.713594
972.863524	2501.012205
973.161788	2504.288955
973.460014	2501.639829
973.758204	2501.619664
974.056356	2504.014212
974.354471	2501.707884
974.652550	2499.406598
974.950591	2505.715602
975.248595	2499.905672
975.546563	2502.222082
975.844493	2503.290807
976.142386	2501.115549
976.440243	2501.092863
976.738062	2502.499345
977.035845	2500.500528
977.333590	2502.658142
977.631299	2501.130672
977.928971	2504.488081
978.226606	2500.321567
978.524204	2502.431290
978.821765	2499.709067
979.119290	2499.812410
979.416777	2499.361227
979.714228	2500.006495
980.011642	2499.464571
980.309020	2504.992196
980.606360	2500.929026
980.903664	2503.943636
981.200931	2504.414984
981.498162	2503.545385
981.795356	2506.696106
982.092513	2511.732219
982.389633	2511.563340
982.686717	2513.957888
982.983764	2513.993176
983.280775	2516.115502
983.577749	2516.700276
983.874686	2518.038702
984.171587	2514.852693
984.468451	2514.356139
984.765279	2513.768845
985.062070	2509.340191
985.358824	2512.420336
985.655543	2511.129801
985.952224	2505.503873
986.248869	2505.801301
986.545478	2501.975065
986.842050	2500.175373
987.138586	2500.195538
987.435086	2496.376864
987.731549	2497.274189
988.027975	2501.612102
988.324366	2497.624550
988.620719	2500.697133
988.917037	2499.356186
989.213318	2501.468429
989.509563	2497.385095
989.805772	2498.471463
990.101944	2501.168481
990.398080	2497.168325
990.694180	2498.872235
990.990244	2499.212513
991.286271	2495.527430
991.582262	2498.564725
991.878217	2499.005826
992.174136	2500.656804
992.470019	2497.453150
992.765865	2501.707884
993.061676	2501.208810
993.357450	2500.911382
993.653188	2499.146978
993.948890	2497.879128
994.244556	2500.913902
994.540186	2504.505725
994.835780	2499.729231
995.131337	2503.865498
995.426859	2501.019767
995.722345	2504.180570
996.017795	2505.786178
996.313208	2506.776764
996.608586	2507.855571
996.903928	2508.100067
997.199234	2507.038904
997.494504	2510.847496
997.789738	2505.632423
998.084936	2508.881446
998.380099	2507.626199
998.675225	2501.821310
998.970316	2506.242402
999.265371	2503.200066
999.560390	2502.965652
999.855373	2500.356855
1000.150320	2502.065806
1000.445232	2501.508759
1000.740108	2500.687051
1001.034948	2502.796773
1001.329752	2502.287617
1001.624521	2499.381392
1001.919254	2496.150012
1002.213951	2497.185969
1002.508613	2496.132368
1002.803239	2498.264776
1003.097829	2494.141112
1003.392384	2497.392657
1003.686903	2499.782163
1003.981386	2498.660507
1004.275834	2496.402070
1004.570246	2495.726555
1004.864623	2499.116731
1005.158964	2497.725373
1005.453270	2497.541371
1005.747540	2495.834940
1006.041775	2497.382574
1006.335974	2496.734786
1006.630138	2499.066320
1006.924266	2498.007677
1007.218359	2496.548263
1007.512416	2499.711587
1007.806438	2494.299909
1008.100425	2496.369302
1008.394376	2499.058758
1008.688292	2497.800990
1008.982172	2496.588592
1009.276017	2498.352996
1009.569827	2493.268993
1009.863602	2498.627739
1010.157341	2495.224960
1010.451045	2496.447440
1010.744714	2495.262769
1011.038347	2499.502379
1011.331945	2494.909888
1011.625508	2496.644045
1011.919036	2496.404590
1012.212528	2494.947697
1012.505986	2496.011380
1012.799408	2497.115393
1013.092795	2497.085146
1013.386147	2496.923829
1013.679464	2493.863849
1013.972745	2494.136071
1014.265992	2494.834271
1014.559204	2498.237050
1014.852380	2497.616988
1015.145521	2494.914929
1015.438628	2496.639004
1015.731699	2496.253356
1016.024736	2497.453150
1016.317737	2496.891062
1016.610703	2498.257214
1016.903635	2493.916781
1017.196531	2493.155567
1017.489393	2493.573983
1017.782219	2490.718169
1018.075011	2496.102121
1018.367768	2495.272851
1018.660490	2495.766884
1018.953177	2495.766884
1019.245829	2495.766884
