Dividing Wavelength (nm)	Counts (n)	Blue Motor Position (mm): 0.000000	Red Motor Position (mm): 37.000000	
326.493990	2127.336676
326.888308	2127.336676
327.282561	2127.336676
327.676750	2096.033631
328.070874	2095.088415
328.464933	2098.949939
328.858929	2104.447317
329.252859	2112.646754
329.646726	2125.073198
330.040528	2137.466875
330.434265	2155.846922
330.827938	2172.545744
331.221547	2190.139371
331.615091	2210.324151
332.008571	2229.110011
332.401986	2248.992321
332.795338	2266.701895
333.188625	2284.212343
333.581847	2305.039870
333.975006	2323.503096
334.368100	2341.333657
334.761129	2357.339320
335.154095	2375.873123
335.546996	2394.154867
335.939833	2419.698393
336.332606	2432.273552
336.725315	2445.546910
337.117960	2452.964968
337.510540	2462.951493
337.903056	2475.493884
338.295508	2479.491519
338.687896	2488.873107
339.080220	2497.949704
339.472480	2502.665703
339.864676	2506.565036
340.256807	2513.380676
340.648875	2513.647857
341.040879	2516.758249
341.432818	2518.835204
341.824694	2520.715555
342.216506	2522.916018
342.608253	2522.358971
342.999937	2522.003570
343.391557	2520.740761
343.783113	2519.601460
344.174605	2518.207581
344.566033	2515.480317
344.957397	2515.540810
345.348697	2515.054339
345.739934	2512.682476
346.131106	2510.900428
346.522215	2511.288597
346.913260	2509.309944
347.304241	2506.602845
347.695159	2504.543533
348.086012	2504.999758
348.476802	2500.616474
348.867528	2500.971876
349.258191	2497.995074
349.648789	2497.397698
350.039324	2492.371667
350.429796	2495.366113
350.820203	2492.086842
351.210548	2495.073726
351.600828	2490.468632
351.991045	2492.792604
352.381198	2490.929897
352.771288	2492.774960
353.161314	2490.140957
353.551276	2491.431492
353.941175	2487.010400
354.331010	2489.906543
354.720782	2491.134064
355.110490	2489.881337
355.500135	2488.984012
355.889717	2491.910402
356.279235	2491.121461
356.668689	2492.628766
357.058080	2490.498879
357.447408	2487.343116
357.836672	2488.689104
358.225873	2487.549804
358.615010	2488.736995
359.004084	2494.683036
359.393095	2496.049189
359.782043	2495.477018
360.170927	2496.971720
360.559748	2496.540702
360.948505	2497.281751
361.337199	2499.754437
361.725830	2497.251504
362.114398	2497.415342
362.502903	2497.042296
362.891344	2499.477174
363.279722	2499.777122
363.668037	2501.579335
364.056289	2499.459530
364.444478	2502.096053
364.832603	2501.919613
365.220665	2503.517658
365.608665	2503.961280
365.996601	2504.462875
366.384474	2507.129645
366.772284	2507.968997
367.160031	2508.904131
367.547715	2511.311282
367.935336	2512.979904
368.322893	2517.002745
368.710388	2518.384021
369.097820	2525.938190
369.485189	2529.993798
369.872495	2536.527134
370.259738	2543.332692
370.646918	2547.015254
371.034035	2555.416337
371.421090	2566.711043
371.808081	2578.885429
372.195010	2586.676532
372.581875	2600.073399
372.968678	2611.065635
373.355418	2622.940072
373.742096	2642.129225
374.128710	2657.086328
374.515262	2668.673420
374.901751	2683.590194
375.288177	2696.689633
375.674540	2721.638303
376.060841	2740.046076
376.447079	2760.147677
376.833254	2779.684669
377.219367	2791.649848
377.605417	2829.304746
377.991404	2837.605006
378.377329	2860.713655
378.763191	2875.738814
379.148991	2918.946544
379.534727	2940.308433
379.920402	2967.371868
380.306013	2980.713282
380.691563	3031.386960
381.077049	3051.092830
381.462474	3069.314081
381.847835	3107.732714
382.233134	3132.026035
382.618371	3130.097793
383.003545	3196.807382
383.388657	3204.467416
383.773706	3239.410173
384.158693	3256.643358
384.543618	3283.898356
384.928480	3317.563182
385.313280	3363.208309
385.698017	3361.514481
386.082692	3417.022626
386.467305	3419.901125
386.851856	3453.210549
387.236344	3478.537306
387.620770	3503.871625
388.005133	3532.276006
388.389435	3560.914801
388.773674	3573.913416
389.157851	3615.026547
389.541965	3629.804689
389.926018	3597.138012
390.310008	3666.968075
390.693936	3682.046166
391.077802	3725.344637
391.461606	3714.450703
391.845348	3776.933285
392.229027	3774.856329
392.612645	3788.878299
392.996200	3867.938714
393.379694	3908.658635
393.763125	3974.848985
394.146494	3939.528140
394.529801	4002.103983
394.913047	4049.115263
395.296230	4013.270139
395.679351	4069.700815
396.062410	4092.358281
396.445408	4074.517637
396.828343	4107.471660
397.211217	4130.383704
397.594028	4054.161458
397.976778	4118.600007
398.359466	4146.147392
398.742092	4174.924819
399.124656	4095.992953
399.507158	4177.246270
399.889598	4199.447512
400.271977	4260.468159
400.654294	4232.751895
401.036549	4244.777567
401.418742	4211.942012
401.800874	4315.494873
402.182944	4334.472297
402.564952	4398.880599
402.946898	4386.653281
403.328783	4385.294690
403.710606	4299.000218
404.092367	4488.668590
404.474067	4455.124753
404.855705	4465.254951
405.237282	4396.125609
405.618797	4499.859952
406.000250	4534.815313
406.381642	4613.167446
406.762972	4579.590841
407.144240	4591.707254
407.525447	4588.117953
407.906593	4649.138600
408.287677	4688.951112
408.668700	4619.085761
409.049661	4666.835570
409.430560	4711.633784
409.811399	4637.876662
410.192176	4795.415240
410.572891	4738.591354
410.953545	4845.095811
411.334138	4721.577460
411.714669	4788.851658
412.095139	4686.453220
412.475547	4825.712575
412.855894	4806.236077
413.236180	4811.481397
413.616405	4769.322228
413.996568	4854.616030
414.376670	4800.174089
414.756711	4753.737501
415.136691	4787.130104
415.516609	4865.603225
415.896466	4903.772322
416.276262	4934.523360
416.655997	4915.911420
417.035670	5096.697279
417.415283	5187.677503
417.794834	5130.808247
418.174324	5088.165126
418.553753	4996.726157
418.933121	5181.794477
419.312428	5246.069188
419.691674	5183.642060
420.070859	5310.376667
420.449983	5224.704778
420.829045	5338.244166
421.208047	5245.534826
421.586988	5316.554601
421.965867	5331.171427
422.344686	5460.522393
422.723444	5314.767512
423.102141	5134.326972
423.480777	5437.196975
423.859352	5205.122416
424.237866	5461.525583
424.616319	5455.350170
424.994712	5560.354884
425.373044	5446.240805
425.751314	5586.326908
426.129524	5388.305344
426.507673	5582.062092
426.885762	5664.227859
427.263789	5594.344863
427.641756	5473.901616
428.019662	5593.316468
428.397508	5603.940700
428.775292	5549.166043
429.153016	5651.249408
429.530679	5578.860959
429.908282	5663.101161
430.285824	5527.352970
430.663305	5807.179858
431.040726	5542.115989
431.418086	5543.174631
431.795385	5648.885107
432.172624	5664.386655
432.549802	5655.466333
432.926920	5667.325648
433.303977	5674.486607
433.680974	5714.657041
434.057910	5735.565227
434.434786	5734.614969
434.811601	5703.397624
435.188355	5942.244973
435.565050	5818.482125
435.941683	5796.336336
436.318257	6011.724676
436.694770	5990.965204
437.071222	6030.480288
437.447614	5962.263395
437.823946	5873.634869
438.200218	6026.800246
438.576429	5892.125821
438.952580	5991.562581
439.328670	6031.702768
439.704700	5944.843688
440.080670	5927.008085
440.456580	6200.031936
440.832429	6080.417958
441.208218	5927.933137
441.583947	6090.664104
441.959616	6090.023877
442.335224	6023.001737
442.710773	6154.747251
443.086261	6180.628535
443.461689	5976.194623
443.837057	6123.532427
444.212365	6279.200737
444.587612	6171.176372
444.962800	6326.295196
445.337927	6307.025386
445.712995	5914.919398
446.088002	6498.513614
446.462949	6321.712787
446.837837	6255.729125
447.212664	6426.775475
447.587431	6568.938534
447.962139	7108.941893
448.336786	8036.912451
448.711374	7783.854090
449.085901	6849.997984
449.460369	6776.744978
449.834776	6712.548404
450.209124	7098.824297
450.583412	7250.265599
450.957640	7397.379072
451.331808	7166.831983
451.705917	6714.912705
452.079965	6639.219780
452.453954	6847.729465
452.827883	6726.330918
453.201752	6819.055382
453.575562	6614.082066
453.949311	6823.564694
454.323001	6707.837446
454.696632	6786.303005
455.070202	6921.899961
455.443713	7076.668426
455.817164	7181.373191
456.190556	7264.985769
456.563888	7336.892787
456.937160	7381.975826
457.310373	7039.139556
457.683526	7053.647997
458.056619	6946.291584
458.429653	6935.170799
458.802628	6868.577157
459.175542	6984.775753
459.548398	7337.563261
459.921194	7493.985223
460.293930	7502.260277
460.666607	8035.294241
461.039224	8344.163217
461.411782	8467.966393
461.784280	8491.173345
462.156719	8378.977425
462.529099	8258.745906
462.901419	7849.661312
463.273680	7738.324909
463.645882	7749.574244
464.018024	7614.541897
464.390106	7788.386087
464.762130	8169.557812
465.134094	8643.481726
465.505999	9656.705758
465.877845	10878.409228
466.249631	11536.531863
466.621358	11149.388892
466.993026	10525.147852
467.364634	10267.751578
467.736184	9896.725175
468.107674	9568.984640
468.479105	9604.239950
468.850477	9369.266728
469.221790	9131.533474
469.593043	8811.964649
469.964238	8672.591869
470.335373	8685.398920
470.706449	8737.779029
471.077467	8718.841935
471.448425	10032.564107
471.819324	11107.355751
472.190164	11128.876437
472.560945	9883.320747
472.931667	9093.031662
473.302330	8957.878327
473.672934	8601.703164
474.043479	8957.901012
474.413965	8904.036283
474.784393	8785.090258
475.154761	8941.199669
475.525070	9028.804841
475.895321	8850.892439
476.265513	9030.322228
476.635645	9198.472435
477.005719	9195.440181
477.375734	9314.686155
477.745691	9549.918996
478.115588	9685.722640
478.485427	9921.714175
478.855207	10458.367687
479.224928	11282.316557
479.594591	11912.233936
479.964194	11728.337684
480.333739	11661.403764
480.703226	11574.968140
481.072653	11671.148315
481.442022	11905.193964
481.811333	12096.495670
482.180584	11899.515104
482.549777	11613.893410
482.918912	11437.934455
483.287988	11459.702158
483.657005	11465.731378
484.025964	11143.158025
484.394864	11277.020825
484.763706	11248.450085
485.132489	11005.342962
485.501213	10965.727054
485.869879	11042.392922
486.238487	10889.255271
486.607036	10995.434574
486.975527	10776.588003
487.343959	10968.794596
487.712333	11013.852429
488.080648	10944.866759
488.448905	10977.820782
488.817104	10927.822618
489.185244	11199.208094
489.553326	11347.264262
489.921350	11892.954043
490.289315	12952.052575
490.657222	13295.435810
491.025070	13200.039535
491.392861	13075.439856
491.760593	12691.777802
492.128267	12338.783607
492.495883	12015.948114
492.863440	11673.762153
493.230939	11343.170845
493.598380	11276.705752
493.965763	11142.452264
494.333088	11039.451408
494.700354	10967.176386
495.067563	11026.193174
495.434713	10850.559374
495.801805	10981.601648
496.168839	10904.787066
496.535815	10839.652838
496.902733	10837.233084
497.269593	10774.140523
497.636395	10876.629701
498.003139	10866.602846
498.369825	10724.908614
498.736453	10883.384847
499.103023	10809.504217
499.469535	10836.660913
499.835989	10827.455766
500.202385	10780.593200
500.568723	10641.056582
500.935003	10869.221725
501.301226	10665.065077
501.667390	10927.071486
502.033497	11022.545899
502.399546	10884.234282
502.765537	10794.589963
503.131470	10868.576458
503.497345	11050.113449
503.863163	10651.930351
504.228923	10964.817126
504.594625	11023.745694
504.960269	10778.092787
505.325856	10996.147897
505.691385	10789.238778
506.056856	10944.476070
506.422270	10970.185955
506.787625	10855.015754
507.152924	10972.729217
507.518164	10955.415374
507.883347	10877.637932
508.248472	10791.416557
508.613540	11028.489419
508.978550	10915.842316
509.343503	10879.344362
509.708398	10997.816519
510.073236	11115.056113
510.438016	11118.552153
510.802738	11064.707589
511.167403	11119.104160
511.532010	11011.311688
511.896561	11247.842626
512.261053	11311.991309
512.625488	11181.024652
512.989866	11157.946250
513.354186	11155.831486
513.718449	11058.650643
514.082655	11247.091494
514.446803	11150.876032
514.810894	11267.770307
515.174927	11135.805502
515.538904	11165.495378
515.902822	11313.153295
516.266684	11199.339164
516.630488	11145.131637
516.994235	11189.695437
517.357925	11259.129770
517.721558	11343.768222
518.085133	11365.616583
518.448651	11371.003056
518.812112	11245.463202
519.175516	11263.606314
519.538863	11378.166535
519.902152	11302.221553
520.265385	11451.911054
520.628560	11368.384176
520.991678	11352.146620
521.354739	11400.004814
521.717743	11335.775473
522.080690	11315.855353
522.443580	11447.694129
522.806413	11401.766697
523.169189	11429.578743
523.531908	11482.594037
523.894569	11307.451750
524.257174	11307.686163
524.619722	11417.606003
524.982213	11364.384021
525.344647	11417.101887
525.707025	11367.307890
526.069345	11458.038577
526.431608	11368.699248
526.793815	11473.517440
527.155964	11258.456776
527.518057	11320.329377
527.880093	11255.656415
528.242072	11323.170068
528.603995	11228.119112
528.965860	11145.272789
529.327669	11192.946981
529.689421	11134.963630
530.051117	11113.495876
530.412755	11207.841070
530.774337	11093.343864
531.135862	11074.174876
531.497331	11087.216341
531.858743	10940.579258
532.220098	11094.200860
532.581396	10967.516664
532.942638	10940.375091
533.303824	10904.900492
533.664953	10902.505944
534.026025	10813.632922
534.387040	10908.383929
534.747999	10895.629810
535.108902	10950.467481
535.469748	10706.256345
535.830537	10799.409306
536.191270	10767.692887
536.551947	10779.844588
536.912567	10775.252097
537.273131	10697.741836
537.633638	10663.633389
537.994089	10642.402570
538.354483	10587.166647
538.714821	10716.303365
539.075103	10713.671882
539.435328	10668.437609
539.795497	10494.439663
540.155609	10631.160797
540.515665	10710.780781
540.875665	10442.137692
541.235609	10493.121402
541.595496	10480.190842
541.955328	10617.005237
542.315102	10488.569240
542.674821	10432.204098
543.034483	10414.834803
543.394090	10413.110728
543.753640	10327.746350
544.113134	10518.717860
544.472571	10364.761022
544.831953	10485.231996
545.191278	10284.190780
545.550548	10299.478079
545.909761	10414.121480
546.268918	10373.804852
546.628019	10426.502553
546.987064	10281.017374
547.346053	10199.355723
547.704986	10262.218911
548.063863	10234.270754
548.422684	10209.357372
548.781449	10113.623340
549.140158	10183.375265
549.498811	10052.537158
549.857408	9906.971320
550.215949	10077.674872
550.574434	9924.121326
550.932864	9990.271347
551.291237	10024.261326
551.649555	9946.201580
552.007817	9943.181928
552.366022	9884.452486
552.724173	9847.989820
553.082267	9820.230707
553.440305	9900.080063
553.798288	9712.644922
554.156215	9812.850457
554.514086	9773.564746
554.871902	9613.916444
555.229661	9607.224313
555.587365	9567.547911
555.945014	9448.876629
556.302606	9516.307103
556.660143	9407.047655
557.017625	9496.066870
557.375050	9384.047391
557.732421	9465.633425
558.089735	9362.776242
558.446994	9330.336417
558.804197	9325.126385
559.161345	9295.234863
559.518437	9150.163058
559.875474	9181.347636
560.232455	9167.355913
560.589381	9107.761913
560.946251	9055.906084
561.303065	9123.026527
561.659825	9021.764870
562.016528	8938.903424
562.373177	8823.367739
562.729770	8855.777317
563.086307	8761.124613
563.442789	8806.976428
563.799216	8660.049478
564.155587	8661.216505
564.511904	8594.713604
564.868164	8547.997231
565.224370	8536.402577
565.580520	8423.150536
565.936615	8417.736336
566.292654	8261.420238
566.648638	8331.520003
567.004567	8258.261955
567.360441	8211.275881
567.716260	8097.761699
568.072023	8140.077144
568.427732	8052.008187
568.783385	7963.276317
569.138982	7969.250084
569.494525	7942.751259
569.850013	7822.613001
570.205445	7828.586769
570.560823	7728.358548
570.916145	7623.936087
571.271412	7634.315823
571.626625	7560.662045
571.981782	7512.521546
572.336884	7445.113757
572.691931	7419.890344
573.046923	7338.216090
573.401860	7276.409023
573.756743	7195.619492
574.111570	7186.500044
574.466342	7145.253324
574.821059	7119.377081
575.175722	7018.329673
575.530330	6978.756615
575.884882	6943.241686
576.239380	6854.807245
576.593823	6813.157232
576.948211	6779.492406
577.302544	6684.806934
577.656823	6642.264637
578.011047	6616.479135
578.365216	6559.551905
578.719330	6480.398228
579.073389	6438.889367
579.427394	6388.182921
579.781344	6337.340364
580.135239	6278.699142
580.489080	6248.361478
580.842866	6152.599720
581.196597	6115.879955
581.550273	6110.599347
581.903895	6051.690943
582.257463	6053.215892
582.610975	5942.159273
582.964434	5937.246669
583.317837	5854.400346
583.671186	5827.999824
584.024481	5777.280775
584.377721	5710.828285
584.730906	5667.998642
585.084037	5644.239684
585.437113	5590.122897
585.790135	5554.451692
586.143103	5475.971009
586.496016	5439.374753
586.848874	5429.161375
587.201679	5397.402106
587.554428	5309.323066
587.907124	5294.882681
588.259765	5255.428090
588.612352	5213.427717
588.964884	5145.616636
589.317362	5117.429024
589.669786	5084.875773
590.022155	5088.270991
590.374470	5051.200866
590.726731	5010.972458
591.078937	4917.506945
591.431090	4921.121453
591.783188	4855.352039
592.135232	4817.135052
592.487222	4799.707783
592.839157	4779.467550
593.191038	4730.689345
593.542866	4678.256304
593.894639	4619.909990
594.246358	4611.458495
594.598022	4587.901183
594.949633	4523.848283
595.301190	4491.713447
595.652692	4477.464626
596.004141	4476.030418
596.355535	4385.972725
596.706876	4353.301007
597.058162	4303.075991
597.409395	4301.024241
597.760573	4295.589878
598.111698	4246.554574
598.462768	4214.233216
598.813785	4184.203063
599.164748	4148.756189
599.515657	4128.372284
599.866511	4073.602668
600.217312	4090.999690
600.568060	4031.370402
600.918753	4033.840567
601.269392	4003.810413
601.619978	3960.839618
601.970510	3954.006334
602.320988	3938.535033
602.671412	3923.144390
603.021783	3895.130698
603.372100	3863.288250
603.722363	3833.361440
604.072572	3814.285714
604.422728	3793.276705
604.772830	3762.785286
605.122878	3735.454671
605.472872	3718.818863
605.822813	3701.477294
606.172701	3676.001823
606.522534	3669.881862
606.872314	3658.158659
607.222041	3627.392497
607.571714	3622.006024
607.921333	3594.811520
608.270899	3574.833427
608.620411	3583.058069
608.969870	3547.361659
609.319276	3530.909853
609.668627	3514.064838
610.017926	3509.522758
610.367171	3495.871314
610.716362	3482.973522
611.065500	3461.571303
611.414585	3446.112605
611.763616	3437.633384
612.112594	3411.973911
612.461518	3401.216088
612.810389	3397.800707
613.159207	3371.483363
613.507971	3352.329499
613.856682	3353.499047
614.205340	3335.305523
614.553945	3333.019359
614.902496	3307.574135
615.250994	3300.841674
615.599439	3287.109571
615.947830	3274.032818
616.296169	3264.489914
616.644454	3249.656319
616.992686	3240.312540
617.340864	3235.125193
617.688990	3215.923438
618.037063	3216.001576
618.385082	3196.976261
618.733048	3197.059440
619.080961	3183.133252
619.428821	3172.277128
619.776628	3160.548883
620.124382	3145.836276
620.472083	3130.987557
620.819731	3124.577730
621.167326	3100.710387
621.514868	3087.232862
621.862357	3066.924574
622.209793	3056.978377
622.557176	3042.785009
622.904506	3023.721886
623.251783	3009.397447
623.599007	2993.449757
623.946179	2983.793427
624.293297	2972.312199
624.640363	2959.414407
624.987376	2944.059052
625.334336	2935.753751
625.681243	2923.503747
626.028097	2912.579567
626.374899	2908.397930
626.721647	2899.389388
627.068343	2889.975033
627.414987	2878.032539
627.761577	2870.082640
628.108115	2866.155581
628.454600	2858.941690
628.801032	2853.139322
629.147412	2847.125225
629.493739	2839.447548
629.840014	2831.560663
630.186236	2831.081753
630.532405	2816.356543
630.878521	2816.238076
631.224585	2808.691468
631.570597	2801.563277
631.916556	2797.399284
632.262462	2795.861732
632.608316	2788.287398
632.954117	2782.187602
633.299866	2779.452776
633.645562	2772.702671
633.991206	2763.815117
634.336797	2759.383942
634.682336	2750.045205
635.027823	2744.910790
635.373257	2739.446179
635.718639	2732.053327
636.063968	2729.628532
636.409245	2721.592933
636.754470	2716.188816
637.099642	2711.934082
637.444762	2705.357897
637.789829	2702.721373
638.134845	2697.014787
638.479808	2694.635362
638.824719	2692.598736
639.169577	2688.399455
639.514383	2684.716892
639.859137	2679.554751
640.203839	2680.525173
640.548489	2676.139369
640.893086	2673.480160
641.237632	2665.260559
641.582125	2664.171670
641.926566	2659.969868
642.270955	2665.265600
642.615292	2661.678819
642.959576	2662.308963
643.303809	2656.723365
643.647990	2655.934424
643.992118	2655.253869
644.336195	2650.825215
644.680219	2647.997128
645.024192	2646.961171
645.368112	2648.150883
645.711981	2646.870430
646.055797	2649.958137
646.399562	2646.116777
646.743274	2649.988383
647.086935	2649.748929
647.430544	2649.829587
647.774101	2646.701551
648.117606	2645.242137
648.461059	2646.893115
648.804460	2643.833135
649.147810	2639.109573
649.491108	2635.691671
649.834354	2635.101856
650.177548	2632.246042
650.520690	2629.919550
650.863781	2623.182048
651.206820	2626.544497
651.549807	2622.199023
651.892742	2620.280864
652.235626	2619.184413
652.578458	2620.018724
652.921238	2616.729371
653.263967	2616.684001
653.606644	2614.833897
653.949269	2611.471447
654.291843	2613.245934
654.634365	2611.421036
654.976836	2612.202415
655.319255	2608.766868
655.661622	2607.955243
656.003938	2608.542537
656.346203	2604.411312
656.688416	2608.250150
657.030577	2606.352156
657.372687	2605.762341
657.714746	2602.750251
658.056753	2602.354521
658.398708	2597.885538
658.740612	2598.881166
659.082465	2597.487287
659.424266	2599.513831
659.766016	2594.334045
660.107715	2601.903337
660.449362	2601.071547
660.790958	2600.837133
661.132503	2599.110538
661.473996	2599.218923
661.815438	2600.428800
662.156829	2600.247318
662.498168	2598.150198
662.839456	2596.978130
663.180693	2596.630291
663.521879	2598.664396
663.863013	2596.118613
664.204097	2597.492328
664.545129	2595.309508
664.886110	2595.861515
665.227040	2593.769436
665.567918	2596.658017
665.908746	2594.689446
666.249522	2596.095928
666.590248	2594.659199
666.930922	2594.273551
667.271545	2595.483428
667.612118	2596.027873
667.952639	2596.279930
668.293109	2591.269023
668.633528	2594.631473
668.973896	2592.672985
669.314213	2589.000504
669.654480	2594.165166
669.994695	2592.756164
670.334859	2591.231215
670.674973	2590.530494
671.015035	2593.910588
671.355047	2588.922366
671.695008	2591.112748
672.034918	2588.730802
672.374777	2590.069229
672.714585	2588.987901
673.054342	2590.580906
673.394049	2588.403128
673.733705	2591.498396
674.073310	2587.410020
674.412864	2590.641400
674.752368	2588.211564
675.091820	2588.070411
675.431223	2588.496389
675.770574	2587.457911
676.109875	2580.405337
676.449125	2584.264340
676.788324	2584.760894
677.127473	2581.027919
677.466571	2579.495409
677.805619	2583.296439
678.144616	2583.616552
678.483562	2583.601428
678.822458	2581.131263
679.161303	2585.690987
679.500098	2583.069587
679.838842	2583.306521
680.177535	2584.526480
680.516179	2584.579412
680.854771	2582.152097
681.193314	2584.614700
681.531805	2585.169227
681.870247	2587.316759
682.208638	2588.551842
682.546978	2590.921184
682.885268	2586.628641
683.223508	2585.988415
683.561697	2584.334916
683.899836	2586.275761
684.237925	2585.547314
684.575963	2581.653022
684.913951	2585.748960
685.251889	2582.510019
685.589776	2581.567323
685.927614	2582.580595
686.265401	2584.813826
686.603137	2583.004052
686.940824	2583.800554
687.278460	2582.777200
687.616046	2584.004721
687.953582	2585.353229
688.291068	2584.302149
688.628504	2587.964547
688.965889	2587.306677
689.303224	2587.435226
689.640510	2584.110585
689.977745	2582.315934
690.314930	2583.150245
690.652065	2582.651171
690.989150	2579.797878
691.326185	2577.093299
691.663170	2578.729153
692.000105	2578.933320
692.336990	2577.433577
692.673825	2578.366190
693.010610	2578.076324
693.347345	2572.538616
693.684030	2570.585169
694.020665	2571.422001
694.357251	2567.792370
694.693786	2571.810170
695.030272	2570.128945
695.366707	2571.099367
695.703093	2570.653225
696.039429	2574.736559
696.375716	2572.165571
696.711952	2570.925447
697.048139	2569.377813
697.384276	2570.388564
697.720363	2570.222206
698.056400	2568.934191
698.392388	2569.125755
698.728326	2570.633060
699.064214	2571.638770
699.400053	2571.681620
699.735842	2568.440158
700.071581	2568.906465
700.407270	2568.341856
700.742910	2569.370251
701.078501	2567.855384
701.414042	2565.080229
701.749533	2564.074519
702.084974	2566.713563
702.420366	2568.283882
702.755709	2567.318502
703.091002	2565.652400
703.426246	2564.162739
703.761440	2564.089643
704.096584	2564.923953
704.431679	2562.852039
704.766725	2563.540157
705.101721	2563.242729
705.436668	2565.080229
705.771565	2566.252297
706.106413	2563.953531
706.441212	2567.477298
706.775961	2564.520661
707.110661	2566.975703
707.445311	2565.569221
707.779913	2564.992009
708.114465	2565.541495
708.448967	2563.373799
708.783421	2565.826320
709.117825	2566.887483
709.452180	2567.154664
709.786485	2568.732545
710.120742	2569.977710
710.454949	2567.048800
710.789107	2567.825137
711.123216	2567.028635
711.457275	2568.067113
711.791286	2565.538974
712.125247	2569.077864
712.459159	2572.649522
712.793023	2575.389389
713.126837	2569.748338
713.460602	2571.900910
713.794318	2570.028122
714.127985	2570.809501
714.461602	2568.082236
714.795171	2568.122566
715.128691	2569.009809
715.462162	2566.272462
715.795584	2565.828841
716.128957	2565.264231
716.462281	2565.044941
716.795556	2567.333625
717.128782	2564.976886
717.461960	2564.122410
717.795088	2564.545867
718.128167	2562.967986
718.461198	2563.971175
718.794180	2565.014694
719.127113	2562.965465
719.459997	2565.370096
719.792833	2561.087635
720.125619	2560.860783
720.458357	2560.664178
720.791046	2560.792728
721.123686	2561.029662
721.456278	2561.891699
721.788821	2558.554456
722.121315	2559.575289
722.453761	2561.359858
722.786158	2561.455640
723.118506	2562.040413
723.450805	2560.664178
723.783056	2560.575958
724.115259	2562.799107
724.447412	2559.943293
724.779518	2558.461194
725.111574	2559.857594
725.443582	2560.878428
725.775542	2563.230126
726.107453	2561.995043
726.439315	2561.004456
726.771129	2566.262380
727.102895	2560.165104
727.434612	2562.027811
727.766281	2564.790363
728.097901	2558.362892
728.429473	2559.688715
728.760996	2561.014539
729.092471	2560.613767
729.423897	2562.602502
729.755276	2561.795917
730.086606	2561.014539
730.417887	2564.213151
730.749120	2565.468398
731.080305	2561.624518
731.411442	2566.433779
731.742530	2566.264900
732.073570	2566.055693
732.404562	2566.469067
732.735506	2565.269273
733.066401	2565.241546
733.397249	2566.118707
733.728048	2562.675599
734.058798	2561.987481
734.389501	2560.719631
734.720156	2562.050496
735.050762	2561.692574
735.381320	2559.224929
735.711831	2556.328786
736.042293	2558.894733
736.372707	2558.483879
736.703073	2557.906667
737.033391	2558.052861
737.363661	2560.369271
737.693883	2559.169476
738.024056	2561.382543
738.354182	2562.438665
738.684260	2560.888510
739.014290	2562.146278
739.344272	2562.408418
739.674207	2560.119734
740.004093	2566.811866
740.333931	2560.661658
740.663722	2560.636452
740.993464	2561.538819
741.323159	2563.136864
741.652806	2561.490928
741.982405	2560.709549
742.311956	2560.833057
742.641460	2559.154353
742.970915	2560.759960
743.300323	2556.530432
743.629683	2558.441030
743.958996	2557.957079
744.288260	2557.528581
744.617477	2558.541853
744.946647	2554.052705
745.275768	2552.389124
745.604842	2552.353836
745.933869	2554.004814
746.262847	2554.047664
746.591778	2556.348951
746.920662	2552.247972
747.249498	2557.505896
747.578286	2556.049002
747.907027	2558.942624
748.235720	2555.486913
748.564365	2557.357182
748.892963	2554.783673
749.221514	2558.110834
749.550017	2557.498334
749.878473	2558.872048
750.206881	2555.633107
750.535242	2554.672767
750.863555	2553.815771
751.191821	2558.153684
751.520039	2553.369629
751.848210	2553.843497
752.176334	2552.126984
752.504411	2553.810730
752.832440	2553.508261
753.160421	2554.587067
753.488356	2555.275185
753.816243	2552.132026
754.144082	2555.136553
754.471875	2555.754095
754.799620	2552.328631
755.127318	2554.675288
755.454969	2554.108158
755.782572	2556.759805
756.110129	2555.824671
756.437638	2553.462890
756.765100	2556.958930
757.092515	2552.885678
757.419882	2555.801986
757.747203	2554.889537
758.074477	2553.762839
758.401703	2552.895760
758.728882	2551.612787
759.056014	2556.164949
759.383099	2556.240566
759.710138	2558.085628
760.037129	2556.381718
760.364073	2556.026317
760.690970	2556.694270
761.017820	2558.556976
761.344623	2556.222922
761.671379	2555.295350
761.998088	2555.779300
762.324751	2560.081925
762.651366	2562.501679
762.977935	2573.327557
763.304456	2580.208732
763.630931	2582.729309
763.957359	2578.784606
764.283740	2573.231775
764.610074	2566.678275
764.936362	2566.106104
765.262602	2559.015721
765.588796	2561.160732
765.914943	2556.303580
766.241044	2559.053530
766.567097	2552.963816
766.893104	2553.193188
767.219064	2552.568085
767.544978	2552.137067
767.870845	2552.850390
768.196665	2552.247972
768.522438	2551.292673
768.848165	2549.555996
769.173846	2546.846376
769.499479	2551.698486
769.825066	2549.631613
770.150607	2548.676315
770.476101	2547.882333
770.801548	2551.224618
771.126949	2547.549617
771.452303	2548.933413
771.777611	2547.365615
772.102872	2549.044319
772.428087	2548.353681
772.753256	2548.572971
773.078378	2548.295708
773.403453	2548.310831
773.728482	2545.455017
774.053465	2549.235883
774.378401	2547.514329
774.703291	2546.654812
775.028135	2547.254709
775.352932	2549.056922
775.677683	2545.785213
776.002388	2549.288815
776.327046	2546.682538
776.651658	2548.512477
776.976224	2545.444935
777.300743	2547.053063
777.625216	2545.490305
777.949643	2547.330327
778.274024	2548.673794
778.598359	2543.204142
778.922647	2542.558874
779.246889	2544.444266
779.571086	2540.539892
779.895236	2543.945192
780.219339	2544.595501
780.543397	2544.802188
780.867409	2546.420398
781.191374	2549.263609
781.515294	2545.550799
781.839167	2543.856972
782.162995	2547.466438
782.486776	2547.269833
782.810511	2546.964843
783.134201	2548.436860
783.457844	2544.769420
783.781441	2546.669935
784.104993	2546.243958
784.428498	2545.679349
784.751958	2546.858979
785.075372	2544.653474
785.398739	2546.279246
785.722061	2547.287477
786.045337	2546.213711
786.368568	2548.232693
786.691752	2545.946530
787.014891	2545.439894
787.337983	2544.986190
787.661030	2550.065152
787.984031	2549.528270
788.306987	2549.835780
788.629897	2550.745708
788.952760	2548.593136
789.275579	2548.497354
789.598351	2548.782179
789.921078	2545.139945
790.243759	2547.912580
790.566395	2545.177754
790.888984	2545.790254
791.211529	2545.581046
791.534027	2548.991387
791.856480	2546.506098
792.178888	2544.968546
792.501249	2544.124153
792.823566	2543.257074
793.145836	2545.150028
793.468062	2544.948381
793.790241	2543.584749
794.112375	2547.988197
794.434464	2541.472506
794.756507	2545.908721
795.078505	2546.327137
795.400457	2543.746066
795.722364	2542.057280
796.044226	2546.213711
796.366042	2543.693134
796.687812	2544.822352
797.009538	2548.867878
797.331218	2545.812939
797.652852	2545.812939
797.974442	2548.605738
798.295986	2544.565254
798.617484	2545.558361
798.938938	2545.359235
799.260346	2545.931406
799.581709	2544.096426
799.903026	2544.293031
800.224299	2545.122301
800.545526	2545.255892
800.866708	2546.816129
801.187845	2546.483413
801.508936	2545.578526
801.829983	2544.149358
802.150984	2543.809081
802.471940	2545.621375
802.792851	2545.223124
803.113717	2543.194060
803.434538	2541.928730
803.755314	2542.155582
804.076045	2541.414533
804.396731	2541.454862
804.717372	2542.584080
805.037967	2544.119112
805.358518	2545.260933
805.679024	2544.267826
805.999485	2544.083823
806.319901	2544.189688
806.640272	2543.821683
806.960598	2543.047866
807.280879	2544.570295
807.601115	2543.267157
807.921306	2545.210521
808.241453	2543.141128
808.561554	2543.862013
808.881611	2544.633309
809.201623	2546.869061
809.521590	2544.434184
809.841513	2544.789585
810.161390	2545.641540
810.481223	2544.570295
810.801011	2544.035933
811.120755	2543.332692
811.440453	2544.325799
811.760107	2544.144317
812.079716	2542.947043
812.399281	2537.737011
812.718801	2541.638864
813.038276	2538.649460
813.357707	2544.555171
813.677093	2540.129038
813.996434	2544.227496
814.315731	2542.427804
814.634983	2541.049049
814.954191	2544.703885
815.273354	2543.476364
815.592473	2544.668597
815.911547	2543.410829
816.230577	2544.721529
816.549562	2545.694472
816.868502	2546.221273
817.187399	2545.316386
817.506250	2544.033412
817.825058	2547.499205
818.143821	2546.054915
818.462539	2546.561551
818.781213	2545.023999
819.099843	2550.261758
819.418429	2552.784855
819.736970	2552.331151
820.055466	2555.459187
820.373919	2558.438509
820.692327	2562.783984
821.010691	2570.542319
821.329011	2589.418920
821.647286	2625.011987
821.965517	2664.302740
822.283704	2690.201668
822.601847	2694.078315
822.919945	2675.952846
823.237999	2652.660195
823.556010	2631.752009
823.873976	2613.931531
824.191897	2598.745055
824.509775	2591.150556
824.827609	2580.730491
825.145398	2574.933164
825.463144	2575.533062
825.780845	2573.579615
826.098502	2581.360636
826.416116	2587.878848
826.733685	2602.407453
827.051210	2607.062958
827.368692	2601.893255
827.686129	2590.545618
828.003522	2580.506160
828.320872	2567.547874
828.638177	2562.801628
828.955439	2556.822819
829.272656	2553.409958
829.589830	2547.831921
829.906960	2551.181768
830.224046	2549.508105
830.541088	2548.623383
830.858086	2547.799154
831.175041	2547.229503
831.491952	2547.153886
831.808819	2549.886192
832.125642	2549.046839
832.442421	2550.470965
832.759157	2558.191493
833.075849	2563.043603
833.392497	2570.444017
833.709101	2575.336457
834.025662	2576.153124
834.342179	2570.751527
834.658653	2563.744323
834.975083	2557.810885
835.291469	2564.268603
835.607811	2551.582540
835.924110	2548.575492
836.240366	2549.389638
836.556578	2546.858979
836.872746	2543.867054
837.188871	2542.626930
837.504952	2543.398227
837.820990	2542.601724
838.136984	2538.689789
838.452935	2541.706919
838.768842	2543.373021
839.084706	2542.422763
839.400526	2546.523742
839.716303	2549.692107
840.032037	2555.025648
840.347727	2553.924156
840.663373	2553.052036
840.978977	2549.555996
841.294537	2545.848227
841.610054	2544.076262
841.925527	2542.700027
842.240957	2543.216745
842.556344	2542.357228
842.871687	2538.714995
843.186987	2539.624923
843.502244	2538.820859
843.817458	2540.121477
844.132629	2539.700540
844.447756	2537.371527
844.762840	2535.387833
845.077881	2535.231557
845.392879	2532.179139
845.707833	2535.241640
846.022745	2531.619571
846.337613	2538.621733
846.652438	2536.333049
846.967221	2539.773637
847.281960	2537.011085
847.596656	2538.924202
847.911309	2536.053265
848.225919	2537.505118
848.540485	2537.749614
848.855009	2537.419418
849.169490	2535.201310
849.483928	2535.700385
849.798323	2540.204656
850.112675	2534.830786
850.426984	2538.107536
850.741251	2537.500077
851.055474	2536.638039
851.369654	2536.131403
851.683792	2534.747607
851.997887	2539.206507
852.311938	2534.505631
852.625947	2538.231044
852.939914	2536.201979
853.253837	2536.552340
853.567718	2537.477391
853.881555	2538.137782
854.195350	2537.018646
854.509103	2536.023018
854.822812	2538.886394
855.136479	2539.445962
855.450103	2539.108205
855.763685	2536.708615
856.077224	2537.081661
856.390720	2539.408153
856.704173	2537.250539
857.017584	2539.665252
857.330953	2535.924716
857.644278	2538.651980
857.957561	2539.181301
858.270802	2537.147196
858.584000	2537.046373
858.897155	2537.568132
859.210268	2535.934798
859.523339	2539.093081
859.836367	2537.489994
860.149352	2536.285158
860.462295	2537.658873
860.775195	2536.290200
861.088054	2535.087884
861.400869	2532.960518
861.713642	2534.800539
862.026373	2536.201979
862.339062	2536.113759
862.651708	2535.700385
862.964312	2536.678368
863.276873	2537.316074
863.589392	2537.794984
863.901869	2537.462268
864.214303	2535.443286
864.526696	2541.316230
864.839045	2537.328677
865.151353	2535.657535
865.463619	2537.497556
865.775842	2537.253060
866.088023	2539.503935
866.400162	2538.770447
866.712258	2539.241795
867.024313	2536.489325
867.336325	2539.372865
867.648296	2536.093595
867.960224	2538.238606
868.272110	2538.871270
868.583954	2536.882535
868.895755	2541.321271
869.207515	2536.741383
869.519233	2542.014430
869.830909	2542.558874
870.142542	2540.305479
870.454134	2539.055272
870.765684	2538.278935
871.077191	2541.187681
871.388657	2537.255581
871.700081	2542.775644
872.011463	2539.866898
872.322803	2538.374717
872.634101	2539.819007
872.945357	2541.129707
873.256571	2538.984696
873.567744	2539.473688
873.878874	2539.052752
874.189963	2540.275232
874.501010	2542.473175
874.812015	2539.017464
875.122979	2542.422763
875.433900	2541.172557
875.744780	2539.463606
876.055618	2542.906714
876.366415	2540.771785
876.677169	2541.948895
876.987882	2540.242464
877.298554	2538.664583
877.609183	2538.725077
877.919771	2538.281455
878.230317	2541.805222
878.540822	2544.088865
878.851285	2545.707075
879.161707	2546.382590
879.472087	2547.514329
879.782425	2552.767211
880.092722	2563.986299
880.402977	2571.374110
880.713191	2590.694332
881.023363	2610.768207
881.333494	2625.120372
881.643583	2631.694036
881.953631	2627.908130
882.263637	2622.231790
882.573602	2615.211984
882.883526	2603.912237
883.193408	2594.518047
883.503248	2585.980853
883.813048	2578.734194
884.122806	2572.485684
884.432522	2568.762792
884.742197	2563.099056
885.051831	2557.916750
885.361424	2554.866852
885.670975	2553.117571
885.980485	2551.781665
886.289954	2548.976263
886.599382	2545.618855
886.908768	2547.582384
887.218113	2544.426622
887.527417	2544.066179
887.836680	2540.277752
888.145901	2546.985008
888.455082	2540.539892
888.764221	2542.213555
889.073319	2543.660367
889.382376	2543.864533
889.691392	2544.028371
890.000366	2540.497042
890.309300	2541.439738
890.618193	2542.362269
890.927044	2543.748587
891.235855	2545.341591
891.544625	2541.555685
891.853353	2544.260264
892.162041	2544.388813
892.470687	2546.886705
892.779293	2546.498536
893.087858	2541.984183
893.396381	2545.301262
893.704864	2551.141439
894.013306	2552.061449
894.321707	2564.964283
894.630068	2566.779098
894.938387	2574.106415
895.246665	2570.391085
895.554903	2569.420663
895.863100	2563.862791
896.171256	2558.877089
896.479371	2554.760987
896.787446	2553.987170
897.095480	2547.058104
897.403473	2549.727395
897.711425	2545.979297
898.019336	2547.955430
898.327207	2546.801005
898.635038	2546.798485
898.942827	2542.213555
899.250576	2543.733463
899.558284	2542.435366
899.865952	2545.918803
900.173579	2540.174409
900.481165	2541.265818
900.788711	2543.141128
901.096216	2537.855478
901.403681	2541.044008
901.711105	2539.395550
902.018489	2538.803215
902.325832	2541.406971
902.633135	2539.209028
902.940397	2540.802032
903.247619	2547.496685
903.554800	2550.496171
903.861941	2562.345403
904.169041	2576.586663
904.476101	2584.501274
904.783121	2582.205029
905.090100	2575.069276
905.397039	2570.103739
905.703938	2564.334138
906.010796	2554.340051
906.317614	2551.038095
906.624391	2550.344937
906.931129	2547.073228
907.237826	2545.928886
907.544483	2541.785057
907.851099	2540.544933
908.157675	2539.975283
908.464211	2542.420243
908.770707	2534.147709
909.077163	2534.964376
909.383578	2533.099149
909.689954	2533.504962
909.996289	2531.475898
910.302584	2538.034439
910.608839	2537.603420
910.915054	2536.872453
911.221229	2539.635005
911.527363	2536.786753
911.833458	2538.231044
912.139513	2537.031249
912.445527	2537.258101
912.751502	2537.716846
913.057436	2537.172402
913.363331	2541.422094
913.669186	2538.606610
913.975000	2542.720191
914.280775	2543.509132
914.586510	2546.014585
914.892205	2551.171686
915.197859	2557.614280
915.503475	2563.693912
915.809050	2570.696075
916.114585	2574.784450
916.420081	2581.905080
916.725536	2579.311407
917.030952	2575.434759
917.336328	2566.774057
917.641665	2564.286248
917.946961	2560.943962
918.252218	2557.775597
918.557435	2550.690256
918.862612	2550.241593
919.167750	2546.007024
919.472848	2545.868392
919.777906	2542.137938
920.082925	2544.769420
920.387904	2541.752290
920.692843	2543.330171
920.997743	2540.756662
921.302603	2540.814635
921.607423	2540.481919
921.912204	2539.239275
922.216946	2537.908410
922.521647	2539.511497
922.826310	2537.580735
923.130932	2538.783050
923.435516	2540.938143
923.740059	2537.837834
924.044564	2535.430683
924.349028	2534.397246
924.653454	2532.436238
924.957840	2534.122503
925.262186	2529.580424
925.566493	2530.775177
925.870761	2531.236443
926.174989	2535.304654
926.479178	2530.979344
926.783328	2536.514531
927.087438	2531.695188
927.391509	2535.960004
927.695541	2532.726104
927.999533	2531.244005
928.303486	2532.801721
928.607400	2533.482277
928.911275	2532.496731
929.215110	2536.055786
929.518906	2530.714683
929.822663	2532.935312
930.126381	2531.798532
930.430060	2534.349355
930.733699	2532.206865
931.037299	2532.027904
931.340861	2533.449509
931.644383	2533.968748
931.947866	2532.592513
932.251309	2532.083357
932.554714	2532.506814
932.858080	2532.869777
933.161407	2534.482946
933.464694	2534.949253
933.767943	2531.929602
934.071153	2533.018491
934.374323	2534.044366
934.677455	2534.760209
934.980548	2532.960517
935.283602	2534.747607
935.586617	2534.987061
935.889593	2534.709798
936.192530	2533.104190
936.495428	2532.065713
936.798287	2537.684079
937.101108	2532.474046
937.403890	2535.148378
937.706632	2532.083357
938.009336	2533.550332
938.312002	2533.963707
938.614628	2535.171063
938.917216	2537.701723
939.219765	2537.847916
939.522275	2532.766433
939.824747	2535.962525
940.127179	2533.762061
940.429573	2531.211237
940.731929	2530.792821
941.034246	2531.503624
941.336524	2533.414221
941.638763	2535.334901
941.940964	2532.194262
942.243126	2535.655014
942.545250	2532.489170
942.847335	2536.138965
943.149381	2532.995806
943.451389	2533.794828
943.753359	2533.028573
944.055290	2532.905065
944.357182	2534.561084
944.659036	2531.049920
944.960851	2533.497400
945.262628	2533.751979
945.564367	2535.536547
945.866067	2536.136444
946.167729	2532.232071
946.469352	2534.384643
946.770937	2532.083357
947.072484	2531.715352
947.373992	2533.963707
947.675462	2533.245343
947.976893	2531.158305
948.278286	2530.901206
948.579641	2532.499252
948.880958	2530.510517
949.182236	2533.973789
949.483476	2532.960517
949.784678	2535.198790
950.085841	2534.435055
950.386967	2533.527647
950.688054	2533.769623
950.989103	2530.170239
951.290114	2533.847761
951.591087	2531.554036
951.892021	2531.685106
952.192917	2533.704088
952.493776	2534.392205
952.794596	2533.610826
953.095378	2531.775846
953.396122	2532.801721
953.696828	2534.513193
953.997496	2533.000847
954.298126	2530.681916
954.598718	2536.580066
954.899272	2530.707122
955.199788	2529.968593
955.500266	2531.906916
955.800706	2527.722759
956.101108	2528.932636
956.401472	2529.041020
956.701798	2530.313912
957.002087	2527.314425
957.302337	2530.359282
957.602550	2531.934643
957.902724	2530.480270
958.202861	2529.845084
958.502960	2529.043541
958.803022	2530.686957
959.103045	2529.126720
959.403031	2531.828778
959.702979	2528.746113
960.002889	2530.717204
960.302762	2528.118489
960.602596	2531.218799
960.902393	2530.323994
961.202153	2528.607481
961.501875	2531.788449
961.801559	2529.466998
962.101205	2530.628984
962.400814	2531.153264
962.700385	2529.466998
962.999918	2530.112266
963.299414	2529.212420
963.598873	2531.601927
963.898293	2528.640249
964.197677	2529.235105
964.497022	2529.323325
964.796331	2529.691329
965.095601	2529.895496
965.394835	2528.647810
965.694030	2525.358457
965.993189	2528.115969
966.292309	2530.366844
966.591393	2528.443644
966.890439	2527.029600
967.189447	2530.142513
967.488419	2530.291227
967.787353	2528.526823
968.086249	2529.504807
968.385108	2530.659231
968.683930	2528.814168
968.982714	2528.683098
969.281462	2528.667975
969.580172	2527.606812
969.878844	2527.306863
970.177480	2530.843233
970.476078	2531.218799
970.774639	2532.693336
971.073162	2527.816020
971.371649	2527.712676
971.670098	2524.952645
971.968510	2524.680422
972.266885	2525.877696
972.565223	2529.020856
972.863524	2529.282996
973.161788	2528.496576
973.460014	2527.163191
973.758204	2528.564631
974.056356	2528.428520
974.354471	2532.600075
974.652550	2526.139836
974.950591	2531.213758
975.248595	2531.143182
975.546563	2530.961700
975.844493	2528.254600
976.142386	2532.400949
976.440243	2527.634538
976.738062	2531.206196
977.035845	2528.942718
977.333590	2530.127389
977.631299	2530.545805
977.928971	2527.954652
978.226606	2529.386339
978.524204	2530.790301
978.821765	2527.750485
979.119290	2526.217974
979.416777	2528.995650
979.714228	2531.659900
980.011642	2528.841895
980.309020	2529.945907
980.606360	2529.093952
980.903664	2528.176463
981.200931	2529.156967
981.498162	2527.727800
981.795356	2529.156967
982.092513	2531.644776
982.389633	2529.363654
982.686717	2531.165867
982.983764	2531.299457
983.280775	2533.328522
983.577749	2529.519930
983.874686	2533.605785
984.171587	2530.235774
984.468451	2531.884231
984.765279	2531.390198
985.062070	2530.434899
985.358824	2527.364837
985.655543	2528.826771
985.952224	2530.724766
986.248869	2528.796524
986.545478	2522.485000
986.842050	2526.472553
987.138586	2525.013138
987.435086	2524.806451
987.731549	2525.313087
988.027975	2530.452543
988.324366	2527.153108
988.620719	2529.033459
988.917037	2527.460619
989.213318	2526.800228
989.509563	2527.238808
989.805772	2526.563293
990.101944	2526.507841
990.398080	2528.211751
990.694180	2527.793335
990.990244	2527.377440
991.286271	2527.838705
991.582262	2530.686957
991.878217	2527.500948
992.174136	2529.708973
992.470019	2527.531195
992.765865	2527.397604
993.061676	2527.846267
993.357450	2527.924405
993.653188	2529.582944
993.948890	2527.495907
994.244556	2527.185876
994.540186	2529.111597
994.835780	2529.219981
995.131337	2525.628159
995.426859	2526.210413
995.722345	2526.112110
996.017795	2526.903571
996.313208	2527.029600
996.608586	2527.291740
996.903928	2528.667975
997.199234	2530.346679
997.494504	2528.539426
997.789738	2528.894827
998.084936	2525.532377
998.380099	2528.993129
998.675225	2528.355423
998.970316	2528.995650
999.265371	2527.077491
999.560390	2526.124713
999.855373	2526.419620
1000.150320	2527.289219
1000.445232	2527.914322
1000.740108	2526.880886
1001.034948	2526.109589
1001.329752	2524.882068
1001.624521	2526.444826
1001.919254	2522.711852
1002.213951	2523.720083
1002.508613	2522.255627
1002.803239	2524.935001
1003.097829	2520.460977
1003.392384	2527.594209
1003.686903	2527.533715
1003.981386	2528.942718
1004.275834	2526.631349
1004.570246	2527.437933
1004.864623	2525.360978
1005.158964	2525.713859
1005.453270	2528.426000
1005.747540	2526.127233
1006.041775	2526.462470
1006.335974	2527.286699
1006.630138	2527.533715
1006.924266	2525.900382
1007.218359	2528.599919
1007.512416	2527.997502
1007.806438	2528.095804
1008.100425	2524.960206
1008.394376	2526.505320
1008.688292	2527.057326
1008.982172	2525.779394
1009.276017	2526.732172
1009.569827	2527.480783
1009.863602	2528.471370
1010.157341	2527.647141
1010.451045	2529.351051
1010.744714	2526.767460
1011.038347	2525.804600
1011.331945	2527.475742
1011.625508	2528.073119
1011.919036	2526.056657
1012.212528	2526.666637
1012.505986	2524.325021
1012.799408	2527.972296
1013.092795	2527.543798
1013.386147	2526.659075
1013.679464	2527.233767
1013.972745	2525.149250
1014.265992	2525.237470
1014.559204	2525.759229
1014.852380	2526.883407
1015.145521	2526.797707
1015.438628	2527.914323
1015.731699	2528.274765
1016.024736	2527.654703
1016.317737	2527.942049
1016.610703	2525.988602
1016.903635	2525.033303
1017.196531	2523.006759
1017.489393	2525.176976
1017.782219	2525.058509
1018.075011	2524.473735
1018.367768	2525.728982
1018.660490	2525.907943
1018.953177	2525.907943
1019.245829	2525.907943
