Dividing Wavelength (nm)	Counts (n)	Blue Motor Position (mm): 0.000000	Red Motor Position (mm): 14.500000	
326.493990	2085.502661
326.888308	2085.502661
327.282561	2085.502661
327.676750	2060.241439
328.070874	2062.015925
328.464933	2065.809393
328.858929	2079.571743
329.252859	2091.909968
329.646726	2107.335898
330.040528	2122.051026
330.434265	2140.007616
330.827938	2159.620225
331.221547	2179.918431
331.615091	2200.703109
332.008571	2222.836295
332.401986	2240.833214
332.795338	2260.274424
333.188625	2280.827208
333.581847	2299.897893
333.975006	2317.499082
334.368100	2334.391988
334.761129	2351.176510
335.154095	2371.691485
335.546996	2387.540873
335.939833	2402.850857
336.332606	2415.171437
336.725315	2424.520257
337.117960	2436.629109
337.510540	2440.571291
337.903056	2453.080914
338.295508	2457.650720
338.687896	2467.178501
339.080220	2469.681434
339.472480	2477.003710
339.864676	2476.854996
340.256807	2485.203147
340.648875	2483.796665
341.040879	2488.164824
341.432818	2487.461583
341.824694	2485.760194
342.216506	2488.144660
342.608253	2486.602067
342.999937	2485.548466
343.391557	2484.159628
343.783113	2485.077118
344.174605	2483.836994
344.566033	2480.008238
344.957397	2480.177116
345.348697	2478.112764
345.739934	2477.139821
346.131106	2474.830972
346.522215	2472.859881
346.913260	2470.099850
347.304241	2469.999027
347.695159	2466.308902
348.086012	2465.446865
348.476802	2466.623974
348.867528	2465.088943
349.258191	2462.248253
349.648789	2464.078191
350.039324	2462.341514
350.429796	2463.337142
350.820203	2461.388736
351.210548	2461.784466
351.600828	2458.127109
351.991045	2460.514096
352.381198	2458.845474
352.771288	2458.774897
353.161314	2457.207099
353.551276	2459.266410
353.941175	2457.998560
354.331010	2459.916719
354.720782	2459.067284
355.110490	2461.872687
355.500135	2459.904116
355.889717	2459.909157
356.279235	2459.183231
356.668689	2462.376802
357.058080	2462.026442
357.447408	2461.615588
357.836672	2461.416462
358.225873	2461.504682
358.615010	2458.006122
359.004084	2464.090794
359.393095	2465.635908
359.782043	2466.497945
360.170927	2467.969962
360.559748	2468.166567
360.948505	2469.595734
361.337199	2470.268728
361.725830	2470.200673
362.114398	2471.040025
362.502903	2472.176805
362.891344	2474.745273
363.279722	2474.941878
363.668037	2473.600931
364.056289	2473.293421
364.444478	2474.420118
364.832603	2473.313585
365.220665	2474.609162
365.608665	2476.466827
365.996601	2477.764924
366.384474	2479.100830
366.772284	2479.756180
367.160031	2478.019502
367.547715	2480.618217
367.935336	2481.576036
368.322893	2480.940851
368.710388	2480.981180
369.097820	2486.786069
369.485189	2480.996304
369.872495	2487.890082
370.259738	2488.305977
370.646918	2488.376553
371.034035	2489.465442
371.421090	2493.876452
371.808081	2492.971565
372.195010	2500.157729
372.581875	2503.507576
372.968678	2508.289111
373.355418	2515.263547
373.742096	2521.428878
374.128710	2529.852646
374.515262	2542.183308
374.901751	2555.214691
375.288177	2571.167422
375.674540	2588.453539
376.060841	2604.502052
376.447079	2626.400825
376.833254	2649.900163
377.219367	2671.236847
377.605417	2702.212217
377.991404	2727.647358
378.377329	2764.183121
378.763191	2792.106072
379.148991	2840.196159
379.534727	2884.964126
379.920402	2927.710590
380.306013	2974.449648
380.691563	3032.254038
381.077049	3085.027358
381.462474	3137.662045
381.847835	3204.553115
382.233134	3272.298661
382.618371	3329.089780
383.003545	3409.594486
383.388657	3485.085765
383.773706	3573.777305
384.158693	3637.739465
384.543618	3726.995615
384.928480	3802.484373
385.313280	3901.253180
385.698017	3998.068539
386.082692	4110.508955
386.467305	4171.436341
386.851856	4293.467552
387.236344	4435.675981
387.620770	4498.191330
388.005133	4608.784163
388.389435	4748.053600
388.773674	4829.165765
389.157851	4954.060352
389.541965	5081.415021
389.926018	5107.717242
390.310008	5276.265700
390.693936	5390.684769
391.077802	5501.446480
391.461606	5628.899452
391.845348	5738.773921
392.229027	5855.532085
392.612645	6063.608231
392.996200	6182.244225
393.379694	6348.284709
393.763125	6561.301186
394.146494	6647.668754
394.529801	6779.686491
394.913047	7014.319435
395.296230	7004.106057
395.679351	7060.693009
396.062410	7303.616131
396.445408	7208.958385
396.828343	7354.289809
397.211217	7483.867628
397.594028	7376.455762
397.976778	7568.889208
398.359466	7725.853094
398.742092	7704.818880
399.124656	7842.291145
399.507158	8024.503651
399.889598	8038.291207
400.271977	8237.787309
400.654294	8258.907223
401.036549	8440.267773
401.418742	8465.755847
401.800874	8741.078465
402.182944	8807.047004
402.564952	9134.495152
402.946898	8953.230383
403.328783	8985.604673
403.710606	9154.349736
404.092367	9361.732723
404.474067	9674.085136
404.855705	9448.448131
405.237282	9371.091625
405.618797	9718.623730
406.000250	9892.160410
406.381642	10172.778760
406.762972	10069.755219
407.144240	9832.263941
407.525447	9995.378035
407.906593	9878.874449
408.287677	10041.600375
408.668700	10083.545296
409.049661	9993.341409
409.430560	10042.180108
409.811399	9927.541749
410.192176	9961.829157
410.572891	9927.468652
410.953545	10215.232837
411.334138	9697.697901
411.714669	10042.412001
412.095139	9422.478627
412.475547	9671.763685
412.855894	9451.674470
413.236180	9564.256038
413.616405	9216.391217
413.996568	9277.467316
414.376670	9140.191656
414.756711	8933.456457
415.136691	8979.938416
415.516609	8950.682080
415.896466	8859.291002
416.276262	8886.533397
416.655997	9008.393209
417.035670	8883.004589
417.415283	9082.730064
417.794834	8962.667423
418.174324	8666.182042
418.553753	8448.903270
418.933121	8537.224285
419.312428	8284.836398
419.691674	8067.555105
420.070859	8125.356975
420.449983	7796.131820
420.829045	7874.345322
421.208047	7603.597552
421.586988	7617.627083
421.965867	7547.681073
422.344686	7381.459108
422.723444	7418.816578
423.102141	6785.992974
423.480777	7039.305914
423.859352	6713.165945
424.237866	6900.003710
424.616319	6652.046996
424.994712	6677.250245
425.373044	6457.657583
425.751314	6479.657178
426.129524	6096.189208
426.507673	6198.660742
426.885762	5985.939174
427.263789	5868.462645
427.641756	5758.462147
428.019662	5626.895594
428.397508	5489.831662
428.775292	5402.246655
429.153016	5254.407257
429.530679	5137.515502
429.908282	5006.281664
430.285824	4842.187066
430.663305	4819.872398
431.040726	4649.005009
431.418086	4509.387733
431.795385	4480.073423
432.172624	4418.596552
432.549802	4267.613994
432.926920	4184.659287
433.303977	4077.938060
433.680974	4004.843850
434.057910	3937.320115
434.434786	3854.776262
434.811601	3769.273251
435.188355	3757.250099
435.565050	3662.844411
435.941683	3585.263574
436.318257	3565.766912
436.694770	3487.112309
437.071222	3450.984880
437.447614	3343.391533
437.823946	3290.593008
438.200218	3241.897983
438.576429	3189.235569
438.952580	3153.070332
439.328670	3106.117025
439.704700	3078.952767
440.080670	3028.619367
440.456580	3009.334433
440.832429	2982.765031
441.208218	2928.277720
441.583947	2908.985224
441.959616	2886.998232
442.335224	2869.434852
442.710773	2849.693693
443.086261	2838.570387
443.461689	2810.544092
443.837057	2798.667134
444.212365	2790.155146
444.587612	2776.415481
444.962800	2760.034251
445.337927	2754.206677
445.712995	2726.508058
446.088002	2738.475757
446.462949	2732.577607
446.837837	2724.569734
447.212664	2717.590257
447.587431	2741.160171
447.962139	2759.499889
448.336786	2774.802312
448.711374	2752.931266
449.085901	2719.604197
449.460369	2709.128680
449.834776	2705.027701
450.209124	2719.581512
450.583412	2712.652446
450.957640	2711.533310
451.331808	2699.605940
451.705917	2684.948785
452.079965	2683.204546
452.453954	2680.487364
452.827883	2678.445697
453.201752	2674.616941
453.575562	2674.755572
453.949311	2678.728002
454.323001	2674.969821
454.696632	2673.558298
455.070202	2683.691017
455.443713	2679.307734
455.817164	2681.800585
456.190556	2678.904442
456.563888	2676.010820
456.937160	2673.122238
457.310373	2666.740138
457.683526	2669.253153
458.056619	2669.313647
458.429653	2667.110662
458.802628	2668.706188
459.175542	2667.735766
459.548398	2674.314471
459.921194	2680.878054
460.293930	2686.443487
460.666607	2696.465301
461.039224	2705.985520
461.411782	2706.592979
461.784280	2699.694160
462.156719	2695.610826
462.529099	2692.056812
462.901419	2684.724454
463.273680	2679.960564
463.645882	2678.856551
464.018024	2681.087262
464.390106	2684.542972
464.762130	2700.974613
465.134094	2722.467573
465.505999	2750.715678
465.877845	2778.857920
466.249631	2785.471914
466.621358	2775.329112
466.993026	2762.998450
467.364634	2757.344796
467.736184	2743.481623
468.107674	2734.657083
468.479105	2731.604664
468.850477	2729.759602
469.221790	2722.901112
469.593043	2713.637992
469.964238	2709.743701
470.335373	2711.742518
470.706449	2722.840618
471.077467	2736.633215
471.448425	2767.429624
471.819324	2783.294135
472.190164	2774.976231
472.560945	2753.644589
472.931667	2737.263359
473.302330	2728.627863
473.672934	2728.406052
474.043479	2730.886300
474.413965	2728.141392
474.784393	2720.798951
475.154761	2732.285220
475.525070	2728.219529
475.895321	2731.334962
476.265513	2732.673389
476.635645	2742.735532
477.005719	2741.117322
477.375734	2747.716192
477.745691	2751.849938
478.115588	2762.005342
478.485427	2770.479522
478.855207	2790.981895
479.224928	2811.154072
479.594591	2823.527584
479.964194	2814.385452
480.333739	2818.811585
480.703226	2816.716985
481.072653	2821.064980
481.442022	2824.629076
481.811333	2824.460197
482.180584	2817.510967
482.549777	2812.391675
482.918912	2805.170222
483.287988	2803.846919
483.657005	2796.043213
484.025964	2790.838222
484.394864	2788.680608
484.763706	2786.933848
485.132489	2777.456479
485.501213	2776.728032
485.869879	2776.491098
486.238487	2772.037239
486.607036	2769.441044
486.975527	2767.535488
487.343959	2765.398039
487.712333	2764.205806
488.080648	2760.130033
488.448905	2763.152205
488.817104	2757.455701
489.185244	2763.132040
489.553326	2768.727721
489.921350	2785.519805
490.289315	2798.420117
490.657222	2802.132927
491.025070	2800.171918
491.392861	2793.089097
491.760593	2781.774227
492.128267	2773.138731
492.495883	2760.689601
492.863440	2756.921339
493.230939	2748.999166
493.598380	2740.023391
493.965763	2732.086094
494.333088	2730.334293
494.700354	2726.455126
495.067563	2726.591237
495.434713	2722.056719
495.801805	2723.934549
496.168839	2721.240052
496.535815	2717.340719
496.902733	2717.272664
497.269593	2717.290308
497.636395	2715.951882
498.003139	2716.692931
498.369825	2709.171530
498.736453	2714.583208
499.103023	2711.321582
499.469535	2709.410984
499.835989	2712.420553
500.202385	2710.076417
500.568723	2709.413505
500.935003	2709.816797
501.301226	2708.735470
501.667390	2710.187322
502.033497	2711.961808
502.399546	2707.570963
502.765537	2700.720035
503.131470	2705.869574
503.497345	2705.733463
503.863163	2700.238605
504.228923	2702.398739
504.594625	2703.381764
504.960269	2697.660055
505.325856	2701.501414
505.691385	2697.019828
506.056856	2699.880683
506.422270	2700.377237
506.787625	2697.518902
507.152924	2697.765919
507.518164	2695.189889
507.883347	2694.022862
508.248472	2692.223170
508.613540	2695.613346
508.978550	2695.078984
509.343503	2693.110413
509.708398	2691.010773
510.073236	2694.242152
510.438016	2695.147040
510.802738	2689.732840
511.167403	2694.907585
511.532010	2692.427337
511.896561	2692.946576
512.261053	2698.133923
512.625488	2690.471369
512.989866	2688.727130
513.354186	2688.467511
513.718449	2683.955678
514.082655	2689.518591
514.446803	2684.192612
514.810894	2686.657737
515.174927	2690.864579
515.538904	2685.886440
515.902822	2686.498940
516.266684	2681.563651
516.630488	2685.573888
516.994235	2682.360153
517.357925	2685.059691
517.721558	2684.046419
518.085133	2683.890143
518.448651	2683.451563
518.812112	2681.205729
519.175516	2681.389731
519.538863	2679.567354
519.902152	2679.244720
520.265385	2679.569874
520.628560	2680.068948
520.991678	2678.334792
521.354739	2675.690706
521.717743	2677.414781
522.080690	2674.967301
522.443580	2675.567198
522.806413	2676.116684
523.169189	2673.076868
523.531908	2673.238185
523.894569	2672.262722
524.257174	2672.703823
524.619722	2669.921106
524.982213	2671.756086
525.344647	2668.164264
525.707025	2668.615447
526.069345	2666.677123
526.431608	2665.983965
526.793815	2667.947494
527.155964	2663.523882
527.518057	2661.157060
527.880093	2660.453819
528.242072	2659.364930
528.603995	2663.879283
528.965860	2659.831236
529.327669	2657.245124
529.689421	2656.025165
530.051117	2657.393838
530.412755	2655.823519
530.774337	2657.305618
531.135862	2655.452994
531.497331	2655.256389
531.858743	2646.477220
532.220098	2650.860503
532.581396	2649.867396
532.942638	2648.629792
533.303824	2647.087199
533.664953	2647.125008
534.026025	2648.523928
534.387040	2649.380924
534.747999	2647.399751
535.108902	2645.141314
535.469748	2644.450676
535.830537	2643.039153
536.191270	2642.290542
536.551947	2640.117804
536.912567	2642.898001
537.273131	2642.676190
537.633638	2640.516055
537.994089	2639.510345
538.354483	2638.308030
538.714821	2642.023360
539.075103	2637.541775
539.435328	2637.680406
539.795497	2637.592186
540.155609	2637.299799
540.515665	2638.469347
540.875665	2636.367186
541.235609	2635.250570
541.595496	2634.345683
541.955328	2635.968935
542.315102	2635.752165
542.674821	2631.026083
543.034483	2632.808131
543.394090	2632.455250
543.753640	2632.414921
544.113134	2634.101187
544.472571	2630.496762
544.831953	2634.920375
545.191278	2631.278141
545.550548	2629.969962
545.909761	2630.489200
546.268918	2627.774539
546.628019	2629.586834
546.987064	2627.441823
547.346053	2627.068777
547.704986	2629.107924
548.063863	2625.644652
548.422684	2624.659106
548.781449	2626.526853
549.140158	2625.919394
549.498811	2627.635907
549.857408	2623.204733
550.215949	2622.592233
550.574434	2621.503344
550.932864	2618.944958
551.291237	2618.899588
551.649555	2624.709517
552.007817	2623.655916
552.366022	2623.529887
552.724173	2621.853704
553.082267	2623.814713
553.440305	2621.684825
553.798288	2620.790020
554.156215	2621.601646
554.514086	2622.821605
554.871902	2620.772376
555.229661	2619.665843
555.587365	2617.079731
555.945014	2622.420834
556.302606	2619.786831
556.660143	2617.931686
557.017625	2618.876902
557.375050	2618.942437
557.732421	2616.636110
558.089735	2618.420678
558.446994	2617.772890
558.804197	2619.328086
559.161345	2618.362705
559.518437	2614.528907
559.875474	2615.917745
560.232455	2616.149638
560.589381	2615.373301
560.946251	2616.008486
561.303065	2616.595780
561.659825	2616.338682
562.016528	2614.846500
562.373177	2614.959926
562.729770	2616.825153
563.086307	2612.169647
563.442789	2614.332302
563.799216	2616.389093
564.155587	2612.527569
564.511904	2615.012858
564.868164	2613.152672
565.224370	2613.921448
565.580520	2612.209977
565.936615	2611.340378
566.292654	2611.494133
566.648638	2612.658639
567.004567	2611.264760
567.360441	2612.182250
567.716260	2610.241406
568.072023	2611.388268
568.427732	2607.912393
568.783385	2608.756786
569.138982	2608.093874
569.494525	2609.122270
569.850013	2604.933071
570.205445	2608.482043
570.560823	2607.196549
570.916145	2611.852055
571.271412	2611.214349
571.626625	2607.962804
571.981782	2606.362238
572.336884	2608.237547
572.691931	2608.933227
573.046923	2606.304265
573.401860	2607.456168
573.756743	2605.926178
574.111570	2606.228648
574.466342	2604.295365
574.821059	2604.391147
575.175722	2602.104984
575.530330	2602.180601
575.884882	2603.808894
576.239380	2603.105653
576.593823	2603.783688
576.948211	2602.251177
577.302544	2600.378388
577.656823	2598.641711
578.011047	2602.934253
578.365216	2604.325612
578.719330	2598.535847
579.073389	2598.366968
579.427394	2598.619026
579.781344	2599.581886
580.135239	2598.631629
580.489080	2598.465271
580.842866	2599.473501
581.196597	2598.356886
581.550273	2596.373192
581.903895	2597.071392
582.257463	2597.278079
582.610975	2598.742534
582.964434	2596.859663
583.317837	2595.748089
583.671186	2595.133068
584.024481	2595.667430
584.377721	2595.458222
584.730906	2594.308839
585.084037	2595.503593
585.437113	2594.087028
585.790135	2593.741709
586.143103	2593.547625
586.496016	2593.920670
586.848874	2589.439085
587.201679	2591.500917
587.554428	2588.831626
587.907124	2591.049733
588.259765	2586.033785
588.612352	2591.987388
588.964884	2592.299939
589.317362	2592.126020
589.669786	2589.769280
590.022155	2591.062336
590.374470	2589.313056
590.726731	2588.476224
591.078937	2590.414548
591.431090	2586.701738
591.783188	2590.338931
592.135232	2587.425144
592.487222	2586.663929
592.839157	2589.582757
593.191038	2588.425813
593.542866	2585.917839
593.894639	2586.681573
594.246358	2585.199474
594.598022	2586.840370
594.949633	2586.747108
595.301190	2584.309711
595.652692	2586.457242
596.004141	2584.092941
596.355535	2585.461614
596.706876	2584.821388
597.058162	2582.399113
597.409395	2581.448856
597.760573	2583.225862
598.111698	2581.463979
598.462768	2583.634196
598.813785	2580.962384
599.164748	2580.954823
599.515657	2581.819381
599.866511	2580.178485
600.217312	2583.976994
600.568060	2581.650502
600.918753	2582.031109
601.269392	2579.094637
601.619978	2577.746128
601.970510	2580.163362
602.320988	2580.738053
602.671412	2580.334761
603.021783	2577.594894
603.372100	2579.694534
603.722363	2576.652198
604.072572	2581.411047
604.422728	2578.956005
604.772830	2576.553895
605.122878	2577.173957
605.472872	2574.570201
605.822813	2575.230593
606.172701	2576.127918
606.522534	2578.020871
606.872314	2578.993814
607.222041	2576.684965
607.571714	2576.722774
607.921333	2577.317630
608.270899	2576.138000
608.620411	2578.038515
608.969870	2576.122877
609.319276	2576.132959
609.668627	2578.593042
610.017926	2578.570357
610.367171	2578.305696
610.716362	2576.934502
611.065500	2577.955336
611.414585	2577.504153
611.763616	2579.613876
612.112594	2576.662280
612.461518	2576.642116
612.810389	2577.257136
613.159207	2577.688155
613.507971	2577.534400
613.856682	2574.489543
614.205340	2578.119174
614.553945	2577.998186
614.902496	2577.650346
615.250994	2577.408371
615.599439	2577.660429
615.947830	2576.944585
616.296169	2576.790830
616.644454	2578.247723
616.992686	2575.570870
617.340864	2577.552044
617.688990	2575.225551
618.037063	2578.580439
618.385082	2577.456262
618.733048	2576.800912
619.080961	2578.086406
619.428821	2577.080696
619.776628	2578.073803
620.124382	2577.531879
620.472083	2576.178329
620.819731	2578.890470
621.167326	2574.764286
621.514868	2577.239492
621.862357	2573.521641
622.209793	2576.064903
622.557176	2574.295458
622.904506	2571.931157
623.251783	2568.195662
623.599007	2570.368400
623.946179	2568.682134
624.293297	2570.280179
624.640363	2573.123390
624.987376	2571.976528
625.334336	2570.179356
625.681243	2568.891342
626.028097	2568.104922
626.374899	2571.243040
626.721647	2568.815724
627.068343	2568.616599
627.414987	2569.327401
627.761577	2565.443192
628.108115	2569.904613
628.454600	2565.367575
628.801032	2568.104922
629.147412	2570.557443
629.493739	2565.211299
629.840014	2566.990827
630.186236	2565.039900
630.532405	2569.115673
630.878521	2566.345559
631.224585	2566.648028
631.570597	2565.909499
631.916556	2563.706515
632.262462	2568.349417
632.608316	2567.124417
632.954117	2564.026628
633.299866	2565.748182
633.645562	2564.828172
633.991206	2566.426217
634.336797	2562.988150
634.682336	2563.368757
635.027823	2562.610064
635.373257	2561.788356
635.718639	2563.494786
636.063968	2558.075546
636.409245	2559.318190
636.754470	2559.744168
637.099642	2558.188972
637.444762	2559.192162
637.789829	2558.836760
638.134845	2557.087480
638.479808	2560.094528
638.824719	2557.140412
639.169577	2558.380536
639.514383	2558.569579
639.859137	2556.185113
640.203839	2556.253169
640.548489	2557.621842
640.893086	2556.646379
641.237632	2552.479865
641.582125	2554.871893
641.926566	2549.863506
642.270955	2555.015566
642.615292	2553.409958
642.959576	2556.046482
643.303809	2553.475493
643.647990	2553.089845
643.992118	2557.271482
644.336195	2556.212840
644.680219	2553.079762
645.024192	2554.967675
645.368112	2555.350802
645.711981	2555.696121
646.055797	2556.515309
646.399562	2555.539846
646.743274	2558.312480
647.086935	2558.367933
647.430544	2557.682336
647.774101	2557.906667
648.117606	2558.511606
648.461059	2558.488921
648.804460	2562.269786
649.147810	2556.840463
649.491108	2557.702501
649.834354	2555.476831
650.177548	2554.796275
650.520690	2552.968857
650.863781	2553.357026
651.206820	2556.885834
651.549807	2555.920453
651.892742	2553.878785
652.235626	2549.876109
652.578458	2552.689073
652.921238	2552.048847
653.263967	2553.132695
653.606644	2550.289484
653.949269	2551.471634
654.291843	2548.731767
654.634365	2551.254865
654.976836	2548.857796
655.319255	2548.981304
655.661622	2548.905687
656.003938	2549.583722
656.346203	2549.177909
656.688416	2552.827705
657.030577	2549.734957
657.372687	2550.745708
657.714746	2549.455173
658.056753	2548.444422
658.398708	2546.359904
658.740612	2547.811757
659.082465	2545.941489
659.424266	2544.550130
659.766016	2544.837476
660.107715	2549.487940
660.449362	2546.322096
660.790958	2549.563558
661.132503	2549.462735
661.473996	2547.771428
661.815438	2548.701520
662.156829	2550.539021
662.498168	2549.913918
662.839456	2548.704041
663.180693	2546.362425
663.521879	2547.703372
663.863013	2549.195553
664.204097	2548.293187
664.545129	2549.119936
664.886110	2550.491130
665.227040	2550.133208
665.567918	2548.020965
665.908746	2552.764690
666.249522	2550.566747
666.590248	2548.204967
666.930922	2549.361912
667.271545	2549.649257
667.612118	2549.223280
667.952639	2549.823177
668.293109	2549.727395
668.633528	2547.879812
668.973896	2548.169679
669.314213	2546.881664
669.654480	2547.584905
669.994695	2547.884853
670.334859	2546.450645
670.674973	2548.159596
671.015035	2546.974925
671.355047	2546.657332
671.695008	2548.242775
672.034918	2547.421067
672.374777	2547.365615
672.714585	2548.177240
673.054342	2547.733619
673.394049	2547.607590
673.733705	2548.499874
674.073310	2544.565254
674.412864	2547.839483
674.752368	2545.293700
675.091820	2547.148845
675.431223	2545.351674
675.770574	2547.847045
676.109875	2541.212886
676.449125	2543.932589
676.788324	2542.745397
677.127473	2544.081303
677.466571	2540.325643
677.805619	2545.079451
678.144616	2544.905532
678.483562	2546.143135
678.822458	2541.225489
679.161303	2541.747249
679.500098	2542.876467
679.838842	2543.219266
680.177535	2543.831766
680.516179	2546.397713
680.854771	2545.898639
681.193314	2544.497198
681.531805	2545.704554
681.870247	2547.597508
682.208638	2548.091541
682.546978	2547.998279
682.885268	2547.317724
683.223508	2547.968032
683.561697	2547.594987
683.899836	2545.558361
684.237925	2547.189174
684.575963	2547.481561
684.913951	2546.243958
685.251889	2548.051212
685.589776	2545.361756
685.927614	2547.905018
686.265401	2549.329144
686.603137	2545.674307
686.940824	2549.513146
687.278460	2550.639844
687.616046	2549.067004
687.953582	2548.346119
688.291068	2545.598690
688.628504	2548.711603
688.965889	2549.001469
689.303224	2549.034237
689.640510	2546.543907
689.977745	2548.414175
690.314930	2546.294369
690.652065	2545.896118
690.989150	2544.713968
691.326185	2542.889070
691.663170	2542.382434
692.000105	2543.546941
692.336990	2538.427649
692.673825	2541.089378
693.010610	2537.865560
693.347345	2537.563091
693.684030	2533.686444
694.020665	2536.249870
694.357251	2531.279293
694.693786	2537.505118
695.030272	2536.138965
695.366707	2535.471012
695.703093	2535.720549
696.039429	2534.377082
696.375716	2537.706764
696.711952	2534.034283
697.048139	2536.224665
697.384276	2538.304141
697.720363	2538.082330
698.056400	2537.305992
698.392388	2533.915816
698.728326	2537.149716
699.064214	2535.362627
699.400053	2536.141486
699.735842	2534.913965
700.071581	2533.620909
700.407270	2534.122503
700.742910	2531.957328
701.078501	2534.997144
701.414042	2533.404139
701.749533	2533.328522
702.084974	2532.037986
702.420366	2533.346166
702.755709	2531.251566
703.091002	2529.802235
703.426246	2530.530681
703.761440	2532.264838
704.096584	2533.636032
704.431679	2530.671834
704.766725	2531.327184
705.101721	2530.961700
705.436668	2528.347862
705.771565	2530.581093
706.106413	2532.257277
706.441212	2532.557225
706.775961	2528.151257
707.110661	2533.015970
707.445311	2531.785929
707.779913	2531.392719
708.114465	2533.257946
708.448967	2533.270548
708.783421	2534.311547
709.117825	2536.058307
709.452180	2535.776002
709.786485	2534.815662
710.120742	2535.947401
710.454949	2537.492515
710.789107	2534.719880
711.123216	2534.651825
711.457275	2535.022349
711.791286	2534.717360
712.125247	2537.121990
712.459159	2537.563091
712.793023	2538.977135
713.126837	2535.322298
713.460602	2537.353883
713.794318	2538.730118
714.127985	2534.586290
714.461602	2535.032432
714.795171	2535.745755
715.128691	2533.477236
715.462162	2533.144520
715.795584	2531.226361
716.128957	2532.237112
716.462281	2532.279962
716.795556	2532.403470
717.128782	2530.523120
717.461960	2531.909437
717.795088	2529.577903
718.128167	2527.574045
718.461198	2530.351720
718.794180	2531.712832
719.127113	2526.255783
719.459997	2525.844929
719.792833	2526.928777
720.125619	2529.494724
720.458357	2526.359127
720.791046	2527.294261
721.123686	2524.771163
721.456278	2528.763757
721.788821	2527.148067
722.121315	2527.150588
722.453761	2526.757378
722.786158	2528.786442
723.118506	2526.608664
723.450805	2526.520443
723.783056	2524.814013
724.115259	2526.533046
724.447412	2528.128572
724.779518	2524.703107
725.111574	2526.341483
725.443582	2530.326515
725.775542	2526.540608
726.107453	2528.302491
726.439315	2529.860208
726.771129	2531.778367
727.102895	2527.316946
727.434612	2531.155784
727.766281	2528.647810
728.097901	2528.796524
728.429473	2523.959537
728.760996	2526.767460
729.092471	2525.270237
729.423897	2530.956659
729.755276	2530.432379
730.086606	2531.324663
730.417887	2532.370703
730.749120	2528.950280
731.080305	2529.938346
731.411442	2531.657379
731.742530	2531.405322
732.073570	2533.351207
732.404562	2534.399767
732.735506	2533.391536
733.066401	2530.021525
733.397249	2529.651000
733.728048	2532.274921
734.058798	2530.664272
734.389501	2527.687471
734.720156	2529.524971
735.050762	2527.916843
735.381320	2528.846936
735.711831	2526.079343
736.042293	2527.826102
736.372707	2528.499096
736.703073	2526.712007
737.033391	2525.981040
737.363661	2528.839374
737.693883	2528.191586
738.024056	2530.971782
738.354182	2526.772501
738.684260	2529.416586
739.014290	2527.614374
739.344272	2527.221164
739.674207	2528.375588
740.004093	2529.252749
740.333931	2526.260824
740.663722	2527.311905
740.993464	2528.337779
741.323159	2529.018335
741.652806	2528.700742
741.982405	2530.253418
742.311956	2526.888448
742.641460	2526.086904
742.970915	2530.056813
743.300323	2526.585978
743.629683	2525.875176
743.958996	2527.324508
744.288260	2524.004908
744.617477	2525.116482
744.946647	2519.430061
745.275768	2524.186389
745.604842	2521.454084
745.933869	2523.344517
746.262847	2520.723117
746.591778	2526.505320
746.920662	2524.440967
747.249498	2524.831657
747.578286	2524.607326
747.907027	2524.594723
748.235720	2522.369053
748.564365	2525.103879
748.892963	2524.148581
749.221514	2526.888448
749.550017	2526.744775
749.878473	2523.972140
750.206881	2525.063550
750.535242	2527.937008
750.863555	2524.297295
751.191821	2524.004908
751.520039	2524.060360
751.848210	2523.478107
752.176334	2523.803262
752.504411	2525.053468
752.832440	2524.662778
753.160421	2525.076153
753.488356	2523.016842
753.816243	2523.294105
754.144082	2521.849814
754.471875	2524.675381
754.799620	2522.419465
755.127318	2521.683456
755.454969	2519.793024
755.782572	2524.834178
756.110129	2522.686646
756.437638	2524.355268
756.765100	2522.918539
757.092515	2522.850483
757.419882	2520.692870
757.747203	2519.198167
758.074477	2522.772346
758.401703	2522.537932
758.728882	2523.218488
759.056014	2524.062881
759.383099	2523.702438
759.710138	2523.425175
760.037129	2521.766635
760.364073	2524.219157
760.690970	2524.151101
761.017820	2524.839219
761.344623	2525.164373
761.671379	2525.839888
761.998088	2520.019876
762.324751	2529.217461
762.651366	2528.478932
762.977935	2540.454193
763.304456	2539.894625
763.630931	2543.821683
763.957359	2539.995448
764.283740	2538.783050
764.610074	2536.005374
764.936362	2533.573018
765.262602	2531.402801
765.588796	2529.272913
765.914943	2523.972140
766.241044	2524.680422
766.567097	2522.371574
766.893104	2524.992974
767.219064	2522.797551
767.544978	2521.360823
767.870845	2520.002232
768.196665	2519.510719
768.522438	2522.419465
768.848165	2518.363857
769.173846	2518.353774
769.499479	2520.319824
769.825066	2518.578106
770.150607	2518.149608
770.476101	2517.975688
770.801548	2518.542818
771.126949	2519.372087
771.452303	2518.694052
771.777611	2518.441994
772.102872	2518.857890
772.428087	2518.656243
772.753256	2518.739422
773.078378	2516.596932
773.403453	2516.702796
773.728482	2516.105420
774.053465	2518.769669
774.378401	2519.485513
774.703291	2512.982425
775.028135	2514.734226
775.352932	2517.093486
775.677683	2516.901922
776.002388	2520.213960
776.327046	2513.602487
776.651658	2516.722961
776.976224	2517.398476
777.300743	2516.027282
777.625216	2517.385873
777.949643	2514.391427
778.274024	2517.645492
778.598359	2512.004441
778.922647	2512.253978
779.246889	2512.879081
779.571086	2514.051149
779.895236	2513.857065
780.219339	2517.474093
780.543397	2516.662467
780.867409	2515.573578
781.191374	2514.225069
781.515294	2516.821263
781.839167	2516.425533
782.162995	2517.262364
782.486776	2517.368229
782.810511	2516.672549
783.134201	2516.533918
783.457844	2512.679956
783.781441	2515.467714
784.104993	2509.826662
784.428498	2514.683814
784.751958	2514.882940
785.075372	2516.511233
785.398739	2514.431757
785.722061	2514.151973
786.045337	2516.680111
786.368568	2516.158352
786.691752	2516.861593
787.014891	2515.903773
787.337983	2517.569875
787.661030	2518.968795
787.984031	2516.264216
788.306987	2520.453415
788.629897	2518.260513
788.952760	2521.464166
789.275579	2518.633558
789.598351	2519.636748
789.921078	2515.339164
790.243759	2519.515760
790.566395	2515.984432
790.888984	2516.972498
791.211529	2514.923269
791.534027	2513.103413
791.856480	2512.778258
792.178888	2516.352436
792.501249	2517.567354
792.823566	2517.678260
793.145836	2515.402179
793.468062	2514.111643
793.790241	2513.647857
794.112375	2517.622807
794.434464	2513.080727
794.756507	2515.278670
795.078505	2516.919566
795.400457	2513.116015
795.722364	2509.599811
796.044226	2515.815553
796.366042	2511.805315
796.687812	2517.244720
797.009538	2515.177847
797.331218	2519.493075
797.652852	2518.759587
797.974442	2517.884947
798.295986	2515.555934
798.617484	2515.679442
798.938938	2518.116840
799.260346	2518.512571
799.581709	2516.153311
799.903026	2515.218177
800.224299	2514.963598
800.545526	2515.588701
800.866708	2516.173475
801.187845	2515.447549
801.508936	2512.548886
801.829983	2511.535614
802.150984	2515.255985
802.471940	2514.598115
802.792851	2511.268433
803.113717	2512.057373
803.434538	2512.475789
803.755314	2514.711541
804.076045	2512.407733
804.396731	2514.467045
804.717372	2513.294976
805.037967	2511.931344
805.358518	2511.638957
805.679024	2514.305728
805.999485	2515.439987
806.319901	2516.087776
806.640272	2516.508712
806.960598	2514.482168
807.280879	2515.858403
807.601115	2514.467045
807.921306	2509.942609
808.241453	2512.727847
808.561554	2513.559637
808.881611	2514.341016
809.201623	2512.732888
809.521590	2513.743639
809.841513	2514.028464
810.161390	2514.061232
810.481223	2513.373114
810.801011	2514.547703
811.120755	2515.094668
811.440453	2514.305728
811.760107	2513.821777
812.079716	2510.603000
812.399281	2508.437825
812.718801	2513.022754
813.038276	2508.558812
813.357707	2511.868330
813.677093	2512.405213
813.996434	2513.267250
814.315731	2511.928824
814.634983	2513.458814
814.954191	2514.393948
815.273354	2516.004597
815.592473	2512.344719
815.911547	2511.399502
816.230577	2515.036695
816.549562	2516.239010
816.868502	2513.846983
817.187399	2515.467714
817.506250	2513.582322
817.825058	2517.516943
818.143821	2515.293794
818.462539	2518.918383
818.781213	2519.084742
819.099843	2518.439474
819.418429	2520.294618
819.736970	2524.370391
820.055466	2522.767304
820.373919	2526.608664
820.692327	2530.636546
821.010691	2543.478885
821.329011	2561.354817
821.647286	2589.509661
821.965517	2616.905811
822.283704	2639.001189
822.601847	2639.467495
822.919945	2626.622635
823.237999	2611.821808
823.556010	2599.150867
823.873976	2582.308372
824.191897	2572.352094
824.509775	2563.512430
824.827609	2552.966337
825.145398	2548.542724
825.463144	2544.504760
825.780845	2544.955943
826.098502	2549.014072
826.416116	2557.311811
826.733685	2563.575445
827.051210	2566.796742
827.368692	2559.915567
827.686129	2551.872406
828.003522	2546.990049
828.320872	2536.948070
828.638177	2533.454551
828.955439	2528.357944
829.272656	2525.550021
829.589830	2519.417458
829.906960	2521.461646
830.224046	2518.699093
830.541088	2518.043743
830.858086	2520.927283
831.175041	2519.288908
831.491952	2517.806809
831.808819	2516.304545
832.125642	2518.217663
832.442421	2522.086749
832.759157	2525.028262
833.075849	2528.045393
833.392497	2534.845909
833.709101	2541.348998
834.025662	2538.536034
834.342179	2536.282638
834.658653	2529.991278
834.975083	2531.339787
835.291469	2525.371060
835.607811	2524.960206
835.924110	2519.659433
836.240366	2519.251100
836.556578	2517.519463
836.872746	2514.537621
837.188871	2514.870337
837.504952	2512.332116
837.820990	2514.043588
838.136984	2510.842455
838.452935	2510.035870
838.768842	2510.101405
839.084706	2512.911849
839.400526	2518.479803
839.716303	2517.080883
840.032037	2523.493231
840.347727	2519.830832
840.663373	2520.181193
840.978977	2516.906963
841.294537	2514.567868
841.610054	2512.420336
841.925527	2515.679442
842.240957	2509.070489
842.556344	2510.655932
842.871687	2509.602331
843.186987	2510.534945
843.502244	2507.837927
843.817458	2509.809018
844.132629	2510.131652
844.447756	2510.479492
844.762840	2506.668380
845.077881	2505.508914
845.392879	2507.099398
845.707833	2507.273318
846.022745	2506.333143
846.337613	2508.629388
846.652438	2507.719460
846.967221	2507.868174
847.281960	2507.933709
847.596656	2509.340191
847.911309	2508.127794
848.225919	2510.000582
848.540485	2509.519152
848.855009	2508.037053
849.169490	2508.147958
849.483928	2506.859943
849.798323	2507.290962
850.112675	2507.432114
850.426984	2506.446569
850.741251	2508.170643
851.055474	2506.507063
851.369654	2507.550582
851.683792	2505.836589
851.997887	2509.551920
852.311938	2506.807011
852.625947	2508.377331
852.939914	2506.575118
853.253837	2507.754748
853.567718	2506.030674
853.881555	2504.881291
854.195350	2510.222393
854.509103	2507.507732
854.822812	2507.648884
855.136479	2507.636281
855.450103	2509.030160
855.763685	2508.694923
856.077224	2509.781292
856.390720	2508.258864
856.704173	2506.330622
857.017584	2509.209121
857.330953	2507.893380
857.644278	2506.333143
857.957561	2508.435304
858.270802	2508.039573
858.584000	2508.473113
858.897155	2507.661487
859.210268	2505.975221
859.523339	2506.648215
859.836367	2508.989831
860.149352	2507.495129
860.462295	2510.713906
860.775195	2503.159737
861.088054	2503.172339
861.400869	2503.265601
861.713642	2502.050683
862.026373	2507.600993
862.339062	2509.279697
862.651708	2506.464213
862.964312	2507.749707
863.276873	2504.409943
863.589392	2508.241220
863.901869	2508.163082
864.214303	2507.235509
864.526696	2506.746517
864.839045	2509.836745
865.151353	2509.642660
865.463619	2509.882115
865.775842	2507.361538
866.088023	2507.598473
866.400162	2508.684841
866.712258	2506.428925
867.024313	2508.223576
867.336325	2506.191991
867.648296	2510.350943
867.960224	2507.149810
868.272110	2507.905983
868.583954	2507.787516
868.895755	2508.485716
869.207515	2507.253153
869.519233	2508.369769
869.830909	2508.067300
870.142542	2505.236692
870.454134	2506.433966
870.765684	2507.505211
871.077191	2506.000427
871.388657	2509.655263
871.700081	2507.273318
872.011463	2510.013185
872.322803	2507.399347
872.634101	2506.935561
872.945357	2508.692403
873.256571	2508.596621
873.567744	2508.957063
873.878874	2508.422701
874.189963	2509.403206
874.501010	2511.800274
874.812015	2509.214162
875.122979	2511.447393
875.433900	2508.803308
875.744780	2512.843793
876.055618	2508.853720
876.366415	2510.804646
876.677169	2510.096364
876.987882	2506.774244
877.298554	2506.396157
877.609183	2509.796416
877.919771	2508.394975
878.230317	2509.945130
878.540822	2514.512415
878.851285	2517.471572
879.161707	2514.343536
879.472087	2518.923425
879.782425	2519.765297
880.092722	2527.415248
880.402977	2537.525282
880.713191	2552.126984
881.023363	2564.621484
881.333494	2571.754717
881.643583	2572.652042
881.953631	2571.646332
882.263637	2566.408573
882.573602	2562.544529
882.883526	2556.875751
883.193408	2551.277550
883.503248	2547.814277
883.813048	2542.190870
884.122806	2538.052083
884.432522	2534.412370
884.742197	2530.944056
885.051831	2524.509023
885.361424	2524.758560
885.670975	2519.409896
885.980485	2519.414937
886.289954	2518.555420
886.599382	2518.792355
886.908768	2515.344205
887.218113	2514.295645
887.527417	2512.871519
887.836680	2513.824298
888.145901	2510.101405
888.455082	2510.729029
888.764221	2514.217508
889.073319	2509.075531
889.382376	2511.679287
889.691392	2509.960253
890.000366	2511.641478
890.309300	2510.086282
890.618193	2512.853875
890.927044	2509.272136
891.235855	2510.396313
891.544625	2510.343381
891.853353	2512.564009
892.162041	2508.992352
892.470687	2513.131139
892.779293	2511.565861
893.087858	2512.115346
893.396381	2512.538803
893.704864	2515.155162
894.013306	2515.132477
894.321707	2525.953314
894.630068	2526.235618
894.938387	2527.493386
895.246665	2526.409538
895.554903	2525.376102
895.863100	2524.047758
896.171256	2523.866276
896.479371	2520.196316
896.787446	2519.649351
897.095480	2517.582478
897.403473	2517.693383
897.711425	2516.231448
898.019336	2513.592404
898.327207	2512.707682
898.635038	2513.947806
898.942827	2512.861437
899.250576	2508.140397
899.558284	2510.424039
899.865952	2511.218021
900.173579	2511.767507
900.481165	2513.000069
900.788711	2508.334481
901.096216	2510.096364
901.403681	2511.039060
901.711105	2507.611075
902.018489	2509.448576
902.325832	2512.286746
902.633135	2510.114008
902.940397	2509.866992
903.247619	2514.837569
903.554800	2519.833353
903.861941	2524.824095
904.169041	2529.310722
904.476101	2530.896165
904.783121	2532.839530
905.090100	2525.935670
905.397039	2526.056657
905.703938	2521.101203
906.010796	2519.578775
906.317614	2515.974350
906.624391	2514.492250
906.931129	2515.679442
907.237826	2514.809843
907.544483	2513.831859
907.851099	2510.018226
908.157675	2509.940088
908.464211	2507.966477
908.770707	2503.807525
909.077163	2507.855571
909.383578	2505.340036
909.689954	2502.842144
909.996289	2503.739469
910.302584	2510.706344
910.608839	2503.971362
910.915054	2507.616117
911.221229	2509.403206
911.527363	2506.784326
911.833458	2505.753410
912.139513	2505.634943
912.445527	2505.259377
912.751502	2506.154182
913.057436	2507.106960
913.363331	2510.686179
913.669186	2505.708040
913.975000	2511.593587
914.280775	2514.880419
914.586510	2512.914369
914.892205	2515.591222
915.197859	2520.196316
915.503475	2522.795031
915.809050	2528.650331
916.114585	2531.395239
916.420081	2531.664941
916.725536	2530.182842
917.030952	2530.243336
917.336328	2526.681760
917.641665	2526.969106
917.946961	2523.926770
918.252218	2519.780421
918.557435	2522.011131
918.862612	2520.282016
919.167750	2520.171110
919.472848	2516.657426
919.777906	2514.043588
920.082925	2514.766993
920.387904	2510.960922
920.692843	2512.813546
920.997743	2512.143073
921.302603	2505.108143
921.607423	2509.284738
921.912204	2508.394975
922.216946	2506.128976
922.521647	2509.428411
922.826310	2508.647033
923.130932	2507.991683
923.435516	2507.968997
923.740059	2506.514624
924.044564	2506.852382
924.349028	2506.378513
924.653454	2503.447082
924.957840	2503.830210
925.262186	2504.367093
925.566493	2505.342556
925.870761	2502.849706
926.174989	2505.004799
926.479178	2502.390961
926.783328	2506.244923
927.087438	2505.745848
927.391509	2504.107473
927.695541	2501.644870
927.999533	2504.767865
928.303486	2503.613440
928.607400	2504.493122
928.911275	2502.315343
929.215110	2503.646208
929.518906	2502.297699
929.822663	2505.360200
930.126381	2500.404746
930.430060	2503.038749
930.733699	2503.220230
931.037299	2502.960611
931.340861	2503.111846
931.644383	2506.045797
931.947866	2503.114366
932.251309	2505.216527
932.554714	2502.930364
932.858080	2505.410612
933.161407	2502.280055
933.464694	2504.064624
933.767943	2505.030005
934.071153	2504.094871
934.374323	2503.641167
934.677455	2505.569408
934.980548	2500.568583
935.283602	2505.327433
935.586617	2502.955570
935.889593	2506.534789
936.192530	2502.441372
936.495428	2505.413132
936.798287	2503.805004
937.101108	2505.811383
937.403890	2507.795078
937.706632	2504.979593
938.009336	2502.658142
938.312002	2506.479336
938.614628	2501.649911
938.917216	2504.382216
939.219765	2504.994717
939.522275	2505.748369
939.824747	2508.939419
940.127179	2503.885663
940.429573	2503.333656
940.731929	2501.803666
941.034246	2499.842657
941.336524	2503.053872
941.638763	2504.220899
941.940964	2507.094357
942.243126	2504.452792
942.545250	2505.899604
942.847335	2504.170488
943.149381	2504.286434
943.451389	2504.669562
943.753359	2504.851044
944.055290	2504.881291
944.357182	2504.717453
944.659036	2505.939933
944.960851	2504.939264
945.262628	2503.585714
945.564367	2505.665190
945.866067	2504.664521
946.167729	2504.273832
946.469352	2503.210148
946.770937	2503.074037
947.072484	2503.850375
947.373992	2503.535303
947.675462	2503.931033
947.976893	2506.731394
948.278286	2503.797442
948.579641	2503.520179
948.880958	2503.852895
949.182236	2503.310971
949.483476	2504.631753
949.784678	2505.019922
950.085841	2502.494304
950.386967	2505.297186
950.688054	2503.326095
950.989103	2505.672752
951.290114	2502.393481
951.591087	2506.393637
951.892021	2504.483039
952.192917	2503.701661
952.493776	2503.273163
952.794596	2505.269459
953.095378	2504.359531
953.396122	2504.674603
953.696828	2505.856754
953.997496	2505.042607
954.298126	2503.482370
954.598718	2504.578821
954.899272	2502.655621
955.199788	2505.234171
955.500266	2505.019922
955.800706	2502.869870
956.101108	2498.554643
956.401472	2503.983965
956.701798	2498.542040
957.002087	2499.227637
957.302337	2503.633605
957.602550	2501.171001
957.902724	2503.270642
958.202861	2501.191166
958.502960	2501.481032
958.803022	2503.918430
959.103045	2504.944305
959.403031	2502.388440
959.702979	2502.375837
960.002889	2501.919613
960.302762	2504.740138
960.602596	2503.071516
960.902393	2501.786022
961.202153	2500.571104
961.501875	2501.765857
961.801559	2502.542195
962.101205	2500.419869
962.400814	2500.550939
962.700385	2502.282576
962.999918	2499.734272
963.299414	2498.579848
963.598873	2500.112359
963.898293	2502.582524
964.197677	2500.913903
964.497022	2499.434324
964.796331	2502.728718
965.095601	2503.081599
965.394835	2503.126969
965.694030	2499.366268
965.993189	2501.107987
966.292309	2499.217554
966.591393	2501.208810
966.890439	2501.201248
967.189447	2503.048831
967.488419	2503.379027
967.787353	2501.309633
968.086249	2500.230826
968.385108	2501.173522
968.683930	2501.470950
968.982714	2502.156547
969.281462	2503.419356
969.580172	2502.978255
969.878844	2500.805518
970.177480	2501.549088
970.476078	2499.671258
970.774639	2500.477843
971.073162	2501.912051
971.371649	2499.278048
971.670098	2496.994405
971.968510	2497.369971
972.266885	2495.754282
972.565223	2502.027998
972.863524	2504.856085
973.161788	2501.352483
973.460014	2501.594458
973.758204	2501.087822
974.056356	2501.266783
974.354471	2502.965652
974.652550	2502.791732
974.950591	2501.710405
975.248595	2498.486587
975.546563	2502.569922
975.844493	2502.396002
976.142386	2501.728049
976.440243	2502.897597
976.738062	2499.252842
977.035845	2501.561691
977.333590	2501.274345
977.631299	2501.037411
977.928971	2501.138234
978.226606	2501.375168
978.524204	2501.702843
978.821765	2500.422390
979.119290	2500.460199
979.416777	2499.404077
979.714228	2501.670076
980.011642	2505.171157
980.309020	2501.483553
980.606360	2502.171670
980.903664	2501.954901
981.200931	2500.225785
981.498162	2501.652432
981.795356	2503.066475
982.092513	2505.201404
982.389633	2502.348111
982.686717	2503.643687
982.983764	2505.398009
983.280775	2505.239212
983.577749	2503.129490
983.874686	2503.431959
984.171587	2505.463544
984.468451	2503.885663
984.765279	2502.786691
985.062070	2503.406753
985.358824	2503.159737
985.655543	2504.291476
985.952224	2503.734428
986.248869	2502.128821
986.545478	2498.005157
986.842050	2501.468429
987.138586	2499.764519
987.435086	2496.727224
987.731549	2498.055568
988.027975	2502.030518
988.324366	2498.045486
988.620719	2501.561691
988.917037	2498.874756
989.213318	2497.843840
989.509563	2499.797287
989.805772	2499.598161
990.101944	2501.022287
990.398080	2502.015395
990.694180	2501.982627
990.990244	2501.869201
991.286271	2501.037411
991.582262	2502.257370
991.878217	2498.673110
992.174136	2503.631084
992.470019	2503.583193
992.765865	2500.591269
993.061676	2500.457678
993.357450	2498.710918
993.653188	2499.898110
993.948890	2502.209479
994.244556	2500.306443
994.540186	2501.483553
994.835780	2501.715446
995.131337	2502.814418
995.426859	2502.801815
995.722345	2501.934736
996.017795	2498.345435
996.313208	2501.468429
996.608586	2500.707215
996.903928	2504.636795
997.199234	2501.259222
997.494504	2502.706033
997.789738	2499.953563
998.084936	2503.333656
998.380099	2500.583707
998.675225	2498.121103
998.970316	2502.070847
999.265371	2502.527072
999.560390	2500.969355
999.855373	2502.002792
1000.150320	2499.688902
1000.445232	2502.960611
1000.740108	2499.577997
1001.034948	2501.886845
1001.329752	2502.796773
1001.624521	2499.643532
1001.919254	2495.529950
1002.213951	2499.356186
1002.508613	2496.170177
1002.803239	2500.460199
1003.097829	2495.025835
1003.392384	2499.061278
1003.686903	2501.478512
1003.981386	2502.033039
1004.275834	2498.718480
1004.570246	2501.171001
1004.864623	2499.237719
1005.158964	2499.174704
1005.453270	2500.157729
1005.747540	2500.802997
1006.041775	2501.536485
1006.335974	2500.187976
1006.630138	2500.624036
1006.924266	2500.457678
1007.218359	2503.215189
1007.512416	2501.571773
1007.806438	2502.385919
1008.100425	2500.321567
1008.394376	2500.321567
1008.688292	2500.918944
1008.982172	2498.456340
1009.276017	2500.694612
1009.569827	2499.666217
1009.863602	2499.991371
1010.157341	2499.731752
1010.451045	2497.740496
1010.744714	2498.476505
1011.038347	2499.283089
1011.331945	2499.462050
1011.625508	2500.077071
1011.919036	2498.879797
1012.212528	2498.403408
1012.505986	2496.467605
1012.799408	2499.096567
1013.092795	2498.373161
1013.386147	2500.301402
1013.679464	2498.579848
1013.972745	2500.099756
1014.265992	2498.670589
1014.559204	2501.586897
1014.852380	2500.225785
1015.145521	2500.508090
1015.438628	2499.086484
1015.731699	2500.074550
1016.024736	2501.428100
1016.317737	2498.983141
1016.610703	2499.958604
1016.903635	2498.269817
1017.196531	2496.507934
1017.489393	2497.115393
1017.782219	2496.366782
1018.075011	2498.635301
1018.367768	2500.160250
1018.660490	2499.383912
1018.953177	2499.383912
1019.245829	2499.383912
