Dividing Wavelength (nm)	Counts (n)	Blue Motor Position (mm): 0.000000	Red Motor Position (mm): 10.700000	
326.493990	2130.757099
326.888308	2130.757099
327.282561	2130.757099
327.676750	2096.275607
328.070874	2094.359968
328.464933	2097.440113
328.858929	2102.229209
329.252859	2113.201281
329.646726	2125.720986
330.040528	2136.599796
330.434265	2154.790800
330.827938	2171.265291
331.221547	2190.935873
331.615091	2207.818697
332.008571	2229.263766
332.401986	2250.081211
332.795338	2268.667945
333.188625	2284.968516
333.581847	2303.535085
333.975006	2320.261634
334.368100	2340.771568
334.761129	2359.509537
335.154095	2373.871784
335.546996	2393.002963
335.939833	2407.944943
336.332606	2423.217119
336.725315	2435.225147
337.117960	2443.999276
337.510540	2455.288940
337.903056	2464.975517
338.295508	2470.518265
338.687896	2481.089565
339.080220	2488.968888
339.472480	2494.390649
339.864676	2499.709067
340.256807	2503.638646
340.648875	2506.249964
341.040879	2508.178205
341.432818	2509.816580
341.824694	2512.228772
342.216506	2512.044770
342.608253	2512.075017
342.999937	2514.025944
343.391557	2512.569050
343.783113	2511.182733
344.174605	2509.723319
344.566033	2509.743483
344.957397	2507.664008
345.348697	2505.839110
345.739934	2504.510766
346.131106	2500.548419
346.522215	2498.655466
346.913260	2498.625219
347.304241	2498.854591
347.695159	2495.827378
348.086012	2491.910402
348.476802	2493.800834
348.867528	2490.456029
349.258191	2486.355050
349.648789	2486.856645
350.039324	2489.626759
350.429796	2487.310349
350.820203	2484.769607
351.210548	2485.364463
351.600828	2484.227683
351.991045	2484.008393
352.381198	2479.753659
352.771288	2483.315234
353.161314	2480.507312
353.551276	2482.768269
353.941175	2479.393217
354.331010	2480.787096
354.720782	2481.792806
355.110490	2480.318268
355.500135	2477.759883
355.889717	2478.276601
356.279235	2481.311376
356.668689	2482.027220
357.058080	2481.959164
357.447408	2479.211735
357.836672	2476.986066
358.225873	2481.036633
358.615010	2478.415233
359.004084	2482.876654
359.393095	2484.003352
359.782043	2485.603918
360.170927	2483.320276
360.559748	2485.787920
360.948505	2486.478558
361.337199	2484.910760
361.725830	2485.271202
362.114398	2489.473004
362.502903	2487.179279
362.891344	2490.332521
363.279722	2488.835298
363.668037	2491.900319
364.056289	2488.351347
364.444478	2493.039620
364.832603	2489.649444
365.220665	2493.024497
365.608665	2491.023159
365.996601	2493.261431
366.384474	2495.169508
366.772284	2496.943994
367.160031	2497.392657
367.547715	2498.136227
367.935336	2501.659993
368.322893	2504.319202
368.710388	2504.641836
369.097820	2514.446880
369.485189	2515.533249
369.872495	2520.216481
370.259738	2528.836854
370.646918	2535.034952
371.034035	2543.282280
371.421090	2551.040616
371.808081	2562.693243
372.195010	2573.042732
372.581875	2587.699887
372.968678	2600.333018
373.355418	2607.352825
373.742096	2627.807307
374.128710	2640.576549
374.515262	2656.982984
374.901751	2669.293482
375.288177	2681.457786
375.674540	2707.157589
376.060841	2720.950186
376.447079	2743.721077
376.833254	2765.299737
377.219367	2773.065634
377.605417	2813.702375
377.991404	2820.618838
378.377329	2844.650019
378.763191	2861.583254
379.148991	2898.061044
379.534727	2923.775969
379.920402	2950.317644
380.306013	2961.680405
380.691563	3008.699247
381.077049	3026.975950
381.462474	3043.720143
381.847835	3078.879670
382.233134	3097.592433
382.618371	3092.863831
383.003545	3149.415495
383.388657	3151.399189
383.773706	3174.472550
384.158693	3181.789785
384.543618	3192.668595
384.928480	3215.172306
385.313280	3247.251688
385.698017	3233.658217
386.082692	3264.852877
386.467305	3255.463728
386.851856	3269.304216
387.236344	3269.621808
387.620770	3272.938888
388.005133	3276.845782
388.389435	3280.152779
388.773674	3266.884462
389.157851	3275.404012
389.541965	3267.194493
389.926018	3219.946278
390.310008	3241.459402
390.693936	3227.891137
391.077802	3230.827609
391.461606	3195.289995
391.845348	3205.319371
392.229027	3178.586132
392.612645	3150.862306
392.996200	3164.768329
393.379694	3158.965961
393.763125	3157.473779
394.146494	3109.348404
394.529801	3104.614761
394.913047	3090.756629
395.296230	3046.490257
395.679351	3032.506096
396.062410	3010.206552
396.445408	2972.218937
396.828343	2955.452060
397.211217	2927.498862
397.594028	2878.231665
397.976778	2867.798997
398.359466	2846.109433
398.742092	2824.314004
399.124656	2789.499796
399.507158	2779.926644
399.889598	2761.612132
400.271977	2748.479927
400.654294	2728.872359
401.036549	2707.220603
401.418742	2686.309897
401.800874	2680.532735
402.182944	2666.228461
402.564952	2653.318066
402.946898	2636.939357
403.328783	2626.292440
403.710606	2610.813577
404.092367	2608.136724
404.474067	2594.553335
404.855705	2584.155955
405.237282	2575.923751
405.618797	2571.490056
406.000250	2566.521999
406.381642	2561.125444
406.762972	2553.299053
407.144240	2548.104144
407.525447	2545.298742
407.906593	2542.775644
408.287677	2538.447813
408.668700	2533.835158
409.049661	2534.099818
409.430560	2530.076977
409.811399	2531.211237
410.192176	2529.867770
410.572891	2529.643438
410.953545	2525.368540
411.334138	2525.388704
411.714669	2527.695032
412.095139	2524.627490
412.475547	2523.694877
412.855894	2525.063550
413.236180	2525.124044
413.616405	2523.636903
413.996568	2522.447191
414.376670	2525.451719
414.756711	2523.110103
415.136691	2523.573889
415.516609	2521.456604
415.896466	2522.681605
416.276262	2524.481297
416.655997	2521.144053
417.035670	2521.081038
417.415283	2522.190092
417.794834	2519.112468
418.174324	2520.796213
418.553753	2522.822757
418.933121	2522.663961
419.312428	2523.299146
419.691674	2522.747140
420.070859	2524.612367
420.449983	2523.198323
420.829045	2521.761594
421.208047	2526.359127
421.586988	2518.220184
421.965867	2524.829136
422.344686	2521.721265
422.723444	2523.999867
423.102141	2525.050947
423.480777	2522.883251
423.859352	2524.793848
424.237866	2524.120854
424.616319	2522.502644
424.994712	2523.037006
425.373044	2522.616070
425.751314	2526.679240
426.129524	2524.095648
426.507673	2525.050947
426.885762	2526.759898
427.263789	2524.793848
427.641756	2526.825433
428.019662	2525.396266
428.397508	2528.514220
428.775292	2525.406348
429.153016	2525.010618
429.530679	2528.715866
429.908282	2525.464322
430.285824	2526.220495
430.663305	2525.381143
431.040726	2527.989940
431.418086	2526.202851
431.795385	2526.890968
432.172624	2528.186545
432.549802	2525.192099
432.926920	2527.062368
433.303977	2527.042203
433.680974	2527.037162
434.057910	2528.514220
434.434786	2528.557070
434.811601	2528.864580
435.188355	2528.799045
435.565050	2529.088911
435.941683	2531.864067
436.318257	2525.212264
436.694770	2524.599764
437.071222	2527.284178
437.447614	2524.708149
437.823946	2525.113962
438.200218	2528.085722
438.576429	2530.155115
438.952580	2530.147554
439.328670	2531.632173
439.704700	2530.228212
440.080670	2531.004550
440.456580	2530.240815
440.832429	2530.601257
441.208218	2527.836185
441.583947	2529.429189
441.959616	2528.617563
442.335224	2529.096473
442.710773	2531.448171
443.086261	2527.626977
443.461689	2529.880373
443.837057	2530.097142
444.212365	2530.931453
444.587612	2529.935825
444.962800	2529.703932
445.337927	2530.843233
445.712995	2530.477749
446.088002	2531.491021
446.462949	2530.991947
446.837837	2530.107224
447.212664	2529.472039
447.587431	2533.998995
447.962139	2533.757020
448.336786	2535.826413
448.711374	2534.077133
449.085901	2535.105528
449.460369	2532.491690
449.834776	2533.769623
450.209124	2533.837678
450.583412	2532.574869
450.957640	2533.152081
451.331808	2533.404139
451.705917	2535.425642
452.079965	2533.557894
452.453954	2533.061341
452.827883	2535.992772
453.201752	2534.818183
453.575562	2531.871628
453.949311	2533.540250
454.323001	2533.520086
454.696632	2532.879859
455.070202	2535.783564
455.443713	2534.119983
455.817164	2533.409180
456.190556	2529.293078
456.563888	2532.663089
456.937160	2528.796524
457.310373	2536.509490
457.683526	2534.946732
458.056619	2536.159130
458.429653	2536.378420
458.802628	2535.712987
459.175542	2534.190559
459.548398	2536.385982
459.921194	2536.519572
460.293930	2535.052596
460.666607	2539.183822
461.039224	2538.490663
461.411782	2538.851106
461.784280	2538.820859
462.156719	2539.095602
462.529099	2539.357742
462.901419	2536.859850
463.273680	2539.743390
463.645882	2533.255425
464.018024	2538.382278
464.390106	2539.060314
464.762130	2537.842875
465.134094	2537.016126
465.505999	2539.438400
465.877845	2545.192877
466.249631	2546.556509
466.621358	2543.090716
466.993026	2544.179605
467.364634	2547.655481
467.736184	2540.612989
468.107674	2541.719522
468.479105	2540.111394
468.850477	2540.817156
469.221790	2539.647608
469.593043	2541.293545
469.964238	2541.356559
470.335373	2534.787936
470.706449	2539.226672
471.077467	2541.986703
471.448425	2541.490150
471.819324	2544.711447
472.190164	2546.564071
472.560945	2543.078113
472.931667	2539.763555
473.302330	2539.803884
473.672934	2538.709953
474.043479	2542.153062
474.413965	2539.614841
474.784393	2536.383461
475.154761	2539.138452
475.525070	2540.534851
475.895321	2537.532844
476.265513	2535.806249
476.635645	2538.107536
477.005719	2539.251878
477.375734	2539.945036
477.745691	2539.297248
478.115588	2540.993596
478.485427	2541.270860
478.855207	2544.512322
479.224928	2544.371169
479.594591	2544.479554
479.964194	2547.042981
480.333739	2547.259750
480.703226	2543.972918
481.072653	2544.414019
481.442022	2545.238248
481.811333	2547.045501
482.180584	2543.635161
482.549777	2547.136242
482.918912	2545.165151
483.287988	2543.902342
483.657005	2545.775131
484.025964	2544.043494
484.394864	2545.223124
484.763706	2543.839327
485.132489	2542.269008
485.501213	2544.845038
485.869879	2541.981662
486.238487	2543.108360
486.607036	2544.194729
486.975527	2542.740356
487.343959	2543.478885
487.712333	2544.227496
488.080648	2541.895963
488.448905	2546.377548
488.817104	2544.469472
489.185244	2544.837476
489.553326	2543.423432
489.921350	2547.857127
490.289315	2545.991900
490.657222	2548.068856
491.025070	2549.810574
491.392861	2549.714792
491.760593	2545.208001
492.128267	2550.286963
492.495883	2547.708413
492.863440	2544.940820
493.230939	2543.599873
493.598380	2546.080120
493.965763	2539.957639
494.333088	2542.095088
494.700354	2539.617361
495.067563	2545.623896
495.434713	2538.253729
495.801805	2545.321427
496.168839	2544.509801
496.535815	2545.339071
496.902733	2542.964687
497.269593	2546.042312
497.636395	2541.810263
498.003139	2544.885367
498.369825	2546.191026
498.736453	2543.199101
499.103023	2546.591797
499.469535	2543.259595
499.835989	2545.311344
500.202385	2547.705892
500.568723	2544.209852
500.935003	2543.504091
501.301226	2544.469472
501.667390	2545.263453
502.033497	2543.788916
502.399546	2549.203115
502.765537	2543.604914
503.131470	2546.932075
503.497345	2544.245140
503.863163	2548.915769
504.228923	2547.284956
504.594625	2548.699000
504.960269	2546.354863
505.325856	2545.848227
505.691385	2546.493495
506.056856	2545.666746
506.422270	2544.736653
506.787625	2545.649102
507.152924	2544.701365
507.518164	2545.790254
507.883347	2546.407795
508.248472	2546.281767
508.613540	2546.808567
508.978550	2543.985521
509.343503	2545.686910
509.708398	2547.718495
510.073236	2546.007024
510.438016	2548.963660
510.802738	2547.118598
511.167403	2546.294369
511.532010	2545.976777
511.896561	2546.601880
512.261053	2546.009544
512.625488	2546.349822
512.989866	2545.581046
513.354186	2545.863351
513.718449	2540.986034
514.082655	2545.276056
514.446803	2546.919472
514.810894	2546.889226
515.174927	2548.744370
515.538904	2548.812426
515.902822	2548.144473
516.266684	2545.810419
516.630488	2547.758825
516.994235	2544.958464
517.357925	2546.211190
517.721558	2548.411654
518.085133	2548.908208
518.448651	2547.773948
518.812112	2548.313352
519.175516	2547.526932
519.538863	2544.696324
519.902152	2550.735626
520.265385	2548.058773
520.628560	2546.261602
520.991678	2544.575336
521.354739	2546.942158
521.717743	2547.012734
522.080690	2549.298897
522.443580	2548.890564
522.806413	2548.983825
523.169189	2547.511808
523.531908	2549.435008
523.894569	2548.076417
524.257174	2547.708413
524.619722	2547.678166
524.982213	2547.859648
525.344647	2550.150852
525.707025	2550.468445
526.069345	2547.665563
526.431608	2546.438042
526.793815	2548.935934
527.155964	2550.183620
527.518057	2549.440049
527.880093	2548.633465
528.242072	2549.389638
528.603995	2551.017931
528.965860	2548.716644
529.327669	2548.769576
529.689421	2547.214380
530.051117	2552.154711
530.412755	2545.845707
530.774337	2547.844524
531.135862	2547.267312
531.497331	2546.140614
531.858743	2545.742363
532.220098	2546.301931
532.581396	2544.333361
532.942638	2544.608103
533.303824	2543.073072
533.664953	2548.552806
534.026025	2549.203115
534.387040	2549.561037
534.747999	2551.096068
535.108902	2551.169165
535.469748	2546.788402
535.830537	2549.220759
536.191270	2547.514329
536.551947	2550.642365
536.912567	2548.850234
537.273131	2546.150697
537.633638	2546.934596
537.994089	2546.816129
538.354483	2546.906870
538.714821	2548.499874
539.075103	2546.601880
539.435328	2550.705379
539.795497	2549.397200
540.155609	2550.367622
540.515665	2549.949206
540.875665	2549.281253
541.235609	2550.972560
541.595496	2550.007179
541.955328	2548.583053
542.315102	2549.256047
542.674821	2550.937272
543.034483	2550.833928
543.394090	2548.293187
543.753640	2549.422405
544.113134	2547.773948
544.472571	2550.750749
544.831953	2548.497354
545.191278	2549.908877
545.550548	2548.547765
545.909761	2548.678835
546.268918	2546.881664
546.628019	2552.716799
546.987064	2549.041798
547.346053	2548.961140
547.704986	2551.055739
548.063863	2550.677653
548.422684	2547.138763
548.781449	2548.419216
549.140158	2549.881150
549.498811	2548.638506
549.857408	2548.925852
550.215949	2548.542724
550.574434	2544.187167
550.932864	2548.441901
551.291237	2545.520552
551.649555	2546.284287
552.007817	2547.557178
552.366022	2551.416182
552.724173	2549.979453
553.082267	2549.424926
553.440305	2548.635985
553.798288	2547.804195
554.156215	2547.297559
554.514086	2550.667570
554.871902	2548.444422
555.229661	2549.611449
555.587365	2549.273691
555.945014	2549.555996
556.302606	2548.114226
556.660143	2547.184133
557.017625	2548.600697
557.375050	2550.559186
557.732421	2548.270502
558.089735	2549.954247
558.446994	2547.955430
558.804197	2547.184133
559.161345	2549.737477
559.518437	2547.960471
559.875474	2549.193033
560.232455	2549.127498
560.589381	2549.210677
560.946251	2551.239741
561.303065	2549.394679
561.659825	2548.870399
562.016528	2547.400903
562.373177	2547.325285
562.729770	2550.849052
563.086307	2550.889381
563.442789	2550.105482
563.799216	2547.418547
564.155587	2549.704710
564.511904	2550.453321
564.868164	2550.352498
565.224370	2552.099258
565.580520	2548.537683
565.936615	2550.024823
566.292654	2546.017106
566.648638	2547.398382
567.004567	2548.701520
567.360441	2548.111705
567.716260	2547.302600
568.072023	2547.244627
568.427732	2545.167672
568.783385	2546.770758
569.138982	2545.046684
569.494525	2549.596325
569.850013	2544.882846
570.205445	2550.050029
570.560823	2547.857127
570.916145	2549.886192
571.271412	2548.547765
571.626625	2548.618341
571.981782	2549.059442
572.336884	2549.316541
572.691931	2549.729916
573.046923	2551.091027
573.401860	2547.269833
573.756743	2547.234545
574.111570	2546.581715
574.466342	2547.728578
574.821059	2548.300749
575.175722	2547.524411
575.530330	2547.612631
575.884882	2548.162117
576.239380	2548.394010
576.593823	2548.305790
576.948211	2548.298228
577.302544	2549.550955
577.656823	2548.724206
578.011047	2549.792930
578.365216	2549.714792
578.719330	2550.412992
579.073389	2547.899977
579.427394	2548.111705
579.781344	2548.333516
580.135239	2547.700851
580.489080	2548.174720
580.842866	2546.327137
581.196597	2547.990718
581.550273	2549.326623
581.903895	2546.995090
582.257463	2548.943496
582.610975	2548.290666
582.964434	2546.669935
583.317837	2549.679504
583.671186	2551.305276
584.024481	2547.655481
584.377721	2549.792930
584.730906	2547.405944
585.084037	2551.012889
585.437113	2546.296890
585.790135	2549.021634
586.143103	2546.501057
586.496016	2553.147818
586.848874	2545.437373
587.201679	2547.537014
587.554428	2548.144473
587.907124	2545.507949
588.259765	2543.763710
588.612352	2547.708413
588.964884	2547.917621
589.317362	2546.289328
589.669786	2547.131201
590.022155	2548.182282
590.374470	2550.009700
590.726731	2549.707231
591.078937	2546.780841
591.431090	2550.496171
591.783188	2547.660522
592.135232	2548.144473
592.487222	2547.519370
592.839157	2547.990718
593.191038	2547.529452
593.542866	2546.798485
593.894639	2549.997097
594.246358	2549.901315
594.598022	2548.550286
594.949633	2547.322765
595.301190	2548.094061
595.652692	2546.518701
596.004141	2546.990049
596.355535	2547.363094
596.706876	2545.460058
597.058162	2546.513660
597.409395	2545.785213
597.760573	2546.904349
598.111698	2545.722198
598.462768	2548.565409
598.813785	2544.265305
599.164748	2549.440049
599.515657	2547.239586
599.866511	2545.150027
600.217312	2545.815460
600.568060	2548.396531
600.918753	2549.654298
601.269392	2546.367466
601.619978	2546.261602
601.970510	2547.020296
602.320988	2546.385110
602.671412	2547.655481
603.021783	2545.603731
603.372100	2543.378062
603.722363	2545.187836
604.072572	2550.420554
604.422728	2548.746891
604.772830	2542.967208
605.122878	2543.201622
605.472872	2545.129863
605.822813	2539.813966
606.172701	2545.397044
606.522534	2544.887888
606.872314	2546.848896
607.222041	2546.075079
607.571714	2546.853938
607.921333	2546.100285
608.270899	2546.894267
608.620411	2546.208670
608.969870	2547.751263
609.319276	2549.021634
609.668627	2553.397355
610.017926	2553.956923
610.367171	2555.554969
610.716362	2556.323745
611.065500	2551.370811
611.414585	2551.849721
611.763616	2550.186140
612.112594	2547.340409
612.461518	2547.549617
612.810389	2550.415513
613.159207	2547.000131
613.507971	2549.561037
613.856682	2549.167827
614.205340	2546.987528
614.553945	2546.077600
614.902496	2547.065666
615.250994	2547.789072
615.599439	2548.154555
615.947830	2547.786551
616.296169	2545.959133
616.644454	2549.026675
616.992686	2544.915614
617.340864	2546.145655
617.688990	2547.078269
618.037063	2548.943496
618.385082	2547.302600
618.733048	2548.177240
619.080961	2546.896787
619.428821	2544.741694
619.776628	2549.117416
620.124382	2548.141952
620.472083	2547.105995
620.819731	2546.566592
621.167326	2547.058104
621.514868	2546.637168
621.862357	2544.666077
622.209793	2547.647919
622.557176	2549.240924
622.904506	2545.545758
623.251783	2540.847403
623.599007	2543.766231
623.946179	2539.047711
624.293297	2543.468803
624.640363	2546.304452
624.987376	2544.351005
625.334336	2544.938299
625.681243	2547.436191
626.028097	2546.117929
626.374899	2544.698844
626.721647	2547.743701
627.068343	2545.208001
627.414987	2544.136756
627.761577	2545.263453
628.108115	2544.487116
628.454600	2545.979297
628.801032	2545.369318
629.147412	2548.373845
629.493739	2545.182795
629.840014	2546.306972
630.186236	2546.188505
630.532405	2545.331509
630.878521	2546.992569
631.224585	2547.395862
631.570597	2544.048535
631.916556	2544.945861
632.262462	2545.008875
632.608316	2546.059956
632.954117	2544.630789
633.299866	2543.567105
633.645562	2543.788916
633.991206	2546.440563
634.336797	2543.463762
634.682336	2545.754966
635.027823	2543.224307
635.373257	2542.213555
635.718639	2543.675490
636.063968	2542.841179
636.409245	2543.231868
636.754470	2540.988555
637.099642	2542.208514
637.444762	2543.483926
637.789829	2543.642722
638.134845	2544.645912
638.479808	2544.028371
638.824719	2540.698689
639.169577	2542.377393
639.514383	2543.453679
639.859137	2542.831097
640.203839	2543.236910
640.548489	2542.997455
640.893086	2541.674152
641.237632	2539.146013
641.582125	2541.578370
641.926566	2535.823893
642.270955	2541.825387
642.615292	2540.227341
642.959576	2542.127856
643.303809	2540.411343
643.647990	2542.672300
643.992118	2543.065510
644.336195	2540.988555
644.680219	2542.205994
645.024192	2541.643905
645.368112	2540.134079
645.711981	2541.313709
646.055797	2541.180119
646.399562	2544.451828
646.743274	2539.970242
647.086935	2545.258412
647.430544	2546.251520
647.774101	2542.372352
648.117606	2541.858154
648.461059	2544.595501
648.804460	2541.464944
649.147810	2543.219266
649.491108	2541.969059
649.834354	2542.730274
650.177548	2541.296065
650.520690	2542.493339
650.863781	2542.286652
651.206820	2547.254709
651.549807	2544.552651
651.892742	2541.071734
652.235626	2540.365972
652.578458	2541.033925
652.921238	2537.416898
653.263967	2542.712630
653.606644	2541.270860
653.949269	2544.368649
654.291843	2540.602907
654.634365	2540.812115
654.976836	2541.865716
655.319255	2541.318751
655.661622	2539.977804
656.003938	2542.432846
656.346203	2540.081147
656.688416	2543.796478
657.030577	2541.069213
657.372687	2542.052238
657.714746	2541.611137
658.056753	2538.457896
658.398708	2537.636188
658.740612	2539.380427
659.082465	2538.576363
659.424266	2538.674665
659.766016	2535.622247
660.107715	2543.952753
660.449362	2541.669111
660.790958	2541.273380
661.132503	2540.161806
661.473996	2542.248843
661.815438	2543.052908
662.156829	2540.751621
662.498168	2539.176260
662.839456	2542.253885
663.180693	2540.451672
663.521879	2543.214224
663.863013	2542.120294
664.204097	2542.533669
664.545129	2540.113915
664.886110	2540.701209
665.227040	2542.145500
665.567918	2541.341436
665.908746	2541.638864
666.249522	2542.105171
666.590248	2541.570808
666.930922	2540.771785
667.271545	2542.679862
667.612118	2543.007537
667.952639	2539.153575
668.293109	2546.518701
668.633528	2541.346477
668.973896	2540.348328
669.314213	2538.321785
669.654480	2542.889070
669.994695	2539.140972
670.334859	2542.478216
670.674973	2541.374203
671.015035	2541.664070
671.355047	2542.185829
671.695008	2539.793802
672.034918	2541.971580
672.374777	2542.135417
672.714585	2543.922507
673.054342	2540.532331
673.394049	2545.550799
673.733705	2543.962836
674.073310	2542.387475
674.412864	2540.166847
674.752368	2540.635674
675.091820	2540.252547
675.431223	2541.527958
675.770574	2538.107536
676.109875	2539.327495
676.449125	2535.912113
676.788324	2538.891435
677.127473	2541.956457
677.466571	2536.474202
677.805619	2542.135418
678.144616	2537.396733
678.483562	2540.371014
678.822458	2536.829603
679.161303	2542.856303
679.500098	2542.117773
679.838842	2542.173226
680.177535	2541.028884
680.516179	2540.406302
680.854771	2540.910417
681.193314	2539.476209
681.531805	2539.027546
681.870247	2540.706250
682.208638	2540.353370
682.546978	2539.675334
682.885268	2540.040818
683.223508	2542.362269
683.561697	2540.330684
683.899836	2541.462423
684.237925	2541.984183
684.575963	2541.948895
684.913951	2539.680376
685.251889	2539.640046
685.589776	2538.893956
685.927614	2541.406971
686.265401	2540.073586
686.603137	2541.573329
686.940824	2542.387475
687.278460	2540.781868
687.616046	2541.792619
687.953582	2540.623071
688.291068	2541.757331
688.628504	2539.471168
688.965889	2538.904038
689.303224	2540.688606
689.640510	2541.336395
689.977745	2539.176260
690.314930	2542.657177
690.652065	2540.885211
690.989150	2540.282793
691.326185	2540.706250
691.663170	2540.076106
692.000105	2542.072403
692.336990	2540.184491
692.673825	2539.234233
693.010610	2538.659542
693.347345	2535.486136
693.684030	2533.043697
694.020665	2534.160312
694.357251	2532.552184
694.693786	2537.588297
695.030272	2536.635519
695.366707	2539.153575
695.703093	2539.836651
696.039429	2538.813297
696.375716	2540.721374
696.711952	2536.295241
697.048139	2538.835982
697.384276	2536.708615
697.720363	2537.956301
698.056400	2538.571322
698.392388	2535.748276
698.728326	2540.373534
699.064214	2539.932433
699.400053	2535.927237
699.735842	2537.875642
700.071581	2539.486291
700.407270	2535.866743
700.742910	2540.514687
701.078501	2538.725077
701.414042	2536.650642
701.749533	2535.534027
702.084974	2537.336239
702.420366	2540.504604
702.755709	2537.532844
703.091002	2537.207690
703.426246	2539.753472
703.761440	2535.539068
704.096584	2537.880684
704.431679	2537.305992
704.766725	2540.333205
705.101721	2540.592824
705.436668	2539.050231
705.771565	2539.816487
706.106413	2537.290869
706.441212	2538.694830
706.775961	2540.854964
707.110661	2540.875129
707.445311	2539.019984
707.779913	2538.014274
708.114465	2539.957639
708.448967	2542.516025
708.783421	2538.626774
709.117825	2538.573842
709.452180	2537.749614
709.786485	2538.818338
710.120742	2537.845396
710.454949	2542.175747
710.789107	2535.957483
711.123216	2535.531506
711.457275	2539.322454
711.791286	2533.777184
712.125247	2536.950591
712.459159	2535.528985
712.793023	2539.214069
713.126837	2537.956301
713.460602	2539.007382
713.794318	2541.444779
714.127985	2541.291024
714.461602	2537.212731
714.795171	2539.256919
715.128691	2538.667104
715.462162	2539.224151
715.795584	2537.316074
716.128957	2538.737680
716.462281	2537.356404
716.795556	2538.692309
717.128782	2540.222300
717.461960	2537.517721
717.795088	2538.709953
718.128167	2536.595189
718.461198	2537.177443
718.794180	2538.558719
719.127113	2536.781712
719.459997	2537.941178
719.792833	2536.746424
720.125619	2537.613502
720.458357	2537.426980
720.791046	2537.232895
721.123686	2537.074099
721.456278	2537.668955
721.788821	2538.720036
722.121315	2536.501928
722.453761	2536.050745
722.786158	2536.486805
723.118506	2538.316743
723.450805	2537.978986
723.783056	2537.084181
724.115259	2537.449665
724.447412	2536.575025
724.779518	2537.348842
725.111574	2536.247350
725.443582	2535.899510
725.775542	2535.995292
726.107453	2538.709953
726.439315	2536.002854
726.771129	2540.804553
727.102895	2539.700540
727.434612	2536.960673
727.766281	2535.443286
728.097901	2536.151568
728.429473	2530.442461
728.760996	2536.144006
729.092471	2531.254087
729.423897	2536.443955
729.755276	2538.266332
730.086606	2536.849768
730.417887	2540.358411
730.749120	2540.123997
731.080305	2539.972763
731.411442	2539.098122
731.742530	2537.598379
732.073570	2539.614841
732.404562	2536.247350
732.735506	2539.380427
733.066401	2536.423790
733.397249	2538.646939
733.728048	2538.541075
734.058798	2539.728267
734.389501	2535.168543
734.720156	2533.220137
735.050762	2538.636857
735.381320	2539.561908
735.711831	2534.848430
736.042293	2537.424459
736.372707	2537.915972
736.703073	2535.465971
737.033391	2535.796167
737.363661	2538.987217
737.693883	2537.200128
738.024056	2539.060314
738.354182	2536.035621
738.684260	2537.696682
739.014290	2539.289686
739.344272	2537.989068
739.674207	2539.004861
740.004093	2538.092412
740.333931	2537.036290
740.663722	2538.291538
740.993464	2537.724408
741.323159	2538.541075
741.652806	2535.861702
741.982405	2536.232226
742.311956	2536.171732
742.641460	2537.240457
742.970915	2536.804397
743.300323	2535.828934
743.629683	2534.941691
743.958996	2535.334901
744.288260	2535.710467
744.617477	2536.141486
744.946647	2534.223327
745.275768	2533.792308
745.604842	2533.303316
745.933869	2536.055786
746.262847	2530.117307
746.591778	2537.195087
746.920662	2533.983872
747.249498	2537.311033
747.578286	2537.585776
747.907027	2536.156609
748.235720	2537.127031
748.564365	2536.398584
748.892963	2537.898328
749.221514	2537.121990
749.550017	2534.571166
749.878473	2539.100643
750.206881	2536.937988
750.535242	2535.050076
750.863555	2535.226516
751.191821	2534.336752
751.520039	2535.405477
751.848210	2535.927237
752.176334	2535.208872
752.504411	2536.605272
752.832440	2535.680220
753.160421	2536.232226
753.488356	2535.856660
753.816243	2534.409849
754.144082	2534.480425
754.471875	2537.293389
754.799620	2535.153419
755.127318	2534.813142
755.454969	2534.356917
755.782572	2535.385312
756.110129	2538.657021
756.437638	2533.885569
756.765100	2534.447658
757.092515	2534.084695
757.419882	2534.256094
757.747203	2536.345652
758.074477	2536.887576
758.401703	2535.297092
758.728882	2539.045190
759.056014	2536.869932
759.383099	2534.596372
759.710138	2535.312216
760.037129	2535.851619
760.364073	2533.593182
760.690970	2535.783564
761.017820	2536.940508
761.344623	2535.808769
761.671379	2534.823224
761.998088	2530.177801
762.324751	2535.690302
762.651366	2533.268028
762.977935	2536.320447
763.304456	2533.908254
763.630931	2537.547967
763.957359	2539.077958
764.283740	2537.227854
764.610074	2537.381609
764.936362	2539.186343
765.262602	2535.443286
765.588796	2536.025539
765.914943	2535.833975
766.241044	2535.450847
766.567097	2534.142668
766.893104	2537.205169
767.219064	2535.483615
767.544978	2534.329191
767.870845	2535.143337
768.196665	2532.045548
768.522438	2533.802390
768.848165	2534.588810
769.173846	2535.839016
769.499479	2534.165353
769.825066	2532.743748
770.150607	2534.881197
770.476101	2535.889428
770.801548	2536.627957
771.126949	2534.611495
771.452303	2536.136444
771.777611	2535.352545
772.102872	2531.796011
772.428087	2534.097298
772.753256	2534.677030
773.078378	2534.303985
773.403453	2533.424304
773.728482	2534.099818
774.053465	2532.665610
774.378401	2534.039324
774.703291	2533.794828
775.028135	2534.379602
775.352932	2534.379602
775.677683	2535.002185
776.002388	2533.043697
776.327046	2532.703419
776.651658	2534.661907
776.976224	2533.411701
777.300743	2535.090405
777.625216	2536.698533
777.949643	2533.157122
778.274024	2538.223482
778.598359	2529.328366
778.922647	2531.949766
779.246889	2530.757533
779.571086	2530.475229
779.895236	2533.003367
780.219339	2531.528830
780.543397	2531.619571
780.867409	2533.262987
781.191374	2534.616537
781.515294	2534.727442
781.839167	2532.395908
782.162995	2535.760878
782.486776	2534.785415
782.810511	2535.551671
783.134201	2534.939170
783.457844	2533.646114
783.781441	2533.126876
784.104993	2533.245343
784.428498	2535.652494
784.751958	2532.912627
785.075372	2532.244674
785.398739	2535.163502
785.722061	2533.910775
786.045337	2531.730476
786.368568	2533.573018
786.691752	2534.780374
787.014891	2535.211393
787.337983	2535.130734
787.661030	2534.389685
787.984031	2535.531506
788.306987	2531.448171
788.629897	2535.556712
788.952760	2533.946063
789.275579	2534.677030
789.598351	2534.286341
789.921078	2532.917668
790.243759	2533.593182
790.566395	2530.790301
790.888984	2532.968079
791.211529	2531.768285
791.534027	2532.509334
791.856480	2531.599406
792.178888	2534.069571
792.501249	2533.250384
792.823566	2534.591331
793.145836	2533.749458
793.468062	2533.958666
793.790241	2530.444982
794.112375	2534.225847
794.434464	2535.387833
794.756507	2533.041176
795.078505	2532.254756
795.400457	2532.058151
795.722364	2529.971113
796.044226	2531.211237
796.366042	2530.167718
796.687812	2528.647810
797.009538	2531.732997
797.331218	2533.799870
797.652852	2532.768954
797.974442	2535.019829
798.295986	2531.238963
798.617484	2533.905734
798.938938	2533.857843
799.260346	2533.172246
799.581709	2534.979500
799.903026	2533.731814
800.224299	2533.232740
800.545526	2534.402288
800.866708	2533.162164
801.187845	2531.422966
801.508936	2533.973789
801.829983	2533.835158
802.150984	2531.773326
802.471940	2535.970086
802.792851	2533.215096
803.113717	2534.551002
803.434538	2533.255425
803.755314	2533.656197
804.076045	2535.879346
804.396731	2534.452699
804.717372	2534.543440
805.037967	2531.385157
805.358518	2534.077133
805.679024	2535.566794
805.999485	2532.199303
806.319901	2532.849612
806.640272	2532.242153
806.960598	2535.322298
807.280879	2531.521268
807.601115	2530.944056
807.921306	2534.712318
808.241453	2529.903058
808.561554	2532.317770
808.881611	2535.501259
809.201623	2531.796011
809.521590	2533.184849
809.841513	2534.248532
810.161390	2534.954294
810.481223	2534.987061
810.801011	2530.873480
811.120755	2536.519572
811.440453	2530.828109
811.760107	2533.633512
812.079716	2529.466998
812.399281	2528.438603
812.718801	2528.521782
813.038276	2529.129241
813.357707	2533.424304
813.677093	2532.254756
813.996434	2533.736855
814.315731	2530.979344
814.634983	2533.121834
814.954191	2532.227030
815.273354	2531.788449
815.592473	2532.653007
815.911547	2529.648479
816.230577	2532.385826
816.549562	2535.382792
816.868502	2532.219468
817.187399	2532.894983
817.506250	2529.265352
817.825058	2533.636032
818.143821	2531.080167
818.462539	2532.448840
818.781213	2531.866587
819.099843	2533.401618
819.418429	2534.147709
819.736970	2532.393388
820.055466	2534.656866
820.373919	2535.523944
820.692327	2537.210210
821.010691	2535.483615
821.329011	2538.195756
821.647286	2544.683721
821.965517	2548.109185
822.283704	2551.481717
822.601847	2555.078580
822.919945	2547.373176
823.237999	2544.424101
823.556010	2542.306817
823.873976	2541.926210
824.191897	2536.728780
824.509775	2538.783050
824.827609	2535.947401
825.145398	2534.208203
825.463144	2536.136444
825.780845	2533.825075
826.098502	2535.536547
826.416116	2538.851106
826.733685	2538.697351
827.051210	2537.202648
827.368692	2538.977135
827.686129	2536.328008
828.003522	2534.712318
828.320872	2533.320960
828.638177	2533.247863
828.955439	2530.994468
829.272656	2533.328522
829.589830	2529.706453
829.906960	2531.627132
830.224046	2532.433717
830.541088	2530.722245
830.858086	2534.689633
831.175041	2531.669982
831.491952	2531.904396
831.808819	2532.166536
832.125642	2534.455220
832.442421	2533.114273
832.759157	2532.549663
833.075849	2534.891279
833.392497	2532.965559
833.709101	2533.792308
834.025662	2535.839016
834.342179	2535.856660
834.658653	2534.646783
834.975083	2534.762730
835.291469	2533.935981
835.607811	2533.346166
835.924110	2533.167205
836.240366	2533.489839
836.556578	2532.239632
836.872746	2534.009077
837.188871	2534.493028
837.504952	2530.737369
837.820990	2532.894982
838.136984	2530.666792
838.452935	2529.275434
838.768842	2529.835002
839.084706	2532.829448
839.400526	2529.565300
839.716303	2531.077647
840.032037	2534.699716
840.347727	2532.859694
840.663373	2535.002185
840.978977	2532.448840
841.294537	2531.639735
841.610054	2531.180990
841.925527	2534.437576
842.240957	2529.983716
842.556344	2530.094622
842.871687	2532.133768
843.186987	2532.900024
843.502244	2529.719056
843.817458	2528.985568
844.132629	2531.773326
844.447756	2530.467667
844.762840	2525.925587
845.077881	2527.478263
845.392879	2527.836185
845.707833	2531.637215
846.022745	2528.516740
846.337613	2529.794673
846.652438	2531.906916
846.967221	2529.288037
847.281960	2529.295599
847.596656	2530.444982
847.911309	2529.008253
848.225919	2530.205527
848.540485	2531.364992
848.855009	2531.009591
849.169490	2529.058664
849.483928	2532.169056
849.798323	2531.294416
850.112675	2530.218130
850.426984	2529.824920
850.741251	2530.334076
851.055474	2528.746113
851.369654	2531.609488
851.683792	2531.480939
851.997887	2527.937008
852.311938	2530.296268
852.625947	2530.205527
852.939914	2532.539581
853.253837	2533.878007
853.567718	2526.719569
853.881555	2532.201824
854.195350	2531.339787
854.509103	2530.074457
854.822812	2531.548994
855.136479	2533.822555
855.450103	2529.547656
855.763685	2531.400280
856.077224	2531.952287
856.390720	2531.523789
856.704173	2532.411032
857.017584	2531.637215
857.330953	2531.022194
857.644278	2529.895496
857.957561	2534.480425
858.270802	2529.388860
858.584000	2531.090249
858.897155	2530.409694
859.210268	2531.765764
859.523339	2530.180321
859.836367	2530.513037
860.149352	2532.990764
860.462295	2531.871628
860.775195	2527.402645
861.088054	2527.596730
861.400869	2526.442306
861.713642	2525.489527
862.026373	2527.405166
862.339062	2529.608150
862.651708	2531.700229
862.964312	2529.368695
863.276873	2528.703263
863.589392	2531.049920
863.901869	2533.706608
864.214303	2529.149405
864.526696	2529.565300
864.839045	2531.153264
865.151353	2527.337110
865.463619	2531.919519
865.775842	2528.499096
866.088023	2530.228212
866.400162	2529.088911
866.712258	2532.174098
867.024313	2533.255425
867.336325	2529.487163
867.648296	2531.586803
867.960224	2528.567152
868.272110	2530.215609
868.583954	2530.979344
868.895755	2529.454395
869.207515	2529.424148
869.519233	2529.489683
869.830909	2530.066895
870.142542	2531.231402
870.454134	2531.556556
870.765684	2532.471526
871.077191	2530.238294
871.388657	2530.571011
871.700081	2528.801566
872.011463	2529.613191
872.322803	2530.991947
872.634101	2531.543953
872.945357	2532.118645
873.256571	2529.940866
873.567744	2530.991947
873.878874	2532.249715
874.189963	2533.240302
874.501010	2531.831299
874.812015	2533.825075
875.122979	2531.538912
875.433900	2529.724097
875.744780	2532.947915
876.055618	2531.788449
876.366415	2529.129241
876.677169	2530.913809
876.987882	2529.673685
877.298554	2523.082377
877.609183	2526.974147
877.919771	2526.112110
878.230317	2526.371729
878.540822	2533.315919
878.851285	2530.502955
879.161707	2531.982534
879.472087	2532.121165
879.782425	2530.734848
880.092722	2533.489839
880.402977	2531.438089
880.713191	2535.503780
881.023363	2535.597041
881.333494	2539.443441
881.643583	2540.310520
881.953631	2541.354039
882.263637	2537.888245
882.573602	2539.345139
882.883526	2536.867412
883.193408	2535.781043
883.503248	2531.417924
883.813048	2536.146527
884.122806	2530.903727
884.432522	2534.664428
884.742197	2530.208047
885.051831	2533.570497
885.361424	2528.113448
885.670975	2533.951104
885.980485	2530.790301
886.289954	2532.700898
886.599382	2532.932791
886.908768	2533.754499
887.218113	2532.506814
887.527417	2530.568490
887.836680	2530.215609
888.145901	2532.610157
888.455082	2530.777698
888.764221	2529.802235
889.073319	2531.740558
889.382376	2531.443130
889.691392	2529.101514
890.000366	2532.821886
890.309300	2532.526978
890.618193	2528.854498
890.927044	2531.775846
891.235855	2529.585465
891.544625	2530.694519
891.853353	2530.800383
892.162041	2531.347348
892.470687	2533.136958
892.779293	2531.422966
893.087858	2531.062523
893.396381	2528.189065
893.704864	2527.805938
894.013306	2524.607326
894.321707	2532.156453
894.630068	2534.309026
894.938387	2533.867925
895.246665	2533.641073
895.554903	2531.838861
895.863100	2530.923891
896.171256	2529.318284
896.479371	2529.434230
896.787446	2531.307019
897.095480	2529.973634
897.403473	2528.778880
897.711425	2529.184693
898.019336	2531.554036
898.327207	2527.831143
898.635038	2533.691485
898.942827	2528.489014
899.250576	2530.540764
899.558284	2530.863398
899.865952	2529.779549
900.173579	2532.305167
900.481165	2531.826258
900.788711	2529.860208
901.096216	2529.661082
901.403681	2529.867770
901.711105	2531.692667
902.018489	2530.455064
902.325832	2535.433203
902.633135	2530.563449
902.940397	2527.934487
903.247619	2528.874662
903.554800	2530.936494
903.861941	2534.092257
904.169041	2533.885569
904.476101	2534.818183
904.783121	2531.327184
905.090100	2532.998326
905.397039	2534.787936
905.703938	2531.450692
906.010796	2533.066382
906.317614	2532.826927
906.624391	2530.613860
906.931129	2530.704601
907.237826	2530.956659
907.544483	2528.955321
907.851099	2530.213089
908.157675	2527.677388
908.464211	2529.562780
908.770707	2525.882737
909.077163	2526.318797
909.383578	2525.310567
909.689954	2530.266021
909.996289	2527.543798
910.302584	2528.950280
910.608839	2532.128727
910.915054	2529.635877
911.221229	2532.277441
911.527363	2528.650331
911.833458	2526.994312
912.139513	2528.264683
912.445527	2528.025228
912.751502	2529.986237
913.057436	2532.559746
913.363331	2532.322812
913.669186	2528.357944
913.975000	2530.180321
914.280775	2529.535053
914.586510	2529.240146
914.892205	2529.139323
915.197859	2528.786442
915.503475	2530.896165
915.809050	2531.765764
916.114585	2529.613191
916.420081	2535.536547
916.725536	2532.494211
917.030952	2532.887421
917.336328	2530.671834
917.641665	2532.070754
917.946961	2530.770136
918.252218	2531.062523
918.557435	2530.644107
918.862612	2529.842564
919.167750	2532.610157
919.472848	2529.487162
919.777906	2527.856349
920.082925	2529.623274
920.387904	2529.585465
920.692843	2528.894827
920.997743	2530.034128
921.302603	2526.878365
921.607423	2529.920702
921.912204	2529.698891
922.216946	2530.586134
922.521647	2531.294416
922.826310	2529.509848
923.130932	2530.722245
923.435516	2527.379960
923.740059	2532.542102
924.044564	2527.377440
924.349028	2529.086391
924.653454	2525.355937
924.957840	2525.580268
925.262186	2524.539270
925.566493	2525.492048
925.870761	2523.566327
926.174989	2529.225023
926.479178	2528.557070
926.783328	2529.466998
927.087438	2528.640249
927.391509	2529.726617
927.695541	2528.322656
927.999533	2526.888448
928.303486	2529.774508
928.607400	2527.863911
928.911275	2527.253931
929.215110	2531.422966
929.518906	2528.231915
929.822663	2531.329704
930.126381	2526.573376
930.430060	2528.065557
930.733699	2531.327184
931.037299	2528.826771
931.340861	2529.416586
931.644383	2529.305681
931.947866	2528.743592
932.251309	2528.204189
932.554714	2530.172759
932.858080	2528.388191
933.161407	2529.857687
933.464694	2529.955990
933.767943	2526.611184
934.071153	2530.104704
934.374323	2528.113448
934.677455	2527.566483
934.980548	2525.953314
935.283602	2527.034641
935.586617	2530.500434
935.889593	2527.669827
936.192530	2528.274765
936.495428	2530.883562
936.798287	2527.669827
937.101108	2526.016328
937.403890	2530.127389
937.706632	2526.812830
938.009336	2529.514889
938.312002	2530.538243
938.614628	2529.915661
938.917216	2531.261649
939.219765	2530.543284
939.522275	2528.201668
939.824747	2530.225692
940.127179	2522.220339
940.429573	2524.798889
940.731929	2526.782583
941.034246	2524.758560
941.336524	2528.146216
941.638763	2526.517923
941.940964	2526.701925
942.243126	2528.294930
942.545250	2530.545805
942.847335	2528.037831
943.149381	2527.155629
943.451389	2525.703777
943.753359	2527.659744
944.055290	2529.827440
944.357182	2525.996163
944.659036	2527.478263
944.960851	2528.327697
945.262628	2528.025228
945.564367	2529.401463
945.866067	2527.392563
946.167729	2529.671165
946.469352	2530.258459
946.770937	2527.170752
947.072484	2528.375588
947.373992	2524.836698
947.675462	2530.041689
947.976893	2530.936494
948.278286	2526.195289
948.579641	2529.708973
948.880958	2529.214940
949.182236	2527.659744
949.483476	2529.116638
949.784678	2527.705115
950.085841	2527.042203
950.386967	2529.832482
950.688054	2526.848118
950.989103	2528.042872
951.290114	2527.402645
951.591087	2528.972965
951.892021	2527.939528
952.192917	2528.650331
952.493776	2530.565969
952.794596	2525.237470
953.095378	2529.761905
953.396122	2528.768798
953.696828	2528.471370
953.997496	2528.433561
954.298126	2528.700743
954.598718	2527.508510
954.899272	2530.147554
955.199788	2527.689991
955.500266	2528.988088
955.800706	2525.262676
956.101108	2522.802592
956.401472	2526.316277
956.701798	2525.040865
957.002087	2528.320135
957.302337	2527.745444
957.602550	2526.205371
957.902724	2527.629497
958.202861	2526.170083
958.502960	2524.935001
958.803022	2530.540764
959.103045	2526.606143
959.403031	2528.592358
959.702979	2527.178314
960.002889	2530.026566
960.302762	2528.166380
960.602596	2527.248890
960.902393	2527.460619
961.202153	2525.360978
961.501875	2528.113448
961.801559	2526.951462
962.101205	2527.112779
962.400814	2525.406348
962.700385	2530.233253
962.999918	2532.499252
963.299414	2526.424662
963.598873	2528.645290
963.898293	2527.747964
964.197677	2528.819210
964.497022	2528.985568
964.796331	2526.568334
965.095601	2526.444826
965.394835	2528.615043
965.694030	2525.605474
965.993189	2527.979857
966.292309	2526.777542
966.591393	2524.435926
966.890439	2525.902902
967.189447	2524.695546
967.488419	2526.117151
967.787353	2526.674199
968.086249	2528.458767
968.385108	2527.498427
968.683930	2526.563293
968.982714	2527.185876
969.281462	2527.579086
969.580172	2528.005063
969.878844	2529.378778
970.177480	2527.473222
970.476078	2526.119672
970.774639	2527.967255
971.073162	2524.173786
971.371649	2524.816533
971.670098	2521.323014
971.968510	2523.442819
972.266885	2520.944927
972.565223	2527.258973
972.863524	2527.148067
973.161788	2531.259128
973.460014	2527.594209
973.758204	2523.813344
974.056356	2527.455577
974.354471	2526.691843
974.652550	2527.168232
974.950591	2527.664785
975.248595	2527.639580
975.546563	2525.681091
975.844493	2526.994312
976.142386	2529.126720
976.440243	2527.770650
976.738062	2525.507172
977.035845	2526.273427
977.333590	2526.369209
977.631299	2526.487676
977.928971	2526.931297
978.226606	2527.286699
978.524204	2528.002543
978.821765	2524.624970
979.119290	2530.318953
979.416777	2524.851822
979.714228	2526.369209
980.011642	2530.187883
980.309020	2530.182842
980.606360	2528.922553
980.903664	2529.227543
981.200931	2525.691174
981.498162	2526.734692
981.795356	2525.930628
982.092513	2525.522295
982.389633	2527.624456
982.686717	2527.417769
982.983764	2524.924918
983.280775	2527.296781
983.577749	2524.917357
983.874686	2527.195958
984.171587	2523.755371
984.468451	2528.373067
984.765279	2527.513551
985.062070	2526.265865
985.358824	2524.047758
985.655543	2526.467511
985.952224	2526.621267
986.248869	2526.439785
986.545478	2522.366533
986.842050	2526.175124
987.138586	2524.577079
987.435086	2524.874507
987.731549	2522.784948
988.027975	2525.804600
988.324366	2525.975999
988.620719	2526.850639
988.917037	2527.521112
989.213318	2529.398942
989.509563	2526.805269
989.805772	2525.865093
990.101944	2524.544311
990.398080	2526.669158
990.694180	2524.501461
990.990244	2528.851977
991.286271	2526.822913
991.582262	2526.696884
991.878217	2525.940711
992.174136	2525.585309
992.470019	2526.280989
992.765865	2525.423993
993.061676	2524.758560
993.357450	2525.897861
993.653188	2528.297450
993.948890	2525.156811
994.244556	2527.677388
994.540186	2528.090763
994.835780	2528.746113
995.131337	2528.499096
995.426859	2527.662265
995.722345	2524.120854
996.017795	2528.436082
996.313208	2525.277799
996.608586	2528.461288
996.903928	2524.403159
997.199234	2526.341483
997.494504	2526.452388
997.789738	2524.385515
998.084936	2525.620597
998.380099	2527.919364
998.675225	2527.551359
998.970316	2526.785104
999.265371	2529.890455
999.560390	2525.295443
999.855373	2528.451205
1000.150320	2527.206040
1000.445232	2527.337110
1000.740108	2526.192768
1001.034948	2526.918695
1001.329752	2522.674043
1001.624521	2524.594723
1001.919254	2522.159845
1002.213951	2523.478107
1002.508613	2520.881913
1002.803239	2524.992974
1003.097829	2522.381656
1003.392384	2525.577748
1003.686903	2527.352234
1003.981386	2526.714528
1004.275834	2526.023890
1004.570246	2523.566327
1004.864623	2525.613036
1005.158964	2526.454908
1005.453270	2523.354599
1005.747540	2525.970958
1006.041775	2527.904240
1006.335974	2527.062367
1006.630138	2524.047757
1006.924266	2523.883920
1007.218359	2524.761081
1007.512416	2525.522295
1007.806438	2524.675381
1008.100425	2526.031452
1008.394376	2523.722603
1008.688292	2524.214116
1008.982172	2528.090763
1009.276017	2526.419620
1009.569827	2524.935001
1009.863602	2527.228726
1010.157341	2525.754188
1010.451045	2528.085722
1010.744714	2526.618746
1011.038347	2529.151926
1011.331945	2524.178828
1011.625508	2526.331400
1011.919036	2524.004908
1012.212528	2526.712007
1012.505986	2523.493231
1012.799408	2527.556401
1013.092795	2524.425844
1013.386147	2526.669158
1013.679464	2525.575227
1013.972745	2524.602284
1014.265992	2525.728982
1014.559204	2527.891637
1014.852380	2526.959024
1015.145521	2525.691174
1015.438628	2525.000536
1015.731699	2526.545649
1016.024736	2524.327542
1016.317737	2527.594209
1016.610703	2528.431041
1016.903635	2520.864269
1017.196531	2522.769825
1017.489393	2522.094310
1017.782219	2520.884433
1018.075011	2525.860052
1018.367768	2524.841739
1018.660490	2524.456091
1018.953177	2524.456091
1019.245829	2524.456091
