Dividing Wavelength (nm)	Counts (n)	Blue Motor Position (mm): 0.000000	Red Motor Position (mm): 26.400000	
326.493990	2127.079577
326.888308	2127.079577
327.282561	2127.079577
327.676750	2097.530854
328.070874	2097.198138
328.464933	2095.995823
328.858929	2103.592842
329.252859	2112.820674
329.646726	2126.320884
330.040528	2136.849333
330.434265	2153.182672
330.827938	2170.541885
331.221547	2190.527540
331.615091	2210.906404
332.008571	2227.217057
332.401986	2247.437125
332.795338	2268.647780
333.188625	2288.688887
333.581847	2304.742442
333.975006	2325.118786
334.368100	2339.864161
334.761129	2359.585154
335.154095	2372.407329
335.546996	2396.735938
335.939833	2408.721281
336.332606	2424.585792
336.725315	2437.977617
337.117960	2446.968515
337.510540	2456.793724
337.903056	2466.359313
338.295508	2475.824080
338.687896	2480.892960
339.080220	2491.975937
339.472480	2496.006339
339.864676	2502.827020
340.256807	2506.050838
340.648875	2510.915552
341.040879	2512.637106
341.432818	2511.840603
341.824694	2513.630213
342.216506	2515.901253
342.608253	2515.228259
342.999937	2516.002076
343.391557	2517.784124
343.783113	2514.968639
344.174605	2514.716582
344.566033	2513.801612
344.957397	2509.937568
345.348697	2506.285252
345.739934	2508.417660
346.131106	2505.513955
346.522215	2504.646877
346.913260	2503.381547
347.304241	2501.387771
347.695159	2499.416680
348.086012	2497.828716
348.476802	2491.902840
348.867528	2494.186483
349.258191	2493.377377
349.648789	2492.749754
350.039324	2492.217912
350.429796	2489.193220
350.820203	2489.727582
351.210548	2485.581233
351.600828	2484.207519
351.991045	2486.057622
352.381198	2485.876141
352.771288	2483.348002
353.161314	2483.544607
353.551276	2483.433702
353.941175	2485.901346
354.331010	2485.112406
354.720782	2483.960502
355.110490	2485.107365
355.500135	2484.275574
355.889717	2483.955461
356.279235	2483.930255
356.668689	2486.213898
357.058080	2483.169041
357.447408	2483.153918
357.836672	2480.963536
358.225873	2485.883702
358.615010	2482.886736
359.004084	2487.794300
359.393095	2489.566265
359.782043	2490.665237
360.170927	2489.291522
360.559748	2489.810761
360.948505	2490.821513
361.337199	2488.074084
361.725830	2492.283447
362.114398	2493.483242
362.502903	2492.742192
362.891344	2495.224960
363.279722	2494.057933
363.668037	2495.131699
364.056289	2496.596154
364.444478	2495.134220
364.832603	2496.180259
365.220665	2498.111021
365.608665	2498.244612
365.996601	2500.054386
366.384474	2499.598161
366.772284	2500.833244
367.160031	2502.524551
367.547715	2503.235354
367.935336	2507.825324
368.322893	2510.252640
368.710388	2513.126098
369.097820	2519.551048
369.485189	2522.588343
369.872495	2527.914323
370.259738	2534.271218
370.646918	2539.582073
371.034035	2549.240924
371.421090	2560.717111
371.808081	2571.013667
372.195010	2577.925089
372.581875	2593.088880
372.968678	2606.027001
373.355418	2616.560492
373.742096	2636.899027
374.128710	2648.889412
374.515262	2664.287616
374.901751	2677.316478
375.288177	2690.607481
375.674540	2714.318548
376.060841	2733.326218
376.447079	2752.717017
376.833254	2773.174019
377.219367	2782.207767
377.605417	2821.856442
377.991404	2832.614264
378.377329	2857.585619
378.763191	2872.126828
379.148991	2910.641243
379.534727	2934.735438
379.920402	2962.923050
380.306013	2974.517703
380.691563	3022.983357
381.077049	3048.524363
381.462474	3061.838050
381.847835	3104.710543
382.233134	3125.533029
382.618371	3124.933131
383.003545	3194.672454
383.388657	3201.523382
383.773706	3234.129565
384.158693	3250.099940
384.543618	3275.013322
384.928480	3311.062614
385.313280	3356.657330
385.698017	3355.273533
386.082692	3412.326792
386.467305	3413.803850
386.851856	3446.316771
387.236344	3470.234526
387.620770	3501.015811
388.005133	3526.428268
388.389435	3554.935993
388.773674	3566.439906
389.157851	3606.615381
389.541965	3625.504585
389.926018	3588.537804
390.310008	3656.469872
390.693936	3677.884694
391.077802	3716.217628
391.461606	3704.907799
391.845348	3772.436575
392.229027	3767.899537
392.612645	3782.539048
392.996200	3861.765822
393.379694	3901.722007
393.763125	3963.806337
394.146494	3932.079835
394.529801	3990.675687
394.913047	4043.091084
395.296230	4006.189838
395.679351	4061.571954
396.062410	4086.066921
396.445408	4067.805341
396.828343	4103.373202
397.211217	4123.472282
397.594028	4042.846588
397.976778	4104.777163
398.359466	4135.387049
398.742092	4166.465763
399.124656	4088.232096
399.507158	4170.186134
399.889598	4193.259496
400.271977	4252.324175
400.654294	4223.382910
401.036549	4237.762802
401.418742	4204.186197
401.800874	4307.252587
402.182944	4329.320238
402.564952	4393.436153
402.946898	4380.518196
403.328783	4376.374368
403.710606	4288.897746
404.092367	4484.693641
404.474067	4447.709215
404.855705	4451.961429
405.237282	4385.289648
405.618797	4491.753777
406.000250	4522.277963
406.381642	4607.465901
406.762972	4568.054161
407.144240	4580.805759
407.525447	4579.772323
407.906593	4637.796003
408.287677	4682.148075
408.668700	4610.218371
409.049661	4658.799971
409.430560	4700.654151
409.811399	4631.429026
410.192176	4787.946771
410.572891	4730.633893
410.953545	4827.519828
411.334138	4711.434658
411.714669	4777.803969
412.095139	4675.085418
412.475547	4815.350483
412.855894	4797.184685
413.236180	4805.089214
413.616405	4755.131380
413.996568	4845.173949
414.376670	4783.170277
414.756711	4743.385491
415.136691	4774.312970
415.516609	4850.406667
415.896466	4890.798912
416.276262	4922.633799
416.655997	4906.388680
417.035670	5088.265949
417.415283	5178.321122
417.794834	5120.234427
418.174324	5072.371191
418.553753	4981.201924
418.933121	5167.081869
419.312428	5228.503288
419.691674	5174.121841
420.070859	5302.542714
420.449983	5214.690526
420.829045	5325.719419
421.208047	5232.337085
421.586988	5307.147808
421.965867	5318.611392
422.344686	5447.191062
422.723444	5304.362571
423.102141	5124.821877
423.480777	5421.783647
423.859352	5187.869067
424.237866	5448.337925
424.616319	5437.307880
424.994712	5550.869953
425.373044	5426.897897
425.751314	5568.055246
426.129524	5371.954362
426.507673	5563.775307
426.885762	5651.143544
427.263789	5581.177370
427.641756	5463.836952
428.019662	5585.432103
428.397508	5590.075006
428.775292	5534.486203
429.153016	5634.301049
429.530679	5560.163320
429.908282	5646.150281
430.285824	5519.151013
430.663305	5789.704698
431.040726	5528.146952
431.418086	5523.428432
431.795385	5629.133866
432.172624	5645.041227
432.549802	5634.185102
432.926920	5653.112114
433.303977	5659.589997
433.680974	5698.147262
434.057910	5712.338110
434.434786	5719.153750
434.811601	5683.981620
435.188355	5922.050110
435.565050	5791.781654
435.941683	5774.614004
436.318257	5990.806408
436.694770	5969.003417
437.071222	6010.781980
437.447614	5940.218429
437.823946	5845.865673
438.200218	6000.961812
438.576429	5866.415937
438.952580	5962.175174
439.328670	6006.726372
439.704700	5910.684829
440.080670	5895.231172
440.456580	6165.608417
440.832429	6042.672319
441.208218	5887.929061
441.583947	6040.759201
441.959616	6039.080497
442.335224	5964.433611
442.710773	6094.727274
443.086261	6112.797290
443.461689	5904.148973
443.837057	6048.830088
444.212365	6191.971131
444.587612	6077.630200
444.962800	6222.376851
445.337927	6194.791657
445.712995	5807.182379
446.088002	6358.525813
446.462949	6188.202869
446.837837	6105.623728
447.212664	6267.601042
447.587431	6390.058231
447.962139	6896.507669
448.336786	7757.088084
448.711374	7495.419432
449.085901	6612.153825
449.460369	6518.290061
449.834776	6430.904180
450.209124	6780.213291
450.583412	6890.496093
450.957640	7011.803899
451.331808	6771.529904
451.705917	6339.394634
452.079965	6252.394401
452.453954	6417.900523
452.827883	6281.580162
453.201752	6340.753225
453.575562	6139.134798
453.949311	6285.194669
454.323001	6163.221431
454.696632	6201.793820
455.070202	6286.807838
455.443713	6385.506069
455.817164	6433.916269
456.190556	6463.250743
456.563888	6486.445092
456.937160	6491.259394
457.310373	6173.661661
457.683526	6151.412528
458.056619	6030.460124
458.429653	5971.844108
458.802628	5888.367641
459.175542	5931.524959
459.548398	6148.289533
459.921194	6224.950360
460.293930	6170.856258
460.666607	6480.456201
461.039224	6635.451518
461.411782	6675.367374
461.784280	6633.200642
462.156719	6499.554613
462.529099	6354.901224
462.901419	6023.299165
463.273680	5898.644033
463.645882	5854.206262
464.018024	5706.024065
464.390106	5750.466877
464.762130	5919.358134
465.134094	6122.521675
465.505999	6636.744573
465.877845	7246.898109
466.249631	7534.747993
466.621358	7227.381282
466.993026	6783.051461
467.364634	6563.095836
467.736184	6277.058247
468.107674	6029.734198
468.479105	5945.786383
468.850477	5767.866420
469.221790	5579.987657
469.593043	5347.517368
469.964238	5199.977919
470.335373	5136.282940
470.706449	5087.870219
471.077467	5016.091750
471.448425	5457.054080
471.819324	5788.830058
472.190164	5725.107353
472.560945	5180.282131
472.931667	4813.938960
473.302330	4699.250189
473.672934	4514.875029
474.043479	4561.919076
474.413965	4478.614009
474.784393	4369.203327
475.154761	4360.396431
475.525070	4317.919668
475.895321	4215.674986
476.265513	4200.377605
476.635645	4190.600287
477.005719	4123.825163
477.375734	4091.203857
477.745691	4086.389555
478.115588	4060.324269
478.485427	4047.807084
478.855207	4107.842185
479.224928	4211.006878
479.594591	4277.582876
479.964194	4161.253210
480.333739	4077.121393
480.703226	3982.004902
481.072653	3940.047379
481.442022	3922.529369
481.811333	3901.868200
482.180584	3806.371102
482.549777	3702.455278
482.918912	3633.237715
483.287988	3585.402206
483.657005	3535.993857
484.025964	3449.656536
484.394864	3415.706885
484.763706	3368.867004
485.132489	3305.524906
485.501213	3263.514451
485.869879	3235.624267
486.238487	3180.123684
486.607036	3158.038389
486.975527	3108.473764
487.343959	3091.157401
487.712333	3065.092115
488.080648	3035.132537
488.448905	3007.449041
488.817104	2977.809577
489.185244	2966.003195
489.553326	2949.024588
489.921350	2957.884416
490.289315	2981.353508
490.657222	2974.827734
491.025070	2945.165585
491.392861	2919.856472
491.760593	2883.371121
492.128267	2851.304342
492.495883	2822.557162
492.863440	2800.061013
493.230939	2772.291817
493.598380	2761.377719
493.965763	2743.164030
494.333088	2732.610374
494.700354	2720.594784
495.067563	2712.677652
495.434713	2702.950746
495.801805	2699.323636
496.168839	2691.076308
496.535815	2682.382838
496.902733	2680.447035
497.269593	2674.735408
497.636395	2666.364572
498.003139	2665.961279
498.369825	2658.054230
498.736453	2654.704383
499.103023	2651.581388
499.469535	2646.731798
499.835989	2644.342291
500.202385	2638.620582
500.568723	2636.992289
500.935003	2638.867598
501.301226	2631.434417
501.667390	2633.463481
502.033497	2632.780405
502.399546	2629.917029
502.765537	2626.259672
503.131470	2627.129271
503.497345	2626.559621
503.863163	2623.035854
504.228923	2623.078704
504.594625	2620.795062
504.960269	2617.934207
505.325856	2620.847994
505.691385	2614.460852
506.056856	2616.341202
506.422270	2615.567385
506.787625	2612.215018
507.152924	2613.003958
507.518164	2611.317692
507.883347	2609.071858
508.248472	2607.118411
508.613540	2611.761314
508.978550	2609.422218
509.343503	2609.268463
509.708398	2609.679317
510.073236	2604.993565
510.438016	2607.839296
510.802738	2605.031373
511.167403	2607.395675
511.532010	2605.434666
511.896561	2608.643360
512.261053	2608.406426
512.625488	2600.547267
512.989866	2599.546598
513.354186	2602.472988
513.718449	2598.278748
514.082655	2600.403594
514.446803	2604.146651
514.810894	2602.205807
515.174927	2602.591455
515.538904	2602.984665
515.902822	2601.348811
516.266684	2602.568770
516.630488	2600.942998
516.994235	2601.671444
517.357925	2602.266301
517.721558	2602.006681
518.085133	2600.895107
518.448651	2604.741507
518.812112	2601.240426
519.175516	2602.750251
519.538863	2600.529623
519.902152	2603.350149
520.265385	2599.791094
520.628560	2604.852412
520.991678	2601.142123
521.354739	2604.733945
521.717743	2600.126331
522.080690	2599.102977
522.443580	2601.663883
522.806413	2602.208327
523.169189	2600.912751
523.531908	2603.713112
523.894569	2601.875611
524.257174	2599.256732
524.619722	2600.020467
524.982213	2604.229830
525.344647	2597.192379
525.707025	2603.801332
526.069345	2599.970055
526.431608	2601.467278
526.793815	2600.569952
527.155964	2600.872422
527.518057	2598.056937
527.880093	2599.402925
528.242072	2600.766557
528.603995	2597.875456
528.965860	2599.763368
529.327669	2599.125662
529.689421	2598.072061
530.051117	2597.789756
530.412755	2598.578697
530.774337	2598.215733
531.135862	2600.348142
531.497331	2595.743047
531.858743	2594.162646
532.220098	2596.615167
532.581396	2594.749940
532.942638	2595.533840
533.303824	2597.431834
533.664953	2598.951742
534.026025	2597.010898
534.387040	2599.375199
534.747999	2598.281268
535.108902	2596.259766
535.469748	2595.455702
535.830537	2598.067019
536.191270	2596.098449
536.551947	2600.247318
536.912567	2598.445106
537.273131	2596.690784
537.633638	2597.464602
537.994089	2595.259097
538.354483	2595.990064
538.714821	2599.720518
539.075103	2599.821341
539.435328	2598.359406
539.795497	2598.240939
540.155609	2596.549632
540.515665	2599.486104
540.875665	2597.409149
541.235609	2595.095259
541.595496	2599.962493
541.955328	2597.948552
542.315102	2599.362596
542.674821	2599.148347
543.034483	2599.188676
543.394090	2598.354365
543.753640	2596.342945
544.113134	2599.032400
544.472571	2597.290682
544.831953	2597.091556
545.191278	2595.783377
545.550548	2596.990733
545.909761	2600.317895
546.268918	2597.872935
546.628019	2598.233377
546.987064	2597.237750
547.346053	2598.069540
547.704986	2596.746237
548.063863	2597.015939
548.422684	2598.566094
548.781449	2599.183635
549.140158	2599.221444
549.498811	2598.132554
549.857408	2598.165322
550.215949	2593.822368
550.574434	2594.039137
550.932864	2594.414703
551.291237	2596.511823
551.649555	2598.979468
552.007817	2598.634149
552.366022	2595.322111
552.724173	2597.688933
553.082267	2600.179263
553.440305	2597.320929
553.798288	2597.489807
554.156215	2596.937801
554.514086	2600.648090
554.871902	2597.318408
555.229661	2598.341762
555.587365	2599.763368
555.945014	2600.761516
556.302606	2597.794797
556.660143	2597.159612
557.017625	2596.630291
557.375050	2597.883017
557.732421	2600.917792
558.089735	2599.118100
558.446994	2598.487956
558.804197	2597.091556
559.161345	2601.111876
559.518437	2597.278079
559.875474	2596.819334
560.232455	2599.047524
560.589381	2598.286310
560.946251	2598.924016
561.303065	2600.718666
561.659825	2598.409818
562.016528	2598.659355
562.373177	2596.048037
562.729770	2597.116762
563.086307	2599.090374
563.442789	2596.766402
563.799216	2597.434355
564.155587	2596.579879
564.511904	2598.409818
564.868164	2597.497369
565.224370	2600.431321
565.580520	2598.056937
565.936615	2596.917636
566.292654	2594.283633
566.648638	2597.751947
567.004567	2597.083994
567.360441	2597.646083
567.716260	2597.066350
568.072023	2594.598706
568.427732	2590.437233
568.783385	2594.613829
569.138982	2593.000660
569.494525	2595.102821
569.850013	2593.000660
570.205445	2597.457040
570.560823	2595.213726
570.916145	2598.314036
571.271412	2594.386977
571.626625	2594.787749
571.981782	2593.673654
572.336884	2597.686412
572.691931	2596.121134
573.046923	2592.413365
573.401860	2597.212544
573.756743	2592.831781
574.111570	2592.763726
574.466342	2594.734817
574.821059	2593.199785
575.175722	2597.363778
575.530330	2592.993098
575.884882	2597.056268
576.239380	2595.049889
576.593823	2595.133068
576.948211	2592.962851
577.302544	2591.382449
577.656823	2590.628797
578.011047	2593.275403
578.365216	2593.683736
578.719330	2594.016452
579.073389	2590.714497
579.427394	2590.807758
579.781344	2590.827922
580.135239	2593.222471
580.489080	2594.397059
580.842866	2592.554518
581.196597	2594.888572
581.550273	2594.901175
581.903895	2590.318766
582.257463	2590.812799
582.610975	2593.940835
582.964434	2591.372367
583.317837	2590.913622
583.671186	2591.889085
584.024481	2589.912953
584.377721	2589.098807
584.730906	2589.297932
585.084037	2590.691811
585.437113	2591.397573
585.790135	2590.109558
586.143103	2589.794486
586.496016	2587.619228
586.848874	2584.347519
587.201679	2590.535536
587.554428	2583.886254
587.907124	2586.679053
588.259765	2585.824577
588.612352	2586.568148
588.964884	2586.371542
589.317362	2586.646285
589.669786	2586.139649
590.022155	2587.299115
590.374470	2587.455391
590.726731	2590.936307
591.078937	2586.374063
591.431090	2586.001018
591.783188	2588.362798
592.135232	2587.377253
592.487222	2588.188878
592.839157	2586.426995
593.191038	2585.980853
593.542866	2587.185689
593.894639	2587.926738
594.246358	2585.227201
594.598022	2587.301635
594.949633	2586.525298
595.301190	2584.672674
595.652692	2584.697879
596.004141	2582.489854
596.355535	2587.306677
596.706876	2584.176120
597.058162	2585.557396
597.409395	2584.907087
597.760573	2587.946903
598.111698	2585.983374
598.462768	2582.086562
598.813785	2584.193764
599.164748	2583.382138
599.515657	2583.573702
599.866511	2582.976325
600.217312	2584.413054
600.568060	2584.997828
600.918753	2584.695359
601.269392	2583.369535
601.619978	2584.183682
601.970510	2584.818867
602.320988	2585.103692
602.671412	2586.338775
603.021783	2581.015317
603.372100	2585.645616
603.722363	2580.725450
604.072572	2584.410534
604.422728	2587.178127
604.772830	2579.354256
605.122878	2579.563464
605.472872	2581.292580
605.822813	2578.729153
606.172701	2582.812488
606.522534	2582.999011
606.872314	2584.438260
607.222041	2582.729309
607.571714	2584.939855
607.921333	2585.716192
608.270899	2580.448187
608.620411	2584.292067
608.969870	2585.779207
609.319276	2586.941193
609.668627	2588.443457
610.017926	2589.958323
610.367171	2590.933787
610.716362	2588.695514
611.065500	2587.430185
611.414585	2588.735844
611.763616	2588.937490
612.112594	2585.144022
612.461518	2586.313569
612.810389	2585.005390
613.159207	2584.637386
613.507971	2585.769125
613.856682	2585.595205
614.205340	2584.163517
614.553945	2584.244176
614.902496	2586.321131
615.250994	2585.804413
615.599439	2588.347675
615.947830	2585.726275
616.296169	2583.513208
616.644454	2584.723085
616.992686	2580.400296
617.340864	2583.301480
617.688990	2582.144535
618.037063	2586.328693
618.385082	2582.996490
618.733048	2586.179979
619.080961	2583.661922
619.428821	2583.304000
619.776628	2583.629155
620.124382	2585.035637
620.472083	2584.226532
620.819731	2585.554876
621.167326	2584.665112
621.514868	2585.668302
621.862357	2584.428178
622.209793	2584.138311
622.557176	2583.167889
622.904506	2580.574216
623.251783	2577.738567
623.599007	2580.627148
623.946179	2577.292424
624.293297	2578.645974
624.640363	2580.513722
624.987376	2581.378280
625.334336	2580.836356
625.681243	2581.010275
626.028097	2576.677404
626.374899	2579.485326
626.721647	2578.777044
627.068343	2577.778896
627.414987	2578.227558
627.761577	2577.090778
628.108115	2578.167065
628.454600	2573.609862
628.801032	2576.465675
629.147412	2580.193608
629.493739	2580.160841
629.840014	2574.998699
630.186236	2578.620768
630.532405	2576.359811
630.878521	2576.042218
631.224585	2576.906776
631.570597	2576.730336
631.916556	2577.189081
632.262462	2576.783268
632.608316	2575.734708
632.954117	2574.081209
633.299866	2573.733370
633.645562	2577.201684
633.991206	2575.091961
634.336797	2575.399471
634.682336	2574.887794
635.027823	2569.922257
635.373257	2575.235634
635.718639	2573.115828
636.063968	2571.346383
636.409245	2570.585169
636.754470	2570.141548
637.099642	2570.486867
637.444762	2574.577763
637.789829	2570.388564
638.134845	2571.956363
638.479808	2571.779923
638.824719	2570.812021
639.169577	2571.182546
639.514383	2570.799418
639.859137	2570.128945
640.203839	2569.463512
640.548489	2566.534602
640.893086	2567.273131
641.237632	2562.801628
641.582125	2567.154664
641.926566	2562.370609
642.270955	2567.353790
642.615292	2566.680796
642.959576	2571.883266
643.303809	2568.586352
643.647990	2568.908986
643.992118	2570.501990
644.336195	2569.733214
644.680219	2570.194480
645.024192	2569.415622
645.368112	2570.151630
645.711981	2567.804973
646.055797	2569.864284
646.399562	2567.605847
646.743274	2571.505180
647.086935	2574.091292
647.430544	2570.985941
647.774101	2573.685479
648.117606	2569.637432
648.461059	2573.204049
648.804460	2572.946950
649.147810	2570.655745
649.491108	2571.767320
649.834354	2572.082392
650.177548	2569.844120
650.520690	2569.612227
650.863781	2565.990158
651.206820	2569.894531
651.549807	2567.525189
651.892742	2571.227916
652.235626	2566.683316
652.578458	2569.075344
652.921238	2565.569221
653.263967	2566.587534
653.606644	2566.249777
653.949269	2566.461505
654.291843	2567.116855
654.634365	2569.473595
654.976836	2563.474622
655.319255	2565.768347
655.661622	2567.063923
656.003938	2568.130127
656.346203	2567.532751
656.688416	2567.671382
657.030577	2566.612740
657.372687	2565.632236
657.714746	2565.302040
658.056753	2566.887483
658.398708	2561.332131
658.740612	2562.710887
659.082465	2560.034034
659.424266	2561.657286
659.766016	2561.541339
660.107715	2563.358675
660.449362	2561.609395
660.790958	2567.328584
661.132503	2566.574931
661.473996	2564.802966
661.815438	2567.560477
662.156829	2565.027297
662.498168	2563.802297
662.839456	2563.832544
663.180693	2562.771381
663.521879	2567.835220
663.863013	2565.922102
664.204097	2563.000753
664.545129	2565.312122
664.886110	2567.076526
665.227040	2564.651731
665.567918	2562.088304
665.908746	2564.984447
666.249522	2563.956052
666.590248	2566.055692
666.930922	2567.547874
667.271545	2563.094015
667.612118	2565.420507
667.952639	2564.941597
668.293109	2564.359344
668.633528	2564.742472
668.973896	2566.065775
669.314213	2562.786504
669.654480	2567.298337
669.994695	2565.944787
670.334859	2564.457647
670.674973	2565.561659
671.015035	2565.816238
671.355047	2563.832544
671.695008	2567.235323
672.034918	2563.565362
672.374777	2564.475291
672.714585	2564.523182
673.054342	2563.938408
673.394049	2564.515620
673.733705	2565.770867
674.073310	2564.198027
674.412864	2562.743654
674.752368	2565.357493
675.091820	2562.806669
675.431223	2566.335477
675.770574	2563.305743
676.109875	2557.526060
676.449125	2560.986812
676.788324	2559.171997
677.127473	2561.601833
677.466571	2559.287943
677.805619	2564.528223
678.144616	2562.234498
678.483562	2565.148285
678.822458	2562.206772
679.161303	2561.314487
679.500098	2564.119889
679.838842	2563.187276
680.177535	2561.092677
680.516179	2563.335990
680.854771	2560.270968
681.193314	2561.624518
681.531805	2565.748182
681.870247	2565.153326
682.208638	2567.086608
682.546978	2564.767678
682.885268	2565.733059
683.223508	2567.903275
683.561697	2562.894889
683.899836	2565.861608
684.237925	2566.113666
684.575963	2565.188614
684.913951	2563.018397
685.251889	2565.803635
685.589776	2563.676268
685.927614	2563.489745
686.265401	2563.116700
686.603137	2563.903120
686.940824	2562.277348
687.278460	2564.886145
687.616046	2565.039900
687.953582	2564.760116
688.291068	2565.541495
688.628504	2562.889848
688.965889	2563.071329
689.303224	2566.630384
689.640510	2565.677606
689.977745	2561.523695
690.314930	2562.836916
690.652065	2564.359344
690.989150	2566.559808
691.326185	2561.619477
691.663170	2560.422203
692.000105	2557.987326
692.336990	2559.776935
692.673825	2562.042934
693.010610	2560.321380
693.347345	2555.726368
693.684030	2553.097407
694.020665	2556.409445
694.357251	2553.145297
694.693786	2556.384239
695.030272	2557.727706
695.366707	2557.621842
695.703093	2557.306770
696.039429	2555.227294
696.375716	2556.333827
696.711952	2554.650082
697.048139	2555.612942
697.384276	2554.211502
697.720363	2557.813406
698.056400	2556.064126
698.392388	2554.055226
698.728326	2555.605381
699.064214	2553.848538
699.400053	2556.043961
699.735842	2555.106306
700.071581	2554.990360
700.407270	2552.265616
700.742910	2555.413817
701.078501	2553.846018
701.414042	2551.222097
701.749533	2552.668908
702.084974	2552.840308
702.420366	2553.230997
702.755709	2552.704197
703.091002	2551.101110
703.426246	2554.715617
703.761440	2553.689742
704.096584	2554.261913
704.431679	2552.479865
704.766725	2553.026830
705.101721	2554.798796
705.436668	2554.042623
705.771565	2552.144628
706.106413	2554.050185
706.441212	2550.816284
706.775961	2551.723692
707.110661	2553.178065
707.445311	2555.786862
707.779913	2557.203426
708.114465	2556.207798
708.448967	2553.203271
708.783421	2553.772921
709.117825	2552.666388
709.452180	2554.637479
709.786485	2555.746533
710.120742	2555.980947
710.454949	2554.009855
710.789107	2554.128323
711.123216	2552.580688
711.457275	2555.633107
711.791286	2553.195709
712.125247	2555.020607
712.459159	2556.164949
712.793023	2560.477656
713.126837	2553.581357
713.460602	2557.773077
713.794318	2555.179403
714.127985	2555.665874
714.461602	2555.391132
714.795171	2556.217881
715.128691	2553.157900
715.462162	2555.718807
715.795584	2553.619166
716.128957	2554.057746
716.462281	2552.419371
716.795556	2550.695297
717.128782	2552.994063
717.461960	2553.825853
717.795088	2550.619679
718.128167	2552.855431
718.461198	2551.985832
718.794180	2554.090514
719.127113	2549.059442
719.459997	2551.423743
719.792833	2551.789227
720.125619	2550.861655
720.458357	2549.540873
720.791046	2549.891233
721.123686	2552.447098
721.456278	2551.340564
721.788821	2547.897456
722.121315	2548.893084
722.453761	2546.289328
722.786158	2548.202446
723.118506	2548.179761
723.450805	2548.633465
723.783056	2550.433157
724.115259	2548.363763
724.447412	2549.684545
724.779518	2553.046995
725.111574	2549.039278
725.443582	2547.282436
725.775542	2549.654298
726.107453	2550.952396
726.439315	2548.575492
726.771129	2552.505071
727.102895	2553.351985
727.434612	2551.063301
727.766281	2551.587581
728.097901	2548.991387
728.429473	2547.751263
728.760996	2550.803682
729.092471	2548.043650
729.423897	2551.030533
729.755276	2550.662529
730.086606	2554.087993
730.417887	2551.955585
730.749120	2556.338868
731.080305	2550.372663
731.411442	2553.049516
731.742530	2553.926676
732.073570	2553.755277
732.404562	2551.373332
732.735506	2550.806202
733.066401	2552.739485
733.397249	2554.118240
733.728048	2551.753939
734.058798	2552.409289
734.389501	2552.104299
734.720156	2551.078424
735.050762	2549.276212
735.381320	2548.711603
735.711831	2549.528270
736.042293	2548.134391
736.372707	2548.338557
736.703073	2547.872251
737.033391	2548.953578
737.363661	2550.536500
737.693883	2546.390151
738.024056	2550.390307
738.354182	2550.420554
738.684260	2548.958619
739.014290	2550.196222
739.344272	2549.745039
739.674207	2550.503733
740.004093	2548.837632
740.333931	2549.671942
740.663722	2550.458362
740.993464	2549.679504
741.323159	2550.372663
741.652806	2548.588094
741.982405	2549.256047
742.311956	2549.480379
742.641460	2551.121274
742.970915	2550.649926
743.300323	2550.700338
743.629683	2545.928886
743.958996	2546.692621
744.288260	2546.092723
744.617477	2547.385779
744.946647	2545.570964
745.275768	2544.729091
745.604842	2544.663556
745.933869	2543.930068
746.262847	2542.281611
746.591778	2547.390820
746.920662	2543.481406
747.249498	2545.583567
747.578286	2545.074410
747.907027	2547.632796
748.235720	2547.602549
748.564365	2547.244627
748.892963	2544.018288
749.221514	2545.087013
749.550017	2547.330327
749.878473	2547.968033
750.206881	2547.947868
750.535242	2546.932075
750.863555	2547.315203
751.191821	2546.266643
751.520039	2545.344112
751.848210	2543.650284
752.176334	2546.687579
752.504411	2547.539534
752.832440	2545.999462
753.160421	2546.894267
753.488356	2546.843855
753.816243	2547.088351
754.144082	2544.673638
754.471875	2545.475182
754.799620	2544.625748
755.127318	2542.639533
755.454969	2544.474513
755.782572	2547.332847
756.110129	2548.293187
756.437638	2546.548948
756.765100	2543.715819
757.092515	2543.768751
757.419882	2543.052908
757.747203	2547.113557
758.074477	2544.419060
758.401703	2545.941489
758.728882	2544.426622
759.056014	2548.399051
759.383099	2545.664225
759.710138	2545.598690
760.037129	2549.724875
760.364073	2547.345450
760.690970	2544.991231
761.017820	2547.658002
761.344623	2546.818649
761.671379	2547.514329
761.998088	2545.906201
762.324751	2546.128011
762.651366	2548.956099
762.977935	2557.352140
763.304456	2560.843139
763.630931	2563.928326
763.957359	2559.345917
764.283740	2556.084290
764.610074	2554.360216
764.936362	2548.479710
765.262602	2547.899977
765.588796	2547.123639
765.914943	2546.705223
766.241044	2547.186654
766.567097	2545.394523
766.893104	2545.336550
767.219064	2544.351005
767.544978	2545.250851
767.870845	2543.955274
768.196665	2544.068700
768.522438	2543.027702
768.848165	2542.029553
769.173846	2544.096426
769.499479	2543.766231
769.825066	2543.080634
770.150607	2544.756817
770.476101	2541.119625
770.801548	2543.257074
771.126949	2542.770603
771.452303	2543.267157
771.777611	2541.805222
772.102872	2541.268339
772.428087	2541.238092
772.753256	2541.928730
773.078378	2542.475695
773.403453	2542.795809
773.728482	2544.552651
774.053465	2540.759183
774.378401	2541.570808
774.703291	2542.059800
775.028135	2540.696168
775.352932	2540.166847
775.677683	2541.013761
776.002388	2540.877650
776.327046	2540.895294
776.651658	2537.432021
776.976224	2537.512679
777.300743	2540.817156
777.625216	2537.842875
777.949643	2540.524769
778.274024	2540.610468
778.598359	2536.844727
778.922647	2537.187525
779.246889	2537.968904
779.571086	2534.997144
779.895236	2539.055272
780.219339	2538.752803
780.543397	2539.319933
780.867409	2540.880170
781.191374	2538.828421
781.515294	2538.412525
781.839167	2538.268852
782.162995	2538.717515
782.486776	2537.240457
782.810511	2542.826056
783.134201	2541.492670
783.457844	2537.336239
783.781441	2539.085519
784.104993	2539.201466
784.428498	2537.033770
784.751958	2538.999820
785.075372	2539.831610
785.398739	2538.205838
785.722061	2538.704912
786.045337	2536.406146
786.368568	2538.135262
786.691752	2536.393543
787.014891	2539.529141
787.337983	2539.055273
787.661030	2542.372352
787.984031	2542.379913
788.306987	2541.104502
788.629897	2543.357897
788.952760	2539.803884
789.275579	2544.865202
789.598351	2542.775644
789.921078	2539.622402
790.243759	2541.616179
790.566395	2539.093081
790.888984	2538.014274
791.211529	2539.433359
791.534027	2540.121477
791.856480	2539.193904
792.178888	2539.571991
792.501249	2538.430169
792.823566	2541.994265
793.145836	2539.413194
793.468062	2540.000489
793.790241	2538.112577
794.112375	2540.139121
794.434464	2538.561239
794.756507	2538.286497
795.078505	2541.288504
795.400457	2536.575025
795.722364	2531.952287
796.044226	2535.604603
796.366042	2539.319933
796.687812	2536.958152
797.009538	2540.171888
797.331218	2540.330684
797.652852	2538.294058
797.974442	2539.269522
798.295986	2540.202135
798.617484	2539.602238
798.938938	2540.892773
799.260346	2540.512166
799.581709	2538.344470
799.903026	2541.338915
800.224299	2536.438914
800.545526	2541.364121
800.866708	2538.704912
801.187845	2537.444624
801.508936	2537.305992
801.829983	2537.260622
802.150984	2536.385982
802.471940	2538.805735
802.792851	2538.430169
803.113717	2539.201466
803.434538	2536.494366
803.755314	2537.439583
804.076045	2538.074768
804.396731	2537.285827
804.717372	2537.116949
805.037967	2539.551826
805.358518	2536.191897
805.679024	2538.349511
805.999485	2539.178781
806.319901	2539.982845
806.640272	2534.230888
806.960598	2539.564429
807.280879	2538.362114
807.601115	2539.451003
807.921306	2538.223482
808.241453	2537.704243
808.561554	2537.661393
808.881611	2538.107536
809.201623	2537.434542
809.521590	2536.070909
809.841513	2539.400592
810.161390	2538.435211
810.481223	2537.447144
810.801011	2538.112577
811.120755	2539.750952
811.440453	2538.493184
811.760107	2540.116435
812.079716	2536.960673
812.399281	2534.732483
812.718801	2535.168543
813.038276	2535.256763
813.357707	2538.871270
813.677093	2537.091743
813.996434	2536.237268
814.315731	2539.438400
814.634983	2539.277083
814.954191	2538.311702
815.273354	2539.680376
815.592473	2539.607279
815.911547	2537.978986
816.230577	2541.374203
816.549562	2539.060314
816.868502	2539.297248
817.187399	2539.594676
817.506250	2539.612320
817.825058	2537.270704
818.143821	2535.468492
818.462539	2540.033256
818.781213	2540.068544
819.099843	2538.788091
819.418429	2545.686910
819.736970	2545.346632
820.055466	2547.597508
820.373919	2548.514998
820.692327	2550.090358
821.010691	2554.627397
821.329011	2567.174829
821.647286	2593.943356
821.965517	2611.970522
822.283704	2628.603809
822.601847	2637.453554
822.919945	2624.001235
823.237999	2609.976745
823.556010	2593.227512
823.873976	2584.249217
824.191897	2574.910479
824.509775	2565.773388
824.827609	2561.914385
825.145398	2558.504044
825.463144	2559.350958
825.780845	2558.642676
826.098502	2561.614436
826.416116	2566.085939
826.733685	2573.776220
827.051210	2578.905594
827.368692	2573.887125
827.686129	2568.689695
828.003522	2558.962789
828.320872	2552.747046
828.638177	2547.189174
828.955439	2544.285470
829.272656	2541.359080
829.589830	2539.340098
829.906960	2544.151879
830.224046	2542.788247
830.541088	2539.012423
830.858086	2539.937474
831.175041	2541.326312
831.491952	2539.869419
831.808819	2541.046528
832.125642	2540.386137
832.442421	2541.517876
832.759157	2545.142466
833.075849	2549.543393
833.392497	2553.848538
833.709101	2557.200906
834.025662	2558.466235
834.342179	2556.331307
834.658653	2551.746377
834.975083	2549.336706
835.291469	2552.313507
835.607811	2544.477033
835.924110	2541.812784
836.240366	2539.566950
836.556578	2538.563760
836.872746	2537.391692
837.188871	2537.149716
837.504952	2537.691640
837.820990	2536.118800
838.136984	2533.704088
838.452935	2535.413039
838.768842	2535.554191
839.084706	2538.102494
839.400526	2540.867567
839.716303	2542.563916
840.032037	2545.271015
840.347727	2546.569112
840.663373	2540.060983
840.978977	2540.418905
841.294537	2539.277083
841.610054	2537.797505
841.925527	2532.504293
842.240957	2539.335057
842.556344	2536.275076
842.871687	2534.462781
843.186987	2534.402288
843.502244	2534.898841
843.817458	2535.917154
844.132629	2533.172246
844.447756	2537.116949
844.762840	2528.216792
845.077881	2529.693850
845.392879	2532.201824
845.707833	2532.090918
846.022745	2532.027904
846.337613	2535.100487
846.652438	2534.145189
846.967221	2533.845240
847.281960	2532.993285
847.596656	2533.595703
847.911309	2535.712987
848.225919	2532.053110
848.540485	2535.191228
848.855009	2531.687626
849.169490	2531.362472
849.483928	2532.947915
849.798323	2531.236443
850.112675	2534.009078
850.426984	2535.155940
850.741251	2535.395395
851.055474	2531.793490
851.369654	2533.623429
851.683792	2531.821217
851.997887	2532.811803
852.311938	2534.868594
852.625947	2533.600744
852.939914	2535.095446
853.253837	2532.484128
853.567718	2532.128727
853.881555	2533.308357
854.195350	2531.848943
854.509103	2534.046886
854.822812	2532.199303
855.136479	2533.696526
855.450103	2530.505476
855.763685	2533.303316
856.077224	2532.090918
856.390720	2535.322298
856.704173	2531.538912
857.017584	2533.804911
857.330953	2533.018491
857.644278	2532.469005
857.957561	2535.571835
858.270802	2532.156453
858.584000	2535.992772
858.897155	2534.500590
859.210268	2532.907585
859.523339	2533.633512
859.836367	2530.301309
860.149352	2535.594520
860.462295	2532.635363
860.775195	2529.714014
861.088054	2527.977337
861.400869	2529.875331
861.713642	2527.891637
862.026373	2532.622760
862.339062	2532.627801
862.651708	2533.295754
862.964312	2533.721732
863.276873	2534.094777
863.589392	2533.457071
863.901869	2534.586290
864.214303	2534.530837
864.526696	2532.436237
864.839045	2533.389016
865.151353	2536.769109
865.463619	2534.581248
865.775842	2534.397246
866.088023	2534.309026
866.400162	2533.371372
866.712258	2536.456558
867.024313	2533.401618
867.336325	2533.865405
867.648296	2534.351876
867.960224	2531.485980
868.272110	2535.486136
868.583954	2532.874818
868.895755	2535.617206
869.207515	2532.252235
869.519233	2536.275076
869.830909	2533.709129
870.142542	2535.705426
870.454134	2533.073943
870.765684	2534.906403
871.077191	2534.472864
871.388657	2537.638708
871.700081	2534.321629
872.011463	2536.108718
872.322803	2533.716691
872.634101	2537.681558
872.945357	2534.737524
873.256571	2538.679707
873.567744	2533.268028
873.878874	2536.869932
874.189963	2536.738862
874.501010	2534.437576
874.812015	2536.401105
875.122979	2535.274407
875.433900	2533.376413
875.744780	2536.287679
876.055618	2535.445806
876.366415	2535.491177
876.677169	2534.341794
876.987882	2533.275590
877.298554	2529.938346
877.609183	2532.002698
877.919771	2532.819365
878.230317	2533.681403
878.540822	2538.160468
878.851285	2537.331198
879.161707	2538.765406
879.472087	2540.250026
879.782425	2539.692978
880.092722	2548.300749
880.402977	2554.758467
880.713191	2566.012843
881.023363	2581.151428
881.333494	2590.084352
881.643583	2592.292378
881.953631	2587.450349
882.263637	2587.576378
882.573602	2584.949937
882.883526	2577.612538
883.193408	2567.184911
883.503248	2565.549057
883.813048	2558.418344
884.122806	2553.125133
884.432522	2553.944320
884.742197	2548.769576
885.051831	2545.921324
885.361424	2544.398896
885.670975	2540.696168
885.980485	2540.305479
886.289954	2540.255067
886.599382	2539.206507
886.908768	2539.367824
887.218113	2539.566950
887.527417	2539.687937
887.836680	2537.164840
888.145901	2536.811959
888.455082	2533.532688
888.764221	2535.743234
889.073319	2536.312885
889.382376	2536.973276
889.691392	2537.190046
890.000366	2535.377751
890.309300	2535.526465
890.618193	2535.223996
890.927044	2535.029911
891.235855	2535.896990
891.544625	2535.433203
891.853353	2537.616023
892.162041	2534.296423
892.470687	2539.287166
892.779293	2537.933616
893.087858	2537.968904
893.396381	2537.008564
893.704864	2541.946374
894.013306	2541.283462
894.321707	2548.083979
894.630068	2550.975081
894.938387	2552.162273
895.246665	2554.322407
895.554903	2550.758311
895.863100	2550.208825
896.171256	2544.182126
896.479371	2544.109029
896.787446	2541.137269
897.095480	2541.729605
897.403473	2540.423946
897.711425	2538.039480
898.019336	2538.304141
898.327207	2539.181301
898.635038	2537.656352
898.942827	2538.893956
899.250576	2537.986548
899.558284	2535.508821
899.865952	2534.750127
900.173579	2535.423121
900.481165	2534.979500
900.788711	2534.326670
901.096216	2537.711805
901.403681	2533.683923
901.711105	2535.508821
902.018489	2535.203831
902.325832	2535.781043
902.633135	2537.084181
902.940397	2536.494366
903.247619	2538.372196
903.554800	2542.135418
903.861941	2547.141283
904.169041	2556.263251
904.476101	2565.798594
904.783121	2561.574107
905.090100	2556.976574
905.397039	2552.018600
905.703938	2546.533824
906.010796	2545.303783
906.317614	2541.417053
906.624391	2541.729605
906.931129	2540.693648
907.237826	2533.562935
907.544483	2534.702236
907.851099	2536.350693
908.157675	2533.855322
908.464211	2532.602596
908.770707	2530.228212
909.077163	2529.651000
909.383578	2530.702081
909.689954	2528.305012
909.996289	2526.948942
910.302584	2532.025383
910.608839	2533.971269
910.915054	2531.430527
911.221229	2532.831968
911.527363	2529.444313
911.833458	2533.404139
912.139513	2533.051258
912.445527	2531.548994
912.751502	2531.574200
913.057436	2534.959335
913.363331	2531.546474
913.669186	2534.477905
913.975000	2535.413039
914.280775	2536.723739
914.586510	2539.256919
914.892205	2541.235572
915.197859	2542.503422
915.503475	2550.458362
915.809050	2552.673950
916.114585	2556.222922
916.420081	2558.534291
916.725536	2556.248128
917.030952	2558.438509
917.336328	2552.401727
917.641665	2551.459032
917.946961	2546.533824
918.252218	2547.748742
918.557435	2539.811446
918.862612	2539.871939
919.167750	2539.014943
919.472848	2537.121990
919.777906	2537.482433
920.082925	2535.299613
920.387904	2536.053265
920.692843	2534.414890
920.997743	2537.636188
921.302603	2535.302133
921.607423	2532.872297
921.912204	2533.419263
922.216946	2535.468492
922.521647	2534.082174
922.826310	2531.906916
923.130932	2531.420445
923.435516	2533.623429
923.740059	2531.155784
924.044564	2531.085208
924.349028	2531.400280
924.653454	2531.382636
924.957840	2531.133099
925.262186	2527.621936
925.566493	2529.305681
925.870761	2525.539939
926.174989	2530.999509
926.479178	2532.242153
926.783328	2530.366844
927.087438	2530.089580
927.391509	2533.479756
927.695541	2529.537574
927.999533	2528.748633
928.303486	2530.301309
928.607400	2530.399611
928.911275	2527.271575
929.215110	2531.531350
929.518906	2532.423635
929.822663	2532.080836
930.126381	2529.464477
930.430060	2530.487832
930.733699	2529.587986
931.037299	2530.175280
931.340861	2529.948428
931.644383	2529.225022
931.947866	2529.482121
932.251309	2530.271062
932.554714	2529.593027
932.858080	2532.721063
933.161407	2530.389529
933.464694	2531.569159
933.767943	2529.552697
934.071153	2526.916174
934.374323	2528.594878
934.677455	2528.804086
934.980548	2529.033459
935.283602	2533.063861
935.586617	2529.277955
935.889593	2529.681247
936.192530	2530.918850
936.495428	2530.765095
936.798287	2530.074457
937.101108	2528.284847
937.403890	2531.639735
937.706632	2530.951618
938.009336	2530.810465
938.312002	2531.173428
938.614628	2532.794159
938.917216	2533.895652
939.219765	2531.738038
939.522275	2531.301978
939.824747	2531.957328
940.127179	2528.274765
940.429573	2526.160001
940.731929	2530.628984
941.034246	2525.300484
941.336524	2529.774508
941.638763	2530.492873
941.940964	2531.115455
942.243126	2533.668800
942.545250	2530.928932
942.847335	2530.303829
943.149381	2528.370547
943.451389	2530.830630
943.753359	2529.920702
944.055290	2531.180990
944.357182	2528.632687
944.659036	2529.419107
944.960851	2529.209899
945.262628	2529.255269
945.564367	2531.188552
945.866067	2531.022194
946.167729	2531.571680
946.469352	2527.626977
946.770937	2530.765095
947.072484	2530.205527
947.373992	2531.901875
947.675462	2529.625794
947.976893	2531.410363
948.278286	2531.339787
948.579641	2528.867101
948.880958	2527.385001
949.182236	2529.804755
949.483476	2531.990095
949.784678	2532.403470
950.085841	2527.006915
950.386967	2530.850795
950.688054	2528.937677
950.989103	2529.877852
951.290114	2525.771832
951.591087	2529.005732
951.892021	2530.571011
952.192917	2533.073943
952.493776	2528.993129
952.794596	2532.915147
953.095378	2531.438089
953.396122	2529.938346
953.696828	2530.966741
953.997496	2528.587317
954.298126	2528.355423
954.598718	2529.343490
954.899272	2529.608150
955.199788	2531.236443
955.500266	2528.887265
955.800706	2527.773170
956.101108	2522.021214
956.401472	2525.892820
956.701798	2523.198323
957.002087	2527.236287
957.302337	2525.625639
957.602550	2528.862059
957.902724	2528.655372
958.202861	2527.137985
958.502960	2530.102183
958.803022	2527.717717
959.103045	2526.064219
959.403031	2526.868283
959.702979	2528.403314
960.002889	2528.630166
960.302762	2527.526154
960.602596	2528.085722
960.902393	2527.145547
961.202153	2528.647810
961.501875	2527.480783
961.801559	2527.309384
962.101205	2527.153108
962.400814	2525.577748
962.700385	2528.783922
962.999918	2526.964065
963.299414	2527.188396
963.598873	2527.354754
963.898293	2529.681247
964.197677	2529.502286
964.497022	2528.781401
964.796331	2528.199148
965.095601	2527.009435
965.394835	2527.569003
965.694030	2528.713345
965.993189	2529.098994
966.292309	2527.574045
966.591393	2529.509848
966.890439	2528.932636
967.189447	2527.090094
967.488419	2526.407017
967.787353	2528.428520
968.086249	2528.431041
968.385108	2526.139836
968.683930	2528.368026
968.982714	2527.561442
969.281462	2528.514220
969.580172	2530.787780
969.878844	2529.058664
970.177480	2528.055475
970.476078	2524.977850
970.774639	2527.266534
971.073162	2528.002543
971.371649	2526.601102
971.670098	2521.678415
971.968510	2524.743437
972.266885	2524.947603
972.565223	2524.340144
972.863524	2527.407687
973.161788	2528.395753
973.460014	2528.047913
973.758204	2526.676719
974.056356	2526.906092
974.354471	2527.311905
974.652550	2529.313243
974.950591	2525.366019
975.248595	2529.358613
975.546563	2525.771832
975.844493	2527.710156
976.142386	2526.691843
976.440243	2525.804600
976.738062	2530.533202
977.035845	2529.204858
977.333590	2528.751154
977.631299	2527.173273
977.928971	2527.296781
978.226606	2526.754857
978.524204	2528.564631
978.821765	2527.503468
979.119290	2528.612522
979.416777	2524.476256
979.714228	2528.022707
980.011642	2525.897861
980.309020	2530.195445
980.606360	2526.462470
980.903664	2529.817358
981.200931	2524.806451
981.498162	2529.139323
981.795356	2524.635052
982.092513	2529.477080
982.389633	2526.409538
982.686717	2531.077647
982.983764	2528.599919
983.280775	2528.516740
983.577749	2528.463808
983.874686	2527.778211
984.171587	2527.737882
984.468451	2527.606812
984.765279	2528.214271
985.062070	2527.937008
985.358824	2529.519930
985.655543	2527.858870
985.952224	2529.156967
986.248869	2525.774353
986.545478	2521.668333
986.842050	2525.161853
987.138586	2522.011131
987.435086	2525.318128
987.731549	2523.374763
988.027975	2527.039682
988.324366	2525.900382
988.620719	2528.156298
988.917037	2524.929959
989.213318	2526.696884
989.509563	2527.246370
989.805772	2524.932480
990.101944	2526.598581
990.398080	2527.372398
990.694180	2526.149919
990.990244	2525.794517
991.286271	2524.093128
991.582262	2525.146729
991.878217	2529.038500
992.174136	2528.403314
992.470019	2527.669827
992.765865	2527.765608
993.061676	2525.507172
993.357450	2527.289219
993.653188	2526.311236
993.948890	2528.854498
994.244556	2527.198479
994.540186	2527.884076
994.835780	2523.311749
995.131337	2529.840043
995.426859	2527.465660
995.722345	2528.380629
996.017795	2525.696215
996.313208	2523.866276
996.608586	2528.302491
996.903928	2525.814682
997.199234	2526.981709
997.494504	2525.353416
997.789738	2529.527492
998.084936	2527.044723
998.380099	2524.889630
998.675225	2525.764270
998.970316	2528.105886
999.265371	2524.577079
999.560390	2525.776873
999.855373	2525.161853
1000.150320	2527.173273
1000.445232	2528.436082
1000.740108	2525.648324
1001.034948	2526.278468
1001.329752	2527.379960
1001.624521	2527.861390
1001.919254	2521.847294
1002.213951	2524.375432
1002.508613	2524.408200
1002.803239	2524.539270
1003.097829	2524.183869
1003.392384	2527.571524
1003.686903	2527.034641
1003.981386	2526.767460
1004.275834	2527.909281
1004.570246	2527.879034
1004.864623	2527.095135
1005.158964	2526.507841
1005.453270	2526.437264
1005.747540	2527.160670
1006.041775	2522.328724
1006.335974	2525.093797
1006.630138	2525.996163
1006.924266	2528.282327
1007.218359	2525.010618
1007.512416	2526.386853
1007.806438	2528.846936
1008.100425	2524.675381
1008.394376	2526.873324
1008.688292	2527.140505
1008.982172	2524.952645
1009.276017	2524.599764
1009.569827	2526.248221
1009.863602	2528.433561
1010.157341	2527.478263
1010.451045	2526.739734
1010.744714	2523.959537
1011.038347	2524.501461
1011.331945	2525.739065
1011.625508	2524.972809
1011.919036	2524.453570
1012.212528	2524.009949
1012.505986	2525.728982
1012.799408	2524.955165
1013.092795	2525.814682
1013.386147	2523.813344
1013.679464	2526.190248
1013.972745	2526.149919
1014.265992	2523.490710
1014.559204	2525.459281
1014.852380	2526.951462
1015.145521	2523.422654
1015.438628	2526.056657
1015.731699	2525.784435
1016.024736	2527.200999
1016.317737	2525.222346
1016.610703	2527.347193
1016.903635	2522.036337
1017.196531	2523.261338
1017.489393	2523.221008
1017.782219	2521.784279
1018.075011	2523.137829
1018.367768	2525.439116
1018.660490	2524.801410
1018.953177	2524.801410
1019.245829	2524.801410
