Dividing Wavelength (nm)	Counts (n)	Blue Motor Position (mm): 0.000000	Red Motor Position (mm): 46.500000	
326.493990	2129.549743
326.888308	2129.549743
327.282561	2129.549743
327.676750	2095.900041
328.070874	2095.627818
328.464933	2095.864753
328.858929	2104.661566
329.252859	2114.206991
329.646726	2123.911212
330.040528	2137.895373
330.434265	2156.867755
330.827938	2172.795281
331.221547	2191.813034
331.615091	2208.965560
332.008571	2229.357027
332.401986	2248.674729
332.795338	2268.007554
333.188625	2288.363733
333.581847	2305.332257
333.975006	2324.332366
334.368100	2343.476147
334.761129	2357.782942
335.154095	2376.369676
335.546996	2398.003788
335.939833	2422.818868
336.332606	2438.814449
336.725315	2452.654937
337.117960	2460.435958
337.510540	2466.908799
337.903056	2480.971098
338.295508	2486.163486
338.687896	2497.410301
339.080220	2504.840961
339.472480	2513.317662
339.864676	2514.066273
340.256807	2520.881913
340.648875	2521.927952
341.040879	2525.585309
341.432818	2528.340300
341.824694	2526.696884
342.216506	2531.400280
342.608253	2528.733510
342.999937	2530.021525
343.391557	2527.440454
343.783113	2525.837367
344.174605	2524.390556
344.566033	2524.574558
344.957397	2522.048940
345.348697	2523.828467
345.739934	2520.738240
346.131106	2517.617766
346.522215	2517.083403
346.913260	2516.586850
347.304241	2513.960409
347.695159	2515.697086
348.086012	2509.357835
348.476802	2507.444717
348.867528	2509.425891
349.258191	2505.332474
349.648789	2504.087309
350.039324	2501.619664
350.429796	2503.759634
350.820203	2502.078409
351.210548	2500.528254
351.600828	2499.356186
351.991045	2498.065651
352.381198	2501.584376
352.771288	2495.955928
353.161314	2499.431803
353.551276	2496.008860
353.941175	2498.181597
354.331010	2497.211175
354.720782	2497.644714
355.110490	2497.327122
355.500135	2497.692605
355.889717	2497.400218
356.279235	2496.767553
356.668689	2499.141937
357.058080	2497.959786
357.447408	2497.367451
357.836672	2493.523571
358.225873	2497.024652
358.615010	2494.093221
359.004084	2498.254694
359.393095	2500.535816
359.782043	2500.233347
360.170927	2500.918944
360.559748	2504.132679
360.948505	2505.582011
361.337199	2504.659480
361.725830	2506.829697
362.114398	2505.080416
362.502903	2505.385406
362.891344	2506.146620
363.279722	2509.050325
363.668037	2509.841786
364.056289	2510.925634
364.444478	2509.418329
364.832603	2510.555109
365.220665	2513.723474
365.608665	2508.699965
365.996601	2513.373114
366.384474	2514.943434
366.772284	2517.685821
367.160031	2514.192302
367.547715	2519.157838
367.935336	2521.466687
368.322893	2523.047088
368.710388	2526.618746
369.097820	2534.256094
369.485189	2534.409849
369.872495	2541.512835
370.259738	2547.743701
370.646918	2556.714434
371.034035	2563.522513
371.421090	2571.636250
371.808081	2585.862386
372.195010	2594.848243
372.581875	2606.024481
372.968678	2618.158538
373.355418	2629.377626
373.742096	2645.723567
374.128710	2659.695125
374.515262	2675.284893
374.901751	2693.281813
375.288177	2703.522917
375.674540	2727.508727
376.060841	2747.050760
376.447079	2766.454161
376.833254	2787.427881
377.219367	2796.514561
377.605417	2835.845643
377.991404	2848.448528
378.377329	2869.563401
378.763191	2883.618138
379.148991	2922.661874
379.534727	2948.354115
379.920402	2976.914772
380.306013	2988.385918
380.691563	3035.828217
381.077049	3057.744633
381.462474	3077.495874
381.847835	3118.404837
382.233134	3138.990389
382.618371	3137.929226
383.003545	3206.740976
383.388657	3214.864795
383.773706	3245.555340
384.158693	3261.200561
384.543618	3289.065539
384.928480	3323.544511
385.313280	3370.550750
385.698017	3369.124103
386.082692	3424.506219
386.467305	3427.588885
386.851856	3462.216571
387.236344	3486.131804
387.620770	3516.403933
388.005133	3541.125752
388.389435	3566.243301
388.773674	3579.594797
389.157851	3622.684059
389.541965	3637.948673
389.926018	3600.389556
390.310008	3675.774971
390.693936	3690.888350
391.077802	3735.530288
391.461606	3721.989749
391.845348	3787.852424
392.229027	3784.805046
392.612645	3796.815595
392.996200	3874.277965
393.379694	3915.754059
393.763125	3981.067248
394.146494	3948.226651
394.529801	4009.847195
394.913047	4062.028179
395.296230	4024.703476
395.679351	4076.380344
396.062410	4103.695836
396.445408	4083.314451
396.828343	4116.346611
397.211217	4139.679592
397.594028	4057.632292
397.976778	4124.364567
398.359466	4151.052435
398.742092	4186.297662
399.124656	4104.363789
399.507158	4186.474103
399.889598	4209.144171
400.271977	4269.900158
400.654294	4245.395109
401.036549	4253.125718
401.418742	4221.588260
401.800874	4327.039116
402.182944	4342.850695
402.564952	4410.142537
402.946898	4397.726175
403.328783	4391.071852
403.710606	4308.696877
404.092367	4498.977750
404.474067	4462.507523
404.855705	4472.000015
405.237282	4400.584509
405.618797	4504.891023
406.000250	4543.725552
406.381642	4623.658088
406.762972	4585.766255
407.144240	4594.094241
407.525447	4595.498202
407.906593	4657.383407
408.287677	4694.781207
408.668700	4627.834683
409.049661	4677.963917
409.430560	4717.615113
409.811399	4647.321264
410.192176	4809.545594
410.572891	4747.428497
410.953545	4848.092777
411.334138	4733.371239
411.714669	4800.249707
412.095139	4693.538562
412.475547	4833.090303
412.855894	4814.107839
413.236180	4825.629396
413.616405	4783.374444
413.996568	4866.989542
414.376670	4807.904699
414.756711	4761.095065
415.136691	4790.185043
415.516609	4875.226788
415.896466	4909.020163
416.276262	4941.901089
416.655997	4925.560188
417.035670	5104.579123
417.415283	5195.420716
417.794834	5140.956089
418.174324	5094.511939
418.553753	4998.730016
418.933121	5184.645249
419.312428	5253.595631
419.691674	5192.945509
420.070859	5318.447555
420.449983	5229.877002
420.829045	5344.717007
421.208047	5255.866671
421.586988	5326.969625
421.965867	5335.224515
422.344686	5467.509433
422.723444	5323.559285
423.102141	5142.695288
423.480777	5441.171924
423.859352	5209.021749
424.237866	5464.426767
424.616319	5457.616168
424.994712	5563.873609
425.373044	5446.555877
425.751314	5590.921920
426.129524	5390.503287
426.507673	5587.070478
426.885762	5668.293549
427.263789	5603.108909
427.641756	5480.666844
428.019662	5607.169559
428.397508	5614.010405
428.775292	5554.791970
429.153016	5655.965408
429.530679	5584.696095
429.908282	5666.594680
430.285824	5538.640113
430.663305	5811.699253
431.040726	5549.415580
431.418086	5547.812493
431.795385	5653.671682
432.172624	5667.716337
432.549802	5660.283156
432.926920	5671.040978
433.303977	5679.081618
433.680974	5717.969079
434.057910	5739.406586
434.434786	5742.811885
434.811601	5712.723759
435.188355	5948.133040
435.565050	5822.255429
435.941683	5805.680115
436.318257	6015.306415
436.694770	6001.339899
437.071222	6035.632348
437.447614	5961.998734
437.823946	5882.083843
438.200218	6034.397265
438.576429	5899.629579
438.952580	5995.691286
439.328670	6042.329521
439.704700	5948.816117
440.080670	5932.386996
440.456580	6205.988060
440.832429	6090.240647
441.208218	5935.946051
441.583947	6093.628302
441.959616	6094.790288
442.335224	6026.787643
442.710773	6159.947202
443.086261	6186.567014
443.461689	5980.807279
443.837057	6131.918386
444.212365	6284.919926
444.587612	6175.216857
444.962800	6331.772410
445.337927	6316.732127
445.712995	5922.163536
446.088002	6501.205591
446.462949	6331.452297
446.837837	6258.153920
447.212664	6432.603048
447.587431	6577.987405
447.962139	7111.918694
448.336786	8044.756487
448.711374	7790.092518
449.085901	6858.706577
449.460369	6782.751512
449.834776	6710.872220
450.209124	7103.764628
450.583412	7258.439830
450.957640	7404.686224
451.331808	7167.605800
451.705917	6722.761782
452.079965	6642.057950
452.453954	6855.041658
452.827883	6725.521813
453.201752	6823.179046
453.575562	6622.536081
453.949311	6826.571742
454.323001	6721.098201
454.696632	6793.221989
455.070202	6928.463544
455.443713	7089.246104
455.817164	7188.188831
456.190556	7266.591376
456.563888	7344.157090
456.937160	7386.848101
457.310373	7042.507047
457.683526	7067.715336
458.056619	6959.751465
458.429653	6945.845442
458.802628	6878.488065
459.175542	6987.523182
459.548398	7349.276382
459.921194	7507.825711
460.293930	7508.402923
460.666607	8043.229017
461.039224	8346.464503
461.411782	8475.139955
461.784280	8495.279365
462.156719	8387.113847
462.529099	8264.727235
462.901419	7849.084100
463.273680	7743.136690
463.645882	7753.917198
464.018024	7621.380222
464.390106	7788.670913
464.762130	8179.448556
465.134094	8643.590111
465.505999	9671.085650
465.877845	10888.670497
466.249631	11541.726772
466.621358	11162.412712
466.993026	10529.420230
467.364634	10277.319688
467.736184	9909.852340
468.107674	9575.207945
468.479105	9610.624571
468.850477	9380.067400
469.221790	9144.448910
469.593043	8815.329620
469.964238	8682.172582
470.335373	8690.089714
470.706449	8747.939475
471.077467	8727.104386
471.448425	10036.281958
471.819324	11114.120979
472.190164	11139.851028
472.560945	9892.737623
472.931667	9098.992826
473.302330	8959.602402
473.672934	8613.207077
474.043479	8968.137075
474.413965	8909.117766
474.784393	8789.692832
475.154761	8945.151934
475.525070	9034.680306
475.895321	8856.299077
476.265513	9033.659472
476.635645	9209.706647
477.005719	9214.009272
477.375734	9312.072317
477.745691	9556.855624
478.115588	9690.526859
478.485427	9936.951062
478.855207	10472.538370
479.224928	11285.071547
479.594591	11920.415728
479.964194	11730.180226
480.333739	11676.970847
480.703226	11583.187742
481.072653	11675.481186
481.442022	11902.723799
481.811333	12108.549069
482.180584	11908.382494
482.549777	11611.816454
482.918912	11439.330855
483.287988	11458.993876
483.657005	11474.641617
484.025964	11159.710654
484.394864	11288.192022
484.763706	11261.920048
485.132489	11011.231029
485.501213	10973.855915
485.869879	11054.655528
486.238487	10900.192054
486.607036	11000.611839
486.975527	10787.648294
487.343959	10973.253497
487.712333	11028.363391
488.080648	10957.452000
488.448905	10990.874850
488.817104	10935.956520
489.185244	11200.755729
489.553326	11357.149965
489.921350	11895.058724
490.289315	12955.745220
490.657222	13301.046614
491.025070	13213.161659
491.392861	13087.440323
491.760593	12703.299359
492.128267	12355.401770
492.495883	12027.585618
492.863440	11691.398630
493.230939	11354.243740
493.598380	11285.943667
493.965763	11155.748307
494.333088	11053.216279
494.700354	10975.033024
495.067563	11036.479648
495.434713	10867.563186
495.801805	10997.559420
496.168839	10921.027143
496.535815	10853.909221
496.902733	10848.686585
497.269593	10785.934302
497.636395	10882.535413
498.003139	10872.228774
498.369825	10737.443443
498.736453	10897.293391
499.103023	10825.961064
499.469535	10856.104643
499.835989	10836.376088
500.202385	10806.552621
500.568723	10654.133335
500.935003	10876.652386
501.301226	10680.339773
501.667390	10942.583117
502.033497	11039.942921
502.399546	10892.753832
502.765537	10807.258383
503.131470	10879.016687
503.497345	11053.574201
503.863163	10664.266054
504.228923	10982.183901
504.594625	11038.818744
504.960269	10797.100458
505.325856	11012.062820
505.691385	10803.774946
506.056856	10952.425970
506.422270	10986.151289
506.787625	10867.802641
507.152924	10987.966104
507.518164	10971.221912
507.883347	10893.278112
508.248472	10807.160080
508.613540	11039.635411
508.978550	10920.875908
509.343503	10906.543908
509.708398	11014.422080
510.073236	11125.556837
510.438016	11134.643517
510.802738	11081.393808
511.167403	11140.912191
511.532010	11036.832529
511.896561	11269.045719
512.261053	11344.284940
512.625488	11203.258662
512.989866	11193.801457
513.354186	11180.628922
513.718449	11074.991543
514.082655	11276.020156
514.446803	11166.730461
514.810894	11286.906527
515.174927	11158.543627
515.538904	11182.108501
515.902822	11339.548776
516.266684	11216.617719
516.630488	11159.919862
516.994235	11219.302134
517.357925	11277.305650
517.721558	11369.140349
518.085133	11387.381765
518.448651	11399.593960
518.812112	11278.124837
519.175516	11293.883484
519.538863	11410.099724
519.902152	11330.683907
520.265385	11490.491005
520.628560	11403.631924
520.991678	11380.954293
521.354739	11441.806062
521.717743	11379.976310
522.080690	11359.158865
522.443580	11488.255253
522.806413	11445.324787
523.169189	11479.012298
523.531908	11530.432067
523.894569	11357.303720
524.257174	11359.126097
524.619722	11475.271761
524.982213	11419.272104
525.344647	11470.724641
525.707025	11421.049111
526.069345	11515.570745
526.431608	11432.787437
526.793815	11544.673326
527.155964	11328.848927
527.518057	11383.681558
527.880093	11338.810247
528.242072	11406.646534
528.603995	11311.003243
528.965860	11237.730072
529.327669	11287.100612
529.689421	11231.849566
530.051117	11203.659433
530.412755	11311.719087
530.774337	11199.780265
531.135862	11182.181597
531.497331	11199.203053
531.858743	11061.967722
532.220098	11224.928061
532.581396	11093.316137
532.942638	11072.710421
533.303824	11034.059894
533.664953	11056.379603
534.026025	10967.425923
534.387040	11064.649616
534.747999	11065.569627
535.108902	11126.237392
535.469748	10883.669672
535.830537	10987.822431
536.191270	10963.256889
536.551947	10986.433593
536.912567	10986.877215
537.273131	10915.701164
537.633638	10892.690817
537.994089	10875.843281
538.354483	10831.970119
538.714821	10978.662655
539.075103	10982.907306
539.435328	10946.192583
539.795497	10776.406521
540.155609	10932.082393
540.515665	11018.936433
540.875665	10752.519014
541.235609	10822.197842
541.595496	10826.785292
541.955328	10975.252314
542.315102	10860.999603
542.674821	10812.266769
543.034483	10806.741665
543.394090	10812.823817
543.753640	10741.698177
544.113134	10964.408792
544.472571	10806.439195
544.831953	10967.622528
545.191278	10765.633576
545.550548	10797.574326
545.909761	10932.747826
546.268918	10909.064485
546.628019	10991.449542
546.987064	10854.320075
547.346053	10780.905751
547.704986	10874.887982
548.063863	10864.306600
548.422684	10852.157420
548.781449	10772.978537
549.140158	10875.560976
549.498811	10742.776984
549.857408	10606.461663
550.215949	10828.983235
550.574434	10679.966728
550.932864	10783.164188
551.291237	10841.467653
551.649555	10791.167020
552.007817	10807.265945
552.366022	10768.355799
552.724173	10759.052349
553.082267	10744.425441
553.440305	10884.020033
553.798288	10681.332880
554.156215	10839.156284
554.514086	10811.402211
554.871902	10666.277474
555.229661	10700.688391
555.587365	10677.073105
555.945014	10567.987577
556.302606	10693.648419
556.660143	10589.732594
557.017625	10751.034394
557.375050	10644.187138
557.732421	10776.214957
558.089735	10692.849396
558.446994	10697.754439
558.804197	10735.227856
559.161345	10732.624100
559.518437	10573.938659
559.875474	10669.466004
560.232455	10699.798627
560.589381	10639.498865
560.946251	10646.097736
561.303065	10748.758313
561.659825	10686.500063
562.016528	10614.288055
562.373177	10497.532411
562.729770	10606.781777
563.086307	10523.310351
563.442789	10610.068609
563.799216	10496.642647
564.155587	10540.072188
564.511904	10504.214461
564.868164	10486.378858
565.224370	10501.260344
565.580520	10421.542058
565.936615	10433.015724
566.292654	10303.190889
566.648638	10435.206106
567.004567	10388.935875
567.360441	10371.967351
567.716260	10282.280183
568.072023	10374.485408
568.427732	10327.761473
568.783385	10237.492052
569.138982	10301.401280
569.494525	10330.461011
569.850013	10202.423265
570.205445	10278.544688
570.560823	10178.959214
570.916145	10094.391338
571.271412	10166.376494
571.626625	10110.926323
571.981782	10087.737015
572.336884	10064.386390
572.691931	10067.285054
573.046923	10008.585858
573.401860	9968.193613
573.756743	9905.562318
574.111570	9951.260377
574.466342	9936.363768
574.821059	9965.166400
575.175722	9859.503816
575.530330	9865.117141
575.884882	9851.390079
576.239380	9782.001117
576.593823	9760.629145
576.948211	9775.752606
577.302544	9654.754832
577.656823	9674.067492
578.011047	9667.718159
578.365216	9644.347370
578.719330	9562.675636
579.073389	9579.944109
579.427394	9525.378659
579.781344	9507.006174
580.135239	9447.538203
580.489080	9459.548752
580.842866	9367.971151
581.196597	9371.522644
581.550273	9403.503724
581.903895	9378.570177
582.257463	9437.297099
582.610975	9320.107916
582.964434	9349.845683
583.317837	9270.661758
583.671186	9250.000589
584.024481	9244.084795
584.377721	9168.835492
584.730906	9143.428077
585.084037	9171.640894
585.437113	9106.058003
585.790135	9129.002815
586.143103	9029.994553
586.496016	9000.065223
586.848874	9055.044047
587.201679	9048.722440
587.554428	8932.062578
587.907124	8986.018048
588.259765	8951.483623
588.612352	8959.294891
588.964884	8828.285385
589.317362	8843.779371
589.669786	8847.257767
590.022155	8899.045541
590.374470	8906.080471
590.726731	8845.263991
591.078937	8699.458698
591.431090	8812.395668
591.783188	8686.565947
592.135232	8680.887088
592.487222	8681.333230
592.839157	8729.622442
593.191038	8662.587699
593.542866	8608.579298
593.894639	8507.426025
594.246358	8561.792349
594.598022	8574.286848
594.949633	8473.312537
595.301190	8456.190258
595.652692	8473.199111
596.004141	8587.459383
596.355535	8359.987398
596.706876	8339.520314
597.058162	8276.243751
597.409395	8348.233948
597.760573	8411.147548
598.111698	8328.664189
598.462768	8310.369842
598.813785	8275.066641
599.164748	8245.422136
599.515657	8235.901917
599.866511	8144.306672
600.217312	8271.366434
600.568060	8128.532902
600.918753	8230.696926
601.269392	8204.165333
601.619978	8112.040767
601.970510	8177.021240
602.320988	8178.422681
602.671412	8234.946618
603.021783	8168.529417
603.372100	8140.861044
603.722363	8147.472517
604.072572	8120.701469
604.422728	8127.859908
604.772830	8057.250987
605.122878	8066.796411
605.472872	8061.735093
605.822813	8092.869259
606.172701	8036.884725
606.522534	8111.372814
606.872314	8116.779452
607.222041	8083.283505
607.571714	8137.816187
607.921333	8096.650124
608.270899	8101.519879
608.620411	8190.634876
608.969870	8099.155578
609.319276	8092.889424
609.668627	8100.678006
610.017926	8140.503122
610.367171	8181.225563
610.716362	8163.808376
611.065500	8152.554000
611.414585	8186.843928
611.763616	8162.442223
612.112594	8149.317579
612.461518	8163.710073
612.810389	8225.217192
613.159207	8164.254518
613.507971	8108.481712
613.856682	8231.758089
614.205340	8184.169596
614.553945	8265.606916
614.902496	8161.486925
615.250994	8220.627221
615.599439	8194.718211
615.947830	8211.643885
616.296169	8187.118671
616.644454	8200.339097
616.992686	8200.097122
617.340864	8253.288857
617.688990	8157.655648
618.037063	8250.654854
618.385082	8196.558232
618.733048	8280.974874
619.080961	8222.638641
619.428821	8239.125735
619.776628	8243.698062
620.124382	8199.920682
620.472083	8177.928648
620.819731	8208.525931
621.167326	8096.050227
621.514868	8103.929551
621.862357	7995.025504
622.209793	8012.069645
622.557176	7943.600694
622.904506	7914.828308
623.251783	7848.637958
623.599007	7811.371228
623.946179	7809.916855
624.293297	7763.366841
624.640363	7685.019748
624.987376	7669.767737
625.334336	7616.371836
625.681243	7567.467602
626.028097	7553.959831
626.374899	7526.455295
626.721647	7523.763319
627.068343	7452.872093
627.414987	7423.525016
627.761577	7379.319138
628.108115	7418.282216
628.454600	7306.114022
628.801032	7359.567897
629.147412	7315.551062
629.493739	7308.783313
629.840014	7243.593632
630.186236	7297.881818
630.532405	7184.160949
630.878521	7235.943681
631.224585	7195.858947
631.570597	7116.435568
631.916556	7152.353789
632.262462	7148.966133
632.608316	7105.098013
632.954117	7085.881134
633.299866	7064.564615
633.645562	7063.697537
633.991206	6975.008517
634.336797	6925.998419
634.682336	6875.914556
635.027823	6854.401432
635.373257	6844.813157
635.718639	6773.402693
636.063968	6788.546319
636.409245	6678.097158
636.754470	6675.745460
637.099642	6635.527135
637.444762	6580.013949
637.789829	6590.053407
638.134845	6530.623244
638.479808	6516.006418
638.824719	6525.077975
639.169577	6443.318021
639.514383	6469.390869
639.859137	6398.983593
640.203839	6406.631024
640.548489	6394.476802
640.893086	6368.149376
641.237632	6341.496796
641.582125	6356.342994
641.926566	6334.114026
642.270955	6343.520819
642.615292	6337.922617
642.959576	6355.743096
643.303809	6345.098700
643.647990	6350.344021
643.992118	6343.999728
644.336195	6288.284896
644.680219	6313.112579
645.024192	6301.459952
645.368112	6401.032822
645.711981	6419.987561
646.055797	6495.073027
646.399562	6459.512728
646.743274	6583.194917
647.086935	6635.383462
647.430544	6627.383151
647.774101	6648.654299
648.117606	6658.988665
648.461059	6647.394011
648.804460	6610.684329
649.147810	6520.361975
649.491108	6488.995916
649.834354	6461.375434
650.177548	6378.788731
650.520690	6291.498632
650.863781	6268.876454
651.206820	6291.264218
651.549807	6207.639038
651.892742	6152.007384
652.235626	6160.126162
652.578458	6145.022866
652.921238	6050.884359
653.263967	6092.433549
653.606644	6033.941041
653.949269	6032.927769
654.291843	5977.129757
654.634365	6023.710019
654.976836	5980.401466
655.319255	5978.626980
655.661622	5956.372806
656.003938	5948.105314
656.346203	5914.266569
656.688416	5944.780673
657.030577	5897.776955
657.372687	5867.847624
657.714746	5854.198700
658.056753	5896.531790
658.398708	5840.290157
658.740612	5829.333209
659.082465	5874.476742
659.424266	5867.706472
659.766016	5870.753849
660.107715	5842.994736
660.449362	5855.539647
660.790958	5853.404718
661.132503	5838.230845
661.473996	5877.466146
661.815438	5865.022058
662.156829	5861.251274
662.498168	5853.059399
662.839456	5831.974773
663.180693	5861.750349
663.521879	5863.469382
663.863013	5853.596282
664.204097	5875.532863
664.545129	5915.736065
664.886110	5909.180045
665.227040	5941.733296
665.567918	5907.259365
665.908746	5932.225679
666.249522	5938.779179
666.590248	5925.105050
666.930922	5953.111180
667.271545	5967.982584
667.612118	5966.780268
667.952639	5940.760353
668.293109	5966.818077
668.633528	5916.459471
668.973896	5924.250574
669.314213	5912.182052
669.654480	5897.834928
669.994695	5891.251181
670.334859	5880.987392
670.674973	5872.309045
671.015035	5875.142174
671.355047	5872.374580
671.695008	5863.885277
672.034918	5829.877653
672.374777	5847.481363
672.714585	5830.356563
673.054342	5831.100133
673.394049	5823.548485
673.733705	5856.782292
674.073310	5841.179920
674.412864	5802.015196
674.752368	5794.166120
675.091820	5801.995032
675.431223	5735.582871
675.770574	5734.478858
676.109875	5688.034708
676.449125	5695.798085
676.788324	5658.750645
677.127473	5597.926603
677.466571	5591.239513
677.805619	5580.310291
678.144616	5567.694804
678.483562	5548.452719
678.822458	5516.451475
679.161303	5514.755127
679.500098	5500.806254
679.838842	5483.031145
680.177535	5488.556250
680.516179	5502.915977
680.854771	5517.222771
681.193314	5594.022230
681.531805	5702.898550
681.870247	5851.789029
682.208638	5956.743331
682.546978	5967.158355
682.885268	5949.685716
683.223508	5858.329926
683.561697	5807.247914
683.899836	5777.898316
684.237925	5737.584209
684.575963	5698.921079
684.913951	5652.686137
685.251889	5710.755188
685.589776	5687.757444
685.927614	5653.898534
686.265401	5723.456375
686.603137	5711.836516
686.940824	5780.819665
687.278460	5806.015352
687.616046	5813.317463
687.953582	5877.756012
688.291068	5860.147262
688.628504	5929.198467
688.965889	5892.095574
689.303224	5834.883519
689.640510	5785.984327
689.977745	5711.292071
690.314930	5612.651814
690.652065	5553.577052
690.989150	5464.671263
691.326185	5389.825252
691.663170	5337.987067
692.000105	5257.275673
692.336990	5181.716339
692.673825	5157.039891
693.010610	5086.214200
693.347345	5018.869426
693.684030	5005.016335
694.020665	4961.077638
694.357251	4871.670254
694.693786	4880.956059
695.030272	4848.891800
695.366707	4812.164474
695.703093	4775.928660
696.039429	4799.279285
696.375716	4782.615751
696.711952	4760.661526
697.048139	4742.319287
697.384276	4723.765321
697.720363	4736.106065
698.056400	4743.791304
698.392388	4692.263150
698.728326	4672.058206
699.064214	4652.662366
699.400053	4645.022498
699.735842	4611.410604
700.071581	4585.352880
700.407270	4560.031164
700.742910	4543.972569
701.078501	4490.223786
701.414042	4483.904700
701.749533	4458.252789
702.084974	4394.678798
702.420366	4448.238537
702.755709	4388.233682
703.091002	4337.418852
703.426246	4383.260584
703.761440	4335.777956
704.096584	4301.624139
704.431679	4325.153724
704.766725	4307.232422
705.101721	4293.686842
705.436668	4323.343950
705.771565	4272.347638
706.106413	4296.207419
706.441212	4329.862162
706.775961	4335.997246
707.110661	4316.435049
707.445311	4347.334801
707.779913	4369.286506
708.114465	4380.094739
708.448967	4400.839088
708.783421	4460.478458
709.117825	4503.489583
709.452180	4505.838760
709.786485	4551.738466
710.120742	4633.725272
710.454949	4623.375783
710.789107	4684.565308
711.123216	4758.145990
711.457275	4744.953290
711.791286	4818.912058
712.125247	4831.343544
712.459159	4736.973144
712.793023	4813.021470
713.126837	4768.356847
713.460602	4766.587402
713.794318	4685.555895
714.127985	4692.028737
714.461602	4605.121765
714.795171	4581.299792
715.128691	4514.688506
715.462162	4460.362512
715.795584	4408.012649
716.128957	4389.083117
716.462281	4341.560159
716.795556	4315.991427
717.128782	4275.241260
717.461960	4208.947566
717.795088	4217.134400
718.128167	4180.596117
718.461198	4120.019092
718.794180	4114.267135
719.127113	4094.742747
719.459997	4071.250970
719.792833	4031.839229
720.125619	4024.073331
720.458357	3989.324658
720.791046	3989.425481
721.123686	3965.472438
721.456278	3922.637754
721.788821	3937.178962
722.121315	3912.651228
722.453761	3887.931931
722.786158	3898.810741
723.118506	3920.386879
723.450805	3873.214282
723.783056	3894.989546
724.115259	3905.674272
724.447412	3914.634922
724.779518	3907.967997
725.111574	3910.715425
725.443582	3938.837502
725.775542	3923.467024
726.107453	3972.860249
726.439315	3970.732882
726.771129	3984.896004
727.102895	4022.387065
727.434612	4068.228798
727.766281	4080.972835
728.097901	4083.246395
728.429473	4085.005758
728.760996	4090.727467
729.092471	4084.322682
729.423897	4071.664344
729.755276	4077.076023
730.086606	4072.632246
730.417887	4113.941981
730.749120	4175.943132
731.080305	4234.730548
731.411442	4263.205505
731.742530	4235.116196
732.073570	4236.255497
732.404562	4286.160399
732.735506	4277.645890
733.066401	4242.239346
733.397249	4184.573588
733.728048	4103.418572
734.058798	4022.707179
734.389501	3953.991211
734.720156	3895.435688
735.050762	3850.632433
735.381320	3840.933253
735.711831	3793.564051
736.042293	3763.967437
736.372707	3785.112557
736.703073	3755.228597
737.033391	3748.717947
737.363661	3761.940893
737.693883	3788.449801
738.024056	3796.281233
738.354182	3793.674957
738.684260	3850.629913
739.014290	3875.145044
739.344272	3870.716390
739.674207	3909.351793
740.004093	3911.887494
740.333931	3906.848860
740.663722	3905.999426
740.993464	3903.471287
741.323159	3878.920868
741.652806	3848.996579
741.982405	3822.822908
742.311956	3794.955410
742.641460	3782.896970
742.970915	3760.665481
743.300323	3719.587639
743.629683	3687.467927
743.958996	3678.708923
744.288260	3651.322854
744.617477	3619.243472
744.946647	3606.738890
745.275768	3578.200918
745.604842	3574.893921
745.933869	3535.751882
746.262847	3525.556148
746.591778	3555.114954
746.920662	3532.414638
747.249498	3501.542612
747.578286	3542.774209
747.907027	3561.479410
748.235720	3556.521436
748.564365	3585.404727
748.892963	3579.907348
749.221514	3565.784556
749.550017	3542.781771
749.878473	3540.689692
750.206881	3509.847913
750.535242	3505.933457
750.863555	3508.007892
751.191821	3502.182838
751.520039	3487.765138
751.848210	3462.650110
752.176334	3497.943228
752.504411	3500.476408
752.832440	3463.310501
753.160421	3449.936320
753.488356	3454.979994
753.816243	3465.528609
754.144082	3424.168462
754.471875	3410.680855
754.799620	3431.583999
755.127318	3420.929521
755.454969	3422.005807
755.782572	3424.685180
756.110129	3405.009557
756.437638	3392.245355
756.765100	3405.501069
757.092515	3412.334353
757.419882	3420.115374
757.747203	3396.263155
758.074477	3394.435737
758.401703	3408.724887
758.728882	3428.806323
759.056014	3435.251439
759.383099	3439.972479
759.710138	3439.002057
760.037129	3454.601908
760.364073	3480.861278
760.690970	3470.179073
761.017820	3447.297276
761.344623	3465.090028
761.671379	3505.998992
761.998088	3555.780386
762.324751	3673.440917
762.651366	3913.505704
762.977935	4362.853993
763.304456	4778.933188
763.630931	4861.676166
763.957359	4527.230897
764.283740	4200.969940
764.610074	4011.097401
764.936362	3822.361643
765.262602	3672.977131
765.588796	3571.045000
765.914943	3485.839418
766.241044	3401.858836
766.567097	3372.957901
766.893104	3331.045748
767.219064	3301.469298
767.544978	3275.731687
767.870845	3223.528018
768.196665	3208.840617
768.522438	3212.548385
768.848165	3208.212993
769.173846	3177.275432
769.499479	3157.990498
769.825066	3144.092037
770.150607	3125.908595
770.476101	3141.967190
770.801548	3136.530306
771.126949	3093.141095
771.452303	3077.397571
771.777611	3082.549630
772.102872	3087.479879
772.428087	3064.973647
772.753256	3053.189950
773.078378	3044.171326
773.403453	3013.112777
773.728482	3003.942918
774.053465	3023.154756
774.378401	3012.517921
774.703291	2982.364259
775.028135	2983.143118
775.352932	2979.601707
775.677683	2968.012094
776.002388	2968.347331
776.327046	2963.621249
776.651658	2956.785445
776.976224	2942.060234
777.300743	2944.842951
777.625216	2937.624019
777.949643	2928.779315
778.274024	2933.482711
778.598359	2921.890578
778.922647	2926.777977
779.246889	2922.684560
779.571086	2911.077303
779.895236	2906.194945
780.219339	2914.522932
780.543397	2924.577513
780.867409	2929.117072
781.191374	2920.431164
781.515294	2917.184661
781.839167	2920.065680
782.162995	2910.111922
782.486776	2919.591812
782.810511	2919.150711
783.134201	2902.827455
783.457844	2908.649987
783.781441	2903.260994
784.104993	2882.685524
784.428498	2883.837428
784.751958	2895.169942
785.075372	2889.622152
785.398739	2878.889536
785.722061	2894.660785
786.045337	2899.021383
786.368568	2889.609549
786.691752	2879.910369
787.014891	2926.198244
787.337983	2951.701441
787.661030	2977.522231
787.984031	3040.234185
788.306987	3080.588622
788.629897	3077.621903
788.952760	3058.571382
789.275579	3044.226779
789.598351	2991.947493
789.921078	2951.078859
790.243759	2942.188784
790.566395	2921.991401
790.888984	2902.777043
791.211529	2885.911863
791.534027	2875.075903
791.856480	2869.308823
792.178888	2855.279292
792.501249	2849.489526
792.823566	2842.424349
793.145836	2840.274297
793.468062	2840.758248
793.790241	2835.734738
794.112375	2839.470233
794.434464	2854.190402
794.756507	2856.726103
795.078505	2862.694829
795.400457	2874.047507
795.722364	2909.297776
796.044226	2931.559511
796.366042	2933.775098
796.687812	2921.973757
797.009538	2940.409257
797.331218	2929.026331
797.652852	2914.996800
797.974442	2899.427196
798.295986	2894.043244
798.617484	2887.802296
798.938938	2875.055738
799.260346	2863.690457
799.581709	2853.945906
799.903026	2851.821060
800.224299	2846.605986
800.545526	2839.162723
800.866708	2824.770228
801.187845	2816.359063
801.508936	2817.820998
801.829983	2822.617656
802.150984	2809.288845
802.471940	2797.547998
802.792851	2798.105045
803.113717	2798.578914
803.434538	2800.648307
803.755314	2795.342493
804.076045	2790.518109
804.396731	2789.890485
804.717372	2788.453756
805.037967	2783.465534
805.358518	2790.629014
805.679024	2802.914306
805.999485	2798.004222
806.319901	2802.992444
806.640272	2793.711680
806.960598	2799.337607
807.280879	2808.144503
807.601115	2815.733960
807.921306	2800.693678
808.241453	2795.218985
808.561554	2805.162661
808.881611	2806.783392
809.201623	2801.038997
809.521590	2800.958338
809.841513	2793.976340
810.161390	2796.108748
810.481223	2795.360137
810.801011	2786.936369
811.120755	2782.147273
811.440453	2782.253137
811.760107	2784.967798
812.079716	2783.498302
812.399281	2772.269132
812.718801	2765.781167
813.038276	2761.271855
813.357707	2767.293513
813.677093	2776.024791
813.996434	2766.638163
814.315731	2763.515168
814.634983	2758.668099
814.954191	2761.907040
815.273354	2772.972373
815.592473	2780.418157
815.911547	2780.327416
816.230577	2789.046092
816.549562	2796.978347
816.868502	2799.430869
817.187399	2807.499235
817.506250	2818.194043
817.825058	2812.709268
818.143821	2822.292501
818.462539	2839.439986
818.781213	2863.332535
819.099843	2894.242370
819.418429	2948.034002
819.736970	3002.380161
820.055466	3069.296437
820.373919	3155.732061
820.692327	3279.976338
821.010691	3434.631377
821.329011	3844.981300
821.647286	4674.051982
821.965517	5951.261076
822.283704	6673.267733
822.601847	6644.853269
822.919945	6012.730386
823.237999	5512.131206
823.556010	4980.070185
823.873976	4474.071929
824.191897	4098.087552
824.509775	3830.225843
824.827609	3597.125409
825.145398	3480.959581
825.463144	3473.685196
825.780845	3557.078483
826.098502	3651.627844
826.416116	3905.223088
826.733685	4201.627811
827.051210	4256.256275
827.368692	4147.621930
827.686129	3900.502048
828.003522	3612.816001
828.320872	3377.918396
828.638177	3204.994216
828.955439	3086.022985
829.272656	3016.765093
829.589830	2951.598098
829.906960	2911.314237
830.224046	2872.285624
830.541088	2844.539113
830.858086	2827.908347
831.175041	2814.733291
831.491952	2814.887046
831.808819	2825.231494
832.125642	2846.205215
832.442421	2885.047305
832.759157	2959.268213
833.075849	3115.191102
833.392497	3370.742313
833.709101	3548.168244
834.025662	3500.075636
834.342179	3352.382431
834.658653	3201.624205
834.975083	3064.378791
835.291469	2980.194043
835.607811	2905.232085
835.924110	2854.691997
836.240366	2812.545430
836.556578	2775.147631
836.872746	2753.450504
837.188871	2735.385530
837.504952	2724.547049
837.820990	2713.451469
838.136984	2702.549974
838.452935	2696.321628
838.768842	2696.891279
839.084706	2710.078937
839.400526	2783.329423
839.716303	2899.180180
840.032037	2975.213383
840.347727	2956.994653
840.663373	2900.717732
840.978977	2830.328101
841.294537	2766.706218
841.610054	2724.007645
841.925527	2710.179760
842.240957	2685.210925
842.556344	2669.631239
842.871687	2656.007521
843.186987	2647.190543
843.502244	2644.853968
843.817458	2641.141158
844.132629	2629.768315
844.447756	2621.326903
844.762840	2615.247272
845.077881	2618.503857
845.392879	2616.741974
845.707833	2613.742487
846.022745	2608.799636
846.337613	2610.811056
846.652438	2609.097064
846.967221	2611.539503
847.281960	2608.638319
847.596656	2610.077568
847.911309	2607.171343
848.225919	2606.014398
848.540485	2602.140272
848.855009	2600.249839
849.169490	2602.601537
849.483928	2601.525251
849.798323	2601.406784
850.112675	2599.153388
850.426984	2596.728593
850.741251	2599.319746
851.055474	2598.926536
851.369654	2602.510797
851.683792	2602.972062
851.997887	2599.458378
852.311938	2596.398398
852.625947	2600.632967
852.939914	2601.371496
853.253837	2602.543564
853.567718	2598.026690
853.881555	2599.206320
854.195350	2601.195055
854.509103	2597.436875
854.822812	2595.359920
855.136479	2596.726072
855.450103	2596.554673
855.763685	2598.931577
856.077224	2599.692792
856.390720	2596.794128
856.704173	2598.359406
857.017584	2601.452154
857.330953	2604.817124
857.644278	2602.218410
857.957561	2604.134048
858.270802	2599.818820
858.584000	2598.485435
858.897155	2604.706219
859.210268	2603.224120
859.523339	2598.276227
859.836367	2596.287492
860.149352	2595.352358
860.462295	2597.721700
860.775195	2593.535022
861.088054	2594.301277
861.400869	2593.270362
861.713642	2589.514702
862.026373	2593.802203
862.339062	2594.515527
862.651708	2598.369489
862.964312	2602.049531
863.276873	2598.440065
863.589392	2602.447782
863.901869	2602.611620
864.214303	2609.853237
864.526696	2608.724019
864.839045	2611.010182
865.151353	2609.979266
865.463619	2613.820625
865.775842	2614.294494
866.088023	2614.460852
866.400162	2612.958588
866.712258	2616.157200
867.024313	2614.405399
867.336325	2606.624378
867.648296	2612.885491
867.960224	2614.959926
868.272110	2612.270470
868.583954	2607.554471
868.895755	2609.865840
869.207515	2616.036212
869.519233	2618.972684
869.830909	2618.103085
870.142542	2614.642333
870.454134	2613.782817
870.765684	2618.947479
871.077191	2619.640637
871.388657	2625.185907
871.700081	2620.769856
872.011463	2621.636934
872.322803	2622.443519
872.634101	2623.696246
872.945357	2630.282513
873.256571	2637.602268
873.567744	2635.674027
873.878874	2635.520272
874.189963	2632.997174
874.501010	2639.356590
874.812015	2641.045377
875.122979	2638.151754
875.433900	2631.439458
875.744780	2634.706126
876.055618	2636.316774
876.366415	2639.059162
876.677169	2637.642598
876.987882	2636.001702
877.298554	2633.859212
877.609183	2640.200983
877.919771	2646.078969
878.230317	2649.907725
878.540822	2660.592451
878.851285	2670.067299
879.161707	2689.556400
879.472087	2717.950699
879.782425	2761.196237
880.092722	2851.463138
880.402977	3017.211235
880.713191	3253.480034
881.023363	3526.526570
881.333494	3710.967266
881.643583	3858.393290
881.953631	3848.479861
882.263637	3676.213551
882.573602	3475.469764
882.883526	3353.723378
883.193408	3252.010537
883.503248	3159.051661
883.813048	3060.497103
884.122806	2964.518575
884.432522	2892.984602
884.742197	2840.145748
885.051831	2806.775830
885.361424	2777.539658
885.670975	2743.710995
885.980485	2723.856411
886.289954	2709.519369
886.599382	2697.879345
886.908768	2688.074301
887.218113	2674.460665
887.527417	2664.960610
887.836680	2655.037099
888.145901	2650.681542
888.455082	2643.162661
888.764221	2635.197638
889.073319	2631.936012
889.382376	2629.170939
889.691392	2628.550877
890.000366	2628.659262
890.309300	2629.470887
890.618193	2631.106742
890.927044	2629.188583
891.235855	2634.522123
891.544625	2631.641104
891.853353	2634.391053
892.162041	2637.085550
892.470687	2654.850576
892.779293	2663.158398
893.087858	2671.136024
893.396381	2691.424147
893.704864	2727.758264
894.013306	2785.345885
894.321707	2864.423945
894.630068	2905.179153
894.938387	2920.773962
895.246665	2909.582601
895.554903	2870.853936
895.863100	2832.531085
896.171256	2784.367901
896.479371	2737.449882
896.787446	2705.083154
897.095480	2689.886596
897.403473	2685.715041
897.711425	2674.432938
898.019336	2658.160094
898.327207	2647.205667
898.635038	2644.503608
898.942827	2645.297590
899.250576	2636.170581
899.558284	2630.597585
899.865952	2626.242028
900.173579	2623.209774
900.481165	2622.113323
900.788711	2615.761469
901.096216	2611.380707
901.403681	2608.572784
901.711105	2610.664863
902.018489	2604.905345
902.325832	2610.410285
902.633135	2612.202415
902.940397	2620.137191
903.247619	2652.151038
903.554800	2711.573639
903.861941	2819.582881
904.169041	2929.164963
904.476101	2983.022130
904.783121	2974.258084
905.090100	2923.304622
905.397039	2853.363653
905.703938	2793.124385
906.010796	2739.988103
906.317614	2700.215920
906.624391	2671.372958
906.931129	2647.765235
907.237826	2631.507513
907.544483	2615.350615
907.851099	2607.105808
908.157675	2597.575507
908.464211	2591.435382
908.770707	2581.471541
909.077163	2580.952302
909.383578	2577.461303
909.689954	2575.376786
909.996289	2575.540623
910.302584	2577.118505
910.608839	2572.034501
910.915054	2575.533062
911.221229	2574.101374
911.527363	2579.369380
911.833458	2576.183371
912.139513	2577.814184
912.445527	2577.980542
912.751502	2583.460276
913.057436	2588.962696
913.363331	2591.967223
913.669186	2598.064499
913.975000	2609.177722
914.280775	2624.192799
914.586510	2643.462610
914.892205	2674.508556
915.197859	2726.003942
915.503475	2795.239149
915.809050	2853.764425
916.114585	2868.451827
916.420081	2877.359545
916.725536	2879.827190
917.030952	2856.267358
917.336328	2817.556337
917.641665	2776.584359
917.946961	2734.773029
918.252218	2708.001982
918.557435	2687.187058
918.862612	2669.822803
919.167750	2658.177738
919.472848	2643.724750
919.777906	2626.962913
920.082925	2617.092334
920.387904	2612.048660
920.692843	2607.420880
920.997743	2602.674634
921.302603	2596.060640
921.607423	2593.116606
921.912204	2587.220977
922.216946	2587.188209
922.521647	2583.563620
922.826310	2580.591860
923.130932	2577.642785
923.435516	2576.251426
923.740059	2571.875705
924.044564	2568.543502
924.349028	2570.862433
924.653454	2561.639642
924.957840	2561.430434
925.262186	2558.519168
925.566493	2557.710062
925.870761	2555.600339
926.174989	2557.490772
926.479178	2555.880123
926.783328	2556.182593
927.087438	2554.450956
927.391509	2554.950031
927.695541	2554.559341
927.999533	2551.002807
928.303486	2550.418033
928.607400	2549.848383
928.911275	2551.771583
929.215110	2549.790410
929.518906	2548.585574
929.822663	2551.305276
930.126381	2547.867209
930.430060	2549.699669
930.733699	2550.324772
931.037299	2551.015410
931.340861	2552.016079
931.644383	2551.479196
931.947866	2549.061963
932.251309	2552.817622
932.554714	2549.671943
932.858080	2550.123126
933.161407	2548.867878
933.464694	2550.649926
933.767943	2550.234031
934.071153	2550.140770
934.374323	2549.341747
934.677455	2546.120450
934.980548	2545.550799
935.283602	2547.312682
935.586617	2546.899308
935.889593	2546.536345
936.192530	2548.204967
936.495428	2547.262271
936.798287	2550.559186
937.101108	2548.721685
937.403890	2552.172355
937.706632	2553.205791
938.009336	2554.224104
938.312002	2560.245763
938.614628	2565.249108
938.917216	2563.693912
939.219765	2562.642831
939.522275	2567.850343
939.824747	2566.010322
940.127179	2561.551422
940.429573	2558.249466
940.731929	2558.171328
941.034246	2557.410114
941.336524	2558.279713
941.638763	2556.719476
941.940964	2559.829867
942.243126	2553.256203
942.545250	2553.301573
942.847335	2552.966337
943.149381	2550.995245
943.451389	2554.604712
943.753359	2551.012889
944.055290	2550.244113
944.357182	2549.976932
944.659036	2549.540872
944.960851	2551.764021
945.262628	2549.140101
945.564367	2551.229659
945.866067	2550.176058
946.167729	2550.536500
946.469352	2549.787889
946.770937	2551.758980
947.072484	2550.317210
947.373992	2550.324772
947.675462	2548.300749
947.976893	2549.377035
948.278286	2547.042981
948.579641	2548.978784
948.880958	2548.194884
949.182236	2545.787733
949.483476	2546.969884
949.784678	2550.231511
950.085841	2546.415357
950.386967	2548.381407
950.688054	2545.944009
950.989103	2550.173537
951.290114	2546.296890
951.591087	2549.349309
951.892021	2552.351316
952.192917	2549.321582
952.493776	2552.719320
952.794596	2555.461708
953.095378	2551.932900
953.396122	2555.522202
953.696828	2554.118240
953.997496	2550.297046
954.298126	2549.487940
954.598718	2551.088507
954.899272	2545.712116
955.199788	2545.608773
955.500266	2548.406613
955.800706	2540.025695
956.101108	2542.291693
956.401472	2539.561908
956.701798	2537.805066
957.002087	2538.720036
957.302337	2539.856816
957.602550	2540.073586
957.902724	2538.934285
958.202861	2542.543751
958.502960	2539.057793
958.803022	2538.543595
959.103045	2541.837989
959.403031	2540.428987
959.702979	2537.873122
960.002889	2537.489994
960.302762	2538.142824
960.602596	2534.941691
960.902393	2538.341949
961.202153	2537.943698
961.501875	2536.272556
961.801559	2534.372041
962.101205	2536.234747
962.400814	2533.900693
962.700385	2536.396064
962.999918	2533.958666
963.299414	2534.729963
963.598873	2536.786753
963.898293	2535.027391
964.197677	2535.781043
964.497022	2535.894469
964.796331	2535.579397
965.095601	2535.536547
965.394835	2537.810107
965.694030	2537.187525
965.993189	2536.799356
966.292309	2535.861702
966.591393	2534.588810
966.890439	2535.793646
967.189447	2536.680889
967.488419	2533.376413
967.787353	2535.244160
968.086249	2535.851619
968.385108	2534.810621
968.683930	2535.297092
968.982714	2534.084695
969.281462	2531.740558
969.580172	2535.420601
969.878844	2538.067206
970.177480	2535.849099
970.476078	2535.755837
970.774639	2537.593338
971.073162	2536.567463
971.371649	2534.044366
971.670098	2533.872966
971.968510	2534.732483
972.266885	2533.084026
972.565223	2535.294572
972.863524	2536.811959
973.161788	2536.696013
973.460014	2534.795498
973.758204	2536.731301
974.056356	2534.649304
974.354471	2534.132586
974.652550	2538.147865
974.950591	2537.653832
975.248595	2534.593851
975.546563	2535.707946
975.844493	2533.966228
976.142386	2537.895807
976.440243	2538.261291
976.738062	2534.551002
977.035845	2533.857843
977.333590	2534.596372
977.631299	2532.088398
977.928971	2537.411856
978.226606	2534.702236
978.524204	2534.959335
978.821765	2535.208872
979.119290	2534.414890
979.416777	2533.963707
979.714228	2536.983358
980.011642	2534.460261
980.309020	2535.423121
980.606360	2535.145858
980.903664	2534.336753
981.200931	2533.532688
981.498162	2534.258615
981.795356	2534.130065
982.092513	2539.007382
982.389633	2540.476878
982.686717	2544.376210
982.983764	2545.371838
983.280775	2549.785368
983.577749	2545.933927
983.874686	2545.449976
984.171587	2542.266488
984.468451	2540.045859
984.765279	2538.160468
985.062070	2536.116280
985.358824	2536.017977
985.655543	2535.579397
985.952224	2534.361958
986.248869	2535.886907
986.545478	2530.059333
986.842050	2534.427493
987.138586	2527.994981
987.435086	2529.900537
987.731549	2530.497914
988.027975	2534.747607
988.324366	2532.635363
988.620719	2532.589993
988.917037	2531.911957
989.213318	2532.738707
989.509563	2528.947759
989.805772	2532.511855
990.101944	2528.673016
990.398080	2531.039838
990.694180	2530.520599
990.990244	2531.470857
991.286271	2532.176618
991.582262	2535.937319
991.878217	2531.153264
992.174136	2532.322812
992.470019	2532.549663
992.765865	2529.242667
993.061676	2533.366330
993.357450	2533.628470
993.653188	2529.774508
993.948890	2528.846936
994.244556	2532.405991
994.540186	2532.123686
994.835780	2533.837678
995.131337	2528.874662
995.426859	2530.162677
995.722345	2531.564118
996.017795	2535.087884
996.313208	2532.736186
996.608586	2531.357431
996.903928	2534.051927
997.199234	2534.833306
997.494504	2534.041845
997.789738	2532.789118
998.084936	2535.607123
998.380099	2534.853471
998.675225	2531.138140
998.970316	2532.645445
999.265371	2534.404808
999.560390	2533.053779
999.855373	2530.432379
1000.150320	2531.286854
1000.445232	2528.378109
1000.740108	2531.049920
1001.034948	2530.528161
1001.329752	2530.200486
1001.624521	2530.071936
1001.919254	2524.831657
1002.213951	2530.664272
1002.508613	2526.931298
1002.803239	2531.216278
1003.097829	2526.928777
1003.392384	2531.458254
1003.686903	2528.678057
1003.981386	2530.439941
1004.275834	2528.746113
1004.570246	2531.085208
1004.864623	2531.929602
1005.158964	2530.006401
1005.453270	2530.167718
1005.747540	2530.749972
1006.041775	2532.423635
1006.335974	2529.177132
1006.630138	2528.746113
1006.924266	2532.738707
1007.218359	2531.312060
1007.512416	2529.275434
1007.806438	2529.663603
1008.100425	2531.309540
1008.394376	2528.541946
1008.688292	2530.951618
1008.982172	2530.104704
1009.276017	2528.781401
1009.569827	2530.356762
1009.863602	2530.316432
1010.157341	2530.460105
1010.451045	2530.404653
1010.744714	2529.661082
1011.038347	2527.465660
1011.331945	2528.887265
1011.625508	2528.945238
1011.919036	2530.513037
1012.212528	2528.385670
1012.505986	2530.419776
1012.799408	2527.490866
1013.092795	2528.312574
1013.386147	2532.244674
1013.679464	2528.967924
1013.972745	2530.810465
1014.265992	2528.214271
1014.559204	2530.717204
1014.852380	2529.411545
1015.145521	2531.145702
1015.438628	2528.829292
1015.731699	2529.194776
1016.024736	2529.943387
1016.317737	2527.710156
1016.610703	2526.036493
1016.903635	2525.882737
1017.196531	2524.766122
1017.489393	2527.563962
1017.782219	2524.398118
1018.075011	2528.153777
1018.367768	2528.574714
1018.660490	2529.860208
1018.953177	2529.860208
1019.245829	2529.860208
