Dividing Wavelength (nm)	Counts (n)	Blue Motor Position (mm): 0.000000	Red Motor Position (mm): 29.500000	
326.493990	2079.123081
326.888308	2079.123081
327.282561	2079.123081
327.676750	2053.140974
328.070874	2056.999977
328.464933	2063.679506
328.858929	2073.540003
329.252859	2085.779924
329.646726	2099.496904
330.040528	2117.803854
330.434265	2134.074178
330.827938	2155.899854
331.221547	2174.539520
331.615091	2193.847139
332.008571	2218.021993
332.401986	2238.209293
332.795338	2257.002715
333.188625	2276.411157
333.581847	2298.435958
333.975006	2313.612352
334.368100	2331.261432
334.761129	2348.479493
335.154095	2362.398118
335.546996	2387.482900
335.939833	2417.490368
336.332606	2428.838005
336.725315	2441.077927
337.117960	2451.056891
337.510540	2458.885803
337.903056	2467.322174
338.295508	2472.645632
338.687896	2483.043012
339.080220	2487.849752
339.472480	2491.779332
339.864676	2498.025321
340.256807	2500.155209
340.648875	2502.096053
341.040879	2505.650067
341.432818	2502.580004
341.824694	2505.546723
342.216506	2504.581342
342.608253	2505.566887
342.999937	2503.525220
343.391557	2505.115704
343.783113	2497.984992
344.174605	2499.542709
344.566033	2498.161433
344.957397	2498.877276
345.348697	2496.281082
345.739934	2493.931904
346.131106	2491.451657
346.522215	2492.689260
346.913260	2486.370174
347.304241	2491.237408
347.695159	2486.090390
348.086012	2484.504947
348.476802	2482.203660
348.867528	2482.924545
349.258191	2480.482106
349.648789	2481.636530
350.039324	2480.242651
350.429796	2479.857003
350.820203	2480.620738
351.210548	2477.386837
351.600828	2479.693165
351.991045	2478.720223
352.381198	2474.571353
352.771288	2476.355922
353.161314	2478.022023
353.551276	2477.989255
353.941175	2477.096971
354.331010	2480.015799
354.720782	2478.377424
355.110490	2476.726446
355.500135	2479.965388
355.889717	2477.114615
356.279235	2477.898515
356.668689	2481.356746
357.058080	2482.561582
357.447408	2481.018989
357.836672	2478.478247
358.225873	2480.487147
358.615010	2481.392034
359.004084	2482.944710
359.393095	2487.554845
359.782043	2487.655668
360.170927	2489.329331
360.559748	2487.874958
360.948505	2489.208343
361.337199	2488.132057
361.725830	2489.208343
362.114398	2489.220946
362.502903	2490.733292
362.891344	2490.634990
363.279722	2493.843684
363.668037	2491.043323
364.056289	2494.231853
364.444478	2494.647748
364.832603	2499.018429
365.220665	2497.997595
365.608665	2498.206803
365.996601	2500.382061
366.384474	2499.545229
366.772284	2499.497338
367.160031	2502.287617
367.547715	2500.412308
367.935336	2501.763337
368.322893	2502.370796
368.710388	2502.617812
369.097820	2507.074192
369.485189	2505.241733
369.872495	2509.655263
370.259738	2507.099398
370.646918	2512.422857
371.034035	2514.169617
371.421090	2515.833197
371.808081	2521.297808
372.195010	2522.323683
372.581875	2528.494055
372.968678	2535.052596
373.355418	2539.778678
373.742096	2548.262940
374.128710	2554.498847
374.515262	2566.196845
374.901751	2579.855851
375.288177	2594.757502
375.674540	2616.348764
376.060841	2629.581793
376.447079	2652.612304
376.833254	2676.870336
377.219367	2697.927236
377.605417	2729.878069
377.991404	2755.648447
378.377329	2791.503654
378.763191	2821.649754
379.148991	2869.986858
379.534727	2912.140986
379.920402	2954.980712
380.306013	3001.616426
380.691563	3063.622618
381.077049	3115.097840
381.462474	3165.499296
381.847835	3235.586458
382.233134	3302.598516
382.618371	3359.704707
383.003545	3443.483643
383.388657	3518.685055
383.773706	3602.665637
384.158693	3673.672810
384.543618	3758.946448
384.928480	3836.365968
385.313280	3936.150567
385.698017	4032.900392
386.082692	4149.005727
386.467305	4209.439079
386.851856	4329.108509
387.236344	4475.407835
387.620770	4532.214077
388.005133	4649.423425
388.389435	4791.321823
388.773674	4870.556159
389.157851	4995.788503
389.541965	5126.561075
389.926018	5147.965814
390.310008	5318.750024
390.693936	5434.918373
391.077802	5545.647317
391.461606	5676.792935
391.845348	5787.519358
392.229027	5903.838942
392.612645	6118.100583
392.996200	6233.124591
393.379694	6400.059880
393.763125	6610.580985
394.146494	6706.546910
394.529801	6833.417629
394.913047	7068.279946
395.296230	7061.481950
395.679351	7120.914633
396.062410	7367.303548
396.445408	7273.810308
396.828343	7424.329080
397.211217	7550.574696
397.594028	7442.983870
397.976778	7642.185064
398.359466	7807.668501
398.742092	7785.074049
399.124656	7928.852798
399.507158	8115.677960
399.889598	8134.022718
400.271977	8346.353598
400.654294	8376.842496
401.036549	8576.373886
401.418742	8603.709543
401.800874	8899.481601
402.182944	8984.788006
402.564952	9334.833126
402.946898	9177.833952
403.328783	9230.536694
403.710606	9426.864431
404.092367	9675.531947
404.474067	10034.550321
404.855705	9833.052882
405.237282	9790.447570
405.618797	10212.097239
406.000250	10452.164547
406.381642	10807.021449
406.762972	10757.645867
407.144240	10574.583927
407.525447	10827.493574
407.906593	10776.600606
408.287677	11035.463856
408.668700	11173.795638
409.049661	11165.155100
409.430560	11323.686786
409.811399	11295.829370
410.192176	11462.341202
410.572891	11544.701053
410.953545	12012.247907
411.334138	11503.287974
411.714669	12079.121334
412.095139	11435.161821
412.475547	11903.732030
412.855894	11775.595981
413.236180	12100.773089
413.616405	11791.563836
413.996568	12067.143552
414.376670	12053.668548
414.756711	11937.200250
415.136691	12199.299921
415.516609	12384.012839
415.896466	12463.506794
416.276262	12752.793407
416.655997	13206.519939
417.035670	13248.127102
417.415283	13869.431669
417.794834	13951.045430
418.174324	13701.757851
418.553753	13609.734108
418.933121	14100.142596
419.312428	13928.183797
419.691674	13836.770034
420.070859	14304.745386
420.449983	13958.234115
420.829045	14510.946223
421.208047	14271.115849
421.586988	14726.402617
421.965867	14966.790039
422.344686	14965.832219
422.723444	15537.425969
423.102141	14241.514194
423.480777	15433.237922
423.859352	14923.688173
424.237866	16022.576533
424.616319	15750.092085
424.994712	16384.705299
425.373044	16187.719692
425.751314	16880.780043
426.129524	16000.987791
426.507673	17080.616422
426.885762	16816.409549
427.263789	16984.312740
427.641756	17171.276533
428.019662	17233.963281
428.397508	17285.705684
428.775292	17563.526193
429.153016	17545.904840
429.530679	17618.615923
429.908282	17658.700658
430.285824	17396.979073
430.663305	18093.462368
431.040726	17712.958596
431.418086	17544.243780
431.795385	18188.790587
432.172624	18629.999934
432.549802	18182.027879
432.926920	18404.735974
433.303977	18281.386501
433.680974	18534.331437
434.057910	18843.936421
434.434786	18885.089880
434.811601	18810.710176
435.188355	19859.111379
435.565050	19523.609988
435.941683	19487.411983
436.318257	20384.203005
436.694770	20177.881181
437.071222	20773.070051
437.447614	19841.008596
437.823946	19882.988804
438.200218	20056.732172
438.576429	19824.196348
438.952580	20140.538834
439.328670	20108.260326
439.704700	20525.136022
440.080670	20097.008470
440.456580	20702.783763
440.832429	20876.474199
441.208218	19879.913701
441.583947	20331.575879
441.959616	20453.249169
442.335224	20691.148780
442.710773	20848.997390
443.086261	21393.005945
443.461689	20713.801205
443.837057	20896.326262
444.212365	21552.432436
444.587612	21544.348945
444.962800	21145.462606
445.337927	21578.212896
445.712995	20290.583737
446.088002	22189.198222
446.462949	22383.872460
446.837837	22578.319846
447.212664	22588.813008
447.587431	25548.847476
447.962139	28525.895839
448.336786	30827.159885
448.711374	29158.699278
449.085901	25432.273314
449.460369	25451.094462
449.834776	25442.741270
450.209124	27984.075144
450.583412	27464.228839
450.957640	27951.899980
451.331808	26606.116070
451.705917	25225.003753
452.079965	25276.030313
452.453954	25648.871530
452.827883	25584.080101
453.201752	25361.170360
453.575562	25526.941142
453.949311	26659.360737
454.323001	26740.004075
454.696632	26506.218044
455.070202	28118.699158
455.443713	28291.330951
455.817164	28876.457678
456.190556	29433.737071
456.563888	28837.640793
456.937160	29279.936508
457.310373	27572.472494
457.683526	28012.106480
458.056619	28001.661209
458.429653	27990.855496
458.802628	28601.283774
459.175542	28733.190606
459.548398	30099.081158
459.921194	31726.723542
460.293930	32458.865438
460.666607	34552.985952
461.039224	36336.868816
461.411782	36682.742382
461.784280	35390.442593
462.156719	34847.412021
462.529099	34262.970891
462.901419	32932.060906
463.273680	31875.896325
463.645882	32022.329241
464.018024	32009.381038
464.390106	32933.623663
464.762130	35838.092013
465.134094	40165.257158
465.505999	45637.989226
465.877845	50163.327170
466.249631	51161.914212
466.621358	49290.106062
466.993026	47045.305460
467.364634	44901.640487
467.736184	42937.100312
468.107674	41638.700728
468.479105	40854.075378
468.850477	40105.847160
469.221790	38663.376440
469.593043	36890.437920
469.964238	35972.746274
470.335373	35911.493734
470.706449	37745.747808
471.077467	40473.501031
471.448425	45101.980982
471.819324	47837.152262
472.190164	45821.978739
472.560945	42189.771940
472.931667	39034.055002
473.302330	37922.488141
473.672934	37059.757675
474.043479	37556.434837
474.413965	36745.474500
474.784393	36349.096135
475.154761	37243.653926
475.525070	37257.159177
475.895321	36741.746567
476.265513	37318.348703
476.635645	38275.895711
477.005719	38066.337466
477.375734	38515.060652
477.745691	39191.770021
478.115588	40475.746865
478.485427	42492.150430
478.855207	45835.771336
479.224928	48368.366369
479.594591	49844.338078
479.964194	48692.784784
480.333739	48748.870141
480.703226	48731.810877
481.072653	49293.297113
481.442022	49662.909471
481.811333	49764.284555
482.180584	48383.101662
482.549777	47753.786701
482.918912	47129.444838
483.287988	46696.331585
483.657005	45777.692202
484.025964	45008.833062
484.394864	44867.383326
484.763706	44330.510523
485.132489	43349.444012
485.501213	43049.495358
485.869879	43065.561515
486.238487	42522.152857
486.607036	42561.098291
486.975527	41883.587379
487.343959	41939.665174
487.712333	41836.654236
488.080648	41554.760475
488.448905	41809.457211
488.817104	41455.202728
489.185244	42207.221894
489.553326	43606.557981
489.921350	45974.934908
490.289315	48556.771933
490.657222	48884.449453
491.025070	48897.836237
491.392861	47711.501503
491.760593	46221.298617
492.128267	44346.581722
492.495883	42683.074049
492.863440	41168.721516
493.230939	39700.147701
493.598380	38502.949280
493.965763	37970.028742
494.333088	36994.182346
494.700354	36338.179516
495.067563	35840.990677
495.434713	35459.564374
495.801805	35263.970125
496.168839	34677.464643
496.535815	34135.785100
496.902733	33885.816966
497.269593	33264.134312
497.636395	32937.664148
498.003139	32967.744713
498.369825	32261.675664
498.736453	32222.591598
499.103023	31568.123800
499.469535	31189.800328
499.835989	30967.072068
500.202385	30413.271072
500.568723	30128.927309
500.935003	29959.809201
501.301226	29509.525778
501.667390	29631.423398
502.033497	29491.637243
502.399546	28785.497618
502.765537	27993.534869
503.131470	27927.692359
503.497345	27852.178395
503.863163	26639.710319
504.228923	26728.976551
504.594625	26678.509559
504.960269	25878.690172
505.325856	25982.467366
505.691385	25279.733040
506.056856	25037.135073
506.422270	24980.182637
506.787625	24378.641913
507.152924	24174.258413
507.518164	23897.367997
507.883347	23104.107151
508.248472	22919.545468
508.613540	22874.293550
508.978550	22689.915869
509.343503	22226.117112
509.708398	22005.707784
510.073236	21946.612858
510.438016	21617.715378
510.802738	21008.809528
511.167403	20978.718881
511.532010	20766.382960
511.896561	20572.285934
512.261053	20628.698967
512.625488	20099.350086
512.989866	19707.455827
513.354186	19307.982194
513.718449	18985.118975
514.082655	18945.926525
514.446803	18489.820569
514.810894	18395.366990
515.174927	18031.791412
515.538904	17668.750198
515.902822	17617.849667
516.266684	17093.171416
516.630488	16940.376564
516.994235	16591.657267
517.357925	16490.176319
517.721558	16253.037922
518.085133	16063.273768
518.448651	15811.871425
518.812112	15455.088803
519.175516	15197.125399
519.538863	15018.698800
519.902152	14733.180449
520.265385	14595.146095
520.628560	14339.141179
520.991678	14014.916849
521.354739	13815.604749
521.717743	13646.378256
522.080690	13361.943753
522.443580	13247.484355
522.806413	13007.172551
523.169189	12738.146335
523.531908	12538.698124
523.894569	12261.326278
524.257174	12065.792523
524.619722	11903.633727
524.982213	11679.884634
525.344647	11439.716503
525.707025	11236.920966
526.069345	11109.967068
526.431608	10888.209231
526.793815	10736.246169
527.155964	10457.175454
527.518057	10287.757397
527.880093	10057.716944
528.242072	9960.281522
528.603995	9728.922808
528.965860	9544.043532
529.327669	9385.975632
529.689421	9204.080719
530.051117	9029.883648
530.412755	8885.958706
530.774337	8744.236748
531.135862	8555.357316
531.497331	8424.801513
531.858743	8257.296574
532.220098	8160.715628
532.581396	7980.736353
532.942638	7793.538147
533.303824	7699.283693
533.664953	7560.530975
534.026025	7399.521562
534.387040	7328.400963
534.747999	7201.260543
535.108902	7095.804646
535.469748	6929.207114
535.830537	6826.110477
536.191270	6734.878195
536.551947	6594.739159
536.912567	6516.714700
537.273131	6426.818324
537.633638	6285.948321
537.994089	6213.506941
538.354483	6088.120842
538.714821	6037.744591
539.075103	5974.278985
539.435328	5871.242841
539.795497	5771.818685
540.155609	5687.253329
540.515665	5636.443539
540.875665	5517.026166
541.235609	5458.032063
541.595496	5381.572883
541.955328	5349.611968
542.315102	5235.681891
542.674821	5153.916896
543.034483	5085.095064
543.394090	5016.179970
543.753640	4948.797387
544.113134	4935.390438
544.472571	4823.887677
544.831953	4822.897090
545.191278	4723.344384
545.550548	4655.651770
545.909761	4619.100884
546.268918	4574.027928
546.628019	4532.433368
546.987064	4464.032472
547.346053	4382.403588
547.704986	4366.017317
548.063863	4301.780414
548.422684	4260.170731
548.781449	4209.139130
549.140158	4185.417981
549.498811	4137.955517
549.857408	4074.116866
550.215949	4062.479362
550.574434	4023.574257
550.932864	3975.955518
551.291237	3964.504537
551.649555	3922.153803
552.007817	3893.653640
552.366022	3852.396837
552.724173	3824.247034
553.082267	3805.738438
553.440305	3786.327475
553.798288	3743.094539
554.156215	3717.142679
554.514086	3697.804813
554.871902	3669.660051
555.229661	3645.112153
555.587365	3621.527114
555.945014	3599.391408
556.302606	3580.247626
556.660143	3563.926891
557.017625	3544.876370
557.375050	3518.496012
557.732421	3507.604599
558.089735	3488.468379
558.446994	3471.225112
558.804197	3465.878969
559.161345	3450.130404
559.518437	3418.701331
559.875474	3408.087181
560.232455	3399.302971
560.589381	3388.923235
560.946251	3372.710884
561.303065	3370.132334
561.659825	3351.933768
562.016528	3336.570852
562.373177	3318.783141
562.729770	3319.680466
563.086307	3297.905202
563.442789	3296.067702
563.799216	3287.517905
564.155587	3276.553395
564.511904	3269.152981
564.868164	3260.830036
565.224370	3260.046137
565.580520	3244.564753
565.936615	3243.284300
566.292654	3232.397928
566.648638	3227.019017
567.004567	3221.720765
567.360441	3213.881770
567.716260	3205.755430
568.072023	3203.010522
568.427732	3194.659851
568.783385	3181.953622
569.138982	3181.983869
569.494525	3176.388189
569.850013	3166.162208
570.205445	3165.431241
570.560823	3159.820437
570.916145	3153.140908
571.271412	3147.625885
571.626625	3141.480719
571.981782	3136.754637
572.336884	3129.840695
572.691931	3130.551497
573.046923	3121.847945
573.401860	3113.726646
573.756743	3106.482508
574.111570	3103.916561
574.466342	3098.799790
574.821059	3097.211826
575.175722	3089.224118
575.530330	3088.856114
575.884882	3076.830441
576.239380	3071.892631
576.593823	3072.157292
576.948211	3067.915161
577.302544	3058.919222
577.656823	3055.012328
578.011047	3055.158521
578.365216	3050.404713
578.719330	3045.895401
579.073389	3041.595297
579.427394	3036.765871
579.781344	3036.259235
580.135239	3030.615663
580.489080	3028.523585
580.842866	3018.612676
581.196597	3025.597195
581.550273	3021.619724
581.903895	3015.804753
582.257463	3018.829446
582.610975	3010.808970
582.964434	3010.887108
583.317837	3005.558608
583.671186	3000.409070
584.024481	2997.959069
584.377721	2994.357164
584.730906	2995.693070
585.084037	2994.634428
585.437113	2990.195692
585.790135	2988.176710
586.143103	2979.573981
586.496016	2979.611789
586.848874	2977.262612
587.201679	2975.407467
587.554428	2966.943370
587.907124	2971.881180
588.259765	2965.131075
588.612352	2968.727938
588.964884	2961.786269
589.317362	2960.404993
589.669786	2961.067905
590.022155	2957.481124
590.374470	2960.410034
590.726731	2954.658078
591.078937	2947.131635
591.431090	2945.934361
591.783188	2941.077209
592.135232	2937.671910
592.487222	2938.692744
592.839157	2939.343053
593.191038	2932.406425
593.542866	2930.931887
593.894639	2924.436361
594.246358	2927.022473
594.598022	2924.746392
594.949633	2918.422264
595.301190	2918.858324
595.652692	2916.093251
596.004141	2918.507964
596.355535	2909.643095
596.706876	2906.131931
597.058162	2903.283679
597.409395	2907.926582
597.760573	2907.974473
598.111698	2899.807803
598.462768	2902.703946
598.813785	2899.409552
599.164748	2896.508368
599.515657	2898.764285
599.866511	2893.468553
600.217312	2896.447874
600.568060	2883.928169
600.918753	2892.823285
601.269392	2890.433778
601.619978	2886.529404
601.970510	2890.320352
602.320988	2890.083418
602.671412	2892.432595
603.021783	2887.368756
603.372100	2884.333982
603.722363	2882.506563
604.072572	2885.259033
604.422728	2885.047305
604.772830	2878.881974
605.122878	2876.782333
605.472872	2877.175543
605.822813	2876.510111
606.172701	2877.646891
606.522534	2882.546893
606.872314	2879.862478
607.222041	2878.486243
607.571714	2880.255688
607.921333	2875.786705
608.270899	2876.200080
608.620411	2876.855430
608.969870	2878.468599
609.319276	2875.958105
609.668627	2873.616489
610.017926	2878.713095
610.367171	2876.789895
610.716362	2877.891387
611.065500	2876.515152
611.414585	2875.156561
611.763616	2879.035729
612.112594	2876.379041
612.461518	2876.880636
612.810389	2880.270812
613.159207	2877.120091
613.507971	2875.431304
613.856682	2879.605379
614.205340	2877.558671
614.553945	2882.567057
614.902496	2876.747045
615.250994	2880.638816
615.599439	2877.427601
615.947830	2879.635626
616.296169	2879.030688
616.644454	2877.999772
616.992686	2878.110677
617.340864	2883.965978
617.688990	2877.140255
618.037063	2880.238044
618.385082	2880.953888
618.733048	2884.901112
619.080961	2881.321892
619.428821	2880.464896
619.776628	2881.805843
620.124382	2877.374669
620.472083	2877.525903
620.819731	2876.442055
621.167326	2874.685213
621.514868	2872.903165
621.862357	2866.324460
622.209793	2867.557022
622.557176	2862.271372
622.904506	2860.209540
623.251783	2854.308869
623.599007	2851.543797
623.946179	2847.783096
624.293297	2849.983559
624.640363	2845.113805
624.987376	2844.697910
625.334336	2845.048270
625.681243	2840.322188
626.028097	2838.136848
626.374899	2835.293637
626.721647	2835.538133
627.068343	2834.832372
627.414987	2831.232988
627.761577	2829.297185
628.108115	2830.451609
628.454600	2826.827019
628.801032	2826.869869
629.147412	2827.789880
629.493739	2825.113027
629.840014	2823.711586
630.186236	2824.306442
630.532405	2819.915597
630.878521	2819.960968
631.224585	2818.115905
631.570597	2815.877633
631.916556	2817.420226
632.262462	2817.059784
632.608316	2816.422078
632.954117	2814.450987
633.299866	2813.546099
633.645562	2811.227169
633.991206	2810.927220
634.336797	2804.822383
634.682336	2803.776343
635.027823	2801.452371
635.373257	2799.650159
635.718639	2795.319808
636.063968	2795.929787
636.409245	2792.358130
636.754470	2791.196144
637.099642	2786.709517
637.444762	2783.127777
637.789829	2786.422171
638.134845	2784.078035
638.479808	2781.476799
638.824719	2780.150976
639.169577	2773.637805
639.514383	2776.465892
639.859137	2773.710902
640.203839	2775.124945
640.548489	2769.539347
640.893086	2770.512290
641.237632	2765.992895
641.582125	2769.025149
641.926566	2763.089191
642.270955	2767.845519
642.615292	2769.204110
642.959576	2763.938625
643.303809	2768.024480
643.647990	2771.270983
643.992118	2764.838471
644.336195	2768.052207
644.680219	2763.721855
645.024192	2765.844181
645.368112	2768.541198
645.711981	2772.311982
646.055797	2773.736107
646.399562	2776.894390
646.743274	2780.881943
647.086935	2781.446552
647.430544	2780.823970
647.774101	2780.972684
648.117606	2780.942437
648.461059	2785.582819
648.804460	2780.965122
649.147810	2777.529576
649.491108	2774.613268
649.834354	2772.450613
650.177548	2766.063471
650.520690	2763.457195
650.863781	2762.832092
651.206820	2765.657658
651.549807	2759.262955
651.892742	2753.667274
652.235626	2753.087541
652.578458	2752.240627
652.921238	2747.862385
653.263967	2751.965885
653.606644	2748.505132
653.949269	2747.822056
654.291843	2743.940368
654.634365	2744.623444
654.976836	2743.095974
655.319255	2744.575553
655.661622	2741.954153
656.003938	2739.917527
656.346203	2737.696899
656.688416	2739.302506
657.030577	2738.989955
657.372687	2740.023391
657.714746	2742.072620
658.056753	2740.356107
658.398708	2732.486866
658.740612	2732.801938
659.082465	2733.268245
659.424266	2734.498287
659.766016	2730.765312
660.107715	2735.874522
660.449362	2735.115828
660.790958	2733.457288
661.132503	2733.011146
661.473996	2734.841085
661.815438	2733.202710
662.156829	2737.165057
662.498168	2735.352762
662.839456	2733.338821
663.180693	2733.855539
663.521879	2734.435272
663.863013	2736.789491
664.204097	2732.975858
664.545129	2739.126066
664.886110	2735.564491
665.227040	2736.406363
665.567918	2738.788308
665.908746	2735.884604
666.249522	2738.364852
666.590248	2736.792012
666.930922	2738.853843
667.271545	2739.473905
667.612118	2737.860736
667.952639	2735.418297
668.293109	2736.020715
668.633528	2733.479973
668.973896	2732.615416
669.314213	2736.164388
669.654480	2733.762278
669.994695	2733.936198
670.334859	2733.127093
670.674973	2730.130127
671.015035	2732.320508
671.355047	2732.806979
671.695008	2731.662637
672.034918	2730.336814
672.374777	2730.697257
672.714585	2730.926629
673.054342	2731.125755
673.394049	2729.746999
673.733705	2731.340004
674.073310	2727.924622
674.412864	2731.014849
674.752368	2727.964951
675.091820	2727.763305
675.431223	2728.038048
675.770574	2722.328941
676.109875	2720.453632
676.449125	2720.751060
676.788324	2716.861810
677.127473	2714.721840
677.466571	2713.567416
677.805619	2713.912735
678.144616	2713.302755
678.483562	2714.558003
678.822458	2710.958619
679.161303	2714.152190
679.500098	2711.578681
679.838842	2708.629606
680.177535	2712.735625
680.516179	2711.659339
680.854771	2714.038764
681.193314	2720.867007
681.531805	2724.511761
681.870247	2730.805641
682.208638	2734.178173
682.546978	2736.056003
682.885268	2734.037021
683.223508	2732.310426
683.561697	2731.120713
683.899836	2727.559138
684.237925	2723.758108
684.575963	2726.210630
684.913951	2720.156204
685.251889	2724.738613
685.589776	2723.082594
685.927614	2722.165104
686.265401	2724.985629
686.603137	2723.324569
686.940824	2726.482852
687.278460	2727.123078
687.616046	2727.758264
687.953582	2734.664645
688.291068	2731.529047
688.628504	2737.684296
688.965889	2730.689695
689.303224	2731.307236
689.640510	2730.190621
689.977745	2724.189127
690.314930	2716.723178
690.652065	2718.253168
690.989150	2713.123794
691.326185	2710.149513
691.663170	2703.956456
692.000105	2700.767926
692.336990	2694.826926
692.673825	2690.617563
693.010610	2691.973633
693.347345	2684.300997
693.684030	2676.782116
694.020665	2679.141376
694.357251	2673.533092
694.693786	2676.353618
695.030272	2674.682476
695.366707	2671.352793
695.703093	2670.914213
696.039429	2667.345076
696.375716	2666.470436
696.711952	2667.561846
697.048139	2665.482370
697.384276	2665.210147
697.720363	2668.812052
698.056400	2667.461023
698.392388	2664.083450
698.728326	2665.676454
699.064214	2660.252173
699.400053	2663.891886
699.735842	2660.305105
700.071581	2659.763181
700.407270	2658.550783
700.742910	2655.795793
701.078501	2653.529794
701.414042	2652.566934
701.749533	2650.316058
702.084974	2646.177271
702.420366	2649.441418
702.755709	2646.900677
703.091002	2645.048053
703.426246	2645.680717
703.761440	2644.591828
704.096584	2643.369348
704.431679	2643.059317
704.766725	2642.436735
705.101721	2642.461941
705.436668	2641.259626
705.771565	2639.449851
706.106413	2641.776344
706.441212	2641.579739
706.775961	2643.470172
707.110661	2642.343474
707.445311	2644.332209
707.779913	2642.968577
708.114465	2646.714154
708.448967	2649.759011
708.783421	2652.226656
709.117825	2653.718837
709.452180	2654.810247
709.786485	2654.641368
710.120742	2660.612615
710.454949	2662.838285
710.789107	2664.834582
711.123216	2667.854233
711.457275	2668.927998
711.791286	2670.773061
712.125247	2676.335974
712.459159	2675.199194
712.793023	2676.157013
713.126837	2671.173832
713.460602	2671.418328
713.794318	2671.390602
714.127985	2669.903462
714.461602	2661.590599
714.795171	2664.653100
715.128691	2657.209836
715.462162	2650.295894
715.795584	2649.990904
716.128957	2649.864875
716.462281	2645.998310
716.795556	2643.691982
717.128782	2642.910603
717.461960	2638.451703
717.795088	2636.712505
718.128167	2636.165540
718.461198	2634.035652
718.794180	2630.595065
719.127113	2628.346710
719.459997	2630.017853
719.792833	2625.811010
720.125619	2627.837553
720.458357	2624.762450
720.791046	2622.146091
721.123686	2620.681636
721.456278	2619.060905
721.788821	2621.115175
722.121315	2618.987808
722.453761	2614.967488
722.786158	2618.282046
723.118506	2619.219701
723.450805	2619.252468
723.783056	2618.040071
724.115259	2620.288426
724.447412	2616.205091
724.779518	2620.608539
725.111574	2621.195833
725.443582	2621.848663
725.775542	2620.684156
726.107453	2625.788324
726.439315	2622.998046
726.771129	2633.997843
727.102895	2627.504837
727.434612	2631.184880
727.766281	2632.886269
728.097901	2630.695888
728.429473	2629.286885
728.760996	2630.101032
729.092471	2633.743265
729.423897	2636.296610
729.755276	2635.081692
730.086606	2631.774695
730.417887	2636.820890
730.749120	2641.836838
731.080305	2643.762558
731.411442	2642.270377
731.742530	2645.196767
732.073570	2648.569299
732.404562	2650.774803
732.735506	2648.473517
733.066401	2644.806077
733.397249	2641.771303
733.728048	2636.044552
734.058798	2632.687143
734.389501	2626.418469
734.720156	2623.613067
735.050762	2621.261368
735.381320	2617.074690
735.711831	2614.924638
736.042293	2613.074534
736.372707	2615.514453
736.703073	2612.010851
737.033391	2615.446397
737.363661	2615.529576
737.693883	2613.409771
738.024056	2616.842797
738.354182	2618.249279
738.684260	2619.756584
739.014290	2623.121554
739.344272	2623.207254
739.674207	2624.505351
740.004093	2627.696401
740.333931	2626.005094
740.663722	2627.101545
740.993464	2626.846967
741.323159	2626.804117
741.652806	2625.203551
741.982405	2625.185907
742.311956	2620.459825
742.641460	2619.254989
742.970915	2618.453446
743.300323	2613.923969
743.629683	2612.978752
743.958996	2611.766355
744.288260	2606.833586
744.617477	2604.421394
744.946647	2604.827207
745.275768	2605.071703
745.604842	2600.179263
745.933869	2598.316557
746.262847	2598.797987
746.591778	2602.054572
746.920662	2601.235385
747.249498	2598.888727
747.578286	2602.394850
747.907027	2604.930550
748.235720	2604.630602
748.564365	2604.318050
748.892963	2604.086157
749.221514	2602.568770
749.550017	2603.708071
749.878473	2605.727053
750.206881	2600.199427
750.535242	2602.064654
750.863555	2597.681371
751.191821	2599.392843
751.520039	2603.274531
751.848210	2601.298399
752.176334	2600.693461
752.504411	2598.324118
752.832440	2594.417224
753.160421	2595.425455
753.488356	2597.925867
753.816243	2597.121803
754.144082	2593.310691
754.471875	2593.124168
754.799620	2596.005187
755.127318	2594.732296
755.454969	2594.979313
755.782572	2594.129878
756.110129	2594.452512
756.437638	2592.821699
756.765100	2593.421596
757.092515	2596.932760
757.419882	2594.102152
757.747203	2594.938983
758.074477	2595.654827
758.401703	2592.257090
758.728882	2597.867894
759.056014	2597.008377
759.383099	2599.390322
759.710138	2600.816969
760.037129	2599.949890
760.364073	2599.470981
760.690970	2600.408635
761.017820	2599.579366
761.344623	2600.753954
761.671379	2606.717639
761.998088	2604.136569
762.324751	2622.635083
762.651366	2642.809780
762.977935	2676.777075
763.304456	2690.032789
763.630931	2700.203317
763.957359	2692.618901
764.283740	2676.323371
764.610074	2661.744354
764.936362	2645.698362
765.262602	2634.202010
765.588796	2621.389918
765.914943	2610.334667
766.241044	2603.708071
766.567097	2596.179107
766.893104	2589.691142
767.219064	2589.330700
767.544978	2586.227870
767.870845	2581.337950
768.196665	2582.111767
768.522438	2577.231931
768.848165	2577.962898
769.173846	2577.652867
769.499479	2573.188925
769.825066	2572.367217
770.150607	2572.674728
770.476101	2571.217834
770.801548	2571.154820
771.126949	2568.893862
771.452303	2569.292113
771.777611	2566.073337
772.102872	2565.067626
772.428087	2564.951680
772.753256	2563.366237
773.078378	2563.608212
773.403453	2560.119734
773.728482	2559.207285
774.053465	2559.449260
774.378401	2557.624363
774.703291	2559.373643
775.028135	2556.419527
775.352932	2557.866338
775.677683	2557.924311
776.002388	2551.597663
776.327046	2555.978426
776.651658	2553.465411
776.976224	2554.952551
777.300743	2556.986657
777.625216	2553.314176
777.949643	2554.864331
778.274024	2552.830225
778.598359	2549.205636
778.922647	2549.593805
779.246889	2553.445246
779.571086	2546.518701
779.895236	2551.005328
780.219339	2553.941800
780.543397	2551.194371
780.867409	2553.601522
781.191374	2552.870555
781.515294	2553.455328
781.839167	2553.551110
782.162995	2555.426420
782.486776	2553.288970
782.810511	2552.016079
783.134201	2551.517005
783.457844	2551.269988
783.781441	2551.259906
784.104993	2551.380894
784.428498	2551.267468
784.751958	2548.333516
785.075372	2552.837787
785.398739	2549.989535
785.722061	2551.287632
786.045337	2550.549103
786.368568	2550.647406
786.691752	2553.193188
787.014891	2554.337530
787.337983	2555.988508
787.661030	2562.864642
787.984031	2567.419325
788.306987	2572.609192
788.629897	2570.663307
788.952760	2571.195149
789.275579	2570.882597
789.598351	2566.854715
789.921078	2561.367419
790.243759	2564.528223
790.566395	2557.097562
790.888984	2555.925494
791.211529	2554.640000
791.534027	2553.694783
791.856480	2550.871737
792.178888	2551.499361
792.501249	2550.387786
792.823566	2548.953578
793.145836	2552.502550
793.468062	2549.601366
793.790241	2545.994421
794.112375	2549.369473
794.434464	2551.033054
794.756507	2549.092210
795.078505	2553.530946
795.400457	2552.502550
795.722364	2553.798127
796.044226	2555.633107
796.366042	2558.357851
796.687812	2558.251986
797.009538	2556.074208
797.331218	2558.423386
797.652852	2559.870197
797.974442	2556.190154
798.295986	2558.564538
798.617484	2555.829712
798.938938	2556.114537
799.260346	2553.258723
799.581709	2552.159752
799.903026	2552.540359
800.224299	2552.805020
800.545526	2549.427447
800.866708	2548.005841
801.187845	2546.874102
801.508936	2546.987528
801.829983	2549.283774
802.150984	2547.559699
802.471940	2549.011551
802.792851	2544.978628
803.113717	2544.976108
803.434538	2544.701365
803.755314	2546.853938
804.076045	2545.502908
804.396731	2544.487116
804.717372	2543.993083
805.037967	2545.772610
805.358518	2543.589790
805.679024	2545.891077
805.999485	2545.510470
806.319901	2547.196736
806.640272	2545.328988
806.960598	2548.046170
807.280879	2547.032898
807.601115	2548.842673
807.921306	2544.620706
808.241453	2547.902498
808.561554	2546.059956
808.881611	2546.848896
809.201623	2545.278577
809.521590	2545.286139
809.841513	2544.436704
810.161390	2546.405275
810.481223	2544.809750
810.801011	2546.553989
811.120755	2545.482744
811.440453	2546.359904
811.760107	2545.855789
812.079716	2542.634492
812.399281	2540.212217
812.718801	2542.619368
813.038276	2539.052752
813.357707	2542.332022
813.677093	2542.594162
813.996434	2543.055428
814.315731	2543.390665
814.634983	2541.901004
814.954191	2544.348484
815.273354	2543.627599
815.592473	2544.774462
815.911547	2545.666746
816.230577	2544.817311
816.549562	2547.927703
816.868502	2545.533155
817.187399	2549.344267
817.506250	2548.895605
817.825058	2553.616645
818.143821	2554.902140
818.462539	2556.921122
818.781213	2559.955896
819.099843	2566.995868
819.418429	2574.731518
819.736970	2583.329206
820.055466	2593.121647
820.373919	2610.271653
820.692327	2629.158336
821.010691	2666.412463
821.329011	2748.532859
821.647286	2881.193343
821.965517	3015.474558
822.283704	3093.342741
822.601847	3116.103550
822.919945	3057.936197
823.237999	2990.281392
823.556010	2922.626586
823.873976	2857.711648
824.191897	2803.345325
824.509775	2761.554159
824.827609	2723.808520
825.145398	2700.987216
825.463144	2691.340968
825.780845	2693.702749
826.098502	2708.743032
826.416116	2739.887280
826.733685	2771.447424
827.051210	2777.411109
827.368692	2759.900661
827.686129	2730.616598
828.003522	2694.877338
828.320872	2660.229487
828.638177	2639.812814
828.955439	2622.017541
829.272656	2602.183122
829.589830	2589.713827
829.906960	2583.687128
830.224046	2574.154306
830.541088	2568.954356
830.858086	2561.828685
831.175041	2560.482697
831.491952	2561.271637
831.808819	2560.623849
832.125642	2563.640980
832.442421	2574.396282
832.759157	2592.357913
833.075849	2617.495626
833.392497	2645.637868
833.709101	2659.556493
834.025662	2656.453663
834.342179	2642.552682
834.658653	2623.252624
834.975083	2606.553802
835.291469	2599.281937
835.607811	2581.960533
835.924110	2573.030129
836.240366	2565.612071
836.556578	2561.354817
836.872746	2553.296532
837.188871	2547.239586
837.504952	2545.238248
837.820990	2541.366642
838.136984	2537.585776
838.452935	2537.832793
838.768842	2540.368493
839.084706	2543.793957
839.400526	2558.322563
839.716303	2570.252453
840.032037	2581.020358
840.347727	2577.279822
840.663373	2571.003585
840.978977	2558.183931
841.294537	2552.442057
841.610054	2545.739843
841.925527	2543.315048
842.240957	2540.391178
842.556344	2535.241640
842.871687	2532.912627
843.186987	2530.739889
843.502244	2525.625639
843.817458	2526.260824
844.132629	2525.403828
844.447756	2525.275278
844.762840	2518.689011
845.077881	2520.627335
845.392879	2519.382170
845.707833	2517.229597
846.022745	2517.106089
846.337613	2522.227901
846.652438	2519.059536
846.967221	2518.164731
847.281960	2521.507016
847.596656	2519.956861
847.911309	2522.038858
848.225919	2519.840915
848.540485	2519.354443
848.855009	2519.520801
849.169490	2520.397962
849.483928	2517.373270
849.798323	2518.003414
850.112675	2521.915349
850.426984	2517.705986
850.741251	2519.329237
851.055474	2516.430574
851.369654	2517.247241
851.683792	2517.224556
851.997887	2515.054339
852.311938	2519.966943
852.625947	2520.458456
852.939914	2517.126253
853.253837	2519.419978
853.567718	2519.044412
853.881555	2519.377128
854.195350	2516.443177
854.509103	2517.375790
854.822812	2516.430574
855.136479	2520.423168
855.450103	2518.331089
855.763685	2517.726151
856.077224	2520.655061
856.390720	2516.175996
856.704173	2517.103568
857.017584	2518.898219
857.330953	2520.899557
857.644278	2520.284536
857.957561	2520.592047
858.270802	2520.249248
858.584000	2517.559793
858.897155	2519.538445
859.210268	2519.757736
859.523339	2518.487365
859.836367	2519.982067
860.149352	2518.734381
860.462295	2516.415451
860.775195	2515.755059
861.088054	2516.284381
861.400869	2517.002745
861.713642	2514.454442
862.026373	2517.645492
862.339062	2517.206912
862.651708	2518.474762
862.964312	2518.837725
863.276873	2521.128929
863.589392	2519.062056
863.901869	2518.421830
864.214303	2520.743281
864.526696	2521.761594
864.839045	2520.581964
865.151353	2522.427027
865.463619	2521.859897
865.775842	2520.647499
866.088023	2523.654547
866.400162	2521.615401
866.712258	2523.077335
867.024313	2523.606657
867.336325	2520.667664
867.648296	2520.161028
867.960224	2520.239166
868.272110	2520.937366
868.583954	2518.973836
868.895755	2522.059022
869.207515	2522.636234
869.519233	2525.282840
869.830909	2522.847963
870.142542	2522.432068
870.454134	2520.614732
870.765684	2524.647655
871.077191	2523.170597
871.388657	2527.435413
871.700081	2521.461646
872.011463	2526.238139
872.322803	2526.996833
872.634101	2526.011287
872.945357	2524.919877
873.256571	2525.867614
873.567744	2529.580424
873.878874	2529.194776
874.189963	2530.356762
874.501010	2527.848788
874.812015	2527.095135
875.122979	2530.419776
875.433900	2529.961031
875.744780	2529.590506
876.055618	2530.986906
876.366415	2530.863397
876.677169	2531.155784
876.987882	2528.156298
877.298554	2530.029087
877.609183	2529.656041
877.919771	2531.937163
878.230317	2534.006557
878.540822	2539.037628
878.851285	2543.436035
879.161707	2551.398538
879.472087	2559.834909
879.782425	2577.806622
880.092722	2607.199070
880.402977	2651.828405
880.713191	2703.757330
881.023363	2750.274577
881.333494	2780.022426
881.643583	2790.054322
881.953631	2786.898560
882.263637	2768.848709
882.573602	2749.712489
882.883526	2728.678274
883.193408	2707.825542
883.503248	2685.405010
883.813048	2670.755417
884.122806	2652.153559
884.432522	2632.992133
884.742197	2616.081583
885.051831	2604.340735
885.361424	2591.016966
885.670975	2579.140007
885.980485	2571.180025
886.289954	2562.748696
886.599382	2557.765515
886.908768	2554.982798
887.218113	2549.324103
887.527417	2547.378218
887.836680	2543.017619
888.145901	2539.382948
888.455082	2536.736342
888.764221	2536.360776
889.073319	2535.632329
889.382376	2532.854653
889.691392	2533.497400
890.000366	2532.141330
890.309300	2532.048069
890.618193	2532.796680
890.927044	2531.080167
891.235855	2532.771474
891.544625	2532.723583
891.853353	2532.219468
892.162041	2535.344983
892.470687	2538.478060
892.779293	2541.906045
893.087858	2543.214224
893.396381	2548.630944
893.704864	2564.813048
894.013306	2577.335274
894.321707	2594.079467
894.630068	2604.902824
894.938387	2606.508432
895.246665	2607.304934
895.554903	2599.266814
895.863100	2586.353898
896.171256	2578.993814
896.479371	2572.959553
896.787446	2567.099211
897.095480	2562.317677
897.403473	2555.628066
897.711425	2553.548590
898.019336	2550.896943
898.327207	2546.410316
898.635038	2543.156251
898.942827	2539.549306
899.250576	2538.470499
899.558284	2533.298275
899.865952	2532.252235
900.173579	2530.639066
900.481165	2530.477749
900.788711	2530.147554
901.096216	2526.346524
901.403681	2527.233767
901.711105	2529.706453
902.018489	2527.737882
902.325832	2530.326515
902.633135	2530.704601
902.940397	2540.076106
903.247619	2548.386448
903.554800	2568.520817
903.861941	2598.200610
904.169041	2618.581995
904.476101	2623.108951
904.783121	2618.483692
905.090100	2604.549943
905.397039	2597.189859
905.703938	2583.903898
906.010796	2576.881570
906.317614	2566.464026
906.624391	2560.318859
906.931129	2555.126471
907.237826	2548.083979
907.544483	2540.824717
907.851099	2540.507125
908.157675	2533.812473
908.464211	2531.135620
908.770707	2522.774866
909.077163	2521.365864
909.383578	2517.360667
909.689954	2517.474093
909.996289	2516.455780
910.302584	2515.472755
910.608839	2517.426202
910.915054	2514.283043
911.221229	2520.287057
911.527363	2515.452590
911.833458	2515.805471
912.139513	2517.932838
912.445527	2515.049298
912.751502	2521.375946
913.057436	2522.714372
913.363331	2525.489527
913.669186	2527.621936
913.975000	2532.358100
914.280775	2535.539068
914.586510	2545.913762
914.892205	2559.010680
915.197859	2575.580953
915.503475	2593.056112
915.809050	2607.793926
916.114585	2615.489247
916.420081	2621.084928
916.725536	2617.936727
917.030952	2612.671242
917.336328	2606.268977
917.641665	2599.420569
917.946961	2593.482090
918.252218	2582.908270
918.557435	2577.612538
918.862612	2572.344532
919.167750	2566.950497
919.472848	2560.618808
919.777906	2552.061449
920.082925	2551.776624
920.387904	2543.166333
920.692843	2540.040818
920.997743	2532.935312
921.302603	2532.022863
921.607423	2532.509334
921.912204	2527.059847
922.216946	2525.091276
922.521647	2525.290402
922.826310	2523.795700
923.130932	2523.566327
923.435516	2521.696059
923.740059	2519.261182
924.044564	2517.496778
924.349028	2514.910666
924.653454	2510.048473
924.957840	2512.889163
925.262186	2508.946981
925.566493	2513.035357
925.870761	2509.030160
926.174989	2513.100892
926.479178	2513.481499
926.783328	2512.259019
927.087438	2508.760458
927.391509	2509.065448
927.695541	2509.156189
927.999533	2507.729542
928.303486	2506.829697
928.607400	2508.818432
928.911275	2509.990500
929.215110	2508.689882
929.518906	2507.684172
929.822663	2513.002589
930.126381	2508.089985
930.430060	2510.406395
930.733699	2509.768689
931.037299	2507.611075
931.340861	2506.761641
931.644383	2510.439163
931.947866	2508.125273
932.251309	2507.724501
932.554714	2509.297341
932.858080	2506.799450
933.161407	2508.994872
933.464694	2508.304234
933.767943	2507.137207
934.071153	2508.392454
934.374323	2508.757938
934.677455	2507.905983
934.980548	2507.573267
935.283602	2508.483195
935.586617	2508.410098
935.889593	2507.162413
936.192530	2507.817763
936.495428	2508.188288
936.798287	2507.535458
937.101108	2507.928668
937.403890	2507.900942
937.706632	2511.991838
938.009336	2511.643998
938.312002	2513.216838
938.614628	2513.574760
938.917216	2518.928466
939.219765	2514.721623
939.522275	2516.448218
939.824747	2515.747498
940.127179	2516.039885
940.429573	2511.855727
940.731929	2515.770183
941.034246	2508.735253
941.336524	2517.060718
941.638763	2514.217508
941.940964	2513.703310
942.243126	2511.114677
942.545250	2511.641478
942.847335	2511.422188
943.149381	2510.489574
943.451389	2511.885974
943.753359	2513.594925
944.055290	2509.672907
944.357182	2510.983607
944.659036	2509.269615
944.960851	2512.448062
945.262628	2508.573936
945.564367	2511.114677
945.866067	2509.070489
946.167729	2510.197187
946.469352	2508.029491
946.770937	2509.498988
947.072484	2510.378669
947.373992	2510.860099
947.675462	2510.040912
947.976893	2508.883967
948.278286	2508.034532
948.579641	2508.732732
948.880958	2508.546209
949.182236	2508.710047
949.483476	2509.257012
949.784678	2509.748525
950.085841	2509.660304
950.386967	2510.817249
950.688054	2507.691734
950.989103	2508.306755
951.290114	2509.919924
951.591087	2510.819770
951.892021	2508.468072
952.192917	2513.000069
952.493776	2507.142248
952.794596	2511.885974
953.095378	2511.028978
953.396122	2512.087620
953.696828	2513.075686
953.997496	2509.614934
954.298126	2508.848679
954.598718	2509.816580
954.899272	2511.006293
955.199788	2508.833555
955.500266	2509.551920
955.800706	2506.416322
956.101108	2504.268790
956.401472	2502.476660
956.701798	2502.764006
957.002087	2502.960611
957.302337	2503.719305
957.602550	2503.782319
957.902724	2504.016733
958.202861	2504.911538
958.502960	2502.610251
958.803022	2502.907679
959.103045	2507.018740
959.403031	2503.517658
959.702979	2504.969511
960.002889	2502.963132
960.302762	2500.755106
960.602596	2502.945488
960.902393	2501.917092
961.202153	2501.120590
961.501875	2501.203769
961.801559	2499.288130
962.101205	2499.976248
962.400814	2500.838285
962.700385	2499.280569
962.999918	2501.402894
963.299414	2501.755775
963.598873	2496.654127
963.898293	2501.291989
964.197677	2502.524551
964.497022	2501.110508
964.796331	2500.208141
965.095601	2498.257214
965.394835	2498.844509
965.694030	2500.860970
965.993189	2501.622185
966.292309	2499.318377
966.591393	2500.082112
966.890439	2501.284427
967.189447	2500.283758
967.488419	2499.356186
967.787353	2498.468943
968.086249	2500.374499
968.385108	2500.061948
968.683930	2501.213851
968.982714	2499.361227
969.281462	2501.644870
969.580172	2499.358707
969.878844	2499.867863
970.177480	2497.261587
970.476078	2500.462719
970.774639	2501.387771
971.073162	2499.928357
971.371649	2500.760147
971.670098	2496.316370
971.968510	2499.073881
972.266885	2499.325939
972.565223	2500.808038
972.863524	2500.709736
973.161788	2501.670076
973.460014	2502.499345
973.758204	2501.695281
974.056356	2498.708398
974.354471	2501.594458
974.652550	2500.462719
974.950591	2501.662514
975.248595	2499.688902
975.546563	2499.494818
975.844493	2501.133193
976.142386	2497.831237
976.440243	2498.458861
976.738062	2501.624705
977.035845	2499.434324
977.333590	2502.748883
977.631299	2500.114880
977.928971	2501.602020
978.226606	2498.703357
978.524204	2500.157729
978.821765	2501.780981
979.119290	2503.013543
979.416777	2500.172853
979.714228	2502.101094
980.011642	2499.618326
980.309020	2502.325426
980.606360	2501.780981
980.903664	2503.777278
981.200931	2503.373986
981.498162	2505.735766
981.795356	2502.196876
982.092513	2507.928668
982.389633	2508.412619
982.686717	2511.712054
982.983764	2513.607528
983.280775	2511.666684
983.577749	2513.917559
983.874686	2514.991325
984.171587	2513.158865
984.468451	2509.350273
984.765279	2510.371107
985.062070	2508.541168
985.358824	2507.558143
985.655543	2510.005623
985.952224	2504.198214
986.248869	2507.401868
986.545478	2497.284272
986.842050	2502.237205
987.138586	2497.465753
987.435086	2499.696464
987.731549	2496.439878
988.027975	2502.537154
988.324366	2499.179746
988.620719	2501.055055
988.917037	2499.096567
989.213318	2496.044148
989.509563	2498.458861
989.805772	2500.182935
990.101944	2499.643532
990.398080	2496.422234
990.694180	2497.856443
990.990244	2499.323418
991.286271	2499.028511
991.582262	2497.367451
991.878217	2498.156391
992.174136	2498.600013
992.470019	2498.690754
992.765865	2498.642863
993.061676	2496.966679
993.357450	2499.867863
993.653188	2499.343583
993.948890	2500.283758
994.244556	2500.976917
994.540186	2501.586897
994.835780	2499.124293
995.131337	2502.259891
995.426859	2503.878101
995.722345	2500.291320
996.017795	2501.627226
996.313208	2508.621827
996.608586	2504.909017
996.903928	2507.288442
997.199234	2504.291476
997.494504	2504.170488
997.789738	2504.818276
998.084936	2503.618482
998.380099	2503.227792
998.675225	2505.236692
998.970316	2502.965652
999.265371	2502.869870
999.560390	2501.193687
999.855373	2502.607730
1000.150320	2500.845847
1000.445232	2500.896258
1000.740108	2498.410970
1001.034948	2499.393995
1001.329752	2500.019098
1001.624521	2495.913078
1001.919254	2492.903509
1002.213951	2495.025835
1002.508613	2494.622543
1002.803239	2496.969200
1003.097829	2491.812099
1003.392384	2497.513644
1003.686903	2496.601195
1003.981386	2499.683861
1004.275834	2496.127327
1004.570246	2499.280569
1004.864623	2498.829385
1005.158964	2498.410970
1005.453270	2497.627070
1005.747540	2498.320229
1006.041775	2496.722183
1006.335974	2496.616319
1006.630138	2494.909888
1006.924266	2498.637822
1007.218359	2496.669251
1007.512416	2497.952225
1007.806438	2498.370640
1008.100425	2498.277379
1008.394376	2494.627584
1008.688292	2496.225629
1008.982172	2496.046668
1009.276017	2496.074395
1009.569827	2495.459374
1009.863602	2497.622029
1010.157341	2496.550784
1010.451045	2494.975423
1010.744714	2498.174035
1011.038347	2493.261431
1011.331945	2496.492811
1011.625508	2495.345948
1011.919036	2496.202944
1012.212528	2496.767553
1012.505986	2496.530619
1012.799408	2499.094046
1013.092795	2495.776967
1013.386147	2496.167656
1013.679464	2496.084477
1013.972745	2495.303098
1014.265992	2493.430310
1014.559204	2496.964158
1014.852380	2494.309991
1015.145521	2497.909375
1015.438628	2493.185814
1015.731699	2496.384426
1016.024736	2495.890393
1016.317737	2495.151864
1016.610703	2497.702688
1016.903635	2493.027017
1017.196531	2493.069867
1017.489393	2494.783859
1017.782219	2492.502737
1018.075011	2493.163128
1018.367768	2494.960300
1018.660490	2494.970382
1018.953177	2494.970382
1019.245829	2494.970382
