Dividing Wavelength (nm)	Counts (n)	Blue Motor Position (mm): 0.000000	Red Motor Position (mm): 47.900000	
326.493990	2126.358692
326.888308	2126.358692
327.282561	2126.358692
327.676750	2094.314598
328.070874	2093.001377
328.464933	2098.692840
328.858929	2106.458738
329.252859	2112.757659
329.646726	2124.876593
330.040528	2136.241874
330.434265	2152.446663
330.827938	2171.734118
331.221547	2190.686336
331.615091	2208.133769
332.008571	2227.085987
332.401986	2247.288411
332.795338	2266.901020
333.188625	2283.103289
333.581847	2304.676907
333.975006	2322.096614
334.368100	2340.799295
334.761129	2361.934332
335.154095	2377.377907
335.546996	2396.695608
335.939833	2422.874320
336.332606	2439.472319
336.725315	2450.106633
337.117960	2460.219188
337.510540	2469.520117
337.903056	2477.747280
338.295508	2484.774648
338.687896	2497.291833
339.080220	2503.452123
339.472480	2511.820439
339.864676	2517.446367
340.256807	2516.874196
340.648875	2522.527850
341.040879	2522.573220
341.432818	2527.198479
341.824694	2527.170752
342.216506	2527.866432
342.608253	2531.304498
342.999937	2529.429189
343.391557	2530.351720
343.783113	2526.631349
344.174605	2528.012625
344.566033	2526.104548
344.957397	2523.064733
345.348697	2520.849145
345.739934	2521.822088
346.131106	2519.016686
346.522215	2516.770852
346.913260	2515.596263
347.304241	2514.885460
347.695159	2511.734739
348.086012	2513.272291
348.476802	2508.609224
348.867528	2507.497649
349.258191	2506.970849
349.648789	2503.900786
350.039324	2502.378358
350.429796	2502.998420
350.820203	2501.198728
351.210548	2500.349293
351.600828	2498.607575
351.991045	2499.575476
352.381198	2496.051710
352.771288	2496.449961
353.161314	2497.430465
353.551276	2496.639004
353.941175	2496.006339
354.331010	2499.315857
354.720782	2495.497183
355.110490	2494.806545
355.500135	2494.902327
355.889717	2497.788387
356.279235	2493.939466
356.668689	2497.569097
357.058080	2496.202944
357.447408	2496.099601
357.836672	2496.238232
358.225873	2501.405415
358.615010	2494.632625
359.004084	2501.617143
359.393095	2500.487925
359.782043	2502.723677
360.170927	2501.783502
360.559748	2502.670745
360.948505	2503.903307
361.337199	2504.349449
361.725830	2505.768534
362.114398	2507.507732
362.502903	2506.184429
362.891344	2508.674759
363.279722	2508.662156
363.668037	2509.425891
364.056289	2508.969666
364.444478	2511.838083
364.832603	2509.400685
365.220665	2510.353463
365.608665	2512.745491
365.996601	2511.263391
366.384474	2513.478978
366.772284	2514.618279
367.160031	2516.055008
367.547715	2517.426202
367.935336	2519.850997
368.322893	2523.218488
368.710388	2526.217974
369.097820	2532.101001
369.485189	2534.702236
369.872495	2540.555016
370.259738	2547.615152
370.646918	2557.543704
371.034035	2560.951524
371.421090	2573.561971
371.808081	2584.443301
372.195010	2593.189703
372.581875	2607.665376
372.968678	2621.586523
373.355418	2629.486011
373.742096	2648.957467
374.128710	2661.719148
374.515262	2675.610048
374.901751	2694.869776
375.288177	2704.011909
375.674540	2727.851525
376.060841	2747.176788
376.447079	2765.798811
376.833254	2784.284722
377.219367	2796.741413
377.605417	2836.511076
377.991404	2846.805112
378.377329	2865.976620
378.763191	2881.616800
379.148991	2922.029210
379.534727	2946.569547
379.920402	2972.899493
380.306013	2989.328613
380.691563	3037.915254
381.077049	3059.042730
381.462474	3077.437900
381.847835	3115.932151
382.233134	3139.449134
382.618371	3137.593989
383.003545	3204.618650
383.388657	3211.691389
383.773706	3246.697161
384.158693	3261.742485
384.543618	3288.279119
384.928480	3323.448729
385.313280	3369.913044
385.698017	3367.722662
386.082692	3421.904984
386.467305	3428.866817
386.851856	3455.317752
387.236344	3481.297338
387.620770	3512.610465
388.005133	3540.609033
388.389435	3566.210533
388.773674	3575.493818
389.157851	3621.242289
389.541965	3633.567910
389.926018	3597.896706
390.310008	3669.723066
390.693936	3689.227290
391.077802	3729.743043
391.461606	3718.765931
391.845348	3782.718009
392.229027	3785.757824
392.612645	3794.262251
392.996200	3871.401987
393.379694	3911.350611
393.763125	3977.603975
394.146494	3944.728090
394.529801	4008.854088
394.913047	4054.607600
395.296230	4020.098382
395.679351	4076.556784
396.062410	4096.658385
396.445408	4078.293462
396.828343	4114.589769
397.211217	4135.026607
397.594028	4056.460224
397.976778	4123.812560
398.359466	4152.438752
398.742092	4179.575283
399.124656	4103.605095
399.507158	4182.201725
399.889598	4206.573183
400.271977	4271.674644
400.654294	4240.056527
401.036549	4249.551540
401.418742	4219.304617
401.800874	4316.465296
402.182944	4345.484698
402.564952	4407.518616
402.946898	4394.300711
403.328783	4389.746028
403.710606	4303.038182
404.092367	4496.416844
404.474067	4459.397131
404.855705	4469.013132
405.237282	4395.873551
405.618797	4507.693905
406.000250	4540.854615
406.381642	4618.430411
406.762972	4582.025718
407.144240	4592.728088
407.525447	4594.570630
407.906593	4655.964322
408.287677	4699.431671
408.668700	4622.634733
409.049661	4673.172301
409.430560	4716.929516
409.811399	4644.064678
410.192176	4802.918998
410.572891	4741.427003
410.953545	4843.467519
411.334138	4724.856730
411.714669	4796.975477
412.095139	4688.532696
412.475547	4830.259696
412.855894	4814.687571
413.236180	4816.499866
413.616405	4773.380357
413.996568	4860.899829
414.376670	4803.534018
414.756711	4760.043984
415.136691	4788.576915
415.516609	4869.386611
415.896466	4904.478083
416.276262	4941.807827
416.655997	4918.096760
417.035670	5102.907981
417.415283	5195.229152
417.794834	5141.840812
418.174324	5092.074541
418.553753	5003.322507
418.933121	5182.646432
419.312428	5253.043625
419.691674	5194.677145
420.070859	5313.774405
420.449983	5229.304831
420.829045	5340.500082
421.208047	5249.461885
421.586988	5323.632381
421.965867	5330.873999
422.344686	5466.541531
422.723444	5317.560312
423.102141	5138.410307
423.480777	5437.275112
423.859352	5206.952355
424.237866	5465.064473
424.616319	5458.178257
424.994712	5567.725051
425.373044	5446.034117
425.751314	5588.802115
426.129524	5389.001023
426.507673	5583.944963
426.885762	5663.887581
427.263789	5599.580102
427.641756	5480.021577
428.019662	5598.450883
428.397508	5605.826091
428.775292	5555.149892
429.153016	5651.579604
429.530679	5576.179066
429.908282	5664.444628
430.285824	5532.578126
430.663305	5806.947965
431.040726	5545.634714
431.418086	5549.415580
431.795385	5650.132792
432.172624	5663.282642
432.549802	5657.704606
432.926920	5667.181975
433.303977	5681.246794
433.680974	5716.683585
434.057910	5733.382407
434.434786	5741.304580
434.811601	5710.392225
435.188355	5941.662719
435.565050	5817.476415
435.941683	5800.906142
436.318257	6014.240211
436.694770	5999.537686
437.071222	6034.724940
437.447614	5962.273477
437.823946	5878.025714
438.200218	6031.470875
438.576429	5894.530452
438.952580	5996.024002
439.328670	6041.031423
439.704700	5945.914933
440.080670	5930.085710
440.456580	6206.751794
440.832429	6086.094298
441.208218	5931.582932
441.583947	6092.156285
441.959616	6090.412046
442.335224	6021.048290
442.710773	6157.565256
443.086261	6183.277662
443.461689	5980.361137
443.837057	6128.293797
444.212365	6282.820285
444.587612	6176.845149
444.962800	6329.682852
445.337927	6304.225025
445.712995	5917.571045
446.088002	6498.657287
446.462949	6327.658828
446.837837	6265.640033
447.212664	6428.338232
447.587431	6575.355923
447.962139	7117.015300
448.336786	8044.017958
448.711374	7787.955069
449.085901	6857.617688
449.460369	6778.905112
449.834776	6710.688218
450.209124	7107.716892
450.583412	7255.354644
450.957640	7400.333188
451.331808	7164.409708
451.705917	6720.921760
452.079965	6639.413864
452.453954	6852.949580
452.827883	6729.532051
453.201752	6826.246588
453.575562	6621.353931
453.949311	6826.738100
454.323001	6714.353137
454.696632	6787.825434
455.070202	6927.379696
455.443713	7079.584733
455.817164	7179.772625
456.190556	7263.546519
456.563888	7337.953950
456.937160	7380.602112
457.310373	7039.966305
457.683526	7064.773823
458.056619	6958.236598
458.429653	6946.208405
458.802628	6876.718620
459.175542	6982.925649
459.548398	7343.494178
459.921194	7503.757500
460.293930	7509.310331
460.666607	8035.400105
461.039224	8343.749842
461.411782	8469.060324
461.784280	8485.870051
462.156719	8376.661015
462.529099	8256.023683
462.901419	7849.053853
463.273680	7737.707368
463.645882	7752.871158
464.018024	7618.995756
464.390106	7790.248794
464.762130	8170.813059
465.134094	8638.596848
465.505999	9662.702211
465.877845	10883.967100
466.249631	11530.285873
466.621358	11154.659418
466.993026	10525.541062
467.364634	10267.013049
467.736184	9901.393284
468.107674	9573.100742
468.479105	9602.689795
468.850477	9368.089618
469.221790	9137.842478
469.593043	8808.095564
469.964238	8677.254936
470.335373	8685.426647
470.706449	8742.936130
471.077467	8726.708656
471.448425	10038.013594
471.819324	11112.442275
472.190164	11132.581685
472.560945	9881.158092
472.931667	9091.877237
473.302330	8958.868914
473.672934	8601.940098
474.043479	8959.173903
474.413965	8903.638032
474.784393	8777.679762
475.154761	8939.120193
475.525070	9025.772587
475.895321	8857.312349
476.265513	9028.247793
476.635645	9194.515130
477.005719	9203.861429
477.375734	9316.238830
477.745691	9548.210045
478.115588	9681.732567
478.485427	9928.565103
478.855207	10464.933790
479.224928	11279.561566
479.594591	11914.288206
479.964194	11724.062786
480.333739	11662.999289
480.703226	11581.612381
481.072653	11664.932572
481.442022	11906.451732
481.811333	12092.109867
482.180584	11912.695201
482.549777	11609.162287
482.918912	11431.809453
483.287988	11459.722322
483.657005	11468.496451
484.025964	11154.614047
484.394864	11276.839343
484.763706	11249.299520
485.132489	11010.666420
485.501213	10969.681839
485.869879	11048.790146
486.238487	10886.865764
486.607036	11001.206695
486.975527	10776.156984
487.343959	10971.874741
487.712333	11015.624395
488.080648	10947.601585
488.448905	10986.693213
488.817104	10929.932341
489.185244	11191.777434
489.553326	11351.534120
489.921350	11880.451981
490.289315	12946.474538
490.657222	13295.390440
491.025070	13201.773692
491.392861	13080.271802
491.760593	12699.450438
492.128267	12347.003208
492.495883	12018.771160
492.863440	11688.290758
493.230939	11347.806186
493.598380	11277.615681
493.965763	11148.025259
494.333088	11046.856863
494.700354	10966.463063
495.067563	11026.447752
495.434713	10858.544562
495.801805	10990.128759
496.168839	10911.204455
496.535815	10851.610454
496.902733	10847.481749
497.269593	10780.268045
497.636395	10882.663962
498.003139	10864.215860
498.369825	10733.239121
498.736453	10892.736188
499.103023	10816.581997
499.469535	10843.169042
499.835989	10837.346510
500.202385	10798.411158
500.568723	10652.149641
500.935003	10867.018741
501.301226	10680.727942
501.667390	10934.171952
502.033497	11030.886488
502.399546	10893.820036
502.765537	10798.315376
503.131470	10874.983764
503.497345	11049.206041
503.863163	10657.344550
504.228923	10967.234359
504.594625	11036.570389
504.960269	10782.677717
505.325856	11002.819864
505.691385	10796.992073
506.056856	10953.910589
506.422270	10976.855401
506.787625	10867.048988
507.152924	10980.606020
507.518164	10961.119439
507.883347	10885.623119
508.248472	10802.726386
508.613540	11034.919411
508.978550	10923.575446
509.343503	10890.472709
509.708398	11015.193376
510.073236	11121.370158
510.438016	11132.967333
510.802738	11079.087481
511.167403	11125.876950
511.532010	11023.347442
511.896561	11256.967115
512.261053	11329.864720
512.625488	11196.420336
512.989866	11178.889724
513.354186	11178.022645
513.718449	11077.691081
514.082655	11263.565985
514.446803	11156.020529
514.810894	11288.610437
515.174927	11154.246043
515.538904	11168.860348
515.902822	11337.839825
516.266684	11218.036804
516.630488	11155.092957
516.994235	11211.821061
517.357925	11277.943356
517.721558	11367.650688
518.085133	11377.022193
518.448651	11393.471478
518.812112	11268.135791
519.175516	11290.475664
519.538863	11404.899774
519.902152	11325.766262
520.265385	11488.126704
520.628560	11399.586398
520.991678	11371.587830
521.354739	11438.466297
521.717743	11371.718900
522.080690	11350.520848
522.443580	11486.553864
522.806413	11443.794797
523.169189	11474.555918
523.531908	11531.720082
523.894569	11347.382729
524.257174	11347.919612
524.619722	11469.799589
524.982213	11416.620457
525.344647	11463.142745
525.707025	11419.849316
526.069345	11505.548931
526.431608	11429.137642
526.793815	11537.837522
527.155964	11328.692652
527.518057	11374.259641
527.880093	11332.791110
528.242072	11398.797457
528.603995	11307.267748
528.965860	11226.455531
529.327669	11281.623398
529.689421	11228.711447
530.051117	11196.110305
530.412755	11305.200875
530.774337	11192.009327
531.135862	11176.906030
531.497331	11198.658609
531.858743	11046.004908
532.220098	11216.716022
532.581396	11085.547719
532.942638	11068.344782
533.303824	11031.277178
533.664953	11049.440455
534.026025	10958.911414
534.387040	11059.280787
534.747999	11057.937320
535.108902	11120.631629
535.469748	10885.842410
535.830537	10986.274797
536.191270	10964.209667
536.551947	10983.686165
536.912567	10982.554426
537.273131	10908.283106
537.633638	10888.756197
537.994089	10876.246573
538.354483	10821.628192
538.714821	10961.487444
539.075103	10978.773560
539.435328	10940.596902
539.795497	10770.089956
540.155609	10923.635940
540.515665	11017.368634
540.875665	10750.585731
541.235609	10815.125103
541.595496	10816.468571
541.955328	10968.890378
542.315102	10853.190856
542.674821	10804.460543
543.034483	10809.035390
543.394090	10809.269803
543.753640	10739.338917
544.113134	10965.759822
544.472571	10815.679630
544.831953	10962.392331
545.191278	10762.016548
545.550548	10788.885898
545.909761	10929.428226
546.268918	10903.428475
546.628019	10983.255146
546.987064	10853.982317
547.346053	10771.501479
547.704986	10873.138702
548.063863	10855.386279
548.422684	10850.685403
548.781449	10765.878072
549.140158	10864.881292
549.498811	10741.352858
549.857408	10599.663667
550.215949	10827.617083
550.574434	10681.746255
550.932864	10778.264187
551.291237	10842.294402
551.649555	10788.774992
552.007817	10795.026023
552.366022	10763.027299
552.724173	10753.388613
553.082267	10742.648435
553.440305	10871.369257
553.798288	10677.138640
554.156215	10828.834521
554.514086	10813.872377
554.871902	10657.836062
555.229661	10692.695641
555.587365	10668.117496
555.945014	10563.321989
556.302606	10693.908039
556.660143	10586.599517
557.017625	10734.867414
557.375050	10646.054886
557.732421	10779.572366
558.089735	10687.977121
558.446994	10687.180619
558.804197	10724.301155
559.161345	10721.669673
559.518437	10572.383463
559.875474	10659.953347
560.232455	10692.952740
560.589381	10646.475822
560.946251	10639.042641
561.303065	10742.867725
561.659825	10678.376244
562.016528	10604.603998
562.373177	10491.878757
562.729770	10602.731210
563.086307	10520.507470
563.442789	10607.248083
563.799216	10492.675259
564.155587	10541.564369
564.511904	10492.715589
564.868164	10482.126645
565.224370	10496.400672
565.580520	10424.095403
565.936615	10424.140773
566.292654	10289.463827
566.648638	10429.275188
567.004567	10385.263394
567.360441	10363.301608
567.716260	10280.775399
568.072023	10372.584892
568.427732	10329.130146
568.783385	10231.455270
569.138982	10304.307505
569.494525	10325.593777
569.850013	10193.513026
570.205445	10277.823803
570.560823	10170.006125
570.916145	10092.158107
571.271412	10168.937401
571.626625	10110.102094
571.981782	10084.177960
572.336884	10059.146111
572.691931	10061.727182
573.046923	10015.325881
573.401860	9967.218150
573.756743	9905.043079
574.111570	9945.805849
574.466342	9924.355739
574.821059	9955.820101
575.175722	9850.752373
575.530330	9855.362508
575.884882	9849.638278
576.239380	9777.617833
576.593823	9757.039843
576.948211	9774.197410
577.302544	9655.208536
577.656823	9663.516357
578.011047	9668.234877
578.365216	9639.480136
578.719330	9563.923322
579.073389	9574.318181
579.427394	9524.226756
579.781344	9504.364610
580.135239	9448.861506
580.489080	9455.178072
580.842866	9358.639975
581.196597	9364.984268
581.550273	9408.587728
581.903895	9373.302171
582.257463	9445.355383
582.610975	9311.991658
582.964434	9343.060289
583.317837	9267.329556
583.671186	9244.049507
584.024481	9238.234536
584.377721	9160.406683
584.730906	9138.533116
585.084037	9168.386829
585.437113	9101.263866
585.790135	9125.776476
586.143103	9028.096559
586.496016	8999.856015
586.848874	9049.970125
587.201679	9043.792191
587.554428	8933.123741
587.907124	8975.061100
588.259765	8951.516391
588.612352	8947.044887
588.964884	8830.465684
589.317362	8840.651335
589.669786	8834.498607
590.022155	8893.981702
590.374470	8906.491325
590.726731	8841.372220
591.078937	8694.258748
591.431090	8812.120925
591.783188	8677.559926
592.135232	8678.401799
592.487222	8674.515069
592.839157	8730.469356
593.191038	8657.143253
593.542866	8601.990509
593.894639	8510.218824
594.246358	8554.908653
594.598022	8574.259122
594.949633	8467.164850
595.301190	8441.838093
595.652692	8470.476888
596.004141	8580.500071
596.355535	8354.530349
596.706876	8341.360335
597.058162	8275.669059
597.409395	8344.916869
597.760573	8410.219976
598.111698	8321.299063
598.462768	8305.923544
598.813785	8268.613964
599.164748	8243.566992
599.515657	8231.105259
599.866511	8140.477916
600.217312	8266.582379
600.568060	8127.139023
600.918753	8228.892193
601.269392	8196.560752
601.619978	8109.404244
601.970510	8176.237341
602.320988	8172.481681
602.671412	8224.720638
603.021783	8161.524733
603.372100	8136.845765
603.722363	8138.373234
604.072572	8117.719627
604.422728	8126.276986
604.772830	8056.497334
605.122878	8060.931029
605.472872	8057.268631
605.822813	8081.945079
606.172701	8028.350052
606.522534	8102.661700
606.872314	8108.401054
607.222041	8077.765962
607.571714	8132.792677
607.921333	8088.770801
608.270899	8096.695495
608.620411	8187.199330
608.969870	8092.196265
609.319276	8086.988753
609.668627	8104.582380
610.017926	8132.588510
610.367171	8180.774379
610.716362	8163.914240
611.065500	8149.831777
611.414585	8177.122063
611.763616	8162.790063
612.112594	8146.789441
612.461518	8163.047162
612.810389	8215.276036
613.159207	8159.772932
613.507971	8106.195549
613.856682	8231.014518
614.205340	8184.194802
614.553945	8255.000328
614.902496	8156.478538
615.250994	8215.190337
615.599439	8194.687964
615.947830	8212.775624
616.296169	8180.020727
616.644454	8193.525978
616.992686	8192.497583
617.340864	8243.977846
617.688990	8152.112899
618.037063	8251.864731
618.385082	8192.865587
618.733048	8279.175182
619.080961	8217.042961
619.428821	8237.961228
619.776628	8241.764779
620.124382	8194.380453
620.472083	8171.768358
620.819731	8205.433183
621.167326	8089.542097
621.514868	8100.856967
621.862357	7989.142477
622.209793	8011.613421
622.557176	7940.621372
622.904506	7915.536590
623.251783	7849.384049
623.599007	7798.652397
623.946179	7800.063920
624.293297	7764.407839
624.640363	7681.445570
624.987376	7663.718353
625.334336	7613.205991
625.681243	7559.585758
626.028097	7550.584778
626.374899	7524.532095
626.721647	7521.782146
627.068343	7447.339427
627.414987	7423.819923
627.761577	7373.723457
628.108115	7409.707213
628.454600	7307.081924
628.801032	7360.011519
629.147412	7315.336813
629.493739	7300.004144
629.840014	7242.456852
630.186236	7298.171684
630.532405	7184.496186
630.878521	7235.558033
631.224585	7193.449275
631.570597	7108.909125
631.916556	7145.142418
632.262462	7146.359857
632.608316	7102.479133
632.954117	7079.849394
633.299866	7066.679379
633.645562	7059.798204
633.991206	6977.395503
634.336797	6923.984478
634.682336	6880.597788
635.027823	6844.767787
635.373257	6840.714699
635.718639	6772.200377
636.063968	6781.627335
636.409245	6676.095820
636.754470	6669.875037
637.099642	6633.987062
637.444762	6578.025213
637.789829	6587.260607
638.134845	6528.692482
638.479808	6514.675554
638.824719	6515.512385
639.169577	6445.609225
639.514383	6463.593542
639.859137	6392.006637
640.203839	6408.977681
640.548489	6387.252828
640.893086	6369.961671
641.237632	6336.742987
641.582125	6359.927254
641.926566	6322.363096
642.270955	6343.054512
642.615292	6338.111661
642.959576	6350.689340
643.303809	6344.052661
643.647990	6350.896027
643.992118	6342.628535
644.336195	6284.186438
644.680219	6309.563607
645.024192	6299.335105
645.368112	6390.519496
645.711981	6414.772487
646.055797	6492.706205
646.399562	6451.988806
646.743274	6577.168217
647.086935	6634.707947
647.430544	6623.907275
647.774101	6649.526419
648.117606	6649.385267
648.461059	6645.243959
648.804460	6606.870696
649.147810	6515.819896
649.491108	6485.686398
649.834354	6460.742769
650.177548	6375.151539
650.520690	6296.628006
650.863781	6267.661536
651.206820	6287.327077
651.549807	6207.394542
651.892742	6150.855481
652.235626	6158.334032
652.578458	6143.654192
652.921238	6052.923505
653.263967	6090.585966
653.606644	6030.039188
653.949269	6034.379621
654.291843	5973.066587
654.634365	6022.255646
654.976836	5973.979036
655.319255	5975.186393
655.661622	5956.816428
656.003938	5948.090191
656.346203	5912.550056
656.688416	5941.327483
657.030577	5895.841152
657.372687	5862.715730
657.714746	5853.072002
658.056753	5892.367797
658.398708	5834.081976
658.740612	5828.478733
659.082465	5872.399786
659.424266	5866.040371
659.766016	5862.201532
660.107715	5840.554817
660.449362	5854.118042
660.790958	5848.282906
661.132503	5833.464434
661.473996	5873.985229
661.815438	5858.788671
662.156829	5862.710688
662.498168	5852.031004
662.839456	5824.133259
663.180693	5863.517273
663.521879	5862.153641
663.863013	5852.451940
664.204097	5869.609508
664.545129	5914.954686
664.886110	5909.595940
665.227040	5946.005673
665.567918	5904.012862
665.908746	5932.903715
666.249522	5936.732471
666.590248	5923.360810
666.930922	5955.762827
667.271545	5969.777234
667.612118	5969.331092
667.952639	5946.650941
668.293109	5963.846317
668.633528	5919.285038
668.973896	5927.681079
669.314213	5912.648358
669.654480	5898.691924
669.994695	5891.369648
670.334859	5881.869594
670.674973	5868.896184
671.015035	5871.633531
671.355047	5876.742740
671.695008	5861.498291
672.034918	5829.882695
672.374777	5848.361044
672.714585	5830.364125
673.054342	5830.349001
673.394049	5826.280790
673.733705	5852.056210
674.073310	5845.651424
674.412864	5806.635414
674.752368	5794.277025
675.091820	5798.753570
675.431223	5736.089507
675.770574	5739.235187
676.109875	5688.455644
676.449125	5693.746335
676.788324	5660.762065
677.127473	5603.565134
677.466571	5596.991469
677.805619	5584.834727
678.144616	5567.639351
678.483562	5549.357607
678.822458	5520.456672
679.161303	5512.539539
679.500098	5503.926728
679.838842	5486.504500
680.177535	5490.870140
680.516179	5508.168859
680.854771	5517.104304
681.193314	5594.012147
681.531805	5710.283840
681.870247	5853.767682
682.208638	5962.492767
682.546978	5974.145394
682.885268	5953.708557
683.223508	5865.626996
683.561697	5813.869469
683.899836	5779.846722
684.237925	5740.525722
684.575963	5702.374270
684.913951	5662.637375
685.251889	5717.275921
685.589776	5690.527558
685.927614	5665.157952
686.265401	5735.489609
686.603137	5717.313729
686.940824	5791.338032
687.278460	5818.923226
687.616046	5825.181819
687.953582	5894.855606
688.291068	5873.317276
688.628504	5942.310508
688.965889	5902.394652
689.303224	5847.829202
689.640510	5803.701462
689.977745	5724.338577
690.314930	5627.878619
690.652065	5568.811419
690.989150	5477.947142
691.326185	5398.241458
691.663170	5342.796328
692.000105	5271.287560
692.336990	5189.613306
692.673825	5163.926107
693.010610	5099.016210
693.347345	5028.072052
693.684030	5012.494887
694.020665	4974.043486
694.357251	4884.978900
694.693786	4893.637082
695.030272	4860.350343
695.366707	4822.778623
695.703093	4791.228562
696.039429	4813.129855
696.375716	4791.553716
696.711952	4769.753247
697.048139	4757.238582
697.384276	4735.546497
697.720363	4746.125358
698.056400	4754.763376
698.392388	4707.076581
698.728326	4687.519424
699.064214	4666.253317
699.400053	4657.559847
699.735842	4624.638592
700.071581	4602.255869
700.407270	4572.049275
700.742910	4556.560330
701.078501	4503.383718
701.414042	4498.476155
701.749533	4472.516733
702.084974	4404.624994
702.420366	4460.896874
702.755709	4402.442174
703.091002	4346.470243
703.426246	4397.106113
703.761440	4353.227910
704.096584	4316.140141
704.431679	4337.333152
704.766725	4321.796316
705.101721	4310.700736
705.436668	4340.141075
705.771565	4287.035039
706.106413	4315.270542
706.441212	4344.705839
706.775961	4354.692365
707.110661	4334.689067
707.445311	4363.985732
707.779913	4387.459865
708.114465	4396.977564
708.448967	4423.042850
708.783421	4482.203311
709.117825	4526.651164
709.452180	4530.462276
709.786485	4573.080191
710.120742	4662.298532
710.454949	4644.173063
710.789107	4711.477508
711.123216	4788.725629
711.457275	4777.937560
711.791286	4850.255432
712.125247	4866.855952
712.459159	4767.877937
712.793023	4847.200493
713.126837	4803.410510
713.460602	4801.978822
713.794318	4720.544023
714.127985	4723.515783
714.461602	4638.915140
714.795171	4606.689564
715.128691	4545.043814
715.462162	4491.542048
715.795584	4438.957772
716.128957	4420.179474
716.462281	4367.242318
716.795556	4345.870346
717.128782	4301.364519
717.461960	4236.026124
717.795088	4242.158688
718.128167	4205.701063
718.461198	4139.815703
718.794180	4138.023573
719.127113	4121.481027
719.459997	4103.224488
719.792833	4053.054925
720.125619	4048.767423
720.458357	4008.324767
720.791046	4017.524872
721.123686	3991.431860
721.456278	3947.886373
721.788821	3966.422696
722.121315	3935.452367
722.453761	3911.627874
722.786158	3924.502981
723.118506	3945.330508
723.450805	3900.310484
723.783056	3918.982918
724.115259	3937.622584
724.447412	3941.879838
724.779518	3936.198458
725.111574	3941.385805
725.443582	3967.466215
725.775542	3954.558340
726.107453	4003.235722
726.439315	4007.588758
726.771129	4020.095861
727.102895	4056.510636
727.434612	4102.319601
727.766281	4114.660345
728.097901	4116.167650
728.429473	4122.335502
728.760996	4129.299856
729.092471	4124.006645
729.423897	4107.040641
729.755276	4116.891056
730.086606	4113.573977
730.417887	4153.182323
730.749120	4215.952250
731.080305	4277.398874
731.411442	4307.146723
731.742530	4277.686220
732.073570	4282.102270
732.404562	4338.313656
732.735506	4328.730423
733.066401	4292.713899
733.397249	4227.395669
733.728048	4150.266015
734.058798	4063.580854
734.389501	3996.072242
734.720156	3932.369702
735.050762	3887.826066
735.381320	3880.110580
735.711831	3829.933456
736.042293	3798.786687
736.372707	3821.396262
736.703073	3795.540183
737.033391	3785.586425
737.363661	3803.573262
737.693883	3828.126202
738.024056	3836.149198
738.354182	3834.188189
738.684260	3894.722365
739.014290	3916.250612
739.344272	3913.851023
739.674207	3952.695634
740.004093	3960.277529
740.333931	3951.957105
740.663722	3958.805512
740.993464	3951.521045
741.323159	3929.365174
741.652806	3898.833426
741.982405	3869.672871
742.311956	3838.203468
742.641460	3828.353054
742.970915	3808.702636
743.300323	3767.644959
743.629683	3727.797158
743.958996	3719.910273
744.288260	3696.877241
744.617477	3662.884741
744.946647	3648.837565
745.275768	3624.503916
745.604842	3621.287660
745.933869	3573.646235
746.262847	3563.700039
746.591778	3605.450875
746.920662	3577.006164
747.249498	3540.440155
747.578286	3588.343719
747.907027	3605.231585
748.235720	3604.344342
748.564365	3627.702528
748.892963	3626.941314
749.221514	3612.047225
749.550017	3591.159204
749.878473	3586.518822
750.206881	3556.980181
750.535242	3550.925755
750.863555	3553.514387
751.191821	3549.100857
751.520039	3530.390615
751.848210	3505.358765
752.176334	3542.406205
752.504411	3548.858882
752.832440	3507.344980
753.160421	3491.238493
753.488356	3498.896006
753.816243	3513.454858
754.144082	3470.282417
754.471875	3453.603759
754.799620	3473.039928
755.127318	3462.718165
755.454969	3465.579020
755.782572	3471.275524
756.110129	3448.585291
756.437638	3434.996860
756.765100	3449.873305
757.092515	3462.695480
757.419882	3469.944659
757.747203	3443.662604
758.074477	3442.513221
758.401703	3457.929069
758.728882	3480.490753
759.056014	3485.068121
759.383099	3490.782269
759.710138	3487.558451
760.037129	3503.818693
760.364073	3534.751213
760.690970	3519.027854
761.017820	3497.476921
761.344623	3515.196577
761.671379	3561.920511
761.998088	3613.977987
762.324751	3738.607913
762.651366	3984.752331
762.977935	4460.120536
763.304456	4907.071757
763.630931	5003.408207
763.957359	4650.406450
764.283740	4298.833860
764.610074	4107.539716
764.936362	3910.281886
765.262602	3747.561002
765.588796	3633.847694
765.914943	3550.371228
766.241044	3458.526446
766.567097	3429.784307
766.893104	3382.392420
767.219064	3352.783203
767.544978	3322.135508
767.870845	3268.842950
768.196665	3248.781678
768.522438	3257.366763
768.848165	3254.173192
769.173846	3213.992676
769.499479	3196.330993
769.825066	3181.734332
770.150607	3165.532064
770.476101	3182.858510
770.801548	3174.933816
771.126949	3133.150212
771.452303	3113.605659
771.777611	3118.654374
772.102872	3124.948255
772.428087	3102.121910
772.753256	3092.833584
773.078378	3083.152048
773.403453	3049.676266
773.728482	3039.198228
774.053465	3058.697411
774.378401	3046.449928
774.703291	3013.546317
775.028135	3017.727954
775.352932	3011.164371
775.677683	3000.015860
776.002388	2994.460508
776.327046	2995.635097
776.651658	2989.467245
776.976224	2974.515183
777.300743	2976.357725
777.625216	2963.938842
777.949643	2958.683439
778.274024	2964.921867
778.598359	2953.700259
778.922647	2957.090435
779.246889	2955.487348
779.571086	2942.128290
779.895236	2935.166457
780.219339	2944.694237
780.543397	2960.808286
780.867409	2963.202834
781.191374	2955.174796
781.515294	2950.995680
781.839167	2952.157666
782.162995	2941.029318
782.486776	2950.347891
782.810511	2950.990638
783.134201	2935.985644
783.457844	2943.219700
783.781441	2934.654779
784.104993	2914.631316
784.428498	2915.546286
784.751958	2928.002977
785.075372	2922.303953
785.398739	2905.557239
785.722061	2922.714807
786.045337	2938.060079
786.368568	2920.756318
786.691752	2911.233579
787.014891	2958.481793
787.337983	2988.345588
787.661030	3016.361801
787.984031	3082.516863
788.306987	3132.119296
788.629897	3124.595374
788.952760	3105.577621
789.275579	3093.549428
789.598351	3032.236394
789.921078	2986.997080
790.243759	2977.575163
790.566395	2960.936835
790.888984	2936.051179
791.211529	2922.094745
791.534027	2910.885739
791.856480	2900.485839
792.178888	2889.785990
792.501249	2874.745707
792.823566	2875.529607
793.145836	2873.298896
793.468062	2868.466950
793.790241	2865.656507
794.112375	2872.630943
794.434464	2885.790875
794.756507	2886.806668
795.078505	2893.060219
795.400457	2910.439597
795.722364	2944.835390
796.044226	2968.279276
796.366042	2973.544761
796.687812	2961.269551
797.009538	2978.941316
797.331218	2970.845223
797.652852	2955.429374
797.974442	2937.021601
798.295986	2931.035231
798.617484	2927.365271
798.938938	2911.422622
799.260346	2895.588358
799.581709	2892.014180
799.903026	2885.952192
800.224299	2881.001779
800.545526	2869.139944
800.866708	2852.700741
801.187845	2844.403002
801.508936	2843.919051
801.829983	2852.478931
802.150984	2837.854543
802.471940	2824.137564
802.792851	2827.875579
803.113717	2828.490600
803.434538	2831.137206
803.755314	2825.823830
804.076045	2816.855617
804.396731	2816.197746
804.717372	2819.565237
805.037967	2813.954433
805.358518	2818.438539
805.679024	2831.500169
805.999485	2826.963130
806.319901	2832.001764
806.640272	2822.060608
806.960598	2827.842812
807.280879	2838.222547
807.601115	2846.454752
807.921306	2831.439675
808.241453	2830.774243
808.561554	2834.933195
808.881611	2837.776405
809.201623	2830.330621
809.521590	2827.981443
809.841513	2824.167811
810.161390	2828.629232
810.481223	2825.034889
810.801011	2813.523414
811.120755	2811.703558
811.440453	2812.643733
811.760107	2811.625420
812.079716	2816.414516
812.399281	2802.485808
812.718801	2793.507513
813.038276	2791.954837
813.357707	2797.419448
813.677093	2803.645273
813.996434	2794.349386
814.315731	2792.990795
814.634983	2787.939558
814.954191	2791.985084
815.273354	2805.041673
815.592473	2811.695996
815.911547	2814.370328
816.230577	2823.530105
816.549562	2833.753565
816.868502	2829.244252
817.187399	2839.639112
817.506250	2854.490351
817.825058	2848.299814
818.143821	2861.094262
818.462539	2878.655122
818.781213	2905.617733
819.099843	2943.633074
819.418429	3002.002074
819.736970	3061.094480
820.055466	3133.450161
820.373919	3243.059969
820.692327	3379.801267
821.010691	3550.353584
821.329011	4000.299250
821.647286	4900.861055
821.965517	6302.753008
822.283704	7070.603917
822.601847	7054.749489
822.919945	6410.202681
823.237999	5895.153034
823.556010	5304.959948
823.873976	4745.280965
824.191897	4329.073221
824.509775	4029.280843
824.827609	3758.054163
825.145398	3630.790235
825.463144	3614.877832
825.780845	3707.325032
826.098502	3815.951815
826.416116	4098.936987
826.733685	4417.752159
827.051210	4490.264116
827.368692	4371.789438
827.686129	4102.763222
828.003522	3772.925567
828.320872	3513.343953
828.638177	3313.169816
828.955439	3174.964063
829.272656	3091.099427
829.589830	3019.625948
829.906960	2971.803042
830.224046	2927.045158
830.541088	2890.138870
830.858086	2879.804505
831.175041	2857.840198
831.491952	2862.185672
831.808819	2872.819986
832.125642	2893.161042
832.442421	2941.851027
832.759157	3026.028213
833.075849	3202.196376
833.392497	3485.849500
833.709101	3696.005121
834.025662	3646.853871
834.342179	3484.284222
834.658653	3305.169505
834.975083	3152.346926
835.291469	3056.076011
835.607811	2969.196766
835.924110	2911.916655
836.240366	2859.743233
836.556578	2817.195895
836.872746	2791.375105
837.188871	2770.436672
837.504952	2751.280288
837.820990	2747.017992
838.136984	2731.478635
838.452935	2726.654251
838.768842	2721.141749
839.084706	2739.103381
839.400526	2818.630103
839.716303	2950.937706
840.032037	3039.288969
840.347727	3024.407483
840.663373	2961.141002
840.978977	2885.236348
841.294537	2808.177271
841.610054	2759.744385
841.925527	2740.356107
842.240957	2713.968187
842.556344	2694.325332
842.871687	2677.843279
843.186987	2671.060407
843.502244	2664.406083
843.817458	2661.605722
844.132629	2649.824546
844.447756	2640.508494
844.762840	2634.365848
845.077881	2638.333236
845.392879	2632.944242
845.707833	2629.395270
846.022745	2622.481327
846.337613	2628.281175
846.652438	2623.421503
846.967221	2622.902264
847.281960	2620.656430
847.596656	2620.432098
847.911309	2619.413785
848.225919	2616.076542
848.540485	2612.363732
848.855009	2614.304576
849.169490	2613.263578
849.483928	2615.602673
849.798323	2613.286263
850.112675	2611.340377
850.426984	2611.352980
850.741251	2610.526231
851.055474	2609.399533
851.369654	2614.324741
851.683792	2610.584204
851.997887	2612.167127
852.311938	2609.495315
852.625947	2610.561519
852.939914	2615.781634
853.253837	2614.992693
853.567718	2611.468927
853.881555	2609.026488
854.195350	2614.924638
854.509103	2612.250306
854.822812	2610.758124
855.136479	2610.241406
855.450103	2612.444390
855.763685	2612.222579
856.077224	2612.386417
856.390720	2609.565891
856.704173	2612.043618
857.017584	2616.290791
857.330953	2615.864813
857.644278	2621.493261
857.957561	2619.141563
858.270802	2614.163424
858.584000	2616.603342
858.897155	2618.380349
859.210268	2620.744650
859.523339	2614.758280
859.836367	2608.933227
860.149352	2608.845006
860.462295	2611.615120
860.775195	2609.225613
861.088054	2607.645212
861.400869	2606.911724
861.713642	2602.740169
862.026373	2607.118411
862.339062	2610.821139
862.651708	2612.787189
862.964312	2616.144597
863.276873	2613.616458
863.589392	2615.000255
863.901869	2621.175669
864.214303	2625.440485
864.526696	2627.900568
864.839045	2629.387708
865.151353	2630.572379
865.463619	2630.060702
865.775842	2632.157822
866.088023	2631.041207
866.400162	2631.799900
866.712258	2632.374592
867.024313	2630.809314
867.336325	2626.776391
867.648296	2627.565331
867.960224	2633.226547
868.272110	2633.337452
868.583954	2626.322687
868.895755	2628.203037
869.207515	2631.066412
869.519233	2641.725932
869.830909	2633.092956
870.142542	2630.869807
870.454134	2633.014818
870.765684	2638.781898
871.077191	2641.501601
871.388657	2642.729122
871.700081	2642.829945
872.011463	2640.904224
872.322803	2642.459420
872.634101	2647.253557
872.945357	2654.464928
873.256571	2662.530774
873.567744	2657.116575
873.878874	2655.382418
874.189963	2655.974754
874.501010	2661.542708
874.812015	2665.089160
875.122979	2664.811896
875.433900	2658.303767
875.744780	2657.300577
876.055618	2662.992040
876.366415	2665.648728
876.677169	2665.066475
876.987882	2661.976247
877.298554	2661.063798
877.609183	2671.168791
877.919771	2678.637261
878.230317	2685.629341
878.540822	2695.767102
878.851285	2708.921992
879.161707	2734.389902
879.472087	2772.495984
879.782425	2822.531956
880.092722	2939.045624
880.402977	3132.136940
880.713191	3396.225346
881.023363	3699.407900
881.333494	3900.804517
881.643583	4072.160898
881.953631	4072.501176
882.263637	3892.388311
882.573602	3671.926050
882.883526	3533.047303
883.193408	3413.380393
883.503248	3307.332160
883.813048	3190.558872
884.122806	3077.047211
884.432522	2989.406751
884.742197	2923.506268
885.051831	2882.899773
885.361424	2845.280163
885.670975	2808.565439
885.980485	2777.945471
886.289954	2759.147008
886.599382	2743.181674
886.908768	2735.572052
887.218113	2712.050028
887.527417	2701.115766
887.836680	2692.157635
888.145901	2683.696059
888.455082	2678.609534
888.764221	2667.342556
889.073319	2658.666730
889.382376	2660.980619
889.691392	2656.022645
890.000366	2659.836277
890.309300	2657.507264
890.618193	2659.770742
890.927044	2660.416010
891.235855	2662.243428
891.544625	2661.681340
891.853353	2660.516833
892.162041	2668.741476
892.470687	2686.221677
892.779293	2701.123327
893.087858	2710.880481
893.396381	2735.572052
893.704864	2774.315840
894.013306	2848.506501
894.321707	2944.343877
894.630068	2996.471928
894.938387	3020.621576
895.246665	3013.150586
895.554903	2964.044706
895.863100	2922.392173
896.171256	2862.099973
896.479371	2802.556384
896.787446	2759.134405
897.095480	2741.913824
897.403473	2733.769840
897.711425	2715.684700
898.019336	2699.928574
898.327207	2684.691687
898.635038	2680.976356
898.942827	2680.421829
899.250576	2670.904131
899.558284	2659.531288
899.865952	2654.172541
900.173579	2651.830925
900.481165	2648.153403
900.788711	2641.158802
901.096216	2633.319808
901.403681	2631.469705
901.711105	2634.108749
902.018489	2627.414097
902.325832	2634.035652
902.633135	2636.460447
902.940397	2652.077942
903.247619	2690.972964
903.554800	2762.083480
903.861941	2890.239693
904.169041	3022.423788
904.476101	3088.019282
904.783121	3080.878488
905.090100	3023.358923
905.397039	2944.094340
905.703938	2867.864532
906.010796	2803.557053
906.317614	2750.776172
906.624391	2711.626572
906.931129	2685.520956
907.237826	2662.308963
907.544483	2644.848927
907.851099	2628.951648
908.157675	2620.999228
908.464211	2613.598814
908.770707	2599.982658
909.077163	2594.903695
909.383578	2593.368664
909.689954	2592.985536
909.996289	2587.087386
910.302584	2588.498909
910.608839	2584.067735
910.915054	2585.441450
911.221229	2587.296594
911.527363	2591.463108
911.833458	2587.964547
912.139513	2589.696183
912.445527	2590.265834
912.751502	2594.366813
913.057436	2603.277052
913.363331	2610.604369
913.669186	2620.812706
913.975000	2635.142185
914.280775	2652.627427
914.586510	2673.316323
914.892205	2710.313351
915.197859	2779.914042
915.503475	2862.707432
915.809050	2933.485232
916.114585	2954.307718
916.420081	2963.180148
916.725536	2975.180615
917.030952	2946.952674
917.336328	2900.332083
917.641665	2849.343333
917.946961	2798.261321
918.252218	2762.305291
918.557435	2736.809656
918.862612	2709.494163
919.167750	2691.560259
919.472848	2675.773885
919.777906	2659.616987
920.082925	2646.961171
920.387904	2636.105046
920.692843	2632.843419
920.997743	2625.876545
921.302603	2614.856582
921.607423	2612.025974
921.912204	2605.900973
922.216946	2601.512648
922.521647	2600.060796
922.826310	2595.775815
923.130932	2593.141812
923.435516	2584.201326
923.740059	2584.287025
924.044564	2581.615214
924.349028	2582.431881
924.653454	2571.011147
924.957840	2567.787329
925.262186	2568.488049
925.566493	2569.201373
925.870761	2563.182235
926.174989	2565.864129
926.479178	2564.480332
926.783328	2563.184755
927.087438	2562.216854
927.391509	2559.625701
927.695541	2554.380380
927.999533	2557.735268
928.303486	2557.268961
928.607400	2557.707542
928.911275	2557.271482
929.215110	2555.116389
929.518906	2551.733774
929.822663	2555.575134
930.126381	2554.887016
930.430060	2555.733930
930.733699	2554.667726
931.037299	2555.567572
931.340861	2557.843653
931.644383	2554.760987
931.947866	2556.666543
932.251309	2554.181255
932.554714	2553.931717
932.858080	2556.603529
933.161407	2552.989022
933.464694	2553.614125
933.767943	2551.033054
934.071153	2554.912222
934.374323	2550.337375
934.677455	2552.260575
934.980548	2551.239741
935.283602	2553.268806
935.586617	2549.104813
935.889593	2551.680842
936.192530	2552.421892
936.495428	2552.938610
936.798287	2551.038095
937.101108	2554.536656
937.403890	2556.646379
937.706632	2560.270968
938.009336	2563.968655
938.312002	2567.527709
938.614628	2573.216652
938.917216	2573.325036
939.219765	2575.588514
939.522275	2574.953329
939.824747	2574.156827
940.127179	2571.779923
940.429573	2567.212637
940.731929	2568.611557
941.034246	2564.192986
941.336524	2565.289437
941.638763	2569.120714
941.940964	2565.753223
942.243126	2567.086608
942.545250	2562.592420
942.847335	2562.720969
943.149381	2559.829867
943.451389	2559.759291
943.753359	2556.013714
944.055290	2557.253838
944.357182	2556.568241
944.659036	2555.542366
944.960851	2552.762170
945.262628	2555.219732
945.564367	2554.181255
945.866067	2555.008004
946.167729	2556.961451
946.469352	2555.623025
946.770937	2556.553117
947.072484	2556.976574
947.373992	2554.312325
947.675462	2553.178065
947.976893	2552.852911
948.278286	2553.903991
948.579641	2552.918446
948.880958	2549.797971
949.182236	2549.770245
949.483476	2553.341902
949.784678	2551.401058
950.085841	2551.857283
950.386967	2550.508774
950.688054	2552.613456
950.989103	2552.058929
951.290114	2552.384083
951.591087	2554.428271
951.892021	2556.779969
952.192917	2558.420865
952.493776	2558.826678
952.794596	2559.512275
953.095378	2561.909343
953.396122	2561.034703
953.696828	2561.778273
953.997496	2552.946172
954.298126	2555.338199
954.598718	2556.485062
954.899272	2554.171172
955.199788	2554.461039
955.500266	2550.092879
955.800706	2545.218083
956.101108	2540.590304
956.401472	2543.912424
956.701798	2541.674152
957.002087	2541.210366
957.302337	2543.562064
957.602550	2542.556354
957.902724	2543.221786
958.202861	2547.582384
958.502960	2540.098791
958.803022	2539.282124
959.103045	2541.127187
959.403031	2539.209028
959.702979	2539.849254
960.002889	2539.153575
960.302762	2539.629964
960.602596	2535.201310
960.902393	2535.770961
961.202153	2536.759027
961.501875	2537.111908
961.801559	2538.064686
962.101205	2537.142155
962.400814	2537.782381
962.700385	2533.434386
962.999918	2535.685261
963.299414	2537.091743
963.598873	2535.871784
963.898293	2538.702392
964.197677	2537.162319
964.497022	2534.808100
964.796331	2537.532844
965.095601	2533.782226
965.394835	2536.897659
965.694030	2537.472350
965.993189	2534.901362
966.292309	2535.949922
966.591393	2534.855991
966.890439	2535.027391
967.189447	2535.060158
967.488419	2533.840199
967.787353	2536.857329
968.086249	2535.644932
968.385108	2536.955632
968.683930	2535.816331
968.982714	2535.639891
969.281462	2534.366999
969.580172	2535.362627
969.878844	2535.534027
970.177480	2537.164840
970.476078	2536.932947
970.774639	2536.809438
971.073162	2533.058820
971.371649	2534.666948
971.670098	2534.649304
971.968510	2535.108049
972.266885	2532.085877
972.565223	2534.319108
972.863524	2537.994110
973.161788	2536.824562
973.460014	2535.846578
973.758204	2534.528316
974.056356	2535.763399
974.354471	2537.258101
974.652550	2537.626105
974.950591	2537.021167
975.248595	2536.267514
975.546563	2537.691640
975.844493	2536.605272
976.142386	2537.242978
976.440243	2536.365817
976.738062	2534.782895
977.035845	2533.938501
977.333590	2533.567977
977.631299	2534.079654
977.928971	2533.197452
978.226606	2532.295085
978.524204	2534.271218
978.821765	2538.594007
979.119290	2535.173584
979.416777	2534.624098
979.714228	2534.455220
980.011642	2537.046373
980.309020	2537.290869
980.606360	2533.373892
980.903664	2537.313554
981.200931	2537.689120
981.498162	2536.716177
981.795356	2537.300951
982.092513	2542.223638
982.389633	2542.090047
982.686717	2546.380069
982.983764	2549.271171
983.280775	2552.081614
983.577749	2553.165462
983.874686	2549.492982
984.171587	2546.213711
984.468451	2543.095757
984.765279	2542.286652
985.062070	2538.130221
985.358824	2535.339942
985.655543	2535.528985
985.952224	2535.181146
986.248869	2535.226516
986.545478	2531.428007
986.842050	2531.934643
987.138586	2530.419776
987.435086	2530.795342
987.731549	2526.409538
988.027975	2533.331042
988.324366	2529.754344
988.620719	2533.051258
988.917037	2533.673841
989.213318	2532.085877
989.509563	2529.484642
989.805772	2530.432379
990.101944	2531.017153
990.398080	2532.055630
990.694180	2531.339787
990.990244	2529.235105
991.286271	2534.795498
991.582262	2532.375744
991.878217	2531.024714
992.174136	2532.204344
992.470019	2531.753161
992.765865	2530.586134
993.061676	2532.738707
993.357450	2529.610671
993.653188	2531.453213
993.948890	2532.839530
994.244556	2531.062523
994.540186	2531.609488
994.835780	2531.675023
995.131337	2532.869777
995.426859	2531.077647
995.722345	2533.928419
996.017795	2534.785415
996.313208	2539.345139
996.608586	2536.038142
996.903928	2536.048224
997.199234	2534.636701
997.494504	2533.449509
997.789738	2533.474715
998.084936	2534.417411
998.380099	2534.082174
998.675225	2531.375075
998.970316	2533.262987
999.265371	2532.947915
999.560390	2531.233922
999.855373	2533.376413
1000.150320	2531.007070
1000.445232	2531.470857
1000.740108	2528.657893
1001.034948	2531.405322
1001.329752	2526.621267
1001.624521	2529.557739
1001.919254	2526.114631
1002.213951	2524.907274
1002.508613	2524.196472
1002.803239	2528.925074
1003.097829	2524.254445
1003.392384	2529.124199
1003.686903	2529.797193
1003.981386	2530.208047
1004.275834	2531.251566
1004.570246	2530.021525
1004.864623	2529.759385
1005.158964	2529.784591
1005.453270	2528.274765
1005.747540	2530.099663
1006.041775	2529.424148
1006.335974	2530.520599
1006.630138	2528.052954
1006.924266	2529.555218
1007.218359	2528.673016
1007.512416	2530.402132
1007.806438	2528.083201
1008.100425	2530.944056
1008.394376	2527.722759
1008.688292	2530.447502
1008.982172	2526.875845
1009.276017	2530.611340
1009.569827	2526.946421
1009.863602	2529.114117
1010.157341	2528.466329
1010.451045	2526.953983
1010.744714	2528.123530
1011.038347	2529.371216
1011.331945	2530.755013
1011.625508	2525.159332
1011.919036	2529.562780
1012.212528	2531.130579
1012.505986	2528.433561
1012.799408	2527.647141
1013.092795	2528.249559
1013.386147	2529.343490
1013.679464	2526.820392
1013.972745	2528.536905
1014.265992	2529.126720
1014.559204	2528.196627
1014.852380	2531.165867
1015.145521	2532.176618
1015.438628	2529.570342
1015.731699	2528.471370
1016.024736	2529.235105
1016.317737	2529.615712
1016.610703	2528.463808
1016.903635	2524.975330
1017.196531	2525.519774
1017.489393	2526.275948
1017.782219	2526.071781
1018.075011	2526.585978
1018.367768	2528.930115
1018.660490	2528.166380
1018.953177	2528.166380
1019.245829	2528.166380
