Dividing Wavelength (nm)	Counts (n)	Blue Motor Position (mm): 0.000000	Red Motor Position (mm): 46.000000	
326.493990	2136.897224
326.888308	2136.897224
327.282561	2136.897224
327.676750	2113.342433
328.070874	2112.606425
328.464933	2118.698659
328.858929	2127.283744
329.252859	2139.435445
329.646726	2155.257107
330.040528	2169.067348
330.434265	2189.662982
330.827938	2205.129242
331.221547	2227.428786
331.615091	2246.035685
332.008571	2264.173756
332.401986	2288.409103
332.795338	2307.076496
333.188625	2327.528457
333.581847	2345.616117
333.975006	2363.575228
334.368100	2385.524412
334.761129	2398.603685
335.154095	2414.357291
335.546996	2442.040787
335.939833	2469.373923
336.332606	2482.498568
336.725315	2497.768223
337.117960	2504.142762
337.510540	2512.382527
337.903056	2519.714886
338.295508	2528.284847
338.687896	2532.970600
339.080220	2540.552495
339.472480	2547.718495
339.864676	2551.892571
340.256807	2555.560010
340.648875	2557.737789
341.040879	2559.597974
341.432818	2561.866494
341.824694	2561.574107
342.216506	2563.315825
342.608253	2561.196020
342.999937	2561.795917
343.391557	2558.178890
343.783113	2556.296019
344.174605	2555.779300
344.566033	2554.516491
344.957397	2555.260062
345.348697	2549.072045
345.739934	2549.487940
346.131106	2548.827549
346.522215	2547.781510
346.913260	2545.137425
347.304241	2543.851930
347.695159	2542.321940
348.086012	2537.253060
348.476802	2539.231713
348.867528	2538.599048
349.258191	2535.813811
349.648789	2536.196938
350.039324	2533.028573
350.429796	2531.344828
350.820203	2530.697039
351.210548	2530.765095
351.600828	2529.903058
351.991045	2529.696370
352.381198	2528.728469
352.771288	2530.011442
353.161314	2527.949611
353.551276	2530.132430
353.941175	2528.736031
354.331010	2529.658562
354.720782	2531.475898
355.110490	2532.000178
355.500135	2529.111597
355.889717	2530.492873
356.279235	2529.716535
356.668689	2528.501617
357.058080	2535.213913
357.447408	2527.541277
357.836672	2528.675537
358.225873	2530.235774
358.615010	2530.003881
359.004084	2533.560415
359.393095	2532.746268
359.782043	2535.075282
360.170927	2533.578059
360.559748	2535.042514
360.948505	2534.999664
361.337199	2536.156609
361.725830	2538.712474
362.114398	2537.921013
362.502903	2539.244316
362.891344	2536.501928
363.279722	2536.902700
363.668037	2539.660211
364.056289	2541.112063
364.444478	2541.351518
364.832603	2539.637526
365.220665	2542.183308
365.608665	2539.705581
365.996601	2546.001983
366.384474	2542.175747
366.772284	2542.221117
367.160031	2542.967208
367.547715	2543.236910
367.935336	2542.818494
368.322893	2544.174564
368.710388	2546.193546
369.097820	2546.934596
369.485189	2546.412837
369.872495	2545.069369
370.259738	2548.026006
370.646918	2544.439225
371.034035	2546.309493
371.421090	2548.179761
371.808081	2548.252858
372.195010	2547.726057
372.581875	2546.793444
372.968678	2553.130174
373.355418	2550.992725
373.742096	2553.296532
374.128710	2552.313507
374.515262	2554.178734
374.901751	2552.121943
375.288177	2553.944320
375.674540	2558.158725
376.060841	2562.708366
376.447079	2558.065464
376.833254	2560.656617
377.219367	2559.860114
377.605417	2562.446226
377.991404	2565.710373
378.377329	2568.982082
378.763191	2568.319171
379.148991	2573.738411
379.534727	2582.467169
379.920402	2584.087900
380.306013	2588.357757
380.691563	2592.635176
381.077049	2595.554004
381.462474	2602.125148
381.847835	2604.456682
382.233134	2613.702158
382.618371	2614.659977
383.003545	2623.466873
383.388657	2627.126751
383.773706	2635.704274
384.158693	2636.697381
384.543618	2646.651140
384.928480	2655.596667
385.313280	2661.620846
385.698017	2668.736435
386.082692	2677.639112
386.467305	2682.975174
386.851856	2691.121678
387.236344	2703.293544
387.620770	2705.766230
388.005133	2712.972560
388.389435	2726.281206
388.773674	2735.330077
389.157851	2742.866602
389.541965	2756.349168
389.926018	2756.094590
390.310008	2769.715787
390.693936	2778.381531
391.077802	2789.434261
391.461606	2796.640590
391.845348	2804.282979
392.229027	2814.387972
392.612645	2829.632421
392.996200	2841.824452
393.379694	2851.478262
393.763125	2869.036600
394.146494	2880.283415
394.529801	2887.671226
394.913047	2907.001530
395.296230	2905.940367
395.679351	2914.739701
396.062410	2930.977258
396.445408	2925.847884
396.828343	2937.555963
397.211217	2944.817746
397.594028	2939.743824
397.976778	2954.017851
398.359466	2966.925726
398.742092	2963.870787
399.124656	2979.016933
399.507158	2990.591423
399.889598	2999.244563
400.271977	3014.927593
400.654294	3017.705268
401.036549	3032.685057
401.418742	3036.665048
401.800874	3059.574572
402.182944	3067.005232
402.564952	3097.733586
402.946898	3087.487441
403.328783	3092.027000
403.710606	3110.298662
404.092367	3136.573156
404.474067	3159.638955
404.855705	3149.647388
405.237282	3149.556647
405.618797	3182.805577
406.000250	3202.728217
406.381642	3236.640059
406.762972	3238.439751
407.144240	3229.796693
407.525447	3250.354518
407.906593	3251.723192
408.287677	3272.132303
408.668700	3290.630817
409.049661	3287.086886
409.430560	3304.030204
409.811399	3306.386943
410.192176	3328.605829
410.572891	3336.235615
410.953545	3376.660628
411.334138	3344.140145
411.714669	3398.345151
412.095139	3340.896162
412.475547	3392.489851
412.855894	3383.148593
413.236180	3415.187646
413.616405	3394.443298
413.996568	3420.717792
414.376670	3421.408430
414.756711	3416.584046
415.136691	3443.198818
415.516609	3462.629945
415.896466	3471.961121
416.276262	3496.362826
416.655997	3525.399872
417.035670	3533.921943
417.415283	3599.404011
417.794834	3624.985346
418.174324	3607.870629
418.553753	3603.915843
418.933121	3649.782782
419.312428	3637.252994
419.691674	3632.194196
420.070859	3674.101308
420.449983	3652.883091
420.829045	3704.179352
421.208047	3690.127136
421.586988	3730.126171
421.965867	3761.182199
422.344686	3768.990947
422.723444	3809.307575
423.102141	3715.093450
423.480777	3817.975839
423.859352	3783.174233
424.237866	3882.989079
424.616319	3866.534753
424.994712	3927.399124
425.373044	3918.645160
425.751314	3980.555571
426.129524	3913.057041
426.507673	4011.004140
426.885762	3993.027385
427.263789	4010.459695
427.641756	4016.869522
428.019662	4048.079306
428.397508	4047.174419
428.775292	4085.550202
429.153016	4092.118826
429.530679	4109.115076
429.908282	4113.251343
430.285824	4089.991459
430.663305	4164.451822
431.040726	4122.791727
431.418086	4114.330150
431.795385	4185.407898
432.172624	4220.464082
432.549802	4189.123229
432.926920	4207.813307
433.303977	4198.270403
433.680974	4242.569542
434.057910	4264.594343
434.434786	4270.280765
434.811601	4261.599898
435.188355	4371.234912
435.565050	4341.136703
435.941683	4335.420034
436.318257	4424.809774
436.694770	4434.072894
437.071222	4488.023323
437.447614	4423.143673
437.823946	4428.860341
438.200218	4443.721663
438.576429	4427.337913
438.952580	4455.275987
439.328670	4458.303200
439.704700	4500.106968
440.080670	4464.798727
440.456580	4523.659239
440.832429	4560.890681
441.208218	4465.622956
441.583947	4514.537271
441.959616	4530.454715
442.335224	4554.831214
442.710773	4577.849122
443.086261	4631.313080
443.461689	4582.812138
443.837057	4591.424950
444.212365	4667.682484
444.587612	4674.659441
444.962800	4641.307167
445.337927	4682.296789
445.712995	4570.342844
446.088002	4759.549951
446.462949	4781.141213
446.837837	4798.024037
447.212664	4785.658087
447.587431	5009.689484
447.962139	5304.508764
448.336786	5646.692205
448.711374	5631.909021
449.085901	5281.165701
449.460369	5217.924426
449.834776	5149.485722
450.209124	5383.753182
450.583412	5398.112909
450.957640	5521.359038
451.331808	5384.617740
451.705917	5234.575358
452.079965	5223.996496
452.453954	5264.973515
452.827883	5227.739553
453.201752	5231.502774
453.575562	5262.026961
453.949311	5393.278442
454.323001	5400.822529
454.696632	5392.484461
455.070202	5547.641094
455.443713	5576.257203
455.817164	5669.924363
456.190556	5745.125775
456.563888	5715.675354
456.937160	5791.998423
457.310373	5636.950175
457.683526	5694.368917
458.056619	5683.774933
458.429653	5668.222973
458.802628	5713.943718
459.175542	5740.727368
459.548398	5880.110231
459.921194	6062.942799
460.293930	6125.848837
460.666607	6375.534666
461.039224	6587.220278
461.411782	6717.639969
461.784280	6636.731971
462.156719	6643.436705
462.529099	6598.998934
462.901419	6461.299817
463.273680	6331.071689
463.645882	6316.245656
464.018024	6319.721532
464.390106	6385.763167
464.762130	6641.634493
465.134094	7021.992071
465.505999	7652.741240
465.877845	8357.368519
466.249631	8719.956030
466.621358	8646.241758
466.993026	8455.451729
467.364634	8235.987617
467.736184	7960.559135
468.107674	7804.265722
468.479105	7713.300621
468.850477	7650.253431
469.221790	7476.663819
469.593043	7252.934890
469.964238	7154.128275
470.335373	7130.618854
470.706449	7283.073429
471.077467	7457.550284
471.448425	8116.842466
471.819324	8696.146660
472.190164	8744.987879
472.560945	8269.670086
472.931667	7800.830176
473.302330	7607.638037
473.672934	7480.820250
474.043479	7562.444093
474.413965	7462.830893
474.784393	7408.257882
475.154761	7563.356541
475.525070	7575.193171
475.895321	7527.239195
476.265513	7625.224102
476.635645	7788.053371
477.005719	7773.769262
477.375734	7859.615071
477.745691	7975.531362
478.115588	8169.396495
478.485427	8409.148731
478.855207	8878.573415
479.224928	9311.076689
479.594591	9697.675216
479.964194	9704.127892
480.333739	9788.703331
480.703226	9786.457497
481.072653	9885.105316
481.442022	10000.756947
481.811333	10153.897118
482.180584	9997.762501
482.549777	9938.165980
482.918912	9873.891269
483.287988	9863.566986
483.657005	9768.576524
484.025964	9681.006640
484.394864	9752.185212
484.763706	9707.354231
485.132489	9616.613462
485.501213	9609.696999
485.869879	9671.153705
486.238487	9603.708108
486.607036	9681.684676
486.975527	9628.876068
487.343959	9686.612403
487.712333	9731.249300
488.080648	9770.154405
488.448905	9874.549139
488.817104	9877.644408
489.185244	10047.538854
489.553326	10252.267674
489.921350	10710.425379
490.289315	11339.306801
490.657222	11630.536779
491.025070	11808.035806
491.392861	11729.555123
491.760593	11576.914026
492.128267	11327.568474
492.495883	11086.981927
492.863440	10850.274549
493.230939	10621.774168
493.598380	10445.714391
493.965763	10426.966340
494.333088	10293.547162
494.700354	10219.845493
495.067563	10192.524959
495.434713	10198.105517
495.801805	10240.398277
496.168839	10208.568432
496.535815	10173.585344
496.902733	10220.707530
497.269593	10171.304222
497.636395	10176.849492
498.003139	10291.432398
498.369825	10214.035563
498.736453	10312.998454
499.103023	10249.623588
499.469535	10263.312842
499.835989	10308.327825
500.202385	10278.847157
500.568723	10300.088059
500.935003	10356.876657
501.301226	10328.671401
501.667390	10497.439150
502.033497	10594.259551
502.399546	10520.552840
502.765537	10431.856259
503.131470	10533.811075
503.497345	10625.257606
503.863163	10404.064378
504.228923	10530.221773
504.594625	10654.100567
504.960269	10558.716895
505.325856	10708.696263
505.691385	10595.575292
506.056856	10660.137349
506.422270	10754.185115
506.787625	10693.464417
507.152924	10747.772767
507.518164	10808.722838
507.883347	10671.616056
508.248472	10744.886707
508.613540	10854.234375
508.978550	10934.366036
509.343503	10910.022304
509.708398	10963.198915
510.073236	11093.916035
510.438016	11104.149577
510.802738	11013.209682
511.167403	11144.584672
511.532010	11206.021214
511.896561	11297.760132
512.261053	11494.965029
512.625488	11418.795715
512.989866	11402.651420
513.354186	11381.027390
513.718449	11393.312682
514.082655	11524.463341
514.446803	11480.181845
514.810894	11592.193763
515.174927	11592.702920
515.538904	11580.173132
515.902822	11731.319527
516.266684	11602.036616
516.630488	11704.228366
516.994235	11698.057994
517.357925	11805.452215
517.721558	11873.434695
518.085133	11931.571802
518.448651	11958.662962
518.812112	11921.519741
519.175516	11925.252715
519.538863	12020.832992
519.902152	12031.341277
520.265385	12131.360290
520.628560	12160.828355
520.991678	12104.763163
521.354739	12157.717963
521.717743	12231.331412
522.080690	12196.358407
522.443580	12326.221051
522.806413	12335.292607
523.169189	12335.242196
523.531908	12394.745455
523.894569	12358.575177
524.257174	12372.864327
524.619722	12476.137405
524.982213	12456.570166
525.344647	12445.494751
525.707025	12451.665123
526.069345	12561.801732
526.431608	12545.556614
526.793815	12620.354734
527.155964	12513.880524
527.518057	12542.277343
527.880093	12504.864420
528.242072	12620.574024
528.603995	12542.509236
528.965860	12551.406873
529.327669	12595.360693
529.689421	12536.812733
530.051117	12548.876214
530.412755	12587.975403
530.774337	12598.763472
531.135862	12554.716390
531.497331	12607.532559
531.858743	12574.429823
532.220098	12656.083912
532.581396	12573.784555
532.942638	12502.701765
533.303824	12566.767269
533.664953	12565.602762
534.026025	12511.370029
534.387040	12615.734517
534.747999	12582.883838
535.108902	12637.159420
535.469748	12513.905729
535.830537	12541.551417
536.191270	12577.489803
536.551947	12505.081190
536.912567	12569.897825
537.273131	12598.955036
537.633638	12478.020276
537.994089	12536.588401
538.354483	12447.586830
538.714821	12574.981829
539.075103	12657.109787
539.435328	12593.409767
539.795497	12572.042836
540.155609	12564.949933
540.515665	12675.086541
540.875665	12534.574460
541.235609	12639.919452
541.595496	12595.978235
541.955328	12758.709201
542.315102	12606.597425
542.674821	12550.224722
543.034483	12559.684448
543.394090	12562.184860
543.753640	12550.804455
544.113134	12784.343469
544.472571	12540.820450
544.831953	12811.936224
545.191278	12628.095426
545.550548	12580.048188
545.909761	12683.555680
546.268918	12725.674520
546.628019	12790.037452
546.987064	12681.277078
547.346053	12534.458514
547.704986	12738.486613
548.063863	12616.377264
548.422684	12666.045232
548.781449	12617.415741
549.140158	12718.843757
549.498811	12669.974811
549.857408	12545.491079
550.215949	12737.725398
550.574434	12707.312117
550.932864	12651.662820
551.291237	12846.977285
551.649555	12734.005027
552.007817	12798.148668
552.366022	12710.891337
552.724173	12761.171805
553.082267	12849.414682
553.440305	12932.583639
553.798288	12764.808997
554.156215	12837.830111
554.514086	12892.887073
554.871902	12828.355262
555.229661	12846.634486
555.587365	12798.249492
555.945014	12810.161738
556.302606	12791.910241
556.660143	12858.665200
557.017625	12890.265673
557.375050	12848.376205
557.732421	12943.482613
558.089735	12941.294753
558.446994	12917.419848
558.804197	13032.612734
559.161345	13024.314995
559.518437	12850.198582
559.875474	12942.270216
560.232455	12975.713230
560.589381	13020.251825
560.946251	12957.703708
561.303065	13136.785658
561.659825	13082.936052
562.016528	12995.983710
562.373177	12926.040221
562.729770	13054.670302
563.086307	12933.289400
563.442789	13044.585474
563.799216	13087.606681
564.155587	13023.435313
564.511904	13046.599415
564.868164	13052.883213
565.224370	13119.481897
565.580520	13073.914907
565.936615	13135.752221
566.292654	13069.377869
566.648638	13135.958908
567.004567	13141.055515
567.360441	13143.107264
567.716260	13102.830966
568.072023	13186.282227
568.427732	13175.438705
568.783385	13074.960947
569.138982	13188.482690
569.494525	13188.028986
569.850013	13144.473417
570.205445	13136.747849
570.560823	13139.298673
570.916145	13094.571035
571.271412	13107.940175
571.626625	13062.453844
571.981782	13054.461095
572.336884	13007.656502
572.691931	13096.806787
573.046923	12982.576761
573.401860	12966.520686
573.756743	12957.149181
574.111570	12987.217143
574.466342	12962.144965
574.821059	13019.858615
575.175722	12893.665931
575.530330	12907.266964
575.884882	12843.773631
576.239380	12840.285153
576.593823	12825.459119
576.948211	12818.401504
577.302544	12698.144779
577.656823	12714.687325
578.011047	12775.208898
578.365216	12713.605998
578.719330	12647.075370
579.073389	12637.172023
579.427394	12630.104326
579.781344	12627.861012
580.135239	12556.344683
580.489080	12577.787231
580.842866	12454.379785
581.196597	12550.028117
581.550273	12535.849872
581.903895	12500.208914
582.257463	12611.394083
582.610975	12461.301289
582.964434	12538.153679
583.317837	12452.587655
583.671186	12408.807754
584.024481	12463.884880
584.377721	12349.496058
584.730906	12420.349476
585.084037	12436.229110
585.437113	12344.497754
585.790135	12377.403886
586.143103	12288.235957
586.496016	12305.138946
586.848874	12316.234525
587.201679	12305.824543
587.554428	12189.179804
587.907124	12226.297820
588.259765	12176.357630
588.612352	12239.946744
588.964884	12102.625713
589.317362	12157.639825
589.669786	12152.391984
590.022155	12105.594953
590.374470	12208.963813
590.726731	12086.821696
591.078937	11977.630304
591.431090	11998.989673
591.783188	11932.040629
592.135232	11847.034172
592.487222	11919.432703
592.839157	11927.511152
593.191038	11864.020340
593.542866	11808.499592
593.894639	11667.972388
594.246358	11734.543345
594.598022	11730.114691
594.949633	11637.049950
595.301190	11629.218518
595.652692	11584.906775
596.004141	11664.277222
596.355535	11453.907351
596.706876	11438.814137
597.058162	11406.417162
597.409395	11497.601552
597.760573	11531.336954
598.111698	11422.992475
598.462768	11417.159860
598.813785	11433.639392
599.164748	11305.775566
599.515657	11368.086748
599.866511	11248.124931
600.217312	11379.308357
600.568060	11149.325877
600.918753	11308.767491
601.269392	11303.640637
601.619978	11206.681605
601.970510	11254.960735
602.320988	11292.643360
602.671412	11365.175482
603.021783	11285.757144
603.372100	11219.171064
603.722363	11235.532128
604.072572	11241.359702
604.422728	11242.680485
604.772830	11186.683348
605.122878	11197.650378
605.472872	11174.314877
605.822813	11227.209183
606.172701	11185.695282
606.522534	11231.116078
606.872314	11277.978644
607.222041	11209.633201
607.571714	11285.434510
607.921333	11152.869808
608.270899	11204.226563
608.620411	11265.065728
608.969870	11211.838705
609.319276	11200.044926
609.668627	11214.281144
610.017926	11294.526231
610.367171	11322.204687
610.716362	11314.219499
611.065500	11290.730242
611.414585	11307.671040
611.763616	11369.369722
612.112594	11330.353712
612.461518	11349.270642
612.810389	11398.787375
613.159207	11351.380364
613.507971	11339.944507
613.856682	11444.238418
614.205340	11411.022256
614.553945	11537.895495
614.902496	11413.048799
615.250994	11476.700928
615.599439	11467.306738
615.947830	11502.846873
616.296169	11472.060546
616.644454	11484.310550
616.992686	11489.805408
617.340864	11586.441807
617.688990	11480.146557
618.037063	11612.239911
618.385082	11583.520458
618.733048	11626.045111
619.080961	11612.156732
619.428821	11598.222983
619.776628	11608.774118
620.124382	11556.996427
620.472083	11576.765312
620.819731	11596.917324
621.167326	11517.277176
621.514868	11499.572643
621.862357	11394.313351
622.209793	11389.559543
622.557176	11306.188941
622.904506	11251.822617
623.251783	11166.743064
623.599007	11110.995464
623.946179	11059.608462
624.293297	11042.713035
624.640363	10907.216902
624.987376	10893.366332
625.334336	10825.908132
625.681243	10740.011911
626.028097	10710.987468
626.374899	10673.062868
626.721647	10650.841461
627.068343	10610.426531
627.414987	10542.691067
627.761577	10472.094749
628.108115	10519.842037
628.454600	10402.259645
628.801032	10413.687940
629.147412	10407.555377
629.493739	10375.400377
629.840014	10288.758066
630.186236	10344.190593
630.532405	10240.637732
630.878521	10271.701322
631.224585	10236.698070
631.570597	10154.507098
631.916556	10154.640688
632.262462	10141.964707
632.608316	10122.531059
632.954117	10100.929715
633.299866	10079.363658
633.645562	10055.942458
633.991206	9958.549886
634.336797	9863.998004
634.682336	9854.997024
635.027823	9794.137694
635.373257	9758.158979
635.718639	9692.802940
636.063968	9667.279578
636.409245	9550.445797
636.754470	9532.917705
637.099642	9482.995158
637.444762	9386.966219
637.789829	9394.323783
638.134845	9316.700096
638.479808	9293.480541
638.824719	9268.287375
639.169577	9172.573508
639.514383	9180.092388
639.859137	9110.816852
640.203839	9144.320361
640.548489	9070.268331
640.893086	9071.637005
641.237632	9002.885748
641.582125	9009.961008
641.926566	8993.375612
642.270955	8982.564857
642.615292	8972.709402
642.959576	8956.315569
643.303809	8946.147562
643.647990	8959.524264
643.992118	8937.907796
644.336195	8911.918127
644.680219	8912.386955
645.024192	8946.969270
645.368112	9018.732616
645.711981	8997.806786
646.055797	9142.296338
646.399562	9092.963606
646.743274	9252.947144
647.086935	9318.126742
647.430544	9304.296337
647.774101	9325.522115
648.117606	9347.491464
648.461059	9412.061083
648.804460	9336.826903
649.147810	9222.796003
649.491108	9188.216208
649.834354	9126.832598
650.177548	8978.746183
650.520690	8898.128051
650.863781	8887.786124
651.206820	8865.441209
651.549807	8775.653218
651.892742	8686.906225
652.235626	8644.094226
652.578458	8604.213658
652.921238	8497.900765
653.263967	8537.544399
653.606644	8461.846433
653.949269	8444.673742
654.291843	8368.055765
654.634365	8444.547713
654.976836	8361.855146
655.319255	8351.702262
655.661622	8342.479471
656.003938	8307.297258
656.346203	8272.183101
656.688416	8299.480949
657.030577	8254.352540
657.372687	8219.127478
657.714746	8253.616532
658.056753	8268.072040
658.398708	8167.470774
658.740612	8162.021287
659.082465	8206.791774
659.424266	8163.205958
659.766016	8169.028491
660.107715	8147.346488
660.449362	8167.569077
660.790958	8165.545053
661.132503	8152.241448
661.473996	8150.832446
661.815438	8167.153182
662.156829	8200.276083
662.498168	8150.161973
662.839456	8139.255436
663.180693	8163.034559
663.521879	8186.675050
663.863013	8171.055035
664.204097	8159.115062
664.545129	8236.864778
664.886110	8221.539670
665.227040	8227.042089
665.567918	8239.052638
665.908746	8250.735512
666.249522	8274.063452
666.590248	8268.626567
666.930922	8280.911859
667.271545	8270.179243
667.612118	8286.285729
667.952639	8252.870441
668.293109	8254.602077
668.633528	8228.282213
668.973896	8217.100934
669.314213	8222.414310
669.654480	8174.026795
669.994695	8180.119029
670.334859	8155.946697
670.674973	8138.345508
671.015035	8154.318404
671.355047	8134.864591
671.695008	8127.340669
672.034918	8105.817463
672.374777	8113.618648
672.714585	8086.698887
673.054342	8118.697611
673.394049	8088.680060
673.733705	8122.067622
674.073310	8071.530055
674.412864	8085.068073
674.752368	8018.023248
675.091820	8077.607166
675.431223	7997.646904
675.770574	7956.135523
676.109875	7924.134278
676.449125	7877.667442
676.788324	7873.879015
677.127473	7784.184286
677.466571	7772.768593
677.805619	7716.589974
678.144616	7710.036474
678.483562	7690.496962
678.822458	7638.981411
679.161303	7623.686550
679.500098	7603.285000
679.838842	7581.993687
680.177535	7597.961542
680.516179	7633.355483
680.854771	7648.731002
681.193314	7756.294102
681.531805	7910.198008
681.870247	8030.545474
682.208638	8174.992176
682.546978	8260.492666
682.885268	8288.163559
683.223508	8221.514464
683.561697	8174.392278
683.899836	8134.299982
684.237925	8049.331334
684.575963	8021.869648
684.913951	7940.676824
685.251889	7956.659803
685.589776	7951.802651
685.927614	7929.593848
686.265401	7949.682846
686.603137	7949.148483
686.940824	8022.209926
687.278460	8074.645488
687.616046	8084.931962
687.953582	8192.837860
688.291068	8167.185949
688.628504	8232.718428
688.965889	8236.945436
689.303224	8195.270217
689.640510	8152.896798
689.977745	8045.696662
690.314930	7921.522960
690.652065	7851.609718
690.989150	7736.111843
691.326185	7592.454081
691.663170	7475.166596
692.000105	7356.548246
692.336990	7247.256031
692.673825	7174.610483
693.010610	7078.828560
693.347345	6987.233315
693.684030	6879.052674
694.020665	6830.680283
694.357251	6721.214147
694.693786	6710.988167
695.030272	6667.460324
695.366707	6570.090437
695.703093	6518.176635
696.039429	6516.084556
696.375716	6464.057328
696.711952	6455.782274
697.048139	6423.710453
697.384276	6396.505866
697.720363	6416.534371
698.056400	6383.923146
698.392388	6356.534557
698.728326	6355.662438
699.064214	6325.256718
699.400053	6316.081818
699.735842	6263.416884
700.071581	6218.694288
700.407270	6169.921124
700.742910	6141.032792
701.078501	6100.401092
701.414042	6055.885183
701.749533	6005.473645
702.084974	5946.865190
702.420366	5981.366847
702.755709	5916.560294
703.091002	5858.473599
703.426246	5868.296287
703.761440	5852.409091
704.096584	5806.814375
704.431679	5792.336181
704.766725	5777.505106
705.101721	5764.556903
705.436668	5786.148164
705.771565	5729.820832
706.106413	5784.880314
706.441212	5778.087359
706.775961	5792.726870
707.110661	5801.790865
707.445311	5861.311768
707.779913	5824.607127
708.114465	5865.266553
708.448967	5914.082567
708.783421	6022.066603
709.117825	6058.672941
709.452180	6094.666780
709.786485	6154.028887
710.120742	6279.157887
710.454949	6283.339524
710.789107	6351.034659
711.123216	6466.764427
711.457275	6499.516804
711.791286	6597.418532
712.125247	6612.146263
712.459159	6581.914464
712.793023	6711.003290
713.126837	6536.864192
713.460602	6599.382062
713.794318	6556.096194
714.127985	6502.022257
714.461602	6364.333223
714.795171	6368.434201
715.128691	6208.831270
715.462162	6122.105780
715.795584	6051.708587
716.128957	6009.067987
716.462281	5943.966527
716.795556	5902.223252
717.128782	5825.890101
717.461960	5726.387806
717.795088	5717.361620
718.128167	5647.254294
718.461198	5569.754115
718.794180	5546.123706
719.127113	5486.446527
719.459997	5453.792453
719.792833	5392.194594
720.125619	5382.770157
720.458357	5326.425181
720.791046	5296.508453
721.123686	5268.986274
721.456278	5226.499429
721.788821	5214.766143
722.121315	5174.416748
722.453761	5177.953118
722.786158	5164.783103
723.118506	5166.038350
723.450805	5142.680164
723.783056	5167.893495
724.115259	5144.951204
724.447412	5136.172034
724.779518	5175.760216
725.111574	5180.251884
725.443582	5211.078539
725.775542	5206.044947
726.107453	5282.821720
726.439315	5259.975211
726.771129	5323.362680
727.102895	5383.904417
727.434612	5422.355818
727.766281	5445.819868
728.097901	5501.799361
728.429473	5513.686402
728.760996	5528.714082
729.092471	5548.233429
729.423897	5532.023599
729.755276	5505.842367
730.086606	5525.391961
730.417887	5606.715855
730.749120	5693.398495
731.080305	5729.457869
731.411442	5796.359022
731.742530	5815.827958
732.073570	5837.512481
732.404562	5901.822481
732.735506	5895.720164
733.066401	5874.711155
733.397249	5807.598274
733.728048	5721.102156
734.058798	5585.386733
734.389501	5465.162776
734.720156	5380.912492
735.050762	5278.710659
735.381320	5207.731213
735.711831	5157.664994
736.042293	5079.963169
736.372707	5075.524433
736.703073	5026.239593
737.033391	5055.117842
737.363661	5041.405904
737.693883	5044.039907
738.024056	5064.837187
738.354182	5089.881639
738.684260	5129.610973
739.014290	5169.904915
739.344272	5202.140574
739.674207	5250.707050
740.004093	5280.220485
740.333931	5287.782216
740.663722	5306.726872
740.993464	5311.478159
741.323159	5289.912103
741.652806	5246.611112
741.982405	5224.775354
742.311956	5169.151263
742.641460	5157.589377
742.970915	5108.226398
743.300323	5054.744797
743.629683	5017.614178
743.958996	4970.333196
744.288260	4925.708902
744.617477	4866.003997
744.946647	4856.415722
745.275768	4802.888751
745.604842	4771.426910
745.933869	4738.293926
746.262847	4734.490375
746.591778	4719.772727
746.920662	4694.511505
747.249498	4688.918345
747.578286	4701.559038
747.907027	4720.680134
748.235720	4761.523563
748.564365	4768.802989
748.892963	4758.360239
749.221514	4773.972692
749.550017	4750.042335
749.878473	4745.772478
750.206881	4713.083116
750.535242	4700.142474
750.863555	4682.982386
751.191821	4664.748532
751.520039	4668.297505
751.848210	4649.519207
752.176334	4653.879805
752.504411	4633.548831
752.832440	4604.983133
753.160421	4613.001088
753.488356	4595.278912
753.816243	4580.233588
754.144082	4549.595976
754.471875	4537.875293
754.799620	4524.773334
755.127318	4515.502652
755.454969	4512.787991
755.782572	4500.182586
756.110129	4503.991178
756.437638	4486.498374
756.765100	4484.683558
757.092515	4485.170030
757.419882	4484.552488
757.747203	4481.860512
758.074477	4491.998273
758.401703	4482.956963
758.728882	4507.154502
759.056014	4521.627654
759.383099	4540.521899
759.710138	4563.892688
760.037129	4582.965894
760.364073	4593.454014
760.690970	4589.983180
761.017820	4589.010237
761.344623	4619.252119
761.671379	4671.939738
761.998088	4751.214403
762.324751	4954.763593
762.651366	5376.040217
762.977935	6007.966495
763.304456	6523.220309
763.630931	6824.895558
763.957359	6770.801457
764.283740	6506.019892
764.610074	6206.270364
764.936362	5837.449467
765.262602	5540.250762
765.588796	5223.313420
765.914943	4986.933716
766.241044	4776.813382
766.567097	4612.413794
766.893104	4475.506138
767.219064	4381.516345
767.544978	4291.685504
767.870845	4216.363104
768.196665	4173.167977
768.522438	4127.583343
768.848165	4086.870985
769.173846	4048.621230
769.499479	4023.075183
769.825066	3991.280626
770.150607	3953.068679
770.476101	3939.220630
770.801548	3916.994182
771.126949	3885.996127
771.452303	3867.537943
771.777611	3831.871779
772.102872	3829.580575
772.428087	3810.507369
772.753256	3782.667597
773.078378	3763.778394
773.403453	3736.034403
773.728482	3709.465002
774.053465	3694.744833
774.378401	3680.233872
774.703291	3661.208557
775.028135	3635.435658
775.352932	3628.433495
775.677683	3608.868777
776.002388	3592.447218
776.327046	3592.890840
776.651658	3575.266966
776.976224	3553.922721
777.300743	3551.500446
777.625216	3539.051317
777.949643	3531.131664
778.274024	3534.242056
778.598359	3515.723377
778.922647	3513.535517
779.246889	3505.376409
779.571086	3506.142665
779.895236	3507.360103
780.219339	3504.564783
780.543397	3505.557891
780.867409	3514.601721
781.191374	3517.056763
781.515294	3507.423118
781.839167	3525.321734
782.162995	3522.128163
782.486776	3509.563087
782.810511	3507.067716
783.134201	3495.004235
783.457844	3491.041888
783.781441	3488.249089
784.104993	3477.453458
784.428498	3473.453302
784.751958	3471.772078
785.075372	3465.389977
785.398739	3455.663071
785.722061	3459.655664
786.045337	3459.529636
786.368568	3478.975887
786.691752	3472.762664
787.014891	3511.647605
787.337983	3556.034964
787.661030	3635.387767
787.984031	3721.372208
788.306987	3790.604894
788.629897	3832.290195
788.952760	3840.076257
789.275579	3824.809123
789.598351	3777.732308
789.921078	3731.462077
790.243759	3673.703057
790.566395	3636.416162
790.888984	3591.025613
791.211529	3554.726785
791.534027	3513.502749
791.856480	3480.889004
792.178888	3462.718165
792.501249	3444.756534
792.823566	3415.777461
793.145836	3413.640012
793.468062	3402.287334
793.790241	3387.181516
794.112375	3395.154101
794.434464	3412.689755
794.756507	3408.916451
795.078505	3423.334151
795.400457	3457.162814
795.722364	3501.661079
796.044226	3546.577760
796.366042	3586.246599
796.687812	3582.594283
797.009538	3601.105400
797.331218	3593.735233
797.652852	3586.163420
797.974442	3568.224474
798.295986	3557.517063
798.617484	3530.733413
798.938938	3510.157944
799.260346	3494.031293
799.581709	3463.675985
799.903026	3453.770117
800.224299	3435.090122
800.545526	3407.373858
800.866708	3392.583113
801.187845	3380.875033
801.508936	3360.370139
801.829983	3354.345961
802.150984	3324.041064
802.471940	3319.110816
802.792851	3311.118066
803.113717	3306.460040
803.434538	3300.438382
803.755314	3290.817340
804.076045	3285.629993
804.396731	3276.510545
804.717372	3276.230761
805.037967	3272.281017
805.358518	3274.544495
805.679024	3286.799540
805.999485	3286.854993
806.319901	3289.158800
806.640272	3289.468831
806.960598	3302.563228
807.280879	3299.112558
807.601115	3307.654794
807.921306	3301.030717
808.241453	3302.608599
808.561554	3307.037252
808.881611	3303.326963
809.201623	3300.816468
809.521590	3296.176086
809.841513	3296.163483
810.161390	3300.647590
810.481223	3280.707306
810.801011	3280.581277
811.120755	3277.929630
811.440453	3265.374636
811.760107	3261.346754
812.079716	3252.144128
812.399281	3241.310688
812.718801	3242.422263
813.038276	3234.116962
813.357707	3229.332907
813.677093	3236.766088
813.996434	3221.740929
814.315731	3228.463308
814.634983	3226.199830
814.954191	3225.894840
815.273354	3241.812283
815.592473	3247.221441
815.911547	3265.031838
816.230577	3276.999537
816.549562	3298.232877
816.868502	3313.646205
817.187399	3328.096673
817.506250	3351.764890
817.825058	3358.482227
818.143821	3397.014287
818.462539	3434.964093
818.781213	3481.327585
819.099843	3552.652350
819.418429	3679.903676
819.736970	3810.194818
820.055466	3963.007314
820.373919	4165.686905
820.692327	4450.703661
821.010691	4876.666037
821.329011	5799.396317
821.647286	7307.560833
821.965517	9244.059590
822.283704	10687.473006
822.601847	11618.170829
822.919945	11275.006884
823.237999	10648.595627
823.556010	9851.785809
823.873976	9005.837344
824.191897	8160.725710
824.509775	7487.661096
824.827609	6792.899355
825.145398	6313.510830
825.463144	5978.198482
825.780845	5854.279359
826.098502	5908.547380
826.416116	6236.824798
826.733685	6666.726836
827.051210	6924.806187
827.368692	6844.704773
827.686129	6464.710157
828.003522	5989.899000
828.320872	5510.770094
828.638177	5113.585145
828.955439	4804.955624
829.272656	4510.272455
829.589830	4267.245990
829.906960	4046.884552
830.224046	3871.938870
830.541088	3723.718865
830.858086	3621.212042
831.175041	3541.385371
831.491952	3499.180831
831.808819	3486.368739
832.125642	3510.336905
832.442421	3593.929318
832.759157	3773.038993
833.075849	4093.147221
833.392497	4490.685052
833.709101	4828.457483
834.025662	4919.941823
834.342179	4814.788394
834.658653	4583.928754
834.975083	4351.599617
835.291469	4144.186383
835.607811	3953.655974
835.924110	3820.312413
836.240366	3682.925848
836.556578	3548.906773
836.872746	3431.158022
837.188871	3339.872808
837.504952	3260.164604
837.820990	3195.998277
838.136984	3149.980104
838.452935	3125.505302
838.768842	3114.931482
839.084706	3139.010553
839.400526	3251.322420
839.716303	3442.296451
840.032037	3618.149541
840.347727	3675.696833
840.663373	3599.643466
840.978977	3474.206955
841.294537	3363.127651
841.610054	3274.327726
841.925527	3211.514949
842.240957	3157.801454
842.556344	3103.936726
842.871687	3053.305897
843.186987	3006.024915
843.502244	2961.274592
843.817458	2929.154881
844.132629	2899.608678
844.447756	2882.945144
844.762840	2861.021166
845.077881	2848.163703
845.392879	2839.278669
845.707833	2830.234839
846.022745	2820.268478
846.337613	2816.704382
846.652438	2809.493012
846.967221	2807.416056
847.281960	2802.034625
847.596656	2797.031279
847.911309	2792.569858
848.225919	2788.824281
848.540485	2784.017541
848.855009	2779.730039
849.169490	2778.542848
849.483928	2778.189967
849.798323	2776.720471
850.112675	2769.244439
850.426984	2771.472629
850.741251	2772.415325
851.055474	2767.333842
851.369654	2767.371651
851.683792	2765.685385
851.997887	2765.703029
852.311938	2766.817124
852.625947	2766.922988
852.939914	2763.951228
853.253837	2765.622370
853.567718	2765.624891
853.881555	2764.374685
854.195350	2765.929881
854.509103	2764.896444
854.822812	2762.950559
855.136479	2764.651948
855.450103	2764.369644
855.763685	2762.764036
856.077224	2762.116248
856.390720	2765.012391
856.704173	2766.983482
857.017584	2768.755447
857.330953	2764.853594
857.644278	2770.456837
857.957561	2772.785850
858.270802	2773.317692
858.584000	2770.784512
858.897155	2775.329112
859.210268	2769.438524
859.523339	2766.159253
859.836367	2769.309974
860.149352	2765.980292
860.462295	2767.510282
860.775195	2760.077101
861.088054	2759.578027
861.400869	2757.730444
861.713642	2758.466452
862.026373	2760.180445
862.339062	2762.494334
862.651708	2764.241094
862.964312	2767.371651
863.276873	2769.294851
863.589392	2775.281221
863.901869	2780.892025
864.214303	2785.154321
864.526696	2790.586164
864.839045	2798.906589
865.151353	2798.420117
865.463619	2801.752320
865.775842	2805.949081
866.088023	2809.165337
866.400162	2808.852785
866.712258	2808.779688
867.024313	2808.446972
867.336325	2809.505615
867.648296	2809.699699
867.960224	2808.769606
868.272110	2813.528455
868.583954	2810.808753
868.895755	2815.794454
869.207515	2816.180102
869.519233	2818.793941
869.830909	2819.741677
870.142542	2821.311997
870.454134	2822.536997
870.765684	2826.131340
871.077191	2831.767350
871.388657	2832.946980
871.700081	2840.082733
872.011463	2846.116994
872.322803	2848.957685
872.634101	2853.489682
872.945357	2857.943541
873.256571	2865.822865
873.567744	2871.922661
873.878874	2876.948691
874.189963	2879.439021
874.501010	2883.451780
874.812015	2885.042264
875.122979	2888.102244
875.433900	2889.488562
875.744780	2892.813203
876.055618	2897.045251
876.366415	2898.325704
876.677169	2898.023235
876.987882	2899.228071
877.298554	2904.715367
877.609183	2917.096441
877.919771	2930.558842
878.230317	2945.289093
878.540822	2976.098105
878.851285	3012.712006
879.161707	3060.328224
879.472087	3142.773775
879.782425	3265.719955
880.092722	3487.059377
880.402977	3835.917305
880.713191	4309.455571
881.023363	4842.345862
881.333494	5236.599381
881.643583	5486.638091
881.953631	5536.137181
882.263637	5478.179035
882.573602	5340.636193
882.883526	5187.458213
883.193408	5005.225543
883.503248	4818.760824
883.813048	4633.687463
884.122806	4453.262046
884.432522	4251.913321
884.742197	4063.240576
885.051831	3887.034605
885.361424	3721.818350
885.670975	3585.160231
885.980485	3465.808393
886.289954	3364.758464
886.599382	3278.723612
886.908768	3216.697255
887.218113	3155.298522
887.527417	3103.924123
887.836680	3057.663974
888.145901	3020.919004
888.455082	2996.630725
888.764221	2966.736683
889.073319	2944.061573
889.382376	2931.713266
889.691392	2918.366811
890.000366	2908.622261
890.309300	2906.058834
890.618193	2903.891138
890.927044	2901.226888
891.235855	2901.370561
891.544625	2902.963566
891.853353	2903.780233
892.162041	2917.227511
892.470687	2936.278031
892.779293	2963.898513
893.087858	2998.069974
893.396381	3059.148594
893.704864	3144.840648
894.013306	3270.020060
894.321707	3418.923141
894.630068	3543.038870
894.938387	3601.140688
895.246665	3604.805607
895.554903	3553.479099
895.863100	3485.206753
896.171256	3422.552772
896.479371	3362.273175
896.787446	3303.941984
897.095480	3251.055239
897.403473	3203.791901
897.711425	3164.478463
898.019336	3121.452215
898.327207	3080.976790
898.635038	3047.037222
898.942827	3002.942249
899.250576	2971.757672
899.558284	2944.454783
899.865952	2925.565579
900.173579	2899.144892
900.481165	2882.007489
900.788711	2869.001312
901.096216	2854.893643
901.403681	2845.486850
901.711105	2836.306909
902.018489	2832.800787
902.325832	2838.603155
902.633135	2844.881912
902.940397	2875.171685
903.247619	2941.704833
903.554800	3079.731625
903.861941	3304.070533
904.169041	3519.655478
904.476101	3656.898370
904.783121	3664.404648
905.090100	3609.135958
905.397039	3519.806712
905.703938	3435.453085
906.010796	3352.097606
906.317614	3283.051442
906.624391	3220.001731
906.931129	3167.109945
907.237826	3113.797223
907.544483	3067.342990
907.851099	3011.852489
908.157675	2951.865279
908.464211	2893.408059
908.770707	2849.418950
909.077163	2811.796819
909.383578	2786.306225
909.689954	2759.482245
909.996289	2748.517735
910.302584	2740.696385
910.608839	2735.604820
910.915054	2727.428068
911.221229	2723.518653
911.527363	2722.276009
911.833458	2725.535115
912.139513	2725.542677
912.445527	2726.258521
912.751502	2734.800756
913.057436	2746.377766
913.363331	2762.585075
913.669186	2780.607200
913.975000	2809.245995
914.280775	2852.836852
914.586510	2916.957809
914.892205	3003.705984
915.197859	3115.428036
915.503475	3261.497989
915.809050	3403.479567
916.114585	3514.216072
916.420081	3568.932756
916.725536	3593.347064
917.030952	3559.228535
917.336328	3523.678318
917.641665	3480.727688
917.946961	3434.459978
918.252218	3386.289232
918.557435	3330.844101
918.862612	3278.043056
919.167750	3233.895151
919.472848	3175.503466
919.777906	3124.809623
920.082925	3070.667631
920.387904	3014.738549
920.692843	2970.797332
920.997743	2931.335180
921.302603	2891.729354
921.607423	2867.274717
921.912204	2840.173474
922.216946	2821.858962
922.521647	2803.577218
922.826310	2786.601132
923.130932	2773.955398
923.435516	2757.649786
923.740059	2750.231728
924.044564	2737.563308
924.349028	2731.196331
924.653454	2717.660833
924.957840	2707.470140
925.262186	2701.004860
925.566493	2693.932122
925.870761	2685.886440
926.174989	2682.511387
926.479178	2674.354801
926.783328	2669.860612
927.087438	2666.641835
927.391509	2660.655465
927.695541	2658.240752
927.999533	2651.989722
928.303486	2646.588125
928.607400	2644.128042
928.911275	2645.204328
929.215110	2643.906231
929.518906	2641.100829
929.822663	2641.814152
930.126381	2639.233082
930.430060	2640.689975
930.733699	2639.467495
931.037299	2640.362300
931.340861	2638.353400
931.644383	2642.519914
931.947866	2642.129225
932.251309	2639.316261
932.554714	2638.416415
932.858080	2640.478247
933.161407	2635.563122
933.464694	2638.756693
933.767943	2636.488173
934.071153	2635.870632
934.374323	2633.937350
934.677455	2632.064561
934.980548	2631.656227
935.283602	2630.733696
935.586617	2630.867287
935.889593	2631.608337
936.192530	2629.624642
936.495428	2633.864253
936.798287	2630.292595
937.101108	2636.152937
937.403890	2642.308186
937.706632	2652.196409
938.009336	2656.796462
938.312002	2667.670231
938.614628	2673.845644
938.917216	2682.765966
939.219765	2686.234280
939.522275	2690.829291
939.824747	2694.675692
940.127179	2692.059333
940.429573	2690.698221
940.731929	2693.821216
941.034246	2690.342820
941.336524	2689.967254
941.638763	2692.495393
941.940964	2692.195444
942.243126	2685.546162
942.545250	2686.801409
942.847335	2680.497447
943.149381	2672.348421
943.451389	2670.677279
943.753359	2667.037566
944.055290	2660.408448
944.357182	2659.717810
944.659036	2657.388797
944.960851	2655.760505
945.262628	2651.967036
945.564367	2655.687408
945.866067	2647.989566
946.167729	2650.195071
946.469352	2649.149031
946.770937	2649.229690
947.072484	2648.309679
947.373992	2649.975781
947.675462	2649.411171
947.976893	2646.257930
948.278286	2644.675007
948.579641	2642.640902
948.880958	2641.882208
949.182236	2643.744914
949.483476	2643.013947
949.784678	2641.120994
950.085841	2639.505304
950.386967	2637.899697
950.688054	2642.469502
950.989103	2641.897332
951.290114	2644.523773
951.591087	2649.403610
951.892021	2654.038951
952.192917	2655.148004
952.493776	2659.911895
952.794596	2662.659324
953.095378	2663.765857
953.396122	2666.372133
953.696828	2665.041269
953.997496	2663.675116
954.298126	2660.831905
954.598718	2659.455670
954.899272	2657.224960
955.199788	2655.195895
955.500266	2650.437046
955.800706	2646.003351
956.101108	2638.933133
956.401472	2634.738893
956.701798	2630.867287
957.002087	2623.232459
957.302337	2621.009311
957.602550	2619.738940
957.902724	2613.555965
958.202861	2613.739967
958.502960	2606.057248
958.803022	2604.560026
959.103045	2599.952411
959.403031	2599.052565
959.702979	2598.445106
960.002889	2595.717842
960.302762	2594.306319
960.602596	2593.386308
960.902393	2591.576534
961.202153	2588.254413
961.501875	2587.541090
961.801559	2587.029413
962.101205	2588.829105
962.400814	2584.292067
962.700385	2584.922211
962.999918	2581.060687
963.299414	2580.397775
963.598873	2584.138311
963.898293	2579.676890
964.197677	2582.681418
964.497022	2578.265367
964.796331	2579.200501
965.095601	2578.852662
965.394835	2580.564133
965.694030	2578.358628
965.993189	2580.165882
966.292309	2577.234451
966.591393	2578.540110
966.890439	2579.838207
967.189447	2576.208576
967.488419	2580.851479
967.787353	2578.013309
968.086249	2576.344688
968.385108	2580.102868
968.683930	2576.437949
968.982714	2577.846951
969.281462	2580.576736
969.580172	2579.482806
969.878844	2578.961046
970.177480	2582.852817
970.476078	2583.054463
970.774639	2582.547827
971.073162	2586.006059
971.371649	2580.327199
971.670098	2582.434401
971.968510	2582.265523
972.266885	2583.666963
972.565223	2588.398086
972.863524	2587.349526
973.161788	2589.464290
973.460014	2586.419433
973.758204	2592.708273
974.056356	2591.846236
974.354471	2590.210381
974.652550	2592.851946
974.950591	2591.150556
975.248595	2588.952613
975.546563	2591.087542
975.844493	2589.272727
976.142386	2585.743919
976.440243	2589.529825
976.738062	2588.030082
977.035845	2586.311049
977.333590	2586.739547
977.631299	2587.430185
977.928971	2585.023034
978.226606	2582.515060
978.524204	2582.467169
978.821765	2585.398600
979.119290	2582.774679
979.416777	2579.807960
979.714228	2581.887436
980.011642	2581.894998
980.309020	2586.721903
980.606360	2584.692838
980.903664	2584.503795
981.200931	2594.462594
981.498162	2594.878490
981.795356	2605.795108
982.092513	2616.716768
982.389633	2629.100362
982.686717	2644.022178
982.983764	2656.309990
983.280775	2667.665189
983.577749	2671.350273
983.874686	2670.760458
984.171587	2667.970179
984.468451	2665.240394
984.765279	2661.048675
985.062070	2654.497696
985.358824	2648.629792
985.655543	2644.642240
985.952224	2636.939357
986.248869	2628.344189
986.545478	2614.521346
986.842050	2604.282762
987.138586	2595.571648
987.435086	2589.436564
987.731549	2582.242837
988.027975	2582.434401
988.324366	2582.565471
988.620719	2575.608679
988.917037	2574.615572
989.213318	2575.807805
989.509563	2573.413257
989.805772	2575.359142
990.101944	2571.674058
990.398080	2573.239337
990.694180	2573.370407
990.990244	2571.482495
991.286271	2572.271435
991.582262	2572.256312
991.878217	2568.422514
992.174136	2569.362689
992.470019	2571.905952
992.765865	2572.193297
993.061676	2571.739593
993.357450	2575.404512
993.653188	2572.006775
993.948890	2575.722105
994.244556	2577.471385
994.540186	2580.944740
994.835780	2586.273240
995.131337	2590.094435
995.426859	2594.596185
995.722345	2602.049531
996.017795	2609.243257
996.313208	2615.428753
996.608586	2620.744650
996.903928	2622.501492
997.199234	2623.212295
997.494504	2625.256483
997.789738	2621.294136
998.084936	2618.667695
998.380099	2616.081583
998.675225	2614.518825
998.970316	2610.407764
999.265371	2605.101950
999.560390	2596.650455
999.855373	2592.796493
1000.150320	2589.519743
1000.445232	2586.363981
1000.740108	2584.796182
1001.034948	2580.702765
1001.329752	2575.530541
1001.624521	2575.011302
1001.919254	2567.762123
1002.213951	2570.169274
1002.508613	2568.051989
1002.803239	2566.968141
1003.097829	2565.042421
1003.392384	2567.439489
1003.686903	2565.992678
1003.981386	2566.698440
1004.275834	2563.620815
1004.570246	2567.240364
1004.864623	2563.431772
1005.158964	2565.614592
1005.453270	2564.306412
1005.747540	2564.399673
1006.041775	2562.032852
1006.335974	2565.299519
1006.630138	2563.139385
1006.924266	2565.218861
1007.218359	2562.257183
1007.512416	2560.719631
1007.806438	2563.008315
1008.100425	2563.144426
1008.394376	2562.741134
1008.688292	2562.960424
1008.982172	2561.498489
1009.276017	2561.574107
1009.569827	2560.709549
1009.863602	2563.746844
1010.157341	2562.668037
1010.451045	2561.014539
1010.744714	2560.248283
1011.038347	2559.512275
1011.331945	2561.228788
1011.625508	2562.189128
1011.919036	2562.005125
1012.212528	2562.090825
1012.505986	2562.395815
1012.799408	2560.936401
1013.092795	2561.284240
1013.386147	2562.453788
1013.679464	2559.240052
1013.972745	2560.956565
1014.265992	2558.282233
1014.559204	2561.667368
1014.852380	2561.279199
1015.145521	2561.009497
1015.438628	2561.584189
1015.731699	2560.404559
1016.024736	2560.465053
1016.317737	2563.215002
1016.610703	2562.292471
1016.903635	2556.865669
1017.196531	2561.233829
1017.489393	2557.629404
1017.782219	2556.054043
1018.075011	2560.996895
1018.367768	2563.187276
1018.660490	2565.307081
1018.953177	2565.307081
1019.245829	2565.307081
