Dividing Wavelength (nm)	Counts (n)	Blue Motor Position (mm): 0.000000	Red Motor Position (mm): 7.300000	
326.493990	2071.914231
326.888308	2071.914231
327.282561	2071.914231
327.676750	2069.393654
328.070874	2054.270192
328.464933	2094.599423
328.858929	2092.078846
329.252859	2104.681731
329.646726	2117.284615
330.040528	2034.105577
330.434265	2124.846346
330.827938	2094.599423
331.221547	2094.599423
331.615091	2197.943077
332.008571	2220.628269
332.401986	2195.422500
332.795338	2200.463654
333.188625	2230.710577
333.581847	2258.436923
333.975006	2258.436923
334.368100	2291.204423
334.761129	2268.519231
335.154095	2293.725000
335.546996	2389.506923
335.939833	2323.971923
336.332606	2389.506923
336.725315	2389.506923
337.117960	2376.904038
337.510540	2419.753846
337.903056	2477.727115
338.295508	2349.177692
338.687896	2414.712692
339.080220	2507.974038
339.472480	2439.918462
339.864676	2346.657115
340.256807	2439.918462
340.648875	2502.932885
341.040879	2437.397885
341.432818	2475.206538
341.824694	2407.150962
342.216506	2480.247692
342.608253	2465.124231
342.999937	2447.480192
343.391557	2487.809423
343.783113	2563.426731
344.174605	2455.041923
344.566033	2513.015192
344.957397	2472.685962
345.348697	2507.974038
345.739934	2424.795000
346.131106	2548.303269
346.522215	2419.753846
346.913260	2490.330000
347.304241	2402.109808
347.695159	2477.727115
348.086012	2427.315577
348.476802	2444.959615
348.867528	2450.000769
349.258191	2485.288846
349.648789	2407.150962
350.039324	2452.521346
350.429796	2442.439038
350.820203	2500.412308
351.210548	2427.315577
351.600828	2507.974038
351.991045	2450.000769
352.381198	2500.412308
352.771288	2444.959615
353.161314	2452.521346
353.551276	2417.233269
353.941175	2384.465769
354.331010	2419.753846
354.720782	2432.356731
355.110490	2480.247692
355.500135	2523.097500
355.889717	2523.097500
356.279235	2389.506923
356.668689	2510.494615
357.058080	2419.753846
357.447408	2399.589231
357.836672	2414.712692
358.225873	2364.301154
358.615010	2414.712692
359.004084	2510.494615
359.393095	2470.165385
359.782043	2422.274423
360.170927	2543.262115
360.559748	2326.492500
360.948505	2389.506923
361.337199	2364.301154
361.725830	2475.206538
362.114398	2369.342308
362.502903	2427.315577
362.891344	2374.383462
363.279722	2472.685962
363.668037	2392.027500
364.056289	2444.959615
364.444478	2417.233269
364.832603	2447.480192
365.220665	2414.712692
365.608665	2364.301154
365.996601	2447.480192
366.384474	2502.932885
366.772284	2472.685962
367.160031	2402.109808
367.547715	2432.356731
367.935336	2492.850577
368.322893	2520.576923
368.710388	2384.465769
369.097820	2510.494615
369.485189	2465.124231
369.872495	2570.988462
370.259738	2485.288846
370.646918	2497.891731
371.034035	2404.630385
371.421090	2447.480192
371.808081	2475.206538
372.195010	2381.945192
372.581875	2477.727115
372.968678	2442.439038
373.355418	2482.768269
373.742096	2467.644808
374.128710	2465.124231
374.515262	2538.220962
374.901751	2500.412308
375.288177	2510.494615
375.674540	2462.603654
376.060841	2487.809423
376.447079	2447.480192
376.833254	2384.465769
377.219367	2359.260000
377.605417	2505.453462
377.991404	2452.521346
378.377329	2472.685962
378.763191	2422.274423
379.148991	2424.795000
379.534727	2462.603654
379.920402	2434.877308
380.306013	2354.218846
380.691563	2540.741538
381.077049	2457.562500
381.462474	2480.247692
381.847835	2447.480192
382.233134	2447.480192
382.618371	2520.576923
383.003545	2482.768269
383.388657	2510.494615
383.773706	2462.603654
384.158693	2502.932885
384.543618	2480.247692
384.928480	2480.247692
385.313280	2460.083077
385.698017	2409.671538
386.082692	2475.206538
386.467305	2490.330000
386.851856	2394.548077
387.236344	2510.494615
387.620770	2550.823846
388.005133	2366.821731
388.389435	2500.412308
388.773674	2417.233269
389.157851	2475.206538
389.541965	2444.959615
389.926018	2472.685962
390.310008	2399.589231
390.693936	2497.891731
391.077802	2487.809423
391.461606	2482.768269
391.845348	2419.753846
392.229027	2475.206538
392.612645	2467.644808
392.996200	2427.315577
393.379694	2465.124231
393.763125	2525.618077
394.146494	2497.891731
394.529801	2462.603654
394.913047	2477.727115
395.296230	2492.850577
395.679351	2523.097500
396.062410	2487.809423
396.445408	2455.041923
396.828343	2538.220962
397.211217	2500.412308
397.594028	2495.371154
397.976778	2482.768269
398.359466	2432.356731
398.742092	2422.274423
399.124656	2404.630385
399.507158	2482.768269
399.889598	2455.041923
400.271977	2419.753846
400.654294	2374.383462
401.036549	2452.521346
401.418742	2490.330000
401.800874	2507.974038
402.182944	2475.206538
402.564952	2538.220962
402.946898	2450.000769
403.328783	2444.959615
403.710606	2502.932885
404.092367	2386.986346
404.474067	2477.727115
404.855705	2450.000769
405.237282	2543.262115
405.618797	2450.000769
406.000250	2497.891731
406.381642	2492.850577
406.762972	2455.041923
407.144240	2439.918462
407.525447	2379.424615
407.906593	2507.974038
408.287677	2540.741538
408.668700	2492.850577
409.049661	2500.412308
409.430560	2480.247692
409.811399	2417.233269
410.192176	2404.630385
410.572891	2500.412308
410.953545	2460.083077
411.334138	2490.330000
411.714669	2417.233269
412.095139	2462.603654
412.475547	2500.412308
412.855894	2465.124231
413.236180	2465.124231
413.616405	2492.850577
413.996568	2439.918462
414.376670	2510.494615
414.756711	2407.150962
415.136691	2502.932885
415.516609	2399.589231
415.896466	2465.124231
416.276262	2444.959615
416.655997	2528.138654
417.035670	2465.124231
417.415283	2510.494615
417.794834	2417.233269
418.174324	2523.097500
418.553753	2482.768269
418.933121	2497.891731
419.312428	2419.753846
419.691674	2462.603654
420.070859	2460.083077
420.449983	2525.618077
420.829045	2467.644808
421.208047	2475.206538
421.586988	2460.083077
421.965867	2485.288846
422.344686	2472.685962
422.723444	2543.262115
423.102141	2482.768269
423.480777	2414.712692
423.859352	2528.138654
424.237866	2424.795000
424.616319	2550.823846
424.994712	2490.330000
425.373044	2528.138654
425.751314	2392.027500
426.129524	2447.480192
426.507673	2480.247692
426.885762	2414.712692
427.263789	2467.644808
427.641756	2444.959615
428.019662	2518.056346
428.397508	2470.165385
428.775292	2543.262115
429.153016	2422.274423
429.530679	2533.179808
429.908282	2462.603654
430.285824	2444.959615
430.663305	2439.918462
431.040726	2465.124231
431.418086	2419.753846
431.795385	2490.330000
432.172624	2553.344423
432.549802	2409.671538
432.926920	2543.262115
433.303977	2490.330000
433.680974	2515.535769
434.057910	2525.618077
434.434786	2409.671538
434.811601	2480.247692
435.188355	2450.000769
435.565050	2477.727115
435.941683	2513.015192
436.318257	2545.782692
436.694770	2460.083077
437.071222	2510.494615
437.447614	2422.274423
437.823946	2515.535769
438.200218	2487.809423
438.576429	2419.753846
438.952580	2485.288846
439.328670	2460.083077
439.704700	2442.439038
440.080670	2518.056346
440.456580	2429.836154
440.832429	2497.891731
441.208218	2535.700385
441.583947	2424.795000
441.959616	2452.521346
442.335224	2480.247692
442.710773	2507.974038
443.086261	2513.015192
443.461689	2482.768269
443.837057	2470.165385
444.212365	2545.782692
444.587612	2583.591346
444.962800	2450.000769
445.337927	2485.288846
445.712995	2429.836154
446.088002	2543.262115
446.462949	2470.165385
446.837837	2515.535769
447.212664	2477.727115
447.587431	2470.165385
447.962139	2475.206538
448.336786	2535.700385
448.711374	2457.562500
449.085901	2432.356731
449.460369	2485.288846
449.834776	2513.015192
450.209124	2533.179808
450.583412	2381.945192
450.957640	2424.795000
451.331808	2518.056346
451.705917	2525.618077
452.079965	2450.000769
452.453954	2530.659231
452.827883	2487.809423
453.201752	2427.315577
453.575562	2518.056346
453.949311	2414.712692
454.323001	2525.618077
454.696632	2513.015192
455.070202	2502.932885
455.443713	2563.426731
455.817164	2497.891731
456.190556	2487.809423
456.563888	2384.465769
456.937160	2480.247692
457.310373	2409.671538
457.683526	2467.644808
458.056619	2543.262115
458.429653	2548.303269
458.802628	2540.741538
459.175542	2480.247692
459.548398	2442.439038
459.921194	2500.412308
460.293930	2452.521346
460.666607	2570.988462
461.039224	2525.618077
461.411782	2500.412308
461.784280	2530.659231
462.156719	2444.959615
462.529099	2565.947308
462.901419	2472.685962
463.273680	2530.659231
463.645882	2480.247692
464.018024	2432.356731
464.390106	2492.850577
464.762130	2450.000769
465.134094	2550.823846
465.505999	2429.836154
465.877845	2505.453462
466.249631	2434.877308
466.621358	2510.494615
466.993026	2570.988462
467.364634	2485.288846
467.736184	2502.932885
468.107674	2518.056346
468.479105	2465.124231
468.850477	2455.041923
469.221790	2502.932885
469.593043	2434.877308
469.964238	2477.727115
470.335373	2528.138654
470.706449	2543.262115
471.077467	2475.206538
471.448425	2492.850577
471.819324	2502.932885
472.190164	2578.550192
472.560945	2475.206538
472.931667	2477.727115
473.302330	2515.535769
473.672934	2576.029615
474.043479	2563.426731
474.413965	2472.685962
474.784393	2507.974038
475.154761	2442.439038
475.525070	2447.480192
475.895321	2465.124231
476.265513	2379.424615
476.635645	2477.727115
477.005719	2429.836154
477.375734	2492.850577
477.745691	2487.809423
478.115588	2515.535769
478.485427	2432.356731
478.855207	2470.165385
479.224928	2535.700385
479.594591	2412.192115
479.964194	2528.138654
480.333739	2515.535769
480.703226	2470.165385
481.072653	2502.932885
481.442022	2495.371154
481.811333	2548.303269
482.180584	2533.179808
482.549777	2500.412308
482.918912	2505.453462
483.287988	2407.150962
483.657005	2462.603654
484.025964	2444.959615
484.394864	2475.206538
484.763706	2467.644808
485.132489	2533.179808
485.501213	2565.947308
485.869879	2447.480192
486.238487	2452.521346
486.607036	2538.220962
486.975527	2581.070769
487.343959	2447.480192
487.712333	2528.138654
488.080648	2550.823846
488.448905	2457.562500
488.817104	2515.535769
489.185244	2553.344423
489.553326	2447.480192
489.921350	2439.918462
490.289315	2558.385577
490.657222	2603.755962
491.025070	2495.371154
491.392861	2492.850577
491.760593	2364.301154
492.128267	2487.809423
492.495883	2465.124231
492.863440	2472.685962
493.230939	2450.000769
493.598380	2507.974038
493.965763	2447.480192
494.333088	2397.068654
494.700354	2535.700385
495.067563	2470.165385
495.434713	2472.685962
495.801805	2558.385577
496.168839	2467.644808
496.535815	2497.891731
496.902733	2465.124231
497.269593	2505.453462
497.636395	2467.644808
498.003139	2492.850577
498.369825	2432.356731
498.736453	2462.603654
499.103023	2402.109808
499.469535	2553.344423
499.835989	2490.330000
500.202385	2455.041923
500.568723	2530.659231
500.935003	2490.330000
501.301226	2530.659231
501.667390	2444.959615
502.033497	2543.262115
502.399546	2490.330000
502.765537	2565.947308
503.131470	2530.659231
503.497345	2432.356731
503.863163	2465.124231
504.228923	2480.247692
504.594625	2462.603654
504.960269	2576.029615
505.325856	2485.288846
505.691385	2487.809423
506.056856	2601.235385
506.422270	2520.576923
506.787625	2543.262115
507.152924	2518.056346
507.518164	2457.562500
507.883347	2485.288846
508.248472	2429.836154
508.613540	2465.124231
508.978550	2467.644808
509.343503	2462.603654
509.708398	2482.768269
510.073236	2444.959615
510.438016	2548.303269
510.802738	2497.891731
511.167403	2455.041923
511.532010	2545.782692
511.896561	2528.138654
512.261053	2477.727115
512.625488	2507.974038
512.989866	2457.562500
513.354186	2482.768269
513.718449	2563.426731
514.082655	2492.850577
514.446803	2472.685962
514.810894	2472.685962
515.174927	2480.247692
515.538904	2409.671538
515.902822	2490.330000
516.266684	2409.671538
516.630488	2485.288846
516.994235	2475.206538
517.357925	2485.288846
517.721558	2540.741538
518.085133	2485.288846
518.448651	2533.179808
518.812112	2472.685962
519.175516	2507.974038
519.538863	2455.041923
519.902152	2437.397885
520.265385	2485.288846
520.628560	2465.124231
520.991678	2487.809423
521.354739	2432.356731
521.717743	2502.932885
522.080690	2533.179808
522.443580	2558.385577
522.806413	2568.467885
523.169189	2495.371154
523.531908	2485.288846
523.894569	2455.041923
524.257174	2507.974038
524.619722	2523.097500
524.982213	2432.356731
525.344647	2462.603654
525.707025	2452.521346
526.069345	2497.891731
526.431608	2550.823846
526.793815	2475.206538
527.155964	2424.795000
527.518057	2540.741538
527.880093	2563.426731
528.242072	2495.371154
528.603995	2538.220962
528.965860	2528.138654
529.327669	2500.412308
529.689421	2520.576923
530.051117	2593.673654
530.412755	2442.439038
530.774337	2513.015192
531.135862	2460.083077
531.497331	2505.453462
531.858743	2485.288846
532.220098	2485.288846
532.581396	2500.412308
532.942638	2510.494615
533.303824	2533.179808
533.664953	2538.220962
534.026025	2442.439038
534.387040	2455.041923
534.747999	2530.659231
535.108902	2495.371154
535.469748	2578.550192
535.830537	2540.741538
536.191270	2477.727115
536.551947	2510.494615
536.912567	2533.179808
537.273131	2472.685962
537.633638	2470.165385
537.994089	2422.274423
538.354483	2495.371154
538.714821	2626.441154
539.075103	2465.124231
539.435328	2460.083077
539.795497	2510.494615
540.155609	2553.344423
540.515665	2492.850577
540.875665	2543.262115
541.235609	2560.906154
541.595496	2470.165385
541.955328	2535.700385
542.315102	2480.247692
542.674821	2510.494615
543.034483	2490.330000
543.394090	2455.041923
543.753640	2588.632500
544.113134	2515.535769
544.472571	2429.836154
544.831953	2515.535769
545.191278	2472.685962
545.550548	2497.891731
545.909761	2467.644808
546.268918	2480.247692
546.628019	2472.685962
546.987064	2460.083077
547.346053	2462.603654
547.704986	2492.850577
548.063863	2429.836154
548.422684	2424.795000
548.781449	2404.630385
549.140158	2515.535769
549.498811	2434.877308
549.857408	2429.836154
550.215949	2507.974038
550.574434	2568.467885
550.932864	2432.356731
551.291237	2452.521346
551.649555	2591.153077
552.007817	2452.521346
552.366022	2523.097500
552.724173	2475.206538
553.082267	2439.918462
553.440305	2480.247692
553.798288	2505.453462
554.156215	2455.041923
554.514086	2462.603654
554.871902	2460.083077
555.229661	2525.618077
555.587365	2487.809423
555.945014	2497.891731
556.302606	2450.000769
556.660143	2530.659231
557.017625	2442.439038
557.375050	2507.974038
557.732421	2482.768269
558.089735	2424.795000
558.446994	2444.959615
558.804197	2555.865000
559.161345	2462.603654
559.518437	2570.988462
559.875474	2487.809423
560.232455	2437.397885
560.589381	2472.685962
560.946251	2495.371154
561.303065	2475.206538
561.659825	2477.727115
562.016528	2492.850577
562.373177	2545.782692
562.729770	2442.439038
563.086307	2437.397885
563.442789	2492.850577
563.799216	2500.412308
564.155587	2452.521346
564.511904	2550.823846
564.868164	2452.521346
565.224370	2490.330000
565.580520	2555.865000
565.936615	2480.247692
566.292654	2465.124231
566.648638	2460.083077
567.004567	2530.659231
567.360441	2432.356731
567.716260	2455.041923
568.072023	2462.603654
568.427732	2515.535769
568.783385	2505.453462
569.138982	2495.371154
569.494525	2533.179808
569.850013	2520.576923
570.205445	2548.303269
570.560823	2513.015192
570.916145	2533.179808
571.271412	2581.070769
571.626625	2475.206538
571.981782	2452.521346
572.336884	2495.371154
572.691931	2515.535769
573.046923	2565.947308
573.401860	2553.344423
573.756743	2505.453462
574.111570	2482.768269
574.466342	2492.850577
574.821059	2518.056346
575.175722	2520.576923
575.530330	2523.097500
575.884882	2455.041923
576.239380	2520.576923
576.593823	2507.974038
576.948211	2510.494615
577.302544	2480.247692
577.656823	2563.426731
578.011047	2515.535769
578.365216	2467.644808
578.719330	2515.535769
579.073389	2520.576923
579.427394	2470.165385
579.781344	2538.220962
580.135239	2452.521346
580.489080	2528.138654
580.842866	2510.494615
581.196597	2500.412308
581.550273	2417.233269
581.903895	2550.823846
582.257463	2497.891731
582.610975	2495.371154
582.964434	2444.959615
583.317837	2417.233269
583.671186	2515.535769
584.024481	2518.056346
584.377721	2523.097500
584.730906	2543.262115
585.084037	2538.220962
585.437113	2502.932885
585.790135	2492.850577
586.143103	2490.330000
586.496016	2550.823846
586.848874	2513.015192
587.201679	2520.576923
587.554428	2414.712692
587.907124	2515.535769
588.259765	2399.589231
588.612352	2520.576923
588.964884	2545.782692
589.317362	2447.480192
589.669786	2487.809423
590.022155	2460.083077
590.374470	2505.453462
590.726731	2381.945192
591.078937	2558.385577
591.431090	2477.727115
591.783188	2475.206538
592.135232	2492.850577
592.487222	2450.000769
592.839157	2497.891731
593.191038	2568.467885
593.542866	2548.303269
593.894639	2550.823846
594.246358	2495.371154
594.598022	2457.562500
594.949633	2477.727115
595.301190	2492.850577
595.652692	2450.000769
596.004141	2417.233269
596.355535	2452.521346
596.706876	2497.891731
597.058162	2450.000769
597.409395	2490.330000
597.760573	2543.262115
598.111698	2565.947308
598.462768	2502.932885
598.813785	2480.247692
599.164748	2424.795000
599.515657	2490.330000
599.866511	2634.002885
600.217312	2480.247692
600.568060	2414.712692
600.918753	2533.179808
601.269392	2540.741538
601.619978	2500.412308
601.970510	2424.795000
602.320988	2437.397885
602.671412	2480.247692
603.021783	2490.330000
603.372100	2550.823846
603.722363	2376.904038
604.072572	2487.809423
604.422728	2510.494615
604.772830	2510.494615
605.122878	2515.535769
605.472872	2513.015192
605.822813	2563.426731
606.172701	2515.535769
606.522534	2535.700385
606.872314	2507.974038
607.222041	2465.124231
607.571714	2455.041923
607.921333	2482.768269
608.270899	2472.685962
608.620411	2548.303269
608.969870	2477.727115
609.319276	2573.509038
609.668627	2520.576923
610.017926	2560.906154
610.367171	2447.480192
610.716362	2523.097500
611.065500	2510.494615
611.414585	2520.576923
611.763616	2490.330000
612.112594	2548.303269
612.461518	2520.576923
612.810389	2495.371154
613.159207	2455.041923
613.507971	2495.371154
613.856682	2558.385577
614.205340	2419.753846
614.553945	2523.097500
614.902496	2588.632500
615.250994	2538.220962
615.599439	2543.262115
615.947830	2450.000769
616.296169	2475.206538
616.644454	2482.768269
616.992686	2558.385577
617.340864	2520.576923
617.688990	2540.741538
618.037063	2412.192115
618.385082	2485.288846
618.733048	2447.480192
619.080961	2480.247692
619.428821	2495.371154
619.776628	2540.741538
620.124382	2487.809423
620.472083	2533.179808
620.819731	2495.371154
621.167326	2553.344423
621.514868	2465.124231
621.862357	2523.097500
622.209793	2460.083077
622.557176	2507.974038
622.904506	2520.576923
623.251783	2477.727115
623.599007	2621.400000
623.946179	2545.782692
624.293297	2437.397885
624.640363	2581.070769
624.987376	2543.262115
625.334336	2515.535769
625.681243	2543.262115
626.028097	2412.192115
626.374899	2480.247692
626.721647	2475.206538
627.068343	2437.397885
627.414987	2439.918462
627.761577	2560.906154
628.108115	2450.000769
628.454600	2492.850577
628.801032	2482.768269
629.147412	2490.330000
629.493739	2460.083077
629.840014	2495.371154
630.186236	2535.700385
630.532405	2505.453462
630.878521	2460.083077
631.224585	2520.576923
631.570597	2543.262115
631.916556	2477.727115
632.262462	2538.220962
632.608316	2409.671538
632.954117	2515.535769
633.299866	2545.782692
633.645562	2548.303269
633.991206	2492.850577
634.336797	2470.165385
634.682336	2462.603654
635.027823	2548.303269
635.373257	2442.439038
635.718639	2540.741538
636.063968	2525.618077
636.409245	2495.371154
636.754470	2447.480192
637.099642	2616.358846
637.444762	2429.836154
637.789829	2523.097500
638.134845	2482.768269
638.479808	2553.344423
638.824719	2543.262115
639.169577	2470.165385
639.514383	2530.659231
639.859137	2480.247692
640.203839	2444.959615
640.548489	2515.535769
640.893086	2434.877308
641.237632	2460.083077
641.582125	2530.659231
641.926566	2583.591346
642.270955	2502.932885
642.615292	2543.262115
642.959576	2485.288846
643.303809	2455.041923
643.647990	2535.700385
643.992118	2439.918462
644.336195	2460.083077
644.680219	2497.891731
645.024192	2472.685962
645.368112	2502.932885
645.711981	2540.741538
646.055797	2515.535769
646.399562	2477.727115
646.743274	2424.795000
647.086935	2515.535769
647.430544	2535.700385
647.774101	2492.850577
648.117606	2442.439038
648.461059	2513.015192
648.804460	2543.262115
649.147810	2472.685962
649.491108	2520.576923
649.834354	2525.618077
650.177548	2555.865000
650.520690	2540.741538
650.863781	2530.659231
651.206820	2540.741538
651.549807	2442.439038
651.892742	2583.591346
652.235626	2525.618077
652.578458	2465.124231
652.921238	2545.782692
653.263967	2450.000769
653.606644	2510.494615
653.949269	2623.920577
654.291843	2442.439038
654.634365	2507.974038
654.976836	2515.535769
655.319255	2510.494615
655.661622	2460.083077
656.003938	2490.330000
656.346203	2528.138654
656.688416	2447.480192
657.030577	2475.206538
657.372687	2520.576923
657.714746	2439.918462
658.056753	2528.138654
658.398708	2462.603654
658.740612	2452.521346
659.082465	2444.959615
659.424266	2555.865000
659.766016	2432.356731
660.107715	2490.330000
660.449362	2490.330000
660.790958	2513.015192
661.132503	2593.673654
661.473996	2490.330000
661.815438	2495.371154
662.156829	2500.412308
662.498168	2470.165385
662.839456	2465.124231
663.180693	2450.000769
663.521879	2462.603654
663.863013	2520.576923
664.204097	2480.247692
664.545129	2513.015192
664.886110	2429.836154
665.227040	2570.988462
665.567918	2485.288846
665.908746	2505.453462
666.249522	2444.959615
666.590248	2525.618077
666.930922	2460.083077
667.271545	2518.056346
667.612118	2492.850577
667.952639	2543.262115
668.293109	2518.056346
668.633528	2475.206538
668.973896	2568.467885
669.314213	2550.823846
669.654480	2485.288846
669.994695	2518.056346
670.334859	2427.315577
670.674973	2497.891731
671.015035	2525.618077
671.355047	2563.426731
671.695008	2598.714808
672.034918	2528.138654
672.374777	2437.397885
672.714585	2548.303269
673.054342	2480.247692
673.394049	2432.356731
673.733705	2472.685962
674.073310	2467.644808
674.412864	2573.509038
674.752368	2485.288846
675.091820	2570.988462
675.431223	2555.865000
675.770574	2477.727115
676.109875	2490.330000
676.449125	2462.603654
676.788324	2500.412308
677.127473	2487.809423
677.466571	2558.385577
677.805619	2460.083077
678.144616	2545.782692
678.483562	2364.301154
678.822458	2543.262115
679.161303	2477.727115
679.500098	2525.618077
679.838842	2482.768269
680.177535	2548.303269
680.516179	2510.494615
680.854771	2482.768269
681.193314	2533.179808
681.531805	2510.494615
681.870247	2427.315577
682.208638	2480.247692
682.546978	2581.070769
682.885268	2530.659231
683.223508	2404.630385
683.561697	2457.562500
683.899836	2510.494615
684.237925	2520.576923
684.575963	2439.918462
684.913951	2523.097500
685.251889	2518.056346
685.589776	2515.535769
685.927614	2565.947308
686.265401	2404.630385
686.603137	2576.029615
686.940824	2578.550192
687.278460	2477.727115
687.616046	2467.644808
687.953582	2442.439038
688.291068	2467.644808
688.628504	2442.439038
688.965889	2477.727115
689.303224	2492.850577
689.640510	2535.700385
689.977745	2447.480192
690.314930	2540.741538
690.652065	2492.850577
690.989150	2570.988462
691.326185	2538.220962
691.663170	2513.015192
692.000105	2540.741538
692.336990	2475.206538
692.673825	2500.412308
693.010610	2492.850577
693.347345	2480.247692
693.684030	2515.535769
694.020665	2518.056346
694.357251	2475.206538
694.693786	2434.877308
695.030272	2545.782692
695.366707	2502.932885
695.703093	2497.891731
696.039429	2533.179808
696.375716	2432.356731
696.711952	2523.097500
697.048139	2439.918462
697.384276	2518.056346
697.720363	2495.371154
698.056400	2550.823846
698.392388	2550.823846
698.728326	2470.165385
699.064214	2497.891731
699.400053	2518.056346
699.735842	2545.782692
700.071581	2515.535769
700.407270	2565.947308
700.742910	2513.015192
701.078501	2513.015192
701.414042	2523.097500
701.749533	2492.850577
702.084974	2497.891731
702.420366	2434.877308
702.755709	2490.330000
703.091002	2455.041923
703.426246	2560.906154
703.761440	2518.056346
704.096584	2523.097500
704.431679	2404.630385
704.766725	2392.027500
705.101721	2550.823846
705.436668	2467.644808
705.771565	2500.412308
706.106413	2402.109808
706.441212	2470.165385
706.775961	2460.083077
707.110661	2523.097500
707.445311	2424.795000
707.779913	2394.548077
708.114465	2560.906154
708.448967	2470.165385
708.783421	2490.330000
709.117825	2457.562500
709.452180	2472.685962
709.786485	2500.412308
710.120742	2545.782692
710.454949	2465.124231
710.789107	2442.439038
711.123216	2550.823846
711.457275	2581.070769
711.791286	2492.850577
712.125247	2573.509038
712.459159	2555.865000
712.793023	2545.782692
713.126837	2576.029615
713.460602	2545.782692
713.794318	2520.576923
714.127985	2548.303269
714.461602	2518.056346
714.795171	2533.179808
715.128691	2523.097500
715.462162	2434.877308
715.795584	2543.262115
716.128957	2492.850577
716.462281	2480.247692
716.795556	2545.782692
717.128782	2477.727115
717.461960	2555.865000
717.795088	2500.412308
718.128167	2535.700385
718.461198	2472.685962
718.794180	2553.344423
719.127113	2487.809423
719.459997	2434.877308
719.792833	2492.850577
720.125619	2480.247692
720.458357	2480.247692
720.791046	2507.974038
721.123686	2472.685962
721.456278	2475.206538
721.788821	2424.795000
722.121315	2525.618077
722.453761	2523.097500
722.786158	2576.029615
723.118506	2588.632500
723.450805	2477.727115
723.783056	2513.015192
724.115259	2439.918462
724.447412	2563.426731
724.779518	2482.768269
725.111574	2573.509038
725.443582	2525.618077
725.775542	2450.000769
726.107453	2475.206538
726.439315	2475.206538
726.771129	2520.576923
727.102895	2568.467885
727.434612	2470.165385
727.766281	2482.768269
728.097901	2462.603654
728.429473	2545.782692
728.760996	2442.439038
729.092471	2394.548077
729.423897	2480.247692
729.755276	2490.330000
730.086606	2528.138654
730.417887	2555.865000
730.749120	2442.439038
731.080305	2490.330000
731.411442	2540.741538
731.742530	2482.768269
732.073570	2477.727115
732.404562	2555.865000
732.735506	2510.494615
733.066401	2455.041923
733.397249	2450.000769
733.728048	2497.891731
734.058798	2447.480192
734.389501	2576.029615
734.720156	2533.179808
735.050762	2555.865000
735.381320	2583.591346
735.711831	2492.850577
736.042293	2457.562500
736.372707	2470.165385
736.703073	2422.274423
737.033391	2455.041923
737.363661	2576.029615
737.693883	2422.274423
738.024056	2495.371154
738.354182	2520.576923
738.684260	2573.509038
739.014290	2407.150962
739.344272	2439.918462
739.674207	2462.603654
740.004093	2404.630385
740.333931	2485.288846
740.663722	2452.521346
740.993464	2500.412308
741.323159	2485.288846
741.652806	2543.262115
741.982405	2593.673654
742.311956	2475.206538
742.641460	2530.659231
742.970915	2447.480192
743.300323	2515.535769
743.629683	2525.618077
743.958996	2487.809423
744.288260	2555.865000
744.617477	2563.426731
744.946647	2538.220962
745.275768	2457.562500
745.604842	2502.932885
745.933869	2518.056346
746.262847	2495.371154
746.591778	2477.727115
746.920662	2578.550192
747.249498	2455.041923
747.578286	2402.109808
747.907027	2457.562500
748.235720	2462.603654
748.564365	2507.974038
748.892963	2568.467885
749.221514	2525.618077
749.550017	2528.138654
749.878473	2565.947308
750.206881	2371.862885
750.535242	2588.632500
750.863555	2533.179808
751.191821	2528.138654
751.520039	2518.056346
751.848210	2500.412308
752.176334	2507.974038
752.504411	2485.288846
752.832440	2386.986346
753.160421	2528.138654
753.488356	2465.124231
753.816243	2513.015192
754.144082	2497.891731
754.471875	2578.550192
754.799620	2502.932885
755.127318	2417.233269
755.454969	2591.153077
755.782572	2502.932885
756.110129	2518.056346
756.437638	2490.330000
756.765100	2507.974038
757.092515	2485.288846
757.419882	2460.083077
757.747203	2497.891731
758.074477	2510.494615
758.401703	2513.015192
758.728882	2427.315577
759.056014	2475.206538
759.383099	2457.562500
759.710138	2455.041923
760.037129	2460.083077
760.364073	2507.974038
760.690970	2578.550192
761.017820	2452.521346
761.344623	2447.480192
761.671379	2495.371154
761.998088	2507.974038
762.324751	2407.150962
762.651366	2480.247692
762.977935	2538.220962
763.304456	2447.480192
763.630931	2538.220962
763.957359	2482.768269
764.283740	2485.288846
764.610074	2477.727115
764.936362	2518.056346
765.262602	2432.356731
765.588796	2555.865000
765.914943	2477.727115
766.241044	2502.932885
766.567097	2513.015192
766.893104	2485.288846
767.219064	2513.015192
767.544978	2507.974038
767.870845	2555.865000
768.196665	2485.288846
768.522438	2548.303269
768.848165	2485.288846
769.173846	2502.932885
769.499479	2427.315577
769.825066	2502.932885
770.150607	2487.809423
770.476101	2507.974038
770.801548	2460.083077
771.126949	2492.850577
771.452303	2545.782692
771.777611	2457.562500
772.102872	2472.685962
772.428087	2439.918462
772.753256	2495.371154
773.078378	2477.727115
773.403453	2386.986346
773.728482	2470.165385
774.053465	2596.194231
774.378401	2497.891731
774.703291	2482.768269
775.028135	2447.480192
775.352932	2500.412308
775.677683	2487.809423
776.002388	2518.056346
776.327046	2510.494615
776.651658	2467.644808
776.976224	2510.494615
777.300743	2523.097500
777.625216	2467.644808
777.949643	2475.206538
778.274024	2442.439038
778.598359	2485.288846
778.922647	2439.918462
779.246889	2497.891731
779.571086	2472.685962
779.895236	2515.535769
780.219339	2452.521346
780.543397	2500.412308
780.867409	2502.932885
781.191374	2434.877308
781.515294	2437.397885
781.839167	2444.959615
782.162995	2515.535769
782.486776	2480.247692
782.810511	2543.262115
783.134201	2518.056346
783.457844	2518.056346
783.781441	2477.727115
784.104993	2470.165385
784.428498	2565.947308
784.751958	2497.891731
785.075372	2492.850577
785.398739	2437.397885
785.722061	2465.124231
786.045337	2523.097500
786.368568	2452.521346
786.691752	2530.659231
787.014891	2422.274423
787.337983	2553.344423
787.661030	2525.618077
787.984031	2560.906154
788.306987	2429.836154
788.629897	2470.165385
788.952760	2419.753846
789.275579	2437.397885
789.598351	2450.000769
789.921078	2510.494615
790.243759	2525.618077
790.566395	2500.412308
790.888984	2462.603654
791.211529	2460.083077
791.534027	2485.288846
791.856480	2518.056346
792.178888	2465.124231
792.501249	2616.358846
792.823566	2555.865000
793.145836	2568.467885
793.468062	2472.685962
793.790241	2442.439038
794.112375	2447.480192
794.434464	2497.891731
794.756507	2452.521346
795.078505	2475.206538
795.400457	2495.371154
795.722364	2543.262115
796.044226	2457.562500
796.366042	2480.247692
796.687812	2558.385577
797.009538	2467.644808
797.331218	2545.782692
797.652852	2568.467885
797.974442	2485.288846
798.295986	2533.179808
798.617484	2523.097500
798.938938	2573.509038
799.260346	2482.768269
799.581709	2487.809423
799.903026	2465.124231
800.224299	2475.206538
800.545526	2520.576923
800.866708	2591.153077
801.187845	2528.138654
801.508936	2472.685962
801.829983	2518.056346
802.150984	2455.041923
802.471940	2485.288846
802.792851	2447.480192
803.113717	2495.371154
803.434538	2502.932885
803.755314	2563.426731
804.076045	2538.220962
804.396731	2482.768269
804.717372	2528.138654
805.037967	2545.782692
805.358518	2480.247692
805.679024	2472.685962
805.999485	2429.836154
806.319901	2497.891731
806.640272	2482.768269
806.960598	2480.247692
807.280879	2540.741538
807.601115	2460.083077
807.921306	2482.768269
808.241453	2485.288846
808.561554	2555.865000
808.881611	2550.823846
809.201623	2465.124231
809.521590	2510.494615
809.841513	2477.727115
810.161390	2477.727115
810.481223	2540.741538
810.801011	2492.850577
811.120755	2515.535769
811.440453	2538.220962
811.760107	2432.356731
812.079716	2475.206538
812.399281	2475.206538
812.718801	2543.262115
813.038276	2492.850577
813.357707	2530.659231
813.677093	2457.562500
813.996434	2467.644808
814.315731	2429.836154
814.634983	2525.618077
814.954191	2465.124231
815.273354	2472.685962
815.592473	2462.603654
815.911547	2515.535769
816.230577	2507.974038
816.549562	2482.768269
816.868502	2510.494615
817.187399	2444.959615
817.506250	2437.397885
817.825058	2513.015192
818.143821	2495.371154
818.462539	2439.918462
818.781213	2477.727115
819.099843	2497.891731
819.418429	2495.371154
819.736970	2477.727115
820.055466	2530.659231
820.373919	2513.015192
820.692327	2523.097500
821.010691	2623.920577
821.329011	2457.562500
821.647286	2495.371154
821.965517	2475.206538
822.283704	2505.453462
822.601847	2429.836154
822.919945	2568.467885
823.237999	2482.768269
823.556010	2538.220962
823.873976	2533.179808
824.191897	2545.782692
824.509775	2432.356731
824.827609	2565.947308
825.145398	2538.220962
825.463144	2480.247692
825.780845	2482.768269
826.098502	2444.959615
826.416116	2513.015192
826.733685	2518.056346
827.051210	2490.330000
827.368692	2439.918462
827.686129	2482.768269
828.003522	2475.206538
828.320872	2472.685962
828.638177	2550.823846
828.955439	2460.083077
829.272656	2465.124231
829.589830	2432.356731
829.906960	2545.782692
830.224046	2510.494615
830.541088	2510.494615
830.858086	2502.932885
831.175041	2490.330000
831.491952	2563.426731
831.808819	2510.494615
832.125642	2555.865000
832.442421	2535.700385
832.759157	2470.165385
833.075849	2444.959615
833.392497	2424.795000
833.709101	2492.850577
834.025662	2543.262115
834.342179	2465.124231
834.658653	2523.097500
834.975083	2523.097500
835.291469	2424.795000
835.607811	2545.782692
835.924110	2513.015192
836.240366	2510.494615
836.556578	2565.947308
836.872746	2502.932885
837.188871	2533.179808
837.504952	2505.453462
837.820990	2510.494615
838.136984	2507.974038
838.452935	2465.124231
838.768842	2485.288846
839.084706	2543.262115
839.400526	2520.576923
839.716303	2417.233269
840.032037	2528.138654
840.347727	2467.644808
840.663373	2545.782692
840.978977	2439.918462
841.294537	2487.809423
841.610054	2528.138654
841.925527	2457.562500
842.240957	2477.727115
842.556344	2460.083077
842.871687	2558.385577
843.186987	2472.685962
843.502244	2487.809423
843.817458	2477.727115
844.132629	2485.288846
844.447756	2548.303269
844.762840	2465.124231
845.077881	2502.932885
845.392879	2417.233269
845.707833	2553.344423
846.022745	2533.179808
846.337613	2553.344423
846.652438	2475.206538
846.967221	2523.097500
847.281960	2550.823846
847.596656	2475.206538
847.911309	2520.576923
848.225919	2397.068654
848.540485	2525.618077
848.855009	2480.247692
849.169490	2447.480192
849.483928	2500.412308
849.798323	2528.138654
850.112675	2563.426731
850.426984	2480.247692
850.741251	2548.303269
851.055474	2460.083077
851.369654	2497.891731
851.683792	2505.453462
851.997887	2470.165385
852.311938	2487.809423
852.625947	2470.165385
852.939914	2417.233269
853.253837	2563.426731
853.567718	2490.330000
853.881555	2518.056346
854.195350	2455.041923
854.509103	2528.138654
854.822812	2444.959615
855.136479	2419.753846
855.450103	2447.480192
855.763685	2457.562500
856.077224	2497.891731
856.390720	2452.521346
856.704173	2520.576923
857.017584	2492.850577
857.330953	2467.644808
857.644278	2518.056346
857.957561	2545.782692
858.270802	2460.083077
858.584000	2475.206538
858.897155	2477.727115
859.210268	2497.891731
859.523339	2442.439038
859.836367	2379.424615
860.149352	2482.768269
860.462295	2518.056346
860.775195	2518.056346
861.088054	2500.412308
861.400869	2540.741538
861.713642	2515.535769
862.026373	2472.685962
862.339062	2507.974038
862.651708	2505.453462
862.964312	2419.753846
863.276873	2523.097500
863.589392	2530.659231
863.901869	2593.673654
864.214303	2502.932885
864.526696	2460.083077
864.839045	2500.412308
865.151353	2470.165385
865.463619	2485.288846
865.775842	2505.453462
866.088023	2470.165385
866.400162	2510.494615
866.712258	2470.165385
867.024313	2563.426731
867.336325	2533.179808
867.648296	2439.918462
867.960224	2555.865000
868.272110	2490.330000
868.583954	2515.535769
868.895755	2525.618077
869.207515	2419.753846
869.519233	2507.974038
869.830909	2455.041923
870.142542	2361.780577
870.454134	2482.768269
870.765684	2515.535769
871.077191	2528.138654
871.388657	2457.562500
871.700081	2525.618077
872.011463	2444.959615
872.322803	2422.274423
872.634101	2492.850577
872.945357	2487.809423
873.256571	2563.426731
873.567744	2513.015192
873.878874	2565.947308
874.189963	2515.535769
874.501010	2518.056346
874.812015	2510.494615
875.122979	2555.865000
875.433900	2422.274423
875.744780	2507.974038
876.055618	2497.891731
876.366415	2626.441154
876.677169	2578.550192
876.987882	2434.877308
877.298554	2543.262115
877.609183	2507.974038
877.919771	2492.850577
878.230317	2432.356731
878.540822	2518.056346
878.851285	2505.453462
879.161707	2583.591346
879.472087	2470.165385
879.782425	2586.111923
880.092722	2518.056346
880.402977	2608.797115
880.713191	2455.041923
881.023363	2460.083077
881.333494	2462.603654
881.643583	2523.097500
881.953631	2598.714808
882.263637	2502.932885
882.573602	2439.918462
882.883526	2465.124231
883.193408	2480.247692
883.503248	2487.809423
883.813048	2455.041923
884.122806	2520.576923
884.432522	2528.138654
884.742197	2450.000769
885.051831	2518.056346
885.361424	2447.480192
885.670975	2389.506923
885.980485	2558.385577
886.289954	2530.659231
886.599382	2447.480192
886.908768	2472.685962
887.218113	2581.070769
887.527417	2568.467885
887.836680	2470.165385
888.145901	2533.179808
888.455082	2450.000769
888.764221	2520.576923
889.073319	2477.727115
889.382376	2455.041923
889.691392	2515.535769
890.000366	2485.288846
890.309300	2419.753846
890.618193	2467.644808
890.927044	2417.233269
891.235855	2477.727115
891.544625	2533.179808
891.853353	2450.000769
892.162041	2538.220962
892.470687	2457.562500
892.779293	2518.056346
893.087858	2460.083077
893.396381	2480.247692
893.704864	2543.262115
894.013306	2507.974038
894.321707	2457.562500
894.630068	2455.041923
894.938387	2465.124231
895.246665	2500.412308
895.554903	2538.220962
895.863100	2482.768269
896.171256	2472.685962
896.479371	2452.521346
896.787446	2565.947308
897.095480	2462.603654
897.403473	2525.618077
897.711425	2394.548077
898.019336	2540.741538
898.327207	2533.179808
898.635038	2550.823846
898.942827	2397.068654
899.250576	2502.932885
899.558284	2490.330000
899.865952	2530.659231
900.173579	2439.918462
900.481165	2492.850577
900.788711	2480.247692
901.096216	2560.906154
901.403681	2439.918462
901.711105	2495.371154
902.018489	2490.330000
902.325832	2485.288846
902.633135	2480.247692
902.940397	2596.194231
903.247619	2452.521346
903.554800	2419.753846
903.861941	2447.480192
904.169041	2460.083077
904.476101	2386.986346
904.783121	2424.795000
905.090100	2530.659231
905.397039	2472.685962
905.703938	2520.576923
906.010796	2487.809423
906.317614	2417.233269
906.624391	2439.918462
906.931129	2515.535769
907.237826	2515.535769
907.544483	2548.303269
907.851099	2507.974038
908.157675	2485.288846
908.464211	2523.097500
908.770707	2427.315577
909.077163	2513.015192
909.383578	2492.850577
909.689954	2452.521346
909.996289	2520.576923
910.302584	2528.138654
910.608839	2414.712692
910.915054	2455.041923
911.221229	2490.330000
911.527363	2525.618077
911.833458	2437.397885
912.139513	2513.015192
912.445527	2563.426731
912.751502	2500.412308
913.057436	2502.932885
913.363331	2528.138654
913.669186	2505.453462
913.975000	2424.795000
914.280775	2530.659231
914.586510	2505.453462
914.892205	2558.385577
915.197859	2613.838269
915.503475	2467.644808
915.809050	2500.412308
916.114585	2487.809423
916.420081	2482.768269
916.725536	2535.700385
917.030952	2533.179808
917.336328	2510.494615
917.641665	2432.356731
917.946961	2540.741538
918.252218	2487.809423
918.557435	2535.700385
918.862612	2525.618077
919.167750	2470.165385
919.472848	2450.000769
919.777906	2528.138654
920.082925	2462.603654
920.387904	2442.439038
920.692843	2540.741538
920.997743	2470.165385
921.302603	2376.904038
921.607423	2465.124231
921.912204	2505.453462
922.216946	2485.288846
922.521647	2460.083077
922.826310	2533.179808
923.130932	2533.179808
923.435516	2502.932885
923.740059	2502.932885
924.044564	2485.288846
924.349028	2470.165385
924.653454	2576.029615
924.957840	2520.576923
925.262186	2530.659231
925.566493	2502.932885
925.870761	2409.671538
926.174989	2533.179808
926.479178	2465.124231
926.783328	2555.865000
927.087438	2495.371154
927.391509	2500.412308
927.695541	2525.618077
927.999533	2472.685962
928.303486	2462.603654
928.607400	2452.521346
928.911275	2485.288846
929.215110	2472.685962
929.518906	2480.247692
929.822663	2570.988462
930.126381	2586.111923
930.430060	2417.233269
930.733699	2450.000769
931.037299	2555.865000
931.340861	2490.330000
931.644383	2523.097500
931.947866	2497.891731
932.251309	2510.494615
932.554714	2467.644808
932.858080	2576.029615
933.161407	2520.576923
933.464694	2523.097500
933.767943	2460.083077
934.071153	2502.932885
934.374323	2518.056346
934.677455	2500.412308
934.980548	2465.124231
935.283602	2490.330000
935.586617	2550.823846
935.889593	2507.974038
936.192530	2525.618077
936.495428	2442.439038
936.798287	2490.330000
937.101108	2450.000769
937.403890	2578.550192
937.706632	2447.480192
938.009336	2490.330000
938.312002	2444.959615
938.614628	2555.865000
938.917216	2437.397885
939.219765	2412.192115
939.522275	2505.453462
939.824747	2447.480192
940.127179	2482.768269
940.429573	2462.603654
940.731929	2414.712692
941.034246	2462.603654
941.336524	2457.562500
941.638763	2500.412308
941.940964	2480.247692
942.243126	2538.220962
942.545250	2414.712692
942.847335	2452.521346
943.149381	2515.535769
943.451389	2560.906154
943.753359	2533.179808
944.055290	2563.426731
944.357182	2601.235385
944.659036	2578.550192
944.960851	2505.453462
945.262628	2535.700385
945.564367	2540.741538
945.866067	2490.330000
946.167729	2518.056346
946.469352	2507.974038
946.770937	2417.233269
947.072484	2520.576923
947.373992	2465.124231
947.675462	2457.562500
947.976893	2543.262115
948.278286	2502.932885
948.579641	2485.288846
948.880958	2518.056346
949.182236	2543.262115
949.483476	2414.712692
949.784678	2535.700385
950.085841	2583.591346
950.386967	2548.303269
950.688054	2480.247692
950.989103	2477.727115
951.290114	2402.109808
951.591087	2510.494615
951.892021	2533.179808
952.192917	2439.918462
952.493776	2492.850577
952.794596	2475.206538
953.095378	2540.741538
953.396122	2540.741538
953.696828	2490.330000
953.997496	2505.453462
954.298126	2447.480192
954.598718	2535.700385
954.899272	2419.753846
955.199788	2455.041923
955.500266	2452.521346
955.800706	2397.068654
956.101108	2518.056346
956.401472	2515.535769
956.701798	2467.644808
957.002087	2444.959615
957.302337	2422.274423
957.602550	2482.768269
957.902724	2513.015192
958.202861	2487.809423
958.502960	2523.097500
958.803022	2565.947308
959.103045	2505.453462
959.403031	2470.165385
959.702979	2427.315577
960.002889	2475.206538
960.302762	2452.521346
960.602596	2482.768269
960.902393	2520.576923
961.202153	2573.509038
961.501875	2482.768269
961.801559	2495.371154
962.101205	2470.165385
962.400814	2470.165385
962.700385	2475.206538
962.999918	2510.494615
963.299414	2507.974038
963.598873	2465.124231
963.898293	2409.671538
964.197677	2462.603654
964.497022	2510.494615
964.796331	2472.685962
965.095601	2457.562500
965.394835	2450.000769
965.694030	2444.959615
965.993189	2495.371154
966.292309	2545.782692
966.591393	2447.480192
966.890439	2505.453462
967.189447	2523.097500
967.488419	2472.685962
967.787353	2487.809423
968.086249	2467.644808
968.385108	2523.097500
968.683930	2515.535769
968.982714	2555.865000
969.281462	2528.138654
969.580172	2568.467885
969.878844	2530.659231
970.177480	2528.138654
970.476078	2528.138654
970.774639	2492.850577
971.073162	2492.850577
971.371649	2515.535769
971.670098	2502.932885
971.968510	2548.303269
972.266885	2540.741538
972.565223	2525.618077
972.863524	2482.768269
973.161788	2515.535769
973.460014	2437.397885
973.758204	2379.424615
974.056356	2432.356731
974.354471	2465.124231
974.652550	2492.850577
974.950591	2477.727115
975.248595	2384.465769
975.546563	2535.700385
975.844493	2603.755962
976.142386	2495.371154
976.440243	2492.850577
976.738062	2497.891731
977.035845	2427.315577
977.333590	2465.124231
977.631299	2492.850577
977.928971	2475.206538
978.226606	2437.397885
978.524204	2371.862885
978.821765	2462.603654
979.119290	2439.918462
979.416777	2492.850577
979.714228	2563.426731
980.011642	2515.535769
980.309020	2465.124231
980.606360	2409.671538
980.903664	2485.288846
981.200931	2525.618077
981.498162	2472.685962
981.795356	2447.480192
982.092513	2399.589231
982.389633	2482.768269
982.686717	2457.562500
982.983764	2560.906154
983.280775	2462.603654
983.577749	2545.782692
983.874686	2429.836154
984.171587	2513.015192
984.468451	2465.124231
984.765279	2565.947308
985.062070	2487.809423
985.358824	2480.247692
985.655543	2480.247692
985.952224	2548.303269
986.248869	2447.480192
986.545478	2412.192115
986.842050	2419.753846
987.138586	2444.959615
987.435086	2497.891731
987.731549	2427.315577
988.027975	2485.288846
988.324366	2505.453462
988.620719	2502.932885
988.917037	2507.974038
989.213318	2518.056346
989.509563	2447.480192
989.805772	2528.138654
990.101944	2545.782692
990.398080	2477.727115
990.694180	2447.480192
990.990244	2507.974038
991.286271	2492.850577
991.582262	2442.439038
991.878217	2502.932885
992.174136	2402.109808
992.470019	2487.809423
992.765865	2429.836154
993.061676	2485.288846
993.357450	2490.330000
993.653188	2485.288846
993.948890	2442.439038
994.244556	2560.906154
994.540186	2548.303269
994.835780	2525.618077
995.131337	2502.932885
995.426859	2465.124231
995.722345	2465.124231
996.017795	2462.603654
996.313208	2507.974038
996.608586	2505.453462
996.903928	2518.056346
997.199234	2518.056346
997.494504	2444.959615
997.789738	2432.356731
998.084936	2442.439038
998.380099	2412.192115
998.675225	2538.220962
998.970316	2462.603654
999.265371	2576.029615
999.560390	2520.576923
999.855373	2439.918462
1000.150320	2482.768269
1000.445232	2500.412308
1000.740108	2467.644808
1001.034948	2475.206538
1001.329752	2470.165385
1001.624521	2525.618077
1001.919254	2495.371154
1002.213951	2507.974038
1002.508613	2457.562500
1002.803239	2414.712692
1003.097829	2487.809423
1003.392384	2492.850577
1003.686903	2447.480192
1003.981386	2538.220962
1004.275834	2442.439038
1004.570246	2452.521346
1004.864623	2540.741538
1005.158964	2492.850577
1005.453270	2518.056346
1005.747540	2470.165385
1006.041775	2570.988462
1006.335974	2596.194231
1006.630138	2510.494615
1006.924266	2467.644808
1007.218359	2500.412308
1007.512416	2520.576923
1007.806438	2507.974038
1008.100425	2434.877308
1008.394376	2437.397885
1008.688292	2399.589231
1008.982172	2485.288846
1009.276017	2528.138654
1009.569827	2417.233269
1009.863602	2502.932885
1010.157341	2434.877308
1010.451045	2397.068654
1010.744714	2518.056346
1011.038347	2472.685962
1011.331945	2500.412308
1011.625508	2467.644808
1011.919036	2523.097500
1012.212528	2437.397885
1012.505986	2485.288846
1012.799408	2545.782692
1013.092795	2437.397885
1013.386147	2520.576923
1013.679464	2422.274423
1013.972745	2538.220962
1014.265992	2467.644808
1014.559204	2563.426731
1014.852380	2530.659231
1015.145521	2530.659231
1015.438628	2447.480192
1015.731699	2487.809423
1016.024736	2520.576923
1016.317737	2480.247692
1016.610703	2505.453462
1016.903635	2477.727115
1017.196531	2482.768269
1017.489393	2550.823846
1017.782219	2470.165385
1018.075011	2507.974038
1018.367768	2477.727115
1018.660490	2460.083077
1018.953177	2460.083077
1019.245829	2460.083077
