Dividing Wavelength (nm)	Counts (n)	Blue Motor Position (mm): 0.000000	Red Motor Position (mm): 2.500000	
326.493990	2089.558269
326.888308	2089.558269
327.282561	2089.558269
327.676750	2044.187885
328.070874	2054.270192
328.464933	2056.790769
328.858929	2097.120000
329.252859	2079.475962
329.646726	2064.352500
330.040528	2150.052115
330.434265	2182.819615
330.827938	2152.572692
331.221547	2167.696154
331.615091	2205.504808
332.008571	2122.325769
332.401986	2205.504808
332.795338	2260.957500
333.188625	2268.519231
333.581847	2250.875192
333.975006	2245.834038
334.368100	2376.904038
334.761129	2273.560385
335.154095	2323.971923
335.546996	2359.260000
335.939833	2376.904038
336.332606	2371.862885
336.725315	2351.698269
337.117960	2341.615962
337.510540	2470.165385
337.903056	2442.439038
338.295508	2369.342308
338.687896	2465.124231
339.080220	2369.342308
339.472480	2485.288846
339.864676	2475.206538
340.256807	2495.371154
340.648875	2437.397885
341.040879	2399.589231
341.432818	2452.521346
341.824694	2442.439038
342.216506	2533.179808
342.608253	2412.192115
342.999937	2470.165385
343.391557	2460.083077
343.783113	2424.795000
344.174605	2399.589231
344.566033	2444.959615
344.957397	2439.918462
345.348697	2525.618077
345.739934	2513.015192
346.131106	2535.700385
346.522215	2427.315577
346.913260	2444.959615
347.304241	2502.932885
347.695159	2455.041923
348.086012	2502.932885
348.476802	2386.986346
348.867528	2492.850577
349.258191	2434.877308
349.648789	2432.356731
350.039324	2409.671538
350.429796	2412.192115
350.820203	2455.041923
351.210548	2467.644808
351.600828	2475.206538
351.991045	2394.548077
352.381198	2460.083077
352.771288	2386.986346
353.161314	2482.768269
353.551276	2432.356731
353.941175	2502.932885
354.331010	2450.000769
354.720782	2502.932885
355.110490	2414.712692
355.500135	2500.412308
355.889717	2510.494615
356.279235	2485.288846
356.668689	2460.083077
357.058080	2482.768269
357.447408	2439.918462
357.836672	2429.836154
358.225873	2462.603654
358.615010	2465.124231
359.004084	2470.165385
359.393095	2460.083077
359.782043	2429.836154
360.170927	2490.330000
360.559748	2386.986346
360.948505	2490.330000
361.337199	2545.782692
361.725830	2409.671538
362.114398	2495.371154
362.502903	2452.521346
362.891344	2434.877308
363.279722	2477.727115
363.668037	2429.836154
364.056289	2427.315577
364.444478	2485.288846
364.832603	2457.562500
365.220665	2397.068654
365.608665	2455.041923
365.996601	2442.439038
366.384474	2417.233269
366.772284	2407.150962
367.160031	2462.603654
367.547715	2497.891731
367.935336	2475.206538
368.322893	2422.274423
368.710388	2447.480192
369.097820	2359.260000
369.485189	2386.986346
369.872495	2523.097500
370.259738	2439.918462
370.646918	2432.356731
371.034035	2399.589231
371.421090	2432.356731
371.808081	2404.630385
372.195010	2414.712692
372.581875	2465.124231
372.968678	2394.548077
373.355418	2450.000769
373.742096	2437.397885
374.128710	2467.644808
374.515262	2422.274423
374.901751	2457.562500
375.288177	2495.371154
375.674540	2497.891731
376.060841	2497.891731
376.447079	2475.206538
376.833254	2417.233269
377.219367	2437.397885
377.605417	2482.768269
377.991404	2412.192115
378.377329	2462.603654
378.763191	2477.727115
379.148991	2513.015192
379.534727	2455.041923
379.920402	2384.465769
380.306013	2570.988462
380.691563	2432.356731
381.077049	2419.753846
381.462474	2497.891731
381.847835	2502.932885
382.233134	2465.124231
382.618371	2495.371154
383.003545	2485.288846
383.388657	2487.809423
383.773706	2525.618077
384.158693	2432.356731
384.543618	2376.904038
384.928480	2507.974038
385.313280	2457.562500
385.698017	2457.562500
386.082692	2480.247692
386.467305	2533.179808
386.851856	2442.439038
387.236344	2513.015192
387.620770	2477.727115
388.005133	2530.659231
388.389435	2465.124231
388.773674	2444.959615
389.157851	2470.165385
389.541965	2482.768269
389.926018	2460.083077
390.310008	2487.809423
390.693936	2462.603654
391.077802	2404.630385
391.461606	2560.906154
391.845348	2515.535769
392.229027	2528.138654
392.612645	2439.918462
392.996200	2497.891731
393.379694	2545.782692
393.763125	2502.932885
394.146494	2437.397885
394.529801	2550.823846
394.913047	2502.932885
395.296230	2392.027500
395.679351	2545.782692
396.062410	2573.509038
396.445408	2475.206538
396.828343	2500.412308
397.211217	2394.548077
397.594028	2538.220962
397.976778	2480.247692
398.359466	2482.768269
398.742092	2429.836154
399.124656	2497.891731
399.507158	2513.015192
399.889598	2530.659231
400.271977	2500.412308
400.654294	2525.618077
401.036549	2507.974038
401.418742	2475.206538
401.800874	2515.535769
402.182944	2434.877308
402.564952	2578.550192
402.946898	2452.521346
403.328783	2518.056346
403.710606	2472.685962
404.092367	2462.603654
404.474067	2467.644808
404.855705	2490.330000
405.237282	2523.097500
405.618797	2460.083077
406.000250	2485.288846
406.381642	2437.397885
406.762972	2570.988462
407.144240	2439.918462
407.525447	2490.330000
407.906593	2507.974038
408.287677	2477.727115
408.668700	2439.918462
409.049661	2379.424615
409.430560	2560.906154
409.811399	2492.850577
410.192176	2457.562500
410.572891	2374.383462
410.953545	2485.288846
411.334138	2460.083077
411.714669	2414.712692
412.095139	2462.603654
412.475547	2507.974038
412.855894	2507.974038
413.236180	2515.535769
413.616405	2447.480192
413.996568	2500.412308
414.376670	2543.262115
414.756711	2502.932885
415.136691	2538.220962
415.516609	2492.850577
415.896466	2500.412308
416.276262	2470.165385
416.655997	2500.412308
417.035670	2497.891731
417.415283	2520.576923
417.794834	2450.000769
418.174324	2505.453462
418.553753	2460.083077
418.933121	2452.521346
419.312428	2470.165385
419.691674	2500.412308
420.070859	2487.809423
420.449983	2429.836154
420.829045	2439.918462
421.208047	2475.206538
421.586988	2419.753846
421.965867	2538.220962
422.344686	2480.247692
422.723444	2550.823846
423.102141	2513.015192
423.480777	2470.165385
423.859352	2507.974038
424.237866	2394.548077
424.616319	2480.247692
424.994712	2465.124231
425.373044	2500.412308
425.751314	2467.644808
426.129524	2618.879423
426.507673	2434.877308
426.885762	2457.562500
427.263789	2515.535769
427.641756	2472.685962
428.019662	2548.303269
428.397508	2502.932885
428.775292	2518.056346
429.153016	2507.974038
429.530679	2495.371154
429.908282	2497.891731
430.285824	2510.494615
430.663305	2472.685962
431.040726	2407.150962
431.418086	2523.097500
431.795385	2467.644808
432.172624	2490.330000
432.549802	2429.836154
432.926920	2477.727115
433.303977	2374.383462
433.680974	2523.097500
434.057910	2510.494615
434.434786	2495.371154
434.811601	2452.521346
435.188355	2507.974038
435.565050	2465.124231
435.941683	2450.000769
436.318257	2487.809423
436.694770	2490.330000
437.071222	2523.097500
437.447614	2497.891731
437.823946	2540.741538
438.200218	2487.809423
438.576429	2419.753846
438.952580	2540.741538
439.328670	2497.891731
439.704700	2485.288846
440.080670	2412.192115
440.456580	2581.070769
440.832429	2465.124231
441.208218	2437.397885
441.583947	2502.932885
441.959616	2424.795000
442.335224	2460.083077
442.710773	2457.562500
443.086261	2447.480192
443.461689	2450.000769
443.837057	2457.562500
444.212365	2414.712692
444.587612	2467.644808
444.962800	2472.685962
445.337927	2545.782692
445.712995	2457.562500
446.088002	2447.480192
446.462949	2492.850577
446.837837	2520.576923
447.212664	2467.644808
447.587431	2507.974038
447.962139	2563.426731
448.336786	2515.535769
448.711374	2460.083077
449.085901	2467.644808
449.460369	2543.262115
449.834776	2444.959615
450.209124	2538.220962
450.583412	2460.083077
450.957640	2533.179808
451.331808	2515.535769
451.705917	2487.809423
452.079965	2528.138654
452.453954	2475.206538
452.827883	2490.330000
453.201752	2472.685962
453.575562	2487.809423
453.949311	2538.220962
454.323001	2502.932885
454.696632	2480.247692
455.070202	2490.330000
455.443713	2447.480192
455.817164	2533.179808
456.190556	2495.371154
456.563888	2485.288846
456.937160	2460.083077
457.310373	2442.439038
457.683526	2500.412308
458.056619	2482.768269
458.429653	2497.891731
458.802628	2434.877308
459.175542	2530.659231
459.548398	2505.453462
459.921194	2419.753846
460.293930	2502.932885
460.666607	2467.644808
461.039224	2439.918462
461.411782	2482.768269
461.784280	2495.371154
462.156719	2510.494615
462.529099	2548.303269
462.901419	2500.412308
463.273680	2520.576923
463.645882	2533.179808
464.018024	2495.371154
464.390106	2523.097500
464.762130	2515.535769
465.134094	2555.865000
465.505999	2550.823846
465.877845	2472.685962
466.249631	2444.959615
466.621358	2563.426731
466.993026	2523.097500
467.364634	2485.288846
467.736184	2475.206538
468.107674	2603.755962
468.479105	2455.041923
468.850477	2495.371154
469.221790	2568.467885
469.593043	2507.974038
469.964238	2465.124231
470.335373	2558.385577
470.706449	2462.603654
471.077467	2442.439038
471.448425	2487.809423
471.819324	2442.439038
472.190164	2523.097500
472.560945	2545.782692
472.931667	2510.494615
473.302330	2477.727115
473.672934	2545.782692
474.043479	2490.330000
474.413965	2457.562500
474.784393	2475.206538
475.154761	2528.138654
475.525070	2538.220962
475.895321	2419.753846
476.265513	2497.891731
476.635645	2457.562500
477.005719	2588.632500
477.375734	2472.685962
477.745691	2444.959615
478.115588	2497.891731
478.485427	2477.727115
478.855207	2513.015192
479.224928	2500.412308
479.594591	2507.974038
479.964194	2477.727115
480.333739	2437.397885
480.703226	2495.371154
481.072653	2555.865000
481.442022	2462.603654
481.811333	2588.632500
482.180584	2437.397885
482.549777	2467.644808
482.918912	2407.150962
483.287988	2500.412308
483.657005	2457.562500
484.025964	2573.509038
484.394864	2437.397885
484.763706	2497.891731
485.132489	2581.070769
485.501213	2412.192115
485.869879	2465.124231
486.238487	2528.138654
486.607036	2472.685962
486.975527	2470.165385
487.343959	2500.412308
487.712333	2518.056346
488.080648	2472.685962
488.448905	2490.330000
488.817104	2515.535769
489.185244	2525.618077
489.553326	2452.521346
489.921350	2475.206538
490.289315	2434.877308
490.657222	2502.932885
491.025070	2487.809423
491.392861	2530.659231
491.760593	2477.727115
492.128267	2533.179808
492.495883	2550.823846
492.863440	2487.809423
493.230939	2495.371154
493.598380	2462.603654
493.965763	2495.371154
494.333088	2439.918462
494.700354	2457.562500
495.067563	2442.439038
495.434713	2570.988462
495.801805	2583.591346
496.168839	2495.371154
496.535815	2487.809423
496.902733	2495.371154
497.269593	2429.836154
497.636395	2505.453462
498.003139	2518.056346
498.369825	2507.974038
498.736453	2538.220962
499.103023	2455.041923
499.469535	2432.356731
499.835989	2563.426731
500.202385	2513.015192
500.568723	2548.303269
500.935003	2487.809423
501.301226	2500.412308
501.667390	2505.453462
502.033497	2535.700385
502.399546	2432.356731
502.765537	2462.603654
503.131470	2661.729231
503.497345	2528.138654
503.863163	2472.685962
504.228923	2470.165385
504.594625	2510.494615
504.960269	2530.659231
505.325856	2432.356731
505.691385	2555.865000
506.056856	2475.206538
506.422270	2500.412308
506.787625	2485.288846
507.152924	2485.288846
507.518164	2482.768269
507.883347	2553.344423
508.248472	2409.671538
508.613540	2482.768269
508.978550	2513.015192
509.343503	2505.453462
509.708398	2525.618077
510.073236	2525.618077
510.438016	2374.383462
510.802738	2510.494615
511.167403	2513.015192
511.532010	2523.097500
511.896561	2457.562500
512.261053	2497.891731
512.625488	2480.247692
512.989866	2485.288846
513.354186	2555.865000
513.718449	2472.685962
514.082655	2523.097500
514.446803	2535.700385
514.810894	2507.974038
515.174927	2507.974038
515.538904	2475.206538
515.902822	2500.412308
516.266684	2452.521346
516.630488	2437.397885
516.994235	2467.644808
517.357925	2523.097500
517.721558	2550.823846
518.085133	2560.906154
518.448651	2497.891731
518.812112	2492.850577
519.175516	2429.836154
519.538863	2470.165385
519.902152	2500.412308
520.265385	2563.426731
520.628560	2616.358846
520.991678	2545.782692
521.354739	2495.371154
521.717743	2616.358846
522.080690	2490.330000
522.443580	2477.727115
522.806413	2452.521346
523.169189	2563.426731
523.531908	2407.150962
523.894569	2550.823846
524.257174	2492.850577
524.619722	2535.700385
524.982213	2480.247692
525.344647	2578.550192
525.707025	2500.412308
526.069345	2591.153077
526.431608	2523.097500
526.793815	2424.795000
527.155964	2447.480192
527.518057	2480.247692
527.880093	2586.111923
528.242072	2515.535769
528.603995	2523.097500
528.965860	2462.603654
529.327669	2550.823846
529.689421	2457.562500
530.051117	2502.932885
530.412755	2495.371154
530.774337	2560.906154
531.135862	2475.206538
531.497331	2507.974038
531.858743	2545.782692
532.220098	2457.562500
532.581396	2475.206538
532.942638	2487.809423
533.303824	2563.426731
533.664953	2513.015192
534.026025	2356.739423
534.387040	2573.509038
534.747999	2492.850577
535.108902	2510.494615
535.469748	2465.124231
535.830537	2538.220962
536.191270	2555.865000
536.551947	2485.288846
536.912567	2560.906154
537.273131	2513.015192
537.633638	2513.015192
537.994089	2528.138654
538.354483	2513.015192
538.714821	2480.247692
539.075103	2510.494615
539.435328	2505.453462
539.795497	2472.685962
540.155609	2525.618077
540.515665	2505.453462
540.875665	2485.288846
541.235609	2533.179808
541.595496	2480.247692
541.955328	2528.138654
542.315102	2548.303269
542.674821	2417.233269
543.034483	2419.753846
543.394090	2470.165385
543.753640	2462.603654
544.113134	2492.850577
544.472571	2467.644808
544.831953	2550.823846
545.191278	2490.330000
545.550548	2540.741538
545.909761	2581.070769
546.268918	2538.220962
546.628019	2455.041923
546.987064	2520.576923
547.346053	2550.823846
547.704986	2555.865000
548.063863	2482.768269
548.422684	2507.974038
548.781449	2429.836154
549.140158	2520.576923
549.498811	2573.509038
549.857408	2505.453462
550.215949	2502.932885
550.574434	2500.412308
550.932864	2500.412308
551.291237	2450.000769
551.649555	2472.685962
552.007817	2515.535769
552.366022	2450.000769
552.724173	2495.371154
553.082267	2545.782692
553.440305	2500.412308
553.798288	2457.562500
554.156215	2500.412308
554.514086	2462.603654
554.871902	2487.809423
555.229661	2510.494615
555.587365	2467.644808
555.945014	2475.206538
556.302606	2490.330000
556.660143	2543.262115
557.017625	2515.535769
557.375050	2523.097500
557.732421	2472.685962
558.089735	2444.959615
558.446994	2475.206538
558.804197	2523.097500
559.161345	2545.782692
559.518437	2455.041923
559.875474	2502.932885
560.232455	2477.727115
560.589381	2550.823846
560.946251	2487.809423
561.303065	2548.303269
561.659825	2515.535769
562.016528	2482.768269
562.373177	2576.029615
562.729770	2457.562500
563.086307	2538.220962
563.442789	2482.768269
563.799216	2424.795000
564.155587	2497.891731
564.511904	2533.179808
564.868164	2477.727115
565.224370	2434.877308
565.580520	2497.891731
565.936615	2507.974038
566.292654	2460.083077
566.648638	2477.727115
567.004567	2487.809423
567.360441	2558.385577
567.716260	2588.632500
568.072023	2505.453462
568.427732	2442.439038
568.783385	2502.932885
569.138982	2528.138654
569.494525	2502.932885
569.850013	2442.439038
570.205445	2495.371154
570.560823	2525.618077
570.916145	2513.015192
571.271412	2470.165385
571.626625	2495.371154
571.981782	2518.056346
572.336884	2518.056346
572.691931	2485.288846
573.046923	2485.288846
573.401860	2533.179808
573.756743	2497.891731
574.111570	2543.262115
574.466342	2588.632500
574.821059	2417.233269
575.175722	2460.083077
575.530330	2528.138654
575.884882	2475.206538
576.239380	2462.603654
576.593823	2462.603654
576.948211	2606.276538
577.302544	2467.644808
577.656823	2518.056346
578.011047	2434.877308
578.365216	2591.153077
578.719330	2538.220962
579.073389	2553.344423
579.427394	2376.904038
579.781344	2543.262115
580.135239	2470.165385
580.489080	2528.138654
580.842866	2515.535769
581.196597	2502.932885
581.550273	2434.877308
581.903895	2429.836154
582.257463	2482.768269
582.610975	2538.220962
582.964434	2424.795000
583.317837	2507.974038
583.671186	2576.029615
584.024481	2505.453462
584.377721	2543.262115
584.730906	2477.727115
585.084037	2513.015192
585.437113	2422.274423
585.790135	2487.809423
586.143103	2480.247692
586.496016	2507.974038
586.848874	2490.330000
587.201679	2520.576923
587.554428	2482.768269
587.907124	2525.618077
588.259765	2487.809423
588.612352	2550.823846
588.964884	2424.795000
589.317362	2555.865000
589.669786	2432.356731
590.022155	2518.056346
590.374470	2515.535769
590.726731	2432.356731
591.078937	2593.673654
591.431090	2555.865000
591.783188	2437.397885
592.135232	2452.521346
592.487222	2475.206538
592.839157	2470.165385
593.191038	2558.385577
593.542866	2457.562500
593.894639	2485.288846
594.246358	2492.850577
594.598022	2570.988462
594.949633	2608.797115
595.301190	2502.932885
595.652692	2513.015192
596.004141	2500.412308
596.355535	2455.041923
596.706876	2507.974038
597.058162	2465.124231
597.409395	2515.535769
597.760573	2515.535769
598.111698	2457.562500
598.462768	2568.467885
598.813785	2492.850577
599.164748	2578.550192
599.515657	2543.262115
599.866511	2507.974038
600.217312	2477.727115
600.568060	2520.576923
600.918753	2482.768269
601.269392	2515.535769
601.619978	2422.274423
601.970510	2472.685962
602.320988	2490.330000
602.671412	2495.371154
603.021783	2497.891731
603.372100	2555.865000
603.722363	2409.671538
604.072572	2520.576923
604.422728	2644.085192
604.772830	2502.932885
605.122878	2497.891731
605.472872	2475.206538
605.822813	2475.206538
606.172701	2495.371154
606.522534	2540.741538
606.872314	2518.056346
607.222041	2593.673654
607.571714	2452.521346
607.921333	2497.891731
608.270899	2515.535769
608.620411	2513.015192
608.969870	2586.111923
609.319276	2434.877308
609.668627	2467.644808
610.017926	2462.603654
610.367171	2490.330000
610.716362	2553.344423
611.065500	2492.850577
611.414585	2543.262115
611.763616	2591.153077
612.112594	2460.083077
612.461518	2535.700385
612.810389	2540.741538
613.159207	2490.330000
613.507971	2470.165385
613.856682	2475.206538
614.205340	2523.097500
614.553945	2485.288846
614.902496	2510.494615
615.250994	2555.865000
615.599439	2548.303269
615.947830	2439.918462
616.296169	2507.974038
616.644454	2495.371154
616.992686	2538.220962
617.340864	2472.685962
617.688990	2500.412308
618.037063	2492.850577
618.385082	2553.344423
618.733048	2518.056346
619.080961	2495.371154
619.428821	2465.124231
619.776628	2434.877308
620.124382	2550.823846
620.472083	2477.727115
620.819731	2528.138654
621.167326	2452.521346
621.514868	2553.344423
621.862357	2444.959615
622.209793	2523.097500
622.557176	2623.920577
622.904506	2450.000769
623.251783	2434.877308
623.599007	2558.385577
623.946179	2475.206538
624.293297	2475.206538
624.640363	2520.576923
624.987376	2402.109808
625.334336	2523.097500
625.681243	2462.603654
626.028097	2457.562500
626.374899	2581.070769
626.721647	2500.412308
627.068343	2500.412308
627.414987	2545.782692
627.761577	2563.426731
628.108115	2545.782692
628.454600	2576.029615
628.801032	2495.371154
629.147412	2533.179808
629.493739	2495.371154
629.840014	2477.727115
630.186236	2548.303269
630.532405	2563.426731
630.878521	2550.823846
631.224585	2482.768269
631.570597	2442.439038
631.916556	2518.056346
632.262462	2480.247692
632.608316	2540.741538
632.954117	2460.083077
633.299866	2515.535769
633.645562	2533.179808
633.991206	2475.206538
634.336797	2495.371154
634.682336	2500.412308
635.027823	2523.097500
635.373257	2384.465769
635.718639	2492.850577
636.063968	2427.315577
636.409245	2480.247692
636.754470	2510.494615
637.099642	2497.891731
637.444762	2475.206538
637.789829	2533.179808
638.134845	2520.576923
638.479808	2480.247692
638.824719	2462.603654
639.169577	2538.220962
639.514383	2490.330000
639.859137	2525.618077
640.203839	2475.206538
640.548489	2480.247692
640.893086	2482.768269
641.237632	2586.111923
641.582125	2634.002885
641.926566	2467.644808
642.270955	2596.194231
642.615292	2550.823846
642.959576	2497.891731
643.303809	2485.288846
643.647990	2513.015192
643.992118	2502.932885
644.336195	2515.535769
644.680219	2487.809423
645.024192	2553.344423
645.368112	2515.535769
645.711981	2460.083077
646.055797	2492.850577
646.399562	2507.974038
646.743274	2409.671538
647.086935	2457.562500
647.430544	2470.165385
647.774101	2586.111923
648.117606	2558.385577
648.461059	2530.659231
648.804460	2528.138654
649.147810	2485.288846
649.491108	2543.262115
649.834354	2417.233269
650.177548	2475.206538
650.520690	2528.138654
650.863781	2558.385577
651.206820	2455.041923
651.549807	2533.179808
651.892742	2497.891731
652.235626	2472.685962
652.578458	2497.891731
652.921238	2568.467885
653.263967	2439.918462
653.606644	2568.467885
653.949269	2455.041923
654.291843	2507.974038
654.634365	2553.344423
654.976836	2500.412308
655.319255	2452.521346
655.661622	2467.644808
656.003938	2588.632500
656.346203	2485.288846
656.688416	2535.700385
657.030577	2465.124231
657.372687	2497.891731
657.714746	2518.056346
658.056753	2553.344423
658.398708	2497.891731
658.740612	2538.220962
659.082465	2482.768269
659.424266	2568.467885
659.766016	2570.988462
660.107715	2502.932885
660.449362	2477.727115
660.790958	2576.029615
661.132503	2497.891731
661.473996	2576.029615
661.815438	2550.823846
662.156829	2553.344423
662.498168	2553.344423
662.839456	2533.179808
663.180693	2513.015192
663.521879	2500.412308
663.863013	2460.083077
664.204097	2505.453462
664.545129	2475.206538
664.886110	2465.124231
665.227040	2475.206538
665.567918	2520.576923
665.908746	2477.727115
666.249522	2437.397885
666.590248	2487.809423
666.930922	2497.891731
667.271545	2450.000769
667.612118	2538.220962
667.952639	2497.891731
668.293109	2492.850577
668.633528	2462.603654
668.973896	2495.371154
669.314213	2482.768269
669.654480	2563.426731
669.994695	2460.083077
670.334859	2535.700385
670.674973	2538.220962
671.015035	2596.194231
671.355047	2455.041923
671.695008	2470.165385
672.034918	2502.932885
672.374777	2472.685962
672.714585	2598.714808
673.054342	2462.603654
673.394049	2465.124231
673.733705	2455.041923
674.073310	2500.412308
674.412864	2467.644808
674.752368	2510.494615
675.091820	2518.056346
675.431223	2497.891731
675.770574	2545.782692
676.109875	2442.439038
676.449125	2515.535769
676.788324	2487.809423
677.127473	2528.138654
677.466571	2502.932885
677.805619	2550.823846
678.144616	2513.015192
678.483562	2452.521346
678.822458	2518.056346
679.161303	2490.330000
679.500098	2530.659231
679.838842	2510.494615
680.177535	2540.741538
680.516179	2598.714808
680.854771	2530.659231
681.193314	2444.959615
681.531805	2515.535769
681.870247	2525.618077
682.208638	2533.179808
682.546978	2490.330000
682.885268	2518.056346
683.223508	2462.603654
683.561697	2462.603654
683.899836	2576.029615
684.237925	2495.371154
684.575963	2553.344423
684.913951	2510.494615
685.251889	2560.906154
685.589776	2583.591346
685.927614	2497.891731
686.265401	2500.412308
686.603137	2535.700385
686.940824	2505.453462
687.278460	2470.165385
687.616046	2507.974038
687.953582	2530.659231
688.291068	2467.644808
688.628504	2502.932885
688.965889	2495.371154
689.303224	2472.685962
689.640510	2540.741538
689.977745	2452.521346
690.314930	2505.453462
690.652065	2518.056346
690.989150	2535.700385
691.326185	2495.371154
691.663170	2530.659231
692.000105	2568.467885
692.336990	2492.850577
692.673825	2452.521346
693.010610	2507.974038
693.347345	2560.906154
693.684030	2497.891731
694.020665	2470.165385
694.357251	2444.959615
694.693786	2497.891731
695.030272	2565.947308
695.366707	2432.356731
695.703093	2540.741538
696.039429	2462.603654
696.375716	2482.768269
696.711952	2442.439038
697.048139	2515.535769
697.384276	2500.412308
697.720363	2490.330000
698.056400	2460.083077
698.392388	2439.918462
698.728326	2467.644808
699.064214	2560.906154
699.400053	2535.700385
699.735842	2550.823846
700.071581	2465.124231
700.407270	2518.056346
700.742910	2444.959615
701.078501	2523.097500
701.414042	2591.153077
701.749533	2543.262115
702.084974	2487.809423
702.420366	2502.932885
702.755709	2510.494615
703.091002	2550.823846
703.426246	2520.576923
703.761440	2538.220962
704.096584	2555.865000
704.431679	2480.247692
704.766725	2565.947308
705.101721	2485.288846
705.436668	2462.603654
705.771565	2437.397885
706.106413	2550.823846
706.441212	2477.727115
706.775961	2482.768269
707.110661	2550.823846
707.445311	2523.097500
707.779913	2505.453462
708.114465	2482.768269
708.448967	2429.836154
708.783421	2530.659231
709.117825	2460.083077
709.452180	2482.768269
709.786485	2475.206538
710.120742	2495.371154
710.454949	2429.836154
710.789107	2485.288846
711.123216	2560.906154
711.457275	2563.426731
711.791286	2447.480192
712.125247	2535.700385
712.459159	2487.809423
712.793023	2455.041923
713.126837	2555.865000
713.460602	2462.603654
713.794318	2513.015192
714.127985	2432.356731
714.461602	2457.562500
714.795171	2482.768269
715.128691	2429.836154
715.462162	2505.453462
715.795584	2495.371154
716.128957	2462.603654
716.462281	2465.124231
716.795556	2485.288846
717.128782	2482.768269
717.461960	2513.015192
717.795088	2495.371154
718.128167	2467.644808
718.461198	2513.015192
718.794180	2495.371154
719.127113	2485.288846
719.459997	2523.097500
719.792833	2533.179808
720.125619	2455.041923
720.458357	2477.727115
720.791046	2533.179808
721.123686	2500.412308
721.456278	2490.330000
721.788821	2462.603654
722.121315	2518.056346
722.453761	2525.618077
722.786158	2424.795000
723.118506	2520.576923
723.450805	2465.124231
723.783056	2477.727115
724.115259	2518.056346
724.447412	2467.644808
724.779518	2520.576923
725.111574	2447.480192
725.443582	2523.097500
725.775542	2447.480192
726.107453	2447.480192
726.439315	2515.535769
726.771129	2447.480192
727.102895	2570.988462
727.434612	2588.632500
727.766281	2462.603654
728.097901	2588.632500
728.429473	2573.509038
728.760996	2540.741538
729.092471	2528.138654
729.423897	2520.576923
729.755276	2502.932885
730.086606	2490.330000
730.417887	2460.083077
730.749120	2497.891731
731.080305	2525.618077
731.411442	2530.659231
731.742530	2545.782692
732.073570	2540.741538
732.404562	2507.974038
732.735506	2412.192115
733.066401	2581.070769
733.397249	2437.397885
733.728048	2510.494615
734.058798	2487.809423
734.389501	2500.412308
734.720156	2505.453462
735.050762	2563.426731
735.381320	2439.918462
735.711831	2442.439038
736.042293	2444.959615
736.372707	2477.727115
736.703073	2535.700385
737.033391	2596.194231
737.363661	2570.988462
737.693883	2477.727115
738.024056	2553.344423
738.354182	2523.097500
738.684260	2507.974038
739.014290	2475.206538
739.344272	2472.685962
739.674207	2601.235385
740.004093	2500.412308
740.333931	2507.974038
740.663722	2507.974038
740.993464	2505.453462
741.323159	2480.247692
741.652806	2550.823846
741.982405	2553.344423
742.311956	2482.768269
742.641460	2477.727115
742.970915	2510.494615
743.300323	2510.494615
743.629683	2490.330000
743.958996	2530.659231
744.288260	2507.974038
744.617477	2450.000769
744.946647	2495.371154
745.275768	2490.330000
745.604842	2525.618077
745.933869	2477.727115
746.262847	2480.247692
746.591778	2538.220962
746.920662	2560.906154
747.249498	2502.932885
747.578286	2482.768269
747.907027	2510.494615
748.235720	2492.850577
748.564365	2510.494615
748.892963	2510.494615
749.221514	2540.741538
749.550017	2455.041923
749.878473	2500.412308
750.206881	2394.548077
750.535242	2525.618077
750.863555	2530.659231
751.191821	2457.562500
751.520039	2520.576923
751.848210	2437.397885
752.176334	2392.027500
752.504411	2470.165385
752.832440	2442.439038
753.160421	2495.371154
753.488356	2487.809423
753.816243	2485.288846
754.144082	2490.330000
754.471875	2465.124231
754.799620	2462.603654
755.127318	2507.974038
755.454969	2447.480192
755.782572	2525.618077
756.110129	2538.220962
756.437638	2475.206538
756.765100	2492.850577
757.092515	2507.974038
757.419882	2492.850577
757.747203	2477.727115
758.074477	2487.809423
758.401703	2606.276538
758.728882	2573.509038
759.056014	2570.988462
759.383099	2502.932885
759.710138	2518.056346
760.037129	2442.439038
760.364073	2570.988462
760.690970	2490.330000
761.017820	2450.000769
761.344623	2593.673654
761.671379	2495.371154
761.998088	2419.753846
762.324751	2480.247692
762.651366	2485.288846
762.977935	2550.823846
763.304456	2487.809423
763.630931	2545.782692
763.957359	2439.918462
764.283740	2477.727115
764.610074	2490.330000
764.936362	2533.179808
765.262602	2568.467885
765.588796	2450.000769
765.914943	2523.097500
766.241044	2570.988462
766.567097	2530.659231
766.893104	2462.603654
767.219064	2505.453462
767.544978	2444.959615
767.870845	2530.659231
768.196665	2424.795000
768.522438	2515.535769
768.848165	2472.685962
769.173846	2477.727115
769.499479	2485.288846
769.825066	2447.480192
770.150607	2407.150962
770.476101	2450.000769
770.801548	2447.480192
771.126949	2477.727115
771.452303	2507.974038
771.777611	2432.356731
772.102872	2505.453462
772.428087	2497.891731
772.753256	2548.303269
773.078378	2497.891731
773.403453	2591.153077
773.728482	2548.303269
774.053465	2507.974038
774.378401	2462.603654
774.703291	2482.768269
775.028135	2455.041923
775.352932	2507.974038
775.677683	2447.480192
776.002388	2636.523462
776.327046	2465.124231
776.651658	2578.550192
776.976224	2502.932885
777.300743	2528.138654
777.625216	2543.262115
777.949643	2518.056346
778.274024	2558.385577
778.598359	2530.659231
778.922647	2563.426731
779.246889	2475.206538
779.571086	2528.138654
779.895236	2513.015192
780.219339	2465.124231
780.543397	2540.741538
780.867409	2548.303269
781.191374	2447.480192
781.515294	2485.288846
781.839167	2502.932885
782.162995	2505.453462
782.486776	2492.850577
782.810511	2422.274423
783.134201	2548.303269
783.457844	2505.453462
783.781441	2538.220962
784.104993	2480.247692
784.428498	2576.029615
784.751958	2502.932885
785.075372	2533.179808
785.398739	2518.056346
785.722061	2515.535769
786.045337	2553.344423
786.368568	2485.288846
786.691752	2581.070769
787.014891	2568.467885
787.337983	2538.220962
787.661030	2470.165385
787.984031	2583.591346
788.306987	2465.124231
788.629897	2482.768269
788.952760	2533.179808
789.275579	2525.618077
789.598351	2450.000769
789.921078	2538.220962
790.243759	2565.947308
790.566395	2460.083077
790.888984	2513.015192
791.211529	2439.918462
791.534027	2477.727115
791.856480	2482.768269
792.178888	2545.782692
792.501249	2455.041923
792.823566	2490.330000
793.145836	2538.220962
793.468062	2465.124231
793.790241	2472.685962
794.112375	2573.509038
794.434464	2576.029615
794.756507	2518.056346
795.078505	2432.356731
795.400457	2505.453462
795.722364	2535.700385
796.044226	2528.138654
796.366042	2467.644808
796.687812	2525.618077
797.009538	2452.521346
797.331218	2558.385577
797.652852	2507.974038
797.974442	2563.426731
798.295986	2482.768269
798.617484	2470.165385
798.938938	2497.891731
799.260346	2502.932885
799.581709	2535.700385
799.903026	2565.947308
800.224299	2475.206538
800.545526	2558.385577
800.866708	2455.041923
801.187845	2502.932885
801.508936	2528.138654
801.829983	2482.768269
802.150984	2568.467885
802.471940	2598.714808
802.792851	2485.288846
803.113717	2523.097500
803.434538	2404.630385
803.755314	2487.809423
804.076045	2492.850577
804.396731	2528.138654
804.717372	2525.618077
805.037967	2437.397885
805.358518	2513.015192
805.679024	2470.165385
805.999485	2432.356731
806.319901	2528.138654
806.640272	2563.426731
806.960598	2555.865000
807.280879	2510.494615
807.601115	2465.124231
807.921306	2528.138654
808.241453	2470.165385
808.561554	2467.644808
808.881611	2530.659231
809.201623	2523.097500
809.521590	2457.562500
809.841513	2480.247692
810.161390	2523.097500
810.481223	2505.453462
810.801011	2404.630385
811.120755	2497.891731
811.440453	2525.618077
811.760107	2485.288846
812.079716	2523.097500
812.399281	2573.509038
812.718801	2462.603654
813.038276	2492.850577
813.357707	2583.591346
813.677093	2465.124231
813.996434	2581.070769
814.315731	2490.330000
814.634983	2460.083077
814.954191	2465.124231
815.273354	2457.562500
815.592473	2465.124231
815.911547	2490.330000
816.230577	2565.947308
816.549562	2558.385577
816.868502	2467.644808
817.187399	2447.480192
817.506250	2525.618077
817.825058	2472.685962
818.143821	2482.768269
818.462539	2518.056346
818.781213	2417.233269
819.099843	2422.274423
819.418429	2460.083077
819.736970	2460.083077
820.055466	2477.727115
820.373919	2487.809423
820.692327	2591.153077
821.010691	2525.618077
821.329011	2515.535769
821.647286	2472.685962
821.965517	2543.262115
822.283704	2480.247692
822.601847	2482.768269
822.919945	2502.932885
823.237999	2555.865000
823.556010	2515.535769
823.873976	2510.494615
824.191897	2576.029615
824.509775	2444.959615
824.827609	2523.097500
825.145398	2543.262115
825.463144	2586.111923
825.780845	2583.591346
826.098502	2518.056346
826.416116	2550.823846
826.733685	2570.988462
827.051210	2482.768269
827.368692	2560.906154
827.686129	2437.397885
828.003522	2465.124231
828.320872	2515.535769
828.638177	2525.618077
828.955439	2480.247692
829.272656	2543.262115
829.589830	2457.562500
829.906960	2497.891731
830.224046	2452.521346
830.541088	2510.494615
830.858086	2485.288846
831.175041	2427.315577
831.491952	2507.974038
831.808819	2465.124231
832.125642	2510.494615
832.442421	2528.138654
832.759157	2497.891731
833.075849	2502.932885
833.392497	2472.685962
833.709101	2434.877308
834.025662	2432.356731
834.342179	2538.220962
834.658653	2500.412308
834.975083	2470.165385
835.291469	2462.603654
835.607811	2475.206538
835.924110	2412.192115
836.240366	2500.412308
836.556578	2434.877308
836.872746	2560.906154
837.188871	2507.974038
837.504952	2510.494615
837.820990	2565.947308
838.136984	2513.015192
838.452935	2570.988462
838.768842	2447.480192
839.084706	2510.494615
839.400526	2487.809423
839.716303	2565.947308
840.032037	2495.371154
840.347727	2472.685962
840.663373	2576.029615
840.978977	2447.480192
841.294537	2583.591346
841.610054	2533.179808
841.925527	2475.206538
842.240957	2523.097500
842.556344	2412.192115
842.871687	2525.618077
843.186987	2535.700385
843.502244	2437.397885
843.817458	2485.288846
844.132629	2500.412308
844.447756	2533.179808
844.762840	2523.097500
845.077881	2412.192115
845.392879	2467.644808
845.707833	2576.029615
846.022745	2485.288846
846.337613	2480.247692
846.652438	2505.453462
846.967221	2462.603654
847.281960	2583.591346
847.596656	2477.727115
847.911309	2555.865000
848.225919	2548.303269
848.540485	2550.823846
848.855009	2515.535769
849.169490	2558.385577
849.483928	2457.562500
849.798323	2477.727115
850.112675	2570.988462
850.426984	2492.850577
850.741251	2528.138654
851.055474	2543.262115
851.369654	2482.768269
851.683792	2520.576923
851.997887	2505.453462
852.311938	2432.356731
852.625947	2490.330000
852.939914	2510.494615
853.253837	2550.823846
853.567718	2467.644808
853.881555	2550.823846
854.195350	2505.453462
854.509103	2576.029615
854.822812	2500.412308
855.136479	2523.097500
855.450103	2470.165385
855.763685	2477.727115
856.077224	2467.644808
856.390720	2581.070769
856.704173	2434.877308
857.017584	2480.247692
857.330953	2482.768269
857.644278	2497.891731
857.957561	2565.947308
858.270802	2507.974038
858.584000	2510.494615
858.897155	2439.918462
859.210268	2588.632500
859.523339	2457.562500
859.836367	2492.850577
860.149352	2525.618077
860.462295	2460.083077
860.775195	2497.891731
861.088054	2472.685962
861.400869	2394.548077
861.713642	2407.150962
862.026373	2480.247692
862.339062	2502.932885
862.651708	2550.823846
862.964312	2543.262115
863.276873	2477.727115
863.589392	2535.700385
863.901869	2560.906154
864.214303	2565.947308
864.526696	2465.124231
864.839045	2462.603654
865.151353	2543.262115
865.463619	2500.412308
865.775842	2442.439038
866.088023	2518.056346
866.400162	2480.247692
866.712258	2505.453462
867.024313	2485.288846
867.336325	2510.494615
867.648296	2563.426731
867.960224	2419.753846
868.272110	2523.097500
868.583954	2477.727115
868.895755	2525.618077
869.207515	2520.576923
869.519233	2470.165385
869.830909	2535.700385
870.142542	2492.850577
870.454134	2462.603654
870.765684	2475.206538
871.077191	2545.782692
871.388657	2397.068654
871.700081	2515.535769
872.011463	2470.165385
872.322803	2543.262115
872.634101	2477.727115
872.945357	2482.768269
873.256571	2598.714808
873.567744	2439.918462
873.878874	2576.029615
874.189963	2467.644808
874.501010	2550.823846
874.812015	2543.262115
875.122979	2434.877308
875.433900	2472.685962
875.744780	2543.262115
876.055618	2505.453462
876.366415	2530.659231
876.677169	2507.974038
876.987882	2485.288846
877.298554	2535.700385
877.609183	2507.974038
877.919771	2480.247692
878.230317	2482.768269
878.540822	2487.809423
878.851285	2462.603654
879.161707	2462.603654
879.472087	2424.795000
879.782425	2576.029615
880.092722	2523.097500
880.402977	2510.494615
880.713191	2429.836154
881.023363	2628.961731
881.333494	2507.974038
881.643583	2439.918462
881.953631	2455.041923
882.263637	2616.358846
882.573602	2477.727115
882.883526	2487.809423
883.193408	2424.795000
883.503248	2513.015192
883.813048	2477.727115
884.122806	2462.603654
884.432522	2578.550192
884.742197	2442.439038
885.051831	2439.918462
885.361424	2507.974038
885.670975	2495.371154
885.980485	2417.233269
886.289954	2535.700385
886.599382	2429.836154
886.908768	2447.480192
887.218113	2482.768269
887.527417	2563.426731
887.836680	2452.521346
888.145901	2550.823846
888.455082	2417.233269
888.764221	2475.206538
889.073319	2525.618077
889.382376	2460.083077
889.691392	2475.206538
890.000366	2518.056346
890.309300	2492.850577
890.618193	2447.480192
890.927044	2500.412308
891.235855	2523.097500
891.544625	2533.179808
891.853353	2535.700385
892.162041	2477.727115
892.470687	2560.906154
892.779293	2480.247692
893.087858	2495.371154
893.396381	2412.192115
893.704864	2477.727115
894.013306	2470.165385
894.321707	2565.947308
894.630068	2442.439038
894.938387	2465.124231
895.246665	2472.685962
895.554903	2520.576923
895.863100	2563.426731
896.171256	2570.988462
896.479371	2538.220962
896.787446	2424.795000
897.095480	2535.700385
897.403473	2525.618077
897.711425	2500.412308
898.019336	2477.727115
898.327207	2472.685962
898.635038	2513.015192
898.942827	2543.262115
899.250576	2455.041923
899.558284	2432.356731
899.865952	2465.124231
900.173579	2505.453462
900.481165	2419.753846
900.788711	2543.262115
901.096216	2550.823846
901.403681	2593.673654
901.711105	2583.591346
902.018489	2550.823846
902.325832	2455.041923
902.633135	2409.671538
902.940397	2444.959615
903.247619	2520.576923
903.554800	2439.918462
903.861941	2462.603654
904.169041	2525.618077
904.476101	2462.603654
904.783121	2505.453462
905.090100	2439.918462
905.397039	2555.865000
905.703938	2472.685962
906.010796	2611.317692
906.317614	2528.138654
906.624391	2560.906154
906.931129	2608.797115
907.237826	2586.111923
907.544483	2480.247692
907.851099	2482.768269
908.157675	2515.535769
908.464211	2528.138654
908.770707	2457.562500
909.077163	2480.247692
909.383578	2495.371154
909.689954	2543.262115
909.996289	2533.179808
910.302584	2447.480192
910.608839	2460.083077
910.915054	2523.097500
911.221229	2465.124231
911.527363	2470.165385
911.833458	2422.274423
912.139513	2439.918462
912.445527	2450.000769
912.751502	2437.397885
913.057436	2535.700385
913.363331	2485.288846
913.669186	2480.247692
913.975000	2505.453462
914.280775	2507.974038
914.586510	2482.768269
914.892205	2528.138654
915.197859	2450.000769
915.503475	2482.768269
915.809050	2603.755962
916.114585	2455.041923
916.420081	2523.097500
916.725536	2485.288846
917.030952	2485.288846
917.336328	2555.865000
917.641665	2477.727115
917.946961	2495.371154
918.252218	2518.056346
918.557435	2457.562500
918.862612	2543.262115
919.167750	2457.562500
919.472848	2422.274423
919.777906	2543.262115
920.082925	2472.685962
920.387904	2450.000769
920.692843	2487.809423
920.997743	2394.548077
921.302603	2555.865000
921.607423	2545.782692
921.912204	2480.247692
922.216946	2538.220962
922.521647	2502.932885
922.826310	2563.426731
923.130932	2477.727115
923.435516	2550.823846
923.740059	2528.138654
924.044564	2581.070769
924.349028	2455.041923
924.653454	2497.891731
924.957840	2444.959615
925.262186	2487.809423
925.566493	2530.659231
925.870761	2518.056346
926.174989	2573.509038
926.479178	2447.480192
926.783328	2432.356731
927.087438	2565.947308
927.391509	2492.850577
927.695541	2520.576923
927.999533	2412.192115
928.303486	2545.782692
928.607400	2422.274423
928.911275	2515.535769
929.215110	2480.247692
929.518906	2465.124231
929.822663	2477.727115
930.126381	2535.700385
930.430060	2513.015192
930.733699	2520.576923
931.037299	2523.097500
931.340861	2457.562500
931.644383	2513.015192
931.947866	2505.453462
932.251309	2470.165385
932.554714	2545.782692
932.858080	2452.521346
933.161407	2530.659231
933.464694	2482.768269
933.767943	2500.412308
934.071153	2472.685962
934.374323	2576.029615
934.677455	2510.494615
934.980548	2500.412308
935.283602	2525.618077
935.586617	2480.247692
935.889593	2452.521346
936.192530	2439.918462
936.495428	2515.535769
936.798287	2523.097500
937.101108	2500.412308
937.403890	2500.412308
937.706632	2550.823846
938.009336	2523.097500
938.312002	2515.535769
938.614628	2490.330000
938.917216	2470.165385
939.219765	2520.576923
939.522275	2470.165385
939.824747	2497.891731
940.127179	2530.659231
940.429573	2465.124231
940.731929	2505.453462
941.034246	2439.918462
941.336524	2447.480192
941.638763	2434.877308
941.940964	2457.562500
942.243126	2477.727115
942.545250	2515.535769
942.847335	2523.097500
943.149381	2482.768269
943.451389	2447.480192
943.753359	2467.644808
944.055290	2533.179808
944.357182	2485.288846
944.659036	2505.453462
944.960851	2533.179808
945.262628	2447.480192
945.564367	2545.782692
945.866067	2462.603654
946.167729	2528.138654
946.469352	2520.576923
946.770937	2518.056346
947.072484	2422.274423
947.373992	2465.124231
947.675462	2497.891731
947.976893	2525.618077
948.278286	2497.891731
948.579641	2450.000769
948.880958	2487.809423
949.182236	2528.138654
949.483476	2543.262115
949.784678	2533.179808
950.085841	2495.371154
950.386967	2533.179808
950.688054	2447.480192
950.989103	2495.371154
951.290114	2465.124231
951.591087	2437.397885
951.892021	2475.206538
952.192917	2548.303269
952.493776	2427.315577
952.794596	2437.397885
953.095378	2472.685962
953.396122	2422.274423
953.696828	2563.426731
953.997496	2533.179808
954.298126	2497.891731
954.598718	2450.000769
954.899272	2475.206538
955.199788	2460.083077
955.500266	2495.371154
955.800706	2437.397885
956.101108	2485.288846
956.401472	2422.274423
956.701798	2444.959615
957.002087	2397.068654
957.302337	2502.932885
957.602550	2437.397885
957.902724	2480.247692
958.202861	2538.220962
958.502960	2578.550192
958.803022	2485.288846
959.103045	2447.480192
959.403031	2485.288846
959.702979	2533.179808
960.002889	2341.615962
960.302762	2492.850577
960.602596	2477.727115
960.902393	2553.344423
961.202153	2505.453462
961.501875	2510.494615
961.801559	2560.906154
962.101205	2513.015192
962.400814	2465.124231
962.700385	2573.509038
962.999918	2470.165385
963.299414	2545.782692
963.598873	2545.782692
963.898293	2457.562500
964.197677	2505.453462
964.497022	2601.235385
964.796331	2543.262115
965.095601	2538.220962
965.394835	2462.603654
965.694030	2437.397885
965.993189	2455.041923
966.292309	2520.576923
966.591393	2442.439038
966.890439	2470.165385
967.189447	2492.850577
967.488419	2427.315577
967.787353	2510.494615
968.086249	2500.412308
968.385108	2465.124231
968.683930	2530.659231
968.982714	2482.768269
969.281462	2465.124231
969.580172	2414.712692
969.878844	2467.644808
970.177480	2429.836154
970.476078	2490.330000
970.774639	2497.891731
971.073162	2462.603654
971.371649	2502.932885
971.670098	2384.465769
971.968510	2525.618077
972.266885	2442.439038
972.565223	2565.947308
972.863524	2495.371154
973.161788	2472.685962
973.460014	2482.768269
973.758204	2515.535769
974.056356	2442.439038
974.354471	2548.303269
974.652550	2515.535769
974.950591	2565.947308
975.248595	2487.809423
975.546563	2545.782692
975.844493	2538.220962
976.142386	2462.603654
976.440243	2553.344423
976.738062	2472.685962
977.035845	2513.015192
977.333590	2427.315577
977.631299	2515.535769
977.928971	2515.535769
978.226606	2485.288846
978.524204	2500.412308
978.821765	2437.397885
979.119290	2487.809423
979.416777	2528.138654
979.714228	2528.138654
980.011642	2480.247692
980.309020	2467.644808
980.606360	2437.397885
980.903664	2513.015192
981.200931	2507.974038
981.498162	2470.165385
981.795356	2457.562500
982.092513	2528.138654
982.389633	2444.959615
982.686717	2462.603654
982.983764	2470.165385
983.280775	2482.768269
983.577749	2487.809423
983.874686	2492.850577
984.171587	2429.836154
984.468451	2510.494615
984.765279	2424.795000
985.062070	2543.262115
985.358824	2545.782692
985.655543	2434.877308
985.952224	2510.494615
986.248869	2518.056346
986.545478	2510.494615
986.842050	2507.974038
987.138586	2507.974038
987.435086	2485.288846
987.731549	2548.303269
988.027975	2450.000769
988.324366	2513.015192
988.620719	2528.138654
988.917037	2513.015192
989.213318	2472.685962
989.509563	2540.741538
989.805772	2500.412308
990.101944	2442.439038
990.398080	2535.700385
990.694180	2424.795000
990.990244	2450.000769
991.286271	2439.918462
991.582262	2424.795000
991.878217	2492.850577
992.174136	2467.644808
992.470019	2525.618077
992.765865	2455.041923
993.061676	2502.932885
993.357450	2520.576923
993.653188	2467.644808
993.948890	2462.603654
994.244556	2497.891731
994.540186	2460.083077
994.835780	2490.330000
995.131337	2497.891731
995.426859	2444.959615
995.722345	2548.303269
996.017795	2480.247692
996.313208	2545.782692
996.608586	2457.562500
996.903928	2412.192115
997.199234	2492.850577
997.494504	2434.877308
997.789738	2442.439038
998.084936	2518.056346
998.380099	2455.041923
998.675225	2419.753846
998.970316	2497.891731
999.265371	2429.836154
999.560390	2533.179808
999.855373	2422.274423
1000.150320	2495.371154
1000.445232	2477.727115
1000.740108	2510.494615
1001.034948	2460.083077
1001.329752	2565.947308
1001.624521	2497.891731
1001.919254	2482.768269
1002.213951	2530.659231
1002.508613	2399.589231
1002.803239	2528.138654
1003.097829	2457.562500
1003.392384	2535.700385
1003.686903	2500.412308
1003.981386	2475.206538
1004.275834	2407.150962
1004.570246	2533.179808
1004.864623	2427.315577
1005.158964	2505.453462
1005.453270	2528.138654
1005.747540	2472.685962
1006.041775	2495.371154
1006.335974	2563.426731
1006.630138	2482.768269
1006.924266	2412.192115
1007.218359	2505.453462
1007.512416	2412.192115
1007.806438	2545.782692
1008.100425	2530.659231
1008.394376	2485.288846
1008.688292	2482.768269
1008.982172	2510.494615
1009.276017	2523.097500
1009.569827	2490.330000
1009.863602	2482.768269
1010.157341	2550.823846
1010.451045	2525.618077
1010.744714	2485.288846
1011.038347	2444.959615
1011.331945	2505.453462
1011.625508	2465.124231
1011.919036	2533.179808
1012.212528	2513.015192
1012.505986	2497.891731
1012.799408	2513.015192
1013.092795	2507.974038
1013.386147	2470.165385
1013.679464	2500.412308
1013.972745	2457.562500
1014.265992	2439.918462
1014.559204	2442.439038
1014.852380	2480.247692
1015.145521	2460.083077
1015.438628	2437.397885
1015.731699	2480.247692
1016.024736	2545.782692
1016.317737	2505.453462
1016.610703	2485.288846
1016.903635	2533.179808
1017.196531	2439.918462
1017.489393	2563.426731
1017.782219	2467.644808
1018.075011	2518.056346
1018.367768	2570.988462
1018.660490	2581.070769
1018.953177	2581.070769
1019.245829	2581.070769
