Dividing Wavelength (nm)	Counts (n)	Blue Motor Position (mm): 0.000000	Red Motor Position (mm): 2.900000	
326.493990	2099.640577
326.888308	2099.640577
327.282561	2099.640577
327.676750	2054.270192
328.070874	2074.434808
328.464933	2036.626154
328.858929	2084.517115
329.252859	2051.749615
329.646726	2069.393654
330.040528	2074.434808
330.434265	2087.037692
330.827938	2094.599423
331.221547	2145.010962
331.615091	2223.148846
332.008571	2200.463654
332.401986	2238.272308
332.795338	2296.245577
333.188625	2296.245577
333.581847	2150.052115
333.975006	2243.313462
334.368100	2334.054231
334.761129	2336.574808
335.154095	2366.821731
335.546996	2354.218846
335.939833	2412.192115
336.332606	2432.356731
336.725315	2286.163269
337.117960	2356.739423
337.510540	2417.233269
337.903056	2455.041923
338.295508	2444.959615
338.687896	2467.644808
339.080220	2371.862885
339.472480	2462.603654
339.864676	2457.562500
340.256807	2392.027500
340.648875	2472.685962
341.040879	2359.260000
341.432818	2465.124231
341.824694	2412.192115
342.216506	2434.877308
342.608253	2444.959615
342.999937	2565.947308
343.391557	2513.015192
343.783113	2354.218846
344.174605	2447.480192
344.566033	2513.015192
344.957397	2452.521346
345.348697	2525.618077
345.739934	2513.015192
346.131106	2462.603654
346.522215	2394.548077
346.913260	2444.959615
347.304241	2437.397885
347.695159	2439.918462
348.086012	2490.330000
348.476802	2457.562500
348.867528	2497.891731
349.258191	2457.562500
349.648789	2450.000769
350.039324	2399.589231
350.429796	2487.809423
350.820203	2432.356731
351.210548	2467.644808
351.600828	2560.906154
351.991045	2439.918462
352.381198	2457.562500
352.771288	2505.453462
353.161314	2447.480192
353.551276	2450.000769
353.941175	2525.618077
354.331010	2386.986346
354.720782	2507.974038
355.110490	2477.727115
355.500135	2450.000769
355.889717	2442.439038
356.279235	2351.698269
356.668689	2452.521346
357.058080	2407.150962
357.447408	2429.836154
357.836672	2460.083077
358.225873	2409.671538
358.615010	2419.753846
359.004084	2427.315577
359.393095	2485.288846
359.782043	2450.000769
360.170927	2480.247692
360.559748	2455.041923
360.948505	2386.986346
361.337199	2371.862885
361.725830	2480.247692
362.114398	2450.000769
362.502903	2518.056346
362.891344	2427.315577
363.279722	2439.918462
363.668037	2444.959615
364.056289	2429.836154
364.444478	2462.603654
364.832603	2482.768269
365.220665	2444.959615
365.608665	2462.603654
365.996601	2434.877308
366.384474	2384.465769
366.772284	2399.589231
367.160031	2427.315577
367.547715	2520.576923
367.935336	2442.439038
368.322893	2447.480192
368.710388	2389.506923
369.097820	2507.974038
369.485189	2389.506923
369.872495	2455.041923
370.259738	2392.027500
370.646918	2429.836154
371.034035	2523.097500
371.421090	2530.659231
371.808081	2427.315577
372.195010	2545.782692
372.581875	2540.741538
372.968678	2465.124231
373.355418	2480.247692
373.742096	2563.426731
374.128710	2518.056346
374.515262	2540.741538
374.901751	2548.303269
375.288177	2485.288846
375.674540	2455.041923
376.060841	2452.521346
376.447079	2475.206538
376.833254	2457.562500
377.219367	2487.809423
377.605417	2381.945192
377.991404	2470.165385
378.377329	2482.768269
378.763191	2442.439038
379.148991	2467.644808
379.534727	2550.823846
379.920402	2455.041923
380.306013	2389.506923
380.691563	2530.659231
381.077049	2397.068654
381.462474	2485.288846
381.847835	2432.356731
382.233134	2424.795000
382.618371	2434.877308
383.003545	2487.809423
383.388657	2402.109808
383.773706	2565.947308
384.158693	2533.179808
384.543618	2502.932885
384.928480	2427.315577
385.313280	2465.124231
385.698017	2452.521346
386.082692	2480.247692
386.467305	2490.330000
386.851856	2492.850577
387.236344	2447.480192
387.620770	2470.165385
388.005133	2515.535769
388.389435	2480.247692
388.773674	2560.906154
389.157851	2457.562500
389.541965	2444.959615
389.926018	2472.685962
390.310008	2505.453462
390.693936	2515.535769
391.077802	2538.220962
391.461606	2513.015192
391.845348	2429.836154
392.229027	2437.397885
392.612645	2573.509038
392.996200	2518.056346
393.379694	2444.959615
393.763125	2510.494615
394.146494	2427.315577
394.529801	2460.083077
394.913047	2462.603654
395.296230	2467.644808
395.679351	2460.083077
396.062410	2467.644808
396.445408	2510.494615
396.828343	2470.165385
397.211217	2487.809423
397.594028	2505.453462
397.976778	2392.027500
398.359466	2515.535769
398.742092	2455.041923
399.124656	2457.562500
399.507158	2482.768269
399.889598	2490.330000
400.271977	2502.932885
400.654294	2548.303269
401.036549	2497.891731
401.418742	2490.330000
401.800874	2475.206538
402.182944	2465.124231
402.564952	2497.891731
402.946898	2472.685962
403.328783	2434.877308
403.710606	2467.644808
404.092367	2467.644808
404.474067	2502.932885
404.855705	2480.247692
405.237282	2467.644808
405.618797	2487.809423
406.000250	2543.262115
406.381642	2414.712692
406.762972	2465.124231
407.144240	2548.303269
407.525447	2442.439038
407.906593	2500.412308
408.287677	2533.179808
408.668700	2472.685962
409.049661	2543.262115
409.430560	2520.576923
409.811399	2586.111923
410.192176	2455.041923
410.572891	2434.877308
410.953545	2550.823846
411.334138	2409.671538
411.714669	2477.727115
412.095139	2417.233269
412.475547	2452.521346
412.855894	2419.753846
413.236180	2520.576923
413.616405	2467.644808
413.996568	2432.356731
414.376670	2505.453462
414.756711	2404.630385
415.136691	2525.618077
415.516609	2543.262115
415.896466	2339.095385
416.276262	2502.932885
416.655997	2472.685962
417.035670	2558.385577
417.415283	2444.959615
417.794834	2545.782692
418.174324	2460.083077
418.553753	2450.000769
418.933121	2442.439038
419.312428	2402.109808
419.691674	2513.015192
420.070859	2434.877308
420.449983	2490.330000
420.829045	2404.630385
421.208047	2500.412308
421.586988	2470.165385
421.965867	2553.344423
422.344686	2434.877308
422.723444	2513.015192
423.102141	2505.453462
423.480777	2500.412308
423.859352	2480.247692
424.237866	2523.097500
424.616319	2480.247692
424.994712	2497.891731
425.373044	2520.576923
425.751314	2470.165385
426.129524	2450.000769
426.507673	2379.424615
426.885762	2482.768269
427.263789	2439.918462
427.641756	2515.535769
428.019662	2525.618077
428.397508	2530.659231
428.775292	2444.959615
429.153016	2439.918462
429.530679	2543.262115
429.908282	2427.315577
430.285824	2520.576923
430.663305	2442.439038
431.040726	2555.865000
431.418086	2540.741538
431.795385	2482.768269
432.172624	2495.371154
432.549802	2490.330000
432.926920	2538.220962
433.303977	2470.165385
433.680974	2475.206538
434.057910	2497.891731
434.434786	2439.918462
434.811601	2518.056346
435.188355	2495.371154
435.565050	2467.644808
435.941683	2472.685962
436.318257	2560.906154
436.694770	2487.809423
437.071222	2507.974038
437.447614	2482.768269
437.823946	2525.618077
438.200218	2475.206538
438.576429	2578.550192
438.952580	2457.562500
439.328670	2495.371154
439.704700	2487.809423
440.080670	2417.233269
440.456580	2497.891731
440.832429	2538.220962
441.208218	2513.015192
441.583947	2502.932885
441.959616	2513.015192
442.335224	2467.644808
442.710773	2518.056346
443.086261	2505.453462
443.461689	2525.618077
443.837057	2439.918462
444.212365	2502.932885
444.587612	2492.850577
444.962800	2497.891731
445.337927	2482.768269
445.712995	2455.041923
446.088002	2505.453462
446.462949	2505.453462
446.837837	2462.603654
447.212664	2495.371154
447.587431	2548.303269
447.962139	2487.809423
448.336786	2507.974038
448.711374	2505.453462
449.085901	2497.891731
449.460369	2422.274423
449.834776	2533.179808
450.209124	2472.685962
450.583412	2502.932885
450.957640	2452.521346
451.331808	2540.741538
451.705917	2434.877308
452.079965	2540.741538
452.453954	2520.576923
452.827883	2570.988462
453.201752	2510.494615
453.575562	2497.891731
453.949311	2460.083077
454.323001	2434.877308
454.696632	2510.494615
455.070202	2570.988462
455.443713	2447.480192
455.817164	2525.618077
456.190556	2492.850577
456.563888	2465.124231
456.937160	2495.371154
457.310373	2578.550192
457.683526	2462.603654
458.056619	2500.412308
458.429653	2502.932885
458.802628	2447.480192
459.175542	2447.480192
459.548398	2455.041923
459.921194	2490.330000
460.293930	2555.865000
460.666607	2507.974038
461.039224	2543.262115
461.411782	2538.220962
461.784280	2510.494615
462.156719	2487.809423
462.529099	2442.439038
462.901419	2409.671538
463.273680	2507.974038
463.645882	2555.865000
464.018024	2502.932885
464.390106	2565.947308
464.762130	2515.535769
465.134094	2457.562500
465.505999	2492.850577
465.877845	2460.083077
466.249631	2513.015192
466.621358	2513.015192
466.993026	2482.768269
467.364634	2460.083077
467.736184	2450.000769
468.107674	2439.918462
468.479105	2475.206538
468.850477	2525.618077
469.221790	2535.700385
469.593043	2535.700385
469.964238	2520.576923
470.335373	2553.344423
470.706449	2412.192115
471.077467	2528.138654
471.448425	2467.644808
471.819324	2540.741538
472.190164	2515.535769
472.560945	2495.371154
472.931667	2497.891731
473.302330	2573.509038
473.672934	2510.494615
474.043479	2482.768269
474.413965	2492.850577
474.784393	2507.974038
475.154761	2455.041923
475.525070	2586.111923
475.895321	2565.947308
476.265513	2535.700385
476.635645	2513.015192
477.005719	2513.015192
477.375734	2553.344423
477.745691	2538.220962
478.115588	2462.603654
478.485427	2510.494615
478.855207	2550.823846
479.224928	2490.330000
479.594591	2452.521346
479.964194	2555.865000
480.333739	2475.206538
480.703226	2475.206538
481.072653	2510.494615
481.442022	2601.235385
481.811333	2482.768269
482.180584	2482.768269
482.549777	2467.644808
482.918912	2470.165385
483.287988	2470.165385
483.657005	2510.494615
484.025964	2565.947308
484.394864	2447.480192
484.763706	2480.247692
485.132489	2490.330000
485.501213	2500.412308
485.869879	2442.439038
486.238487	2518.056346
486.607036	2565.947308
486.975527	2520.576923
487.343959	2495.371154
487.712333	2485.288846
488.080648	2492.850577
488.448905	2492.850577
488.817104	2470.165385
489.185244	2523.097500
489.553326	2472.685962
489.921350	2510.494615
490.289315	2465.124231
490.657222	2540.741538
491.025070	2525.618077
491.392861	2485.288846
491.760593	2520.576923
492.128267	2462.603654
492.495883	2540.741538
492.863440	2477.727115
493.230939	2533.179808
493.598380	2540.741538
493.965763	2465.124231
494.333088	2550.823846
494.700354	2573.509038
495.067563	2475.206538
495.434713	2505.453462
495.801805	2507.974038
496.168839	2545.782692
496.535815	2520.576923
496.902733	2553.344423
497.269593	2467.644808
497.636395	2588.632500
498.003139	2467.644808
498.369825	2450.000769
498.736453	2586.111923
499.103023	2492.850577
499.469535	2437.397885
499.835989	2487.809423
500.202385	2581.070769
500.568723	2533.179808
500.935003	2560.906154
501.301226	2487.809423
501.667390	2467.644808
502.033497	2434.877308
502.399546	2505.453462
502.765537	2565.947308
503.131470	2518.056346
503.497345	2492.850577
503.863163	2553.344423
504.228923	2467.644808
504.594625	2502.932885
504.960269	2502.932885
505.325856	2515.535769
505.691385	2510.494615
506.056856	2513.015192
506.422270	2510.494615
506.787625	2535.700385
507.152924	2543.262115
507.518164	2470.165385
507.883347	2434.877308
508.248472	2505.453462
508.613540	2462.603654
508.978550	2550.823846
509.343503	2439.918462
509.708398	2482.768269
510.073236	2472.685962
510.438016	2565.947308
510.802738	2495.371154
511.167403	2565.947308
511.532010	2490.330000
511.896561	2540.741538
512.261053	2417.233269
512.625488	2497.891731
512.989866	2528.138654
513.354186	2555.865000
513.718449	2576.029615
514.082655	2427.315577
514.446803	2492.850577
514.810894	2492.850577
515.174927	2578.550192
515.538904	2558.385577
515.902822	2588.632500
516.266684	2550.823846
516.630488	2515.535769
516.994235	2492.850577
517.357925	2523.097500
517.721558	2447.480192
518.085133	2535.700385
518.448651	2472.685962
518.812112	2460.083077
519.175516	2530.659231
519.538863	2492.850577
519.902152	2412.192115
520.265385	2455.041923
520.628560	2601.235385
520.991678	2500.412308
521.354739	2505.453462
521.717743	2545.782692
522.080690	2467.644808
522.443580	2490.330000
522.806413	2480.247692
523.169189	2397.068654
523.531908	2573.509038
523.894569	2472.685962
524.257174	2570.988462
524.619722	2515.535769
524.982213	2422.274423
525.344647	2434.877308
525.707025	2555.865000
526.069345	2460.083077
526.431608	2548.303269
526.793815	2581.070769
527.155964	2381.945192
527.518057	2467.644808
527.880093	2485.288846
528.242072	2523.097500
528.603995	2495.371154
528.965860	2515.535769
529.327669	2477.727115
529.689421	2513.015192
530.051117	2591.153077
530.412755	2482.768269
530.774337	2543.262115
531.135862	2497.891731
531.497331	2515.535769
531.858743	2424.795000
532.220098	2450.000769
532.581396	2530.659231
532.942638	2497.891731
533.303824	2482.768269
533.664953	2427.315577
534.026025	2475.206538
534.387040	2525.618077
534.747999	2492.850577
535.108902	2465.124231
535.469748	2558.385577
535.830537	2432.356731
536.191270	2487.809423
536.551947	2495.371154
536.912567	2457.562500
537.273131	2533.179808
537.633638	2510.494615
537.994089	2492.850577
538.354483	2502.932885
538.714821	2588.632500
539.075103	2480.247692
539.435328	2540.741538
539.795497	2550.823846
540.155609	2540.741538
540.515665	2553.344423
540.875665	2525.618077
541.235609	2455.041923
541.595496	2520.576923
541.955328	2465.124231
542.315102	2490.330000
542.674821	2462.603654
543.034483	2507.974038
543.394090	2495.371154
543.753640	2467.644808
544.113134	2505.453462
544.472571	2525.618077
544.831953	2502.932885
545.191278	2432.356731
545.550548	2533.179808
545.909761	2563.426731
546.268918	2528.138654
546.628019	2550.823846
546.987064	2535.700385
547.346053	2565.947308
547.704986	2450.000769
548.063863	2487.809423
548.422684	2444.959615
548.781449	2593.673654
549.140158	2392.027500
549.498811	2555.865000
549.857408	2528.138654
550.215949	2492.850577
550.574434	2455.041923
550.932864	2545.782692
551.291237	2472.685962
551.649555	2593.673654
552.007817	2505.453462
552.366022	2407.150962
552.724173	2502.932885
553.082267	2470.165385
553.440305	2540.741538
553.798288	2417.233269
554.156215	2442.439038
554.514086	2374.383462
554.871902	2510.494615
555.229661	2444.959615
555.587365	2437.397885
555.945014	2525.618077
556.302606	2497.891731
556.660143	2525.618077
557.017625	2563.426731
557.375050	2558.385577
557.732421	2603.755962
558.089735	2538.220962
558.446994	2407.150962
558.804197	2465.124231
559.161345	2588.632500
559.518437	2530.659231
559.875474	2457.562500
560.232455	2543.262115
560.589381	2447.480192
560.946251	2502.932885
561.303065	2460.083077
561.659825	2492.850577
562.016528	2455.041923
562.373177	2523.097500
562.729770	2460.083077
563.086307	2560.906154
563.442789	2475.206538
563.799216	2543.262115
564.155587	2495.371154
564.511904	2515.535769
564.868164	2500.412308
565.224370	2578.550192
565.580520	2460.083077
565.936615	2482.768269
566.292654	2538.220962
566.648638	2490.330000
567.004567	2518.056346
567.360441	2439.918462
567.716260	2555.865000
568.072023	2543.262115
568.427732	2500.412308
568.783385	2533.179808
569.138982	2505.453462
569.494525	2442.439038
569.850013	2570.988462
570.205445	2525.618077
570.560823	2414.712692
570.916145	2533.179808
571.271412	2470.165385
571.626625	2535.700385
571.981782	2462.603654
572.336884	2477.727115
572.691931	2576.029615
573.046923	2444.959615
573.401860	2462.603654
573.756743	2525.618077
574.111570	2407.150962
574.466342	2407.150962
574.821059	2513.015192
575.175722	2540.741538
575.530330	2523.097500
575.884882	2452.521346
576.239380	2558.385577
576.593823	2439.918462
576.948211	2490.330000
577.302544	2485.288846
577.656823	2485.288846
578.011047	2487.809423
578.365216	2601.235385
578.719330	2475.206538
579.073389	2502.932885
579.427394	2558.385577
579.781344	2628.961731
580.135239	2570.988462
580.489080	2477.727115
580.842866	2540.741538
581.196597	2523.097500
581.550273	2588.632500
581.903895	2606.276538
582.257463	2634.002885
582.610975	2540.741538
582.964434	2450.000769
583.317837	2573.509038
583.671186	2447.480192
584.024481	2530.659231
584.377721	2485.288846
584.730906	2465.124231
585.084037	2535.700385
585.437113	2472.685962
585.790135	2500.412308
586.143103	2533.179808
586.496016	2578.550192
586.848874	2533.179808
587.201679	2439.918462
587.554428	2515.535769
587.907124	2475.206538
588.259765	2447.480192
588.612352	2500.412308
588.964884	2525.618077
589.317362	2497.891731
589.669786	2482.768269
590.022155	2507.974038
590.374470	2480.247692
590.726731	2593.673654
591.078937	2447.480192
591.431090	2570.988462
591.783188	2487.809423
592.135232	2480.247692
592.487222	2485.288846
592.839157	2502.932885
593.191038	2460.083077
593.542866	2422.274423
593.894639	2591.153077
594.246358	2613.838269
594.598022	2434.877308
594.949633	2495.371154
595.301190	2515.535769
595.652692	2550.823846
596.004141	2470.165385
596.355535	2392.027500
596.706876	2507.974038
597.058162	2437.397885
597.409395	2535.700385
597.760573	2465.124231
598.111698	2429.836154
598.462768	2487.809423
598.813785	2467.644808
599.164748	2477.727115
599.515657	2513.015192
599.866511	2560.906154
600.217312	2533.179808
600.568060	2533.179808
600.918753	2447.480192
601.269392	2550.823846
601.619978	2545.782692
601.970510	2565.947308
602.320988	2480.247692
602.671412	2533.179808
603.021783	2550.823846
603.372100	2462.603654
603.722363	2593.673654
604.072572	2530.659231
604.422728	2500.412308
604.772830	2460.083077
605.122878	2500.412308
605.472872	2495.371154
605.822813	2520.576923
606.172701	2525.618077
606.522534	2465.124231
606.872314	2581.070769
607.222041	2623.920577
607.571714	2530.659231
607.921333	2513.015192
608.270899	2558.385577
608.620411	2480.247692
608.969870	2515.535769
609.319276	2540.741538
609.668627	2444.959615
610.017926	2447.480192
610.367171	2530.659231
610.716362	2442.439038
611.065500	2455.041923
611.414585	2497.891731
611.763616	2487.809423
612.112594	2485.288846
612.461518	2475.206538
612.810389	2467.644808
613.159207	2462.603654
613.507971	2518.056346
613.856682	2553.344423
614.205340	2447.480192
614.553945	2507.974038
614.902496	2490.330000
615.250994	2523.097500
615.599439	2485.288846
615.947830	2583.591346
616.296169	2538.220962
616.644454	2450.000769
616.992686	2500.412308
617.340864	2482.768269
617.688990	2525.618077
618.037063	2487.809423
618.385082	2520.576923
618.733048	2485.288846
619.080961	2480.247692
619.428821	2543.262115
619.776628	2487.809423
620.124382	2475.206538
620.472083	2528.138654
620.819731	2510.494615
621.167326	2485.288846
621.514868	2492.850577
621.862357	2482.768269
622.209793	2628.961731
622.557176	2525.618077
622.904506	2543.262115
623.251783	2545.782692
623.599007	2455.041923
623.946179	2422.274423
624.293297	2442.439038
624.640363	2434.877308
624.987376	2502.932885
625.334336	2502.932885
625.681243	2510.494615
626.028097	2505.453462
626.374899	2548.303269
626.721647	2419.753846
627.068343	2515.535769
627.414987	2565.947308
627.761577	2412.192115
628.108115	2492.850577
628.454600	2399.589231
628.801032	2497.891731
629.147412	2462.603654
629.493739	2525.618077
629.840014	2545.782692
630.186236	2520.576923
630.532405	2507.974038
630.878521	2394.548077
631.224585	2487.809423
631.570597	2447.480192
631.916556	2470.165385
632.262462	2507.974038
632.608316	2518.056346
632.954117	2568.467885
633.299866	2523.097500
633.645562	2530.659231
633.991206	2573.509038
634.336797	2487.809423
634.682336	2427.315577
635.027823	2515.535769
635.373257	2495.371154
635.718639	2460.083077
636.063968	2543.262115
636.409245	2442.439038
636.754470	2548.303269
637.099642	2432.356731
637.444762	2465.124231
637.789829	2434.877308
638.134845	2535.700385
638.479808	2447.480192
638.824719	2550.823846
639.169577	2477.727115
639.514383	2563.426731
639.859137	2538.220962
640.203839	2467.644808
640.548489	2490.330000
640.893086	2472.685962
641.237632	2540.741538
641.582125	2482.768269
641.926566	2462.603654
642.270955	2540.741538
642.615292	2419.753846
642.959576	2545.782692
643.303809	2429.836154
643.647990	2470.165385
643.992118	2450.000769
644.336195	2560.906154
644.680219	2427.315577
645.024192	2490.330000
645.368112	2485.288846
645.711981	2520.576923
646.055797	2455.041923
646.399562	2482.768269
646.743274	2434.877308
647.086935	2482.768269
647.430544	2601.235385
647.774101	2528.138654
648.117606	2545.782692
648.461059	2422.274423
648.804460	2530.659231
649.147810	2465.124231
649.491108	2467.644808
649.834354	2598.714808
650.177548	2495.371154
650.520690	2540.741538
650.863781	2568.467885
651.206820	2578.550192
651.549807	2543.262115
651.892742	2447.480192
652.235626	2520.576923
652.578458	2507.974038
652.921238	2553.344423
653.263967	2510.494615
653.606644	2523.097500
653.949269	2510.494615
654.291843	2472.685962
654.634365	2500.412308
654.976836	2455.041923
655.319255	2515.535769
655.661622	2490.330000
656.003938	2444.959615
656.346203	2510.494615
656.688416	2528.138654
657.030577	2563.426731
657.372687	2530.659231
657.714746	2548.303269
658.056753	2419.753846
658.398708	2457.562500
658.740612	2424.795000
659.082465	2414.712692
659.424266	2538.220962
659.766016	2490.330000
660.107715	2513.015192
660.449362	2482.768269
660.790958	2518.056346
661.132503	2553.344423
661.473996	2485.288846
661.815438	2565.947308
662.156829	2535.700385
662.498168	2482.768269
662.839456	2450.000769
663.180693	2528.138654
663.521879	2467.644808
663.863013	2523.097500
664.204097	2540.741538
664.545129	2510.494615
664.886110	2538.220962
665.227040	2528.138654
665.567918	2576.029615
665.908746	2510.494615
666.249522	2525.618077
666.590248	2462.603654
666.930922	2417.233269
667.271545	2392.027500
667.612118	2520.576923
667.952639	2533.179808
668.293109	2510.494615
668.633528	2497.891731
668.973896	2450.000769
669.314213	2555.865000
669.654480	2429.836154
669.994695	2470.165385
670.334859	2422.274423
670.674973	2444.959615
671.015035	2472.685962
671.355047	2505.453462
671.695008	2450.000769
672.034918	2470.165385
672.374777	2553.344423
672.714585	2530.659231
673.054342	2492.850577
673.394049	2460.083077
673.733705	2515.535769
674.073310	2520.576923
674.412864	2470.165385
674.752368	2450.000769
675.091820	2525.618077
675.431223	2513.015192
675.770574	2485.288846
676.109875	2500.412308
676.449125	2596.194231
676.788324	2452.521346
677.127473	2500.412308
677.466571	2477.727115
677.805619	2540.741538
678.144616	2523.097500
678.483562	2525.618077
678.822458	2510.494615
679.161303	2492.850577
679.500098	2495.371154
679.838842	2530.659231
680.177535	2578.550192
680.516179	2565.947308
680.854771	2465.124231
681.193314	2513.015192
681.531805	2545.782692
681.870247	2467.644808
682.208638	2543.262115
682.546978	2523.097500
682.885268	2525.618077
683.223508	2573.509038
683.561697	2573.509038
683.899836	2490.330000
684.237925	2429.836154
684.575963	2487.809423
684.913951	2455.041923
685.251889	2535.700385
685.589776	2555.865000
685.927614	2525.618077
686.265401	2588.632500
686.603137	2497.891731
686.940824	2507.974038
687.278460	2487.809423
687.616046	2492.850577
687.953582	2568.467885
688.291068	2462.603654
688.628504	2472.685962
688.965889	2497.891731
689.303224	2434.877308
689.640510	2437.397885
689.977745	2480.247692
690.314930	2525.618077
690.652065	2427.315577
690.989150	2437.397885
691.326185	2553.344423
691.663170	2535.700385
692.000105	2492.850577
692.336990	2533.179808
692.673825	2432.356731
693.010610	2525.618077
693.347345	2437.397885
693.684030	2475.206538
694.020665	2404.630385
694.357251	2444.959615
694.693786	2548.303269
695.030272	2462.603654
695.366707	2497.891731
695.703093	2523.097500
696.039429	2447.480192
696.375716	2518.056346
696.711952	2439.918462
697.048139	2502.932885
697.384276	2520.576923
697.720363	2477.727115
698.056400	2427.315577
698.392388	2520.576923
698.728326	2570.988462
699.064214	2495.371154
699.400053	2502.932885
699.735842	2467.644808
700.071581	2490.330000
700.407270	2520.576923
700.742910	2553.344423
701.078501	2560.906154
701.414042	2497.891731
701.749533	2495.371154
702.084974	2424.795000
702.420366	2530.659231
702.755709	2455.041923
703.091002	2472.685962
703.426246	2422.274423
703.761440	2507.974038
704.096584	2505.453462
704.431679	2533.179808
704.766725	2439.918462
705.101721	2480.247692
705.436668	2513.015192
705.771565	2588.632500
706.106413	2480.247692
706.441212	2545.782692
706.775961	2475.206538
707.110661	2540.741538
707.445311	2502.932885
707.779913	2495.371154
708.114465	2502.932885
708.448967	2528.138654
708.783421	2530.659231
709.117825	2570.988462
709.452180	2513.015192
709.786485	2500.412308
710.120742	2518.056346
710.454949	2490.330000
710.789107	2485.288846
711.123216	2505.453462
711.457275	2520.576923
711.791286	2447.480192
712.125247	2450.000769
712.459159	2452.521346
712.793023	2507.974038
713.126837	2460.083077
713.460602	2568.467885
713.794318	2500.412308
714.127985	2565.947308
714.461602	2497.891731
714.795171	2530.659231
715.128691	2497.891731
715.462162	2535.700385
715.795584	2492.850577
716.128957	2422.274423
716.462281	2495.371154
716.795556	2513.015192
717.128782	2487.809423
717.461960	2490.330000
717.795088	2515.535769
718.128167	2563.426731
718.461198	2495.371154
718.794180	2457.562500
719.127113	2404.630385
719.459997	2482.768269
719.792833	2495.371154
720.125619	2538.220962
720.458357	2518.056346
720.791046	2513.015192
721.123686	2429.836154
721.456278	2523.097500
721.788821	2528.138654
722.121315	2477.727115
722.453761	2465.124231
722.786158	2465.124231
723.118506	2515.535769
723.450805	2492.850577
723.783056	2497.891731
724.115259	2507.974038
724.447412	2482.768269
724.779518	2553.344423
725.111574	2460.083077
725.443582	2523.097500
725.775542	2513.015192
726.107453	2535.700385
726.439315	2480.247692
726.771129	2570.988462
727.102895	2515.535769
727.434612	2505.453462
727.766281	2371.862885
728.097901	2409.671538
728.429473	2520.576923
728.760996	2472.685962
729.092471	2442.439038
729.423897	2500.412308
729.755276	2520.576923
730.086606	2404.630385
730.417887	2404.630385
730.749120	2480.247692
731.080305	2525.618077
731.411442	2475.206538
731.742530	2558.385577
732.073570	2492.850577
732.404562	2399.589231
732.735506	2487.809423
733.066401	2538.220962
733.397249	2492.850577
733.728048	2505.453462
734.058798	2434.877308
734.389501	2568.467885
734.720156	2432.356731
735.050762	2465.124231
735.381320	2482.768269
735.711831	2462.603654
736.042293	2447.480192
736.372707	2525.618077
736.703073	2437.397885
737.033391	2444.959615
737.363661	2490.330000
737.693883	2502.932885
738.024056	2558.385577
738.354182	2487.809423
738.684260	2437.397885
739.014290	2570.988462
739.344272	2480.247692
739.674207	2533.179808
740.004093	2507.974038
740.333931	2553.344423
740.663722	2535.700385
740.993464	2555.865000
741.323159	2525.618077
741.652806	2422.274423
741.982405	2550.823846
742.311956	2497.891731
742.641460	2543.262115
742.970915	2528.138654
743.300323	2515.535769
743.629683	2510.494615
743.958996	2412.192115
744.288260	2475.206538
744.617477	2513.015192
744.946647	2492.850577
745.275768	2455.041923
745.604842	2560.906154
745.933869	2492.850577
746.262847	2500.412308
746.591778	2530.659231
746.920662	2432.356731
747.249498	2450.000769
747.578286	2505.453462
747.907027	2510.494615
748.235720	2455.041923
748.564365	2460.083077
748.892963	2510.494615
749.221514	2492.850577
749.550017	2545.782692
749.878473	2558.385577
750.206881	2500.412308
750.535242	2525.618077
750.863555	2515.535769
751.191821	2452.521346
751.520039	2487.809423
751.848210	2555.865000
752.176334	2497.891731
752.504411	2588.632500
752.832440	2465.124231
753.160421	2518.056346
753.488356	2502.932885
753.816243	2528.138654
754.144082	2477.727115
754.471875	2528.138654
754.799620	2492.850577
755.127318	2465.124231
755.454969	2502.932885
755.782572	2422.274423
756.110129	2447.480192
756.437638	2510.494615
756.765100	2442.439038
757.092515	2439.918462
757.419882	2424.795000
757.747203	2548.303269
758.074477	2455.041923
758.401703	2525.618077
758.728882	2485.288846
759.056014	2507.974038
759.383099	2472.685962
759.710138	2538.220962
760.037129	2477.727115
760.364073	2477.727115
760.690970	2513.015192
761.017820	2505.453462
761.344623	2487.809423
761.671379	2482.768269
761.998088	2442.439038
762.324751	2505.453462
762.651366	2492.850577
762.977935	2437.397885
763.304456	2535.700385
763.630931	2475.206538
763.957359	2518.056346
764.283740	2389.506923
764.610074	2412.192115
764.936362	2523.097500
765.262602	2513.015192
765.588796	2457.562500
765.914943	2525.618077
766.241044	2444.959615
766.567097	2450.000769
766.893104	2545.782692
767.219064	2457.562500
767.544978	2603.755962
767.870845	2422.274423
768.196665	2495.371154
768.522438	2427.315577
768.848165	2487.809423
769.173846	2429.836154
769.499479	2515.535769
769.825066	2558.385577
770.150607	2482.768269
770.476101	2487.809423
770.801548	2480.247692
771.126949	2568.467885
771.452303	2472.685962
771.777611	2520.576923
772.102872	2452.521346
772.428087	2485.288846
772.753256	2502.932885
773.078378	2500.412308
773.403453	2429.836154
773.728482	2480.247692
774.053465	2518.056346
774.378401	2535.700385
774.703291	2525.618077
775.028135	2419.753846
775.352932	2455.041923
775.677683	2533.179808
776.002388	2553.344423
776.327046	2523.097500
776.651658	2515.535769
776.976224	2427.315577
777.300743	2535.700385
777.625216	2525.618077
777.949643	2570.988462
778.274024	2502.932885
778.598359	2583.591346
778.922647	2497.891731
779.246889	2553.344423
779.571086	2480.247692
779.895236	2404.630385
780.219339	2555.865000
780.543397	2462.603654
780.867409	2465.124231
781.191374	2439.918462
781.515294	2533.179808
781.839167	2452.521346
782.162995	2530.659231
782.486776	2538.220962
782.810511	2510.494615
783.134201	2495.371154
783.457844	2540.741538
783.781441	2520.576923
784.104993	2513.015192
784.428498	2530.659231
784.751958	2558.385577
785.075372	2439.918462
785.398739	2419.753846
785.722061	2520.576923
786.045337	2510.494615
786.368568	2528.138654
786.691752	2495.371154
787.014891	2555.865000
787.337983	2450.000769
787.661030	2495.371154
787.984031	2487.809423
788.306987	2513.015192
788.629897	2528.138654
788.952760	2540.741538
789.275579	2538.220962
789.598351	2593.673654
789.921078	2455.041923
790.243759	2482.768269
790.566395	2490.330000
790.888984	2386.986346
791.211529	2500.412308
791.534027	2528.138654
791.856480	2439.918462
792.178888	2555.865000
792.501249	2528.138654
792.823566	2540.741538
793.145836	2457.562500
793.468062	2570.988462
793.790241	2462.603654
794.112375	2482.768269
794.434464	2530.659231
794.756507	2477.727115
795.078505	2545.782692
795.400457	2495.371154
795.722364	2505.453462
796.044226	2520.576923
796.366042	2492.850577
796.687812	2533.179808
797.009538	2593.673654
797.331218	2462.603654
797.652852	2525.618077
797.974442	2525.618077
798.295986	2485.288846
798.617484	2530.659231
798.938938	2460.083077
799.260346	2513.015192
799.581709	2497.891731
799.903026	2427.315577
800.224299	2535.700385
800.545526	2570.988462
800.866708	2485.288846
801.187845	2563.426731
801.508936	2497.891731
801.829983	2543.262115
802.150984	2500.412308
802.471940	2513.015192
802.792851	2444.959615
803.113717	2492.850577
803.434538	2480.247692
803.755314	2450.000769
804.076045	2485.288846
804.396731	2397.068654
804.717372	2520.576923
805.037967	2550.823846
805.358518	2510.494615
805.679024	2442.439038
805.999485	2523.097500
806.319901	2460.083077
806.640272	2480.247692
806.960598	2510.494615
807.280879	2439.918462
807.601115	2520.576923
807.921306	2545.782692
808.241453	2470.165385
808.561554	2510.494615
808.881611	2540.741538
809.201623	2485.288846
809.521590	2583.591346
809.841513	2520.576923
810.161390	2414.712692
810.481223	2505.453462
810.801011	2482.768269
811.120755	2540.741538
811.440453	2439.918462
811.760107	2558.385577
812.079716	2523.097500
812.399281	2470.165385
812.718801	2535.700385
813.038276	2475.206538
813.357707	2497.891731
813.677093	2495.371154
813.996434	2535.700385
814.315731	2497.891731
814.634983	2528.138654
814.954191	2472.685962
815.273354	2507.974038
815.592473	2518.056346
815.911547	2482.768269
816.230577	2513.015192
816.549562	2495.371154
816.868502	2477.727115
817.187399	2518.056346
817.506250	2450.000769
817.825058	2404.630385
818.143821	2432.356731
818.462539	2492.850577
818.781213	2472.685962
819.099843	2475.206538
819.418429	2397.068654
819.736970	2505.453462
820.055466	2460.083077
820.373919	2389.506923
820.692327	2518.056346
821.010691	2497.891731
821.329011	2507.974038
821.647286	2565.947308
821.965517	2560.906154
822.283704	2487.809423
822.601847	2457.562500
822.919945	2507.974038
823.237999	2442.439038
823.556010	2465.124231
823.873976	2523.097500
824.191897	2523.097500
824.509775	2502.932885
824.827609	2475.206538
825.145398	2452.521346
825.463144	2465.124231
825.780845	2490.330000
826.098502	2530.659231
826.416116	2573.509038
826.733685	2429.836154
827.051210	2502.932885
827.368692	2480.247692
827.686129	2545.782692
828.003522	2450.000769
828.320872	2510.494615
828.638177	2515.535769
828.955439	2490.330000
829.272656	2538.220962
829.589830	2495.371154
829.906960	2490.330000
830.224046	2523.097500
830.541088	2465.124231
830.858086	2472.685962
831.175041	2437.397885
831.491952	2460.083077
831.808819	2510.494615
832.125642	2427.315577
832.442421	2550.823846
832.759157	2432.356731
833.075849	2475.206538
833.392497	2480.247692
833.709101	2477.727115
834.025662	2535.700385
834.342179	2444.959615
834.658653	2442.439038
834.975083	2525.618077
835.291469	2457.562500
835.607811	2518.056346
835.924110	2437.397885
836.240366	2570.988462
836.556578	2558.385577
836.872746	2598.714808
837.188871	2492.850577
837.504952	2487.809423
837.820990	2475.206538
838.136984	2523.097500
838.452935	2583.591346
838.768842	2424.795000
839.084706	2538.220962
839.400526	2467.644808
839.716303	2596.194231
840.032037	2424.795000
840.347727	2528.138654
840.663373	2573.509038
840.978977	2447.480192
841.294537	2462.603654
841.610054	2502.932885
841.925527	2497.891731
842.240957	2455.041923
842.556344	2492.850577
842.871687	2525.618077
843.186987	2470.165385
843.502244	2457.562500
843.817458	2588.632500
844.132629	2475.206538
844.447756	2548.303269
844.762840	2465.124231
845.077881	2558.385577
845.392879	2553.344423
845.707833	2497.891731
846.022745	2523.097500
846.337613	2492.850577
846.652438	2538.220962
846.967221	2505.453462
847.281960	2437.397885
847.596656	2540.741538
847.911309	2515.535769
848.225919	2533.179808
848.540485	2518.056346
848.855009	2497.891731
849.169490	2581.070769
849.483928	2427.315577
849.798323	2545.782692
850.112675	2563.426731
850.426984	2523.097500
850.741251	2434.877308
851.055474	2543.262115
851.369654	2427.315577
851.683792	2525.618077
851.997887	2455.041923
852.311938	2442.439038
852.625947	2555.865000
852.939914	2482.768269
853.253837	2518.056346
853.567718	2497.891731
853.881555	2490.330000
854.195350	2533.179808
854.509103	2540.741538
854.822812	2608.797115
855.136479	2502.932885
855.450103	2520.576923
855.763685	2555.865000
856.077224	2485.288846
856.390720	2568.467885
856.704173	2505.453462
857.017584	2505.453462
857.330953	2442.439038
857.644278	2477.727115
857.957561	2457.562500
858.270802	2523.097500
858.584000	2477.727115
858.897155	2450.000769
859.210268	2533.179808
859.523339	2507.974038
859.836367	2540.741538
860.149352	2432.356731
860.462295	2505.453462
860.775195	2495.371154
861.088054	2482.768269
861.400869	2530.659231
861.713642	2520.576923
862.026373	2558.385577
862.339062	2669.290962
862.651708	2515.535769
862.964312	2460.083077
863.276873	2520.576923
863.589392	2518.056346
863.901869	2437.397885
864.214303	2502.932885
864.526696	2465.124231
864.839045	2485.288846
865.151353	2457.562500
865.463619	2598.714808
865.775842	2480.247692
866.088023	2417.233269
866.400162	2558.385577
866.712258	2497.891731
867.024313	2386.986346
867.336325	2535.700385
867.648296	2472.685962
867.960224	2548.303269
868.272110	2442.439038
868.583954	2513.015192
868.895755	2553.344423
869.207515	2500.412308
869.519233	2502.932885
869.830909	2540.741538
870.142542	2439.918462
870.454134	2525.618077
870.765684	2490.330000
871.077191	2555.865000
871.388657	2465.124231
871.700081	2586.111923
872.011463	2492.850577
872.322803	2586.111923
872.634101	2452.521346
872.945357	2467.644808
873.256571	2487.809423
873.567744	2429.836154
873.878874	2497.891731
874.189963	2485.288846
874.501010	2573.509038
874.812015	2518.056346
875.122979	2581.070769
875.433900	2457.562500
875.744780	2492.850577
876.055618	2525.618077
876.366415	2457.562500
876.677169	2434.877308
876.987882	2497.891731
877.298554	2540.741538
877.609183	2487.809423
877.919771	2533.179808
878.230317	2518.056346
878.540822	2472.685962
878.851285	2570.988462
879.161707	2568.467885
879.472087	2389.506923
879.782425	2502.932885
880.092722	2444.959615
880.402977	2475.206538
880.713191	2467.644808
881.023363	2485.288846
881.333494	2394.548077
881.643583	2467.644808
881.953631	2462.603654
882.263637	2573.509038
882.573602	2523.097500
882.883526	2462.603654
883.193408	2528.138654
883.503248	2450.000769
883.813048	2485.288846
884.122806	2490.330000
884.432522	2485.288846
884.742197	2452.521346
885.051831	2470.165385
885.361424	2452.521346
885.670975	2465.124231
885.980485	2497.891731
886.289954	2515.535769
886.599382	2465.124231
886.908768	2555.865000
887.218113	2462.603654
887.527417	2392.027500
887.836680	2518.056346
888.145901	2538.220962
888.455082	2528.138654
888.764221	2480.247692
889.073319	2490.330000
889.382376	2523.097500
889.691392	2538.220962
890.000366	2513.015192
890.309300	2495.371154
890.618193	2480.247692
890.927044	2510.494615
891.235855	2502.932885
891.544625	2500.412308
891.853353	2528.138654
892.162041	2419.753846
892.470687	2510.494615
892.779293	2480.247692
893.087858	2530.659231
893.396381	2518.056346
893.704864	2455.041923
894.013306	2490.330000
894.321707	2520.576923
894.630068	2465.124231
894.938387	2492.850577
895.246665	2533.179808
895.554903	2591.153077
895.863100	2530.659231
896.171256	2553.344423
896.479371	2399.589231
896.787446	2434.877308
897.095480	2450.000769
897.403473	2500.412308
897.711425	2444.959615
898.019336	2480.247692
898.327207	2447.480192
898.635038	2510.494615
898.942827	2525.618077
899.250576	2528.138654
899.558284	2480.247692
899.865952	2457.562500
900.173579	2409.671538
900.481165	2563.426731
900.788711	2507.974038
901.096216	2429.836154
901.403681	2528.138654
901.711105	2485.288846
902.018489	2465.124231
902.325832	2472.685962
902.633135	2495.371154
902.940397	2457.562500
903.247619	2548.303269
903.554800	2492.850577
903.861941	2444.959615
904.169041	2497.891731
904.476101	2528.138654
904.783121	2507.974038
905.090100	2429.836154
905.397039	2472.685962
905.703938	2513.015192
906.010796	2548.303269
906.317614	2447.480192
906.624391	2535.700385
906.931129	2500.412308
907.237826	2565.947308
907.544483	2376.904038
907.851099	2386.986346
908.157675	2513.015192
908.464211	2434.877308
908.770707	2502.932885
909.077163	2482.768269
909.383578	2487.809423
909.689954	2535.700385
909.996289	2502.932885
910.302584	2560.906154
910.608839	2545.782692
910.915054	2447.480192
911.221229	2502.932885
911.527363	2636.523462
911.833458	2560.906154
912.139513	2462.603654
912.445527	2563.426731
912.751502	2470.165385
913.057436	2472.685962
913.363331	2490.330000
913.669186	2560.906154
913.975000	2505.453462
914.280775	2485.288846
914.586510	2450.000769
914.892205	2439.918462
915.197859	2465.124231
915.503475	2442.439038
915.809050	2447.480192
916.114585	2505.453462
916.420081	2540.741538
916.725536	2507.974038
917.030952	2480.247692
917.336328	2507.974038
917.641665	2432.356731
917.946961	2485.288846
918.252218	2558.385577
918.557435	2540.741538
918.862612	2507.974038
919.167750	2540.741538
919.472848	2437.397885
919.777906	2548.303269
920.082925	2525.618077
920.387904	2558.385577
920.692843	2429.836154
920.997743	2472.685962
921.302603	2487.809423
921.607423	2573.509038
921.912204	2487.809423
922.216946	2565.947308
922.521647	2480.247692
922.826310	2397.068654
923.130932	2515.535769
923.435516	2467.644808
923.740059	2533.179808
924.044564	2450.000769
924.349028	2462.603654
924.653454	2482.768269
924.957840	2538.220962
925.262186	2495.371154
925.566493	2495.371154
925.870761	2510.494615
926.174989	2470.165385
926.479178	2528.138654
926.783328	2502.932885
927.087438	2528.138654
927.391509	2480.247692
927.695541	2510.494615
927.999533	2518.056346
928.303486	2596.194231
928.607400	2482.768269
928.911275	2505.453462
929.215110	2444.959615
929.518906	2407.150962
929.822663	2507.974038
930.126381	2520.576923
930.430060	2452.521346
930.733699	2553.344423
931.037299	2523.097500
931.340861	2538.220962
931.644383	2450.000769
931.947866	2510.494615
932.251309	2480.247692
932.554714	2560.906154
932.858080	2502.932885
933.161407	2535.700385
933.464694	2485.288846
933.767943	2429.836154
934.071153	2480.247692
934.374323	2525.618077
934.677455	2397.068654
934.980548	2371.862885
935.283602	2465.124231
935.586617	2545.782692
935.889593	2487.809423
936.192530	2543.262115
936.495428	2495.371154
936.798287	2553.344423
937.101108	2543.262115
937.403890	2553.344423
937.706632	2465.124231
938.009336	2422.274423
938.312002	2465.124231
938.614628	2465.124231
938.917216	2591.153077
939.219765	2507.974038
939.522275	2444.959615
939.824747	2402.109808
940.127179	2472.685962
940.429573	2455.041923
940.731929	2442.439038
941.034246	2518.056346
941.336524	2460.083077
941.638763	2455.041923
941.940964	2487.809423
942.243126	2515.535769
942.545250	2492.850577
942.847335	2500.412308
943.149381	2457.562500
943.451389	2452.521346
943.753359	2477.727115
944.055290	2470.165385
944.357182	2500.412308
944.659036	2417.233269
944.960851	2419.753846
945.262628	2457.562500
945.564367	2485.288846
945.866067	2505.453462
946.167729	2477.727115
946.469352	2495.371154
946.770937	2513.015192
947.072484	2467.644808
947.373992	2477.727115
947.675462	2492.850577
947.976893	2472.685962
948.278286	2530.659231
948.579641	2538.220962
948.880958	2523.097500
949.182236	2500.412308
949.483476	2500.412308
949.784678	2565.947308
950.085841	2528.138654
950.386967	2581.070769
950.688054	2470.165385
950.989103	2465.124231
951.290114	2507.974038
951.591087	2467.644808
951.892021	2570.988462
952.192917	2434.877308
952.493776	2452.521346
952.794596	2487.809423
953.095378	2467.644808
953.396122	2520.576923
953.696828	2467.644808
953.997496	2465.124231
954.298126	2487.809423
954.598718	2502.932885
954.899272	2460.083077
955.199788	2533.179808
955.500266	2548.303269
955.800706	2407.150962
956.101108	2399.589231
956.401472	2540.741538
956.701798	2460.083077
957.002087	2497.891731
957.302337	2452.521346
957.602550	2565.947308
957.902724	2460.083077
958.202861	2490.330000
958.502960	2492.850577
958.803022	2455.041923
959.103045	2523.097500
959.403031	2530.659231
959.702979	2475.206538
960.002889	2455.041923
960.302762	2427.315577
960.602596	2495.371154
960.902393	2439.918462
961.202153	2513.015192
961.501875	2472.685962
961.801559	2472.685962
962.101205	2502.932885
962.400814	2550.823846
962.700385	2495.371154
962.999918	2480.247692
963.299414	2480.247692
963.598873	2520.576923
963.898293	2565.947308
964.197677	2492.850577
964.497022	2460.083077
964.796331	2525.618077
965.095601	2500.412308
965.394835	2553.344423
965.694030	2555.865000
965.993189	2465.124231
966.292309	2608.797115
966.591393	2450.000769
966.890439	2439.918462
967.189447	2548.303269
967.488419	2462.603654
967.787353	2462.603654
968.086249	2520.576923
968.385108	2555.865000
968.683930	2558.385577
968.982714	2545.782692
969.281462	2560.906154
969.580172	2505.453462
969.878844	2518.056346
970.177480	2502.932885
970.476078	2422.274423
970.774639	2455.041923
971.073162	2467.644808
971.371649	2518.056346
971.670098	2525.618077
971.968510	2505.453462
972.266885	2528.138654
972.565223	2472.685962
972.863524	2432.356731
973.161788	2452.521346
973.460014	2482.768269
973.758204	2538.220962
974.056356	2444.959615
974.354471	2495.371154
974.652550	2460.083077
974.950591	2500.412308
975.248595	2492.850577
975.546563	2442.439038
975.844493	2422.274423
976.142386	2475.206538
976.440243	2525.618077
976.738062	2424.795000
977.035845	2570.988462
977.333590	2475.206538
977.631299	2502.932885
977.928971	2462.603654
978.226606	2518.056346
978.524204	2485.288846
978.821765	2518.056346
979.119290	2510.494615
979.416777	2450.000769
979.714228	2492.850577
980.011642	2397.068654
980.309020	2482.768269
980.606360	2530.659231
980.903664	2510.494615
981.200931	2530.659231
981.498162	2502.932885
981.795356	2439.918462
982.092513	2495.371154
982.389633	2475.206538
982.686717	2540.741538
982.983764	2470.165385
983.280775	2500.412308
983.577749	2543.262115
983.874686	2457.562500
984.171587	2520.576923
984.468451	2525.618077
984.765279	2485.288846
985.062070	2530.659231
985.358824	2533.179808
985.655543	2641.564615
985.952224	2543.262115
986.248869	2513.015192
986.545478	2480.247692
986.842050	2535.700385
987.138586	2475.206538
987.435086	2540.741538
987.731549	2434.877308
988.027975	2505.453462
988.324366	2558.385577
988.620719	2513.015192
988.917037	2530.659231
989.213318	2457.562500
989.509563	2361.780577
989.805772	2523.097500
990.101944	2535.700385
990.398080	2470.165385
990.694180	2437.397885
990.990244	2560.906154
991.286271	2515.535769
991.582262	2507.974038
991.878217	2480.247692
992.174136	2482.768269
992.470019	2485.288846
992.765865	2507.974038
993.061676	2538.220962
993.357450	2480.247692
993.653188	2520.576923
993.948890	2507.974038
994.244556	2528.138654
994.540186	2518.056346
994.835780	2450.000769
995.131337	2480.247692
995.426859	2422.274423
995.722345	2487.809423
996.017795	2467.644808
996.313208	2475.206538
996.608586	2434.877308
996.903928	2455.041923
997.199234	2513.015192
997.494504	2492.850577
997.789738	2543.262115
998.084936	2417.233269
998.380099	2518.056346
998.675225	2389.506923
998.970316	2475.206538
999.265371	2480.247692
999.560390	2452.521346
999.855373	2533.179808
1000.150320	2409.671538
1000.445232	2417.233269
1000.740108	2510.494615
1001.034948	2480.247692
1001.329752	2550.823846
1001.624521	2480.247692
1001.919254	2513.015192
1002.213951	2419.753846
1002.508613	2510.494615
1002.803239	2389.506923
1003.097829	2535.700385
1003.392384	2545.782692
1003.686903	2530.659231
1003.981386	2450.000769
1004.275834	2530.659231
1004.570246	2422.274423
1004.864623	2533.179808
1005.158964	2455.041923
1005.453270	2545.782692
1005.747540	2480.247692
1006.041775	2515.535769
1006.335974	2510.494615
1006.630138	2487.809423
1006.924266	2644.085192
1007.218359	2555.865000
1007.512416	2507.974038
1007.806438	2480.247692
1008.100425	2507.974038
1008.394376	2525.618077
1008.688292	2507.974038
1008.982172	2386.986346
1009.276017	2455.041923
1009.569827	2563.426731
1009.863602	2492.850577
1010.157341	2447.480192
1010.451045	2452.521346
1010.744714	2452.521346
1011.038347	2535.700385
1011.331945	2495.371154
1011.625508	2462.603654
1011.919036	2490.330000
1012.212528	2465.124231
1012.505986	2518.056346
1012.799408	2452.521346
1013.092795	2520.576923
1013.386147	2540.741538
1013.679464	2513.015192
1013.972745	2487.809423
1014.265992	2495.371154
1014.559204	2525.618077
1014.852380	2455.041923
1015.145521	2419.753846
1015.438628	2538.220962
1015.731699	2507.974038
1016.024736	2412.192115
1016.317737	2502.932885
1016.610703	2455.041923
1016.903635	2477.727115
1017.196531	2507.974038
1017.489393	2495.371154
1017.782219	2419.753846
1018.075011	2507.974038
1018.367768	2482.768269
1018.660490	2457.562500
1018.953177	2457.562500
1019.245829	2457.562500
