Dividing Wavelength (nm)	Counts (n)	Blue Motor Position (mm): 0.000000	Red Motor Position (mm): 20.500000	
326.493990	2147.329892
326.888308	2147.329892
327.282561	2147.329892
327.676750	2119.041458
328.070874	2120.604215
328.464933	2125.552108
328.858929	2135.992337
329.252859	2144.617752
329.646726	2163.270021
330.040528	2176.596311
330.434265	2193.640452
330.827938	2214.253730
331.221547	2230.909703
331.615091	2251.134812
332.008571	2273.590632
332.401986	2294.551749
332.795338	2313.249389
333.188625	2334.906186
333.581847	2351.380677
333.975006	2371.598224
334.368100	2391.752757
334.761129	2409.190108
335.154095	2423.232242
335.546996	2440.039449
335.939833	2453.360698
336.332606	2469.426856
336.725315	2476.983545
337.117960	2489.052068
337.510540	2498.111021
337.903056	2505.566887
338.295508	2512.032167
338.687896	2517.958044
339.080220	2527.586648
339.472480	2530.908768
339.864676	2536.416228
340.256807	2542.057280
340.648875	2541.384286
341.040879	2545.381921
341.432818	2544.565254
341.824694	2547.123639
342.216506	2543.544420
342.608253	2546.737991
342.999937	2548.401572
343.391557	2543.425953
343.783113	2540.567619
344.174605	2538.878832
344.566033	2540.635674
344.957397	2538.314223
345.348697	2533.499921
345.739934	2534.142668
346.131106	2530.528161
346.522215	2529.187214
346.913260	2527.470701
347.304241	2528.143695
347.695159	2525.839888
348.086012	2526.336441
348.476802	2521.537263
348.867528	2523.125226
349.258191	2517.305214
349.648789	2519.787983
350.039324	2516.339833
350.429796	2517.080883
350.820203	2514.706499
351.210548	2515.883609
351.600828	2516.233969
351.991045	2513.889833
352.381198	2514.744308
352.771288	2515.026613
353.161314	2515.518125
353.551276	2511.422188
353.941175	2514.144411
354.331010	2514.850172
354.720782	2514.252796
355.110490	2515.261026
355.500135	2516.077693
355.889717	2515.656757
356.279235	2513.872188
356.668689	2514.638444
357.058080	2515.225738
357.447408	2512.377486
357.836672	2513.340347
358.225873	2513.110974
358.615010	2512.077538
359.004084	2517.479134
359.393095	2516.992663
359.782043	2517.776562
360.170927	2520.970133
360.559748	2518.948630
360.948505	2519.024248
361.337199	2518.336130
361.725830	2521.691018
362.114398	2520.909639
362.502903	2520.632376
362.891344	2522.333765
363.279722	2521.043230
363.668037	2521.209588
364.056289	2523.715041
364.444478	2521.431399
364.832603	2524.309897
365.220665	2525.287881
365.608665	2525.383663
365.996601	2527.642100
366.384474	2524.607326
366.772284	2527.359796
367.160031	2526.119672
367.547715	2526.585978
367.935336	2529.434230
368.322893	2526.220495
368.710388	2526.477594
369.097820	2527.891637
369.485189	2528.801566
369.872495	2530.152595
370.259738	2525.078673
370.646918	2530.064375
371.034035	2530.848274
371.421090	2531.947246
371.808081	2529.492204
372.195010	2531.932122
372.581875	2533.043697
372.968678	2531.480939
373.355418	2532.660569
373.742096	2537.006043
374.128710	2535.912113
374.515262	2537.449665
374.901751	2535.992772
375.288177	2538.614172
375.674540	2539.723225
376.060841	2542.160623
376.447079	2543.824204
376.833254	2547.547096
377.219367	2543.350336
377.605417	2546.690100
377.991404	2549.588763
378.377329	2551.993394
378.763191	2551.862324
379.148991	2560.646534
379.534727	2565.307081
379.920402	2566.393450
380.306013	2571.192628
380.691563	2574.623133
381.077049	2579.379462
381.462474	2587.188209
381.847835	2587.233580
382.233134	2592.972933
382.618371	2598.573655
383.003545	2604.481888
383.388657	2610.843824
383.773706	2618.869341
384.158693	2625.498458
384.543618	2629.745630
384.928480	2637.090591
385.313280	2645.728608
385.698017	2650.754639
386.082692	2661.232677
386.467305	2666.276352
386.851856	2674.067455
387.236344	2685.170596
387.620770	2691.847604
388.005133	2703.903524
388.389435	2712.738146
388.773674	2716.052705
389.157851	2727.470918
389.541965	2738.647156
389.926018	2740.714029
390.310008	2755.466966
390.693936	2764.097421
391.077802	2773.352980
391.461606	2782.043929
391.845348	2791.130609
392.229027	2797.795014
392.612645	2811.073413
392.996200	2820.482727
393.379694	2838.439317
393.763125	2853.025896
394.146494	2860.146526
394.529801	2872.333515
394.913047	2888.409755
395.296230	2891.038716
395.679351	2894.920405
396.062410	2915.458066
396.445408	2907.760224
396.828343	2921.023499
397.211217	2928.902823
397.594028	2923.259251
397.976778	2939.131324
398.359466	2949.422840
398.742092	2947.585339
399.124656	2962.804583
399.507158	2974.187508
399.889598	2985.300732
400.271977	3000.759430
400.654294	3006.213958
401.036549	3016.886081
401.418742	3024.407483
401.800874	3042.641336
402.182944	3052.922769
402.564952	3083.078952
402.946898	3073.347004
403.328783	3078.965370
403.710606	3094.976075
404.092367	3120.108747
404.474067	3146.181595
404.855705	3133.238432
405.237282	3135.990902
405.618797	3166.822599
406.000250	3191.052905
406.381642	3219.275805
406.762972	3223.956516
407.144240	3212.291286
407.525447	3235.483115
407.906593	3235.596541
408.287677	3256.174531
408.668700	3276.679424
409.049661	3273.896707
409.430560	3289.451187
409.811399	3293.602577
410.192176	3311.050011
410.572891	3323.126095
410.953545	3360.662526
411.334138	3328.920901
411.714669	3379.115670
412.095139	3324.015858
412.475547	3376.675752
412.855894	3366.757281
413.236180	3397.899009
413.616405	3375.337325
413.996568	3404.959145
414.376670	3406.037952
414.756711	3399.164339
415.136691	3423.838266
415.516609	3445.411884
415.896466	3455.504274
416.276262	3484.803460
416.655997	3510.765403
417.035670	3518.422915
417.415283	3583.602514
417.794834	3604.354424
418.174324	3585.868513
418.553753	3589.377156
418.933121	3629.212353
419.312428	3619.828246
419.691674	3611.825414
420.070859	3654.244203
420.449983	3633.540184
420.829045	3678.741690
421.208047	3667.583096
421.586988	3711.035322
421.965867	3742.519848
422.344686	3745.380703
422.723444	3780.177267
423.102141	3690.540511
423.480777	3790.443577
423.859352	3752.612238
424.237866	3850.382896
424.616319	3833.976461
424.994712	3889.925707
425.373044	3877.756362
425.751314	3934.708797
426.129524	3868.571379
426.507673	3965.507727
426.885762	3937.496555
427.263789	3955.032209
427.641756	3957.514977
428.019662	3977.475426
428.397508	3973.439982
428.775292	4004.556504
429.153016	4006.406608
429.530679	4009.234695
429.908282	4012.342566
430.285824	3985.896673
430.663305	4044.550498
431.040726	3994.864886
431.418086	3977.989623
431.795385	4036.467008
432.172624	4063.064136
432.549802	4017.963453
432.926920	4024.516953
433.303977	4006.610774
433.680974	4033.976678
434.057910	4039.537071
434.434786	4035.458777
434.811601	4017.542517
435.188355	4088.753856
435.565050	4049.619378
435.941683	4035.597409
436.318257	4091.559258
436.694770	4079.016867
437.071222	4106.264304
437.447614	4036.472049
437.823946	4021.996376
438.200218	4016.279707
438.576429	3983.668483
438.952580	3984.409533
439.328670	3968.234991
439.704700	3982.342660
440.080670	3934.416410
440.456580	3957.424236
440.832429	3960.534628
441.208218	3868.200854
441.583947	3886.182650
441.959616	3871.981720
442.335224	3866.436451
442.710773	3856.076879
443.086261	3866.595247
443.461689	3813.980724
443.837057	3794.748722
444.212365	3813.448883
444.587612	3795.663692
444.962800	3747.722319
445.337927	3746.338522
445.712995	3655.902742
446.088002	3730.771439
446.462949	3714.009602
446.837837	3699.685164
447.212664	3663.346006
447.587431	3739.253180
447.962139	3844.267977
448.336786	3971.335300
448.711374	3932.883899
449.085901	3746.802308
449.460369	3681.176567
449.834776	3620.218935
450.209124	3679.487781
450.583412	3654.690345
450.957640	3665.922036
451.331808	3583.844489
451.705917	3493.426354
452.079965	3463.814616
452.453954	3442.102367
452.827883	3403.169536
453.201752	3373.028477
453.575562	3352.843697
453.949311	3358.709079
454.323001	3333.636901
454.696632	3302.081798
455.070202	3311.397850
455.443713	3287.452370
455.817164	3279.741925
456.190556	3268.782456
456.563888	3232.967579
456.937160	3220.309242
457.310373	3162.961075
457.683526	3146.234527
458.056619	3115.294445
458.429653	3085.433170
458.802628	3070.763413
459.175542	3052.978222
459.548398	3050.112326
459.921194	3053.373953
460.293930	3042.303579
460.666607	3052.731205
461.039224	3056.028120
461.411782	3050.195505
461.784280	3013.853827
462.156719	2987.738129
462.529099	2961.788790
462.901419	2918.029054
463.273680	2886.050495
463.645882	2865.747247
464.018024	2848.027592
464.390106	2834.461847
464.762130	2840.342353
465.134094	2855.327182
465.505999	2887.731719
465.877845	2916.211718
466.249631	2916.486461
466.621358	2887.063767
466.993026	2855.380115
467.364634	2821.899291
467.736184	2791.309570
468.107674	2770.928185
468.479105	2756.782707
468.850477	2739.103381
469.221790	2724.897409
469.593043	2708.795964
469.964238	2696.256093
470.335373	2689.362316
470.706449	2686.289732
471.077467	2683.086079
471.448425	2690.486493
471.819324	2696.001515
472.190164	2694.521937
472.560945	2677.167764
472.931667	2665.820127
473.302330	2652.604742
473.672934	2648.597025
474.043479	2643.601242
474.413965	2640.168216
474.784393	2633.657566
475.154761	2632.545991
475.525070	2629.188583
475.895321	2625.823612
476.265513	2625.813530
476.635645	2626.456277
477.005719	2622.660288
477.375734	2624.384363
477.745691	2626.259672
478.115588	2625.833695
478.485427	2623.653396
478.855207	2628.631535
479.224928	2632.372071
479.594591	2631.497431
479.964194	2630.683285
480.333739	2630.763943
480.703226	2628.543315
481.072653	2627.802265
481.442022	2626.572224
481.811333	2629.463326
482.180584	2623.630711
482.549777	2625.216153
482.918912	2623.111472
483.287988	2624.409569
483.657005	2619.227263
484.025964	2617.881275
484.394864	2618.574433
484.763706	2615.335492
485.132489	2618.317334
485.501213	2617.687190
485.869879	2617.810698
486.238487	2614.092848
486.607036	2616.923455
486.975527	2614.027312
487.343959	2615.113681
487.712333	2614.821294
488.080648	2614.917076
488.448905	2615.048146
488.817104	2610.662342
489.185244	2614.274329
489.553326	2614.838938
489.921350	2618.559310
490.289315	2619.870010
490.657222	2623.154322
491.025070	2624.323869
491.392861	2624.139867
491.760593	2617.558641
492.128267	2621.629372
492.495883	2616.310955
492.863440	2613.414812
493.230939	2614.838938
493.598380	2613.959257
493.965763	2608.655963
494.333088	2609.548247
494.700354	2607.105808
495.067563	2606.384923
495.434713	2605.593462
495.801805	2610.904318
496.168839	2609.964142
496.535815	2611.141252
496.902733	2607.930037
497.269593	2608.618154
497.636395	2603.546754
498.003139	2605.346446
498.369825	2606.100098
498.736453	2608.134204
499.103023	2608.325767
499.469535	2607.763679
499.835989	2603.055241
500.202385	2606.803339
500.568723	2603.932402
500.935003	2606.105139
501.301226	2603.443410
501.667390	2604.232351
502.033497	2604.149172
502.399546	2605.815273
502.765537	2602.961980
503.131470	2602.689758
503.497345	2605.099429
503.863163	2604.307968
504.228923	2604.088678
504.594625	2604.338215
504.960269	2601.154726
505.325856	2605.197732
505.691385	2601.938626
506.056856	2602.346959
506.422270	2606.077413
506.787625	2603.024994
507.152924	2602.601537
507.518164	2605.066662
507.883347	2603.496342
508.248472	2602.909048
508.613540	2601.986517
508.978550	2604.325612
509.343503	2603.350149
509.708398	2601.182453
510.073236	2604.537340
510.438016	2602.669593
510.802738	2603.161105
511.167403	2605.553133
511.532010	2602.692278
511.896561	2605.036415
512.261053	2605.164964
512.625488	2601.386619
512.989866	2598.752616
513.354186	2603.791250
513.718449	2600.393512
514.082655	2601.565580
514.446803	2604.938112
514.810894	2604.781836
515.174927	2604.126486
515.538904	2602.755292
515.902822	2602.609099
516.266684	2601.190014
516.630488	2602.783019
516.994235	2604.116404
517.357925	2604.025663
517.721558	2605.331322
518.085133	2604.930550
518.448651	2605.369131
518.812112	2601.399222
519.175516	2604.141610
519.538863	2605.054059
519.902152	2601.416866
520.265385	2603.836620
520.628560	2603.806373
520.991678	2601.641197
521.354739	2603.037597
521.717743	2604.048348
522.080690	2603.423245
522.443580	2605.079264
522.806413	2602.155395
523.169189	2603.246805
523.531908	2604.043307
523.894569	2604.587752
524.257174	2603.138420
524.619722	2602.553646
524.982213	2604.325612
525.344647	2600.143975
525.707025	2605.356528
526.069345	2600.743872
526.431608	2602.835951
526.793815	2601.946187
527.155964	2603.476177
527.518057	2602.508276
527.880093	2600.068357
528.242072	2600.638008
528.603995	2601.958790
528.965860	2603.047679
529.327669	2601.540374
529.689421	2602.813266
530.051117	2603.561877
530.412755	2601.946187
530.774337	2605.114552
531.135862	2601.452154
531.497331	2600.774119
531.858743	2594.881010
532.220098	2597.986361
532.581396	2596.494179
532.942638	2598.079622
533.303824	2599.284458
533.664953	2602.702360
534.026025	2600.411156
534.387040	2601.215220
534.747999	2601.726897
535.108902	2601.452154
535.469748	2601.537854
535.830537	2601.767226
536.191270	2601.104315
536.551947	2600.464088
536.912567	2601.805035
537.273131	2601.260590
537.633638	2599.811259
537.994089	2601.825200
538.354483	2600.879983
538.714821	2601.429469
539.075103	2600.930395
539.435328	2601.782350
539.795497	2601.331167
540.155609	2603.440889
540.515665	2602.203286
540.875665	2601.303440
541.235609	2601.883173
541.595496	2600.643049
541.955328	2602.180601
542.315102	2598.760178
542.674821	2599.221444
543.034483	2601.560539
543.394090	2601.805035
543.753640	2600.842175
544.113134	2600.408635
544.472571	2598.997112
544.831953	2603.551795
545.191278	2603.554315
545.550548	2600.053234
545.909761	2600.685899
546.268918	2601.661362
546.628019	2602.777978
546.987064	2599.478542
547.346053	2600.645570
547.704986	2601.983996
548.063863	2599.697833
548.422684	2599.952411
548.781449	2601.232864
549.140158	2600.665734
549.498811	2601.348811
549.857408	2600.217072
550.215949	2595.949735
550.574434	2597.787235
550.932864	2596.577358
551.291237	2597.212544
551.649555	2600.874942
552.007817	2600.224633
552.366022	2599.113059
552.724173	2600.421238
553.082267	2600.166660
553.440305	2599.392843
553.798288	2599.342431
554.156215	2600.350662
554.514086	2599.997781
554.871902	2600.885024
555.229661	2599.997781
555.587365	2599.599530
555.945014	2600.834613
556.302606	2600.406115
556.660143	2601.789912
557.017625	2601.275714
557.375050	2599.864191
557.732421	2600.335539
558.089735	2601.419387
558.446994	2599.786053
558.804197	2601.437031
559.161345	2601.883173
559.518437	2600.915271
559.875474	2600.607761
560.232455	2600.574993
560.589381	2599.642380
560.946251	2600.078440
561.303065	2601.298399
561.659825	2602.057093
562.016528	2600.905189
562.373177	2601.578183
562.729770	2601.240426
563.086307	2601.769747
563.442789	2601.729418
563.799216	2602.243615
564.155587	2602.611620
564.511904	2602.503235
564.868164	2599.861670
565.224370	2603.350149
565.580520	2600.154057
565.936615	2603.748400
566.292654	2601.701691
566.648638	2601.172370
567.004567	2601.255549
567.360441	2600.927874
567.716260	2599.377719
568.072023	2600.229674
568.427732	2596.902513
568.783385	2600.489294
569.138982	2594.381936
569.494525	2598.563573
569.850013	2596.799169
570.205445	2600.552308
570.560823	2599.758327
570.916145	2600.501897
571.271412	2600.443923
571.626625	2600.983327
571.981782	2599.077771
572.336884	2603.571959
572.691931	2599.907041
573.046923	2602.316712
573.401860	2596.713470
573.756743	2601.684047
574.111570	2599.380240
574.466342	2599.259252
574.821059	2600.869901
575.175722	2600.184304
575.530330	2600.020467
575.884882	2600.431321
576.239380	2599.982658
576.593823	2599.775971
576.948211	2599.879314
577.302544	2599.886876
577.656823	2600.837133
578.011047	2598.119952
578.365216	2598.936618
578.719330	2598.283789
579.073389	2596.650455
579.427394	2595.674992
579.781344	2600.002822
580.135239	2601.177411
580.489080	2600.017946
580.842866	2598.364447
581.196597	2599.292020
581.550273	2599.483584
581.903895	2600.264962
582.257463	2602.888883
582.610975	2598.137596
582.964434	2596.468974
583.317837	2594.213057
583.671186	2598.619026
584.024481	2598.225816
584.377721	2598.999633
584.730906	2599.357555
585.084037	2599.077771
585.437113	2596.897472
585.790135	2597.525095
586.143103	2596.670620
586.496016	2597.386464
586.848874	2594.765064
587.201679	2596.022832
587.554428	2595.584251
587.907124	2596.053078
588.259765	2596.342945
588.612352	2594.223140
588.964884	2595.407811
589.317362	2598.160281
589.669786	2598.286310
590.022155	2596.433686
590.374470	2596.300095
590.726731	2597.066350
591.078937	2597.595672
591.431090	2596.126175
591.783188	2595.289344
592.135232	2595.274220
592.487222	2598.077102
592.839157	2594.636514
593.191038	2596.688264
593.542866	2597.663727
593.894639	2593.610639
594.246358	2596.521906
594.598022	2595.264138
594.949633	2594.578541
595.301190	2593.610639
595.652692	2595.208685
596.004141	2597.451999
596.355535	2599.082812
596.706876	2596.068202
597.058162	2596.050558
597.409395	2594.520568
597.760573	2596.731114
598.111698	2593.683736
598.462768	2596.194231
598.813785	2594.810434
599.164748	2593.499734
599.515657	2593.913109
599.866511	2594.739858
600.217312	2594.611308
600.568060	2595.662389
600.918753	2596.146340
601.269392	2596.244642
601.619978	2595.738006
601.970510	2594.061823
602.320988	2595.720362
602.671412	2595.790938
603.021783	2596.070723
603.372100	2597.439396
603.722363	2595.140630
604.072572	2595.299426
604.422728	2598.046855
604.772830	2590.648962
605.122878	2589.373550
605.472872	2592.758684
605.822813	2590.308684
606.172701	2591.011925
606.522534	2595.483428
606.872314	2592.511668
607.222041	2595.299426
607.571714	2595.029724
607.921333	2593.318252
608.270899	2594.409662
608.620411	2594.313880
608.969870	2594.187852
609.319276	2594.152563
609.668627	2594.815475
610.017926	2592.640217
610.367171	2594.563417
610.716362	2594.326483
611.065500	2594.263469
611.414585	2595.029724
611.763616	2596.436206
612.112594	2592.824219
612.461518	2593.880341
612.810389	2596.181628
613.159207	2595.735486
613.507971	2593.293047
613.856682	2595.690115
614.205340	2592.360433
614.553945	2595.775815
614.902496	2595.329673
615.250994	2594.278592
615.599439	2594.087028
615.947830	2594.482759
616.296169	2592.176431
616.644454	2596.221957
616.992686	2593.456884
617.340864	2596.050558
617.688990	2594.480238
618.037063	2596.479056
618.385082	2592.972933
618.733048	2596.537029
619.080961	2593.464446
619.428821	2593.605598
619.776628	2594.699529
620.124382	2594.011411
620.472083	2595.617019
620.819731	2590.631317
621.167326	2591.967223
621.514868	2593.797162
621.862357	2593.484611
622.209793	2595.894282
622.557176	2596.519385
622.904506	2592.173911
623.251783	2589.308015
623.599007	2591.344641
623.946179	2587.785586
624.293297	2589.118971
624.640363	2590.540577
624.987376	2591.614342
625.334336	2594.114755
625.681243	2591.150556
626.028097	2589.582757
626.374899	2592.554518
626.721647	2591.097624
627.068343	2594.603747
627.414987	2590.807758
627.761577	2593.035948
628.108115	2590.502768
628.454600	2592.080649
628.801032	2592.254569
629.147412	2591.107707
629.493739	2591.848756
629.840014	2593.401432
630.186236	2591.067377
630.532405	2590.482603
630.878521	2590.999322
631.224585	2591.543766
631.570597	2589.547469
631.916556	2590.207861
632.262462	2591.493355
632.608316	2591.150556
632.954117	2592.171390
633.299866	2590.245669
633.645562	2591.299270
633.991206	2592.451174
634.336797	2588.685432
634.682336	2588.733323
635.027823	2587.838518
635.373257	2589.960844
635.718639	2590.036461
636.063968	2591.185844
636.409245	2586.706779
636.754470	2586.318610
637.099642	2587.185689
637.444762	2589.592840
637.789829	2587.795668
638.134845	2588.198961
638.479808	2587.127716
638.824719	2587.954465
639.169577	2587.823395
639.514383	2585.038157
639.859137	2589.726430
640.203839	2587.473035
640.548489	2586.986563
640.893086	2584.768456
641.237632	2584.279464
641.582125	2582.928434
641.926566	2582.363825
642.270955	2586.782397
642.615292	2585.728795
642.959576	2585.925400
643.303809	2586.033785
643.647990	2590.578385
643.992118	2587.838518
644.336195	2589.275247
644.680219	2587.571337
645.024192	2588.715679
645.368112	2586.691656
645.711981	2588.466142
646.055797	2586.666450
646.399562	2587.904053
646.743274	2588.559403
647.086935	2588.982860
647.430544	2587.304156
647.774101	2587.460432
648.117606	2583.336768
648.461059	2588.095617
648.804460	2589.648293
649.147810	2586.490010
649.491108	2587.760380
649.834354	2587.359609
650.177548	2588.347675
650.520690	2587.525967
650.863781	2586.265678
651.206820	2591.803386
651.549807	2587.556214
651.892742	2586.343816
652.235626	2588.483786
652.578458	2586.535380
652.921238	2587.087386
653.263967	2585.131419
653.606644	2587.793148
653.949269	2584.203846
654.291843	2585.418764
654.634365	2585.338106
654.976836	2584.362643
655.319255	2586.863055
655.661622	2584.408013
656.003938	2585.653178
656.346203	2585.184351
656.688416	2585.892633
657.030577	2587.092428
657.372687	2582.835173
657.714746	2584.627303
658.056753	2587.929259
658.398708	2581.867272
658.740612	2582.988928
659.082465	2579.936510
659.424266	2582.469689
659.766016	2579.959195
660.107715	2584.602097
660.449362	2583.871130
660.790958	2586.041347
661.132503	2584.329875
661.473996	2584.907087
661.815438	2585.572520
662.156829	2586.646285
662.498168	2583.014134
662.839456	2587.813312
663.180693	2586.391707
663.521879	2585.033116
663.863013	2581.786613
664.204097	2585.585122
664.545129	2588.781214
664.886110	2586.323652
665.227040	2585.451532
665.567918	2585.890112
665.908746	2584.992787
666.249522	2586.106882
666.590248	2583.503126
666.930922	2587.193251
667.271545	2586.777355
667.612118	2585.887592
667.952639	2583.908939
668.293109	2585.862386
668.633528	2582.784762
668.973896	2581.209401
669.314213	2584.160997
669.654480	2583.755184
669.994695	2584.637386
670.334859	2585.529670
670.674973	2581.728640
671.015035	2585.287694
671.355047	2582.777200
671.695008	2585.718713
672.034918	2586.159814
672.374777	2583.903898
672.714585	2585.892633
673.054342	2588.272057
673.394049	2583.430029
673.733705	2582.285687
674.073310	2584.652509
674.412864	2587.309197
674.752368	2584.649988
675.091820	2585.138980
675.431223	2584.173599
675.770574	2586.326172
676.109875	2578.633371
676.449125	2577.408371
676.788324	2579.162693
677.127473	2580.196129
677.466571	2579.916345
677.805619	2584.400451
678.144616	2582.522622
678.483562	2584.433219
678.822458	2582.210070
679.161303	2584.491192
679.500098	2583.430029
679.838842	2584.440781
680.177535	2585.166707
680.516179	2582.935996
680.854771	2584.932293
681.193314	2584.133270
681.531805	2581.403485
681.870247	2584.844073
682.208638	2585.380956
682.546978	2584.491192
682.885268	2584.211408
683.223508	2587.384814
683.561697	2584.445822
683.899836	2584.397931
684.237925	2586.565627
684.575963	2586.938672
684.913951	2583.871130
685.251889	2583.540935
685.589776	2584.415575
685.927614	2582.396593
686.265401	2583.281315
686.603137	2583.019175
686.940824	2584.534042
687.278460	2586.139649
687.616046	2583.939186
687.953582	2584.423137
688.291068	2584.471028
688.628504	2584.665112
688.965889	2585.098651
689.303224	2585.771645
689.640510	2585.781728
689.977745	2583.341809
690.314930	2584.597056
690.652065	2583.482961
690.989150	2581.877354
691.326185	2583.092272
691.663170	2580.922055
692.000105	2582.368866
692.336990	2582.999011
692.673825	2580.929617
693.010610	2581.990780
693.347345	2576.964749
693.684030	2579.838207
694.020665	2575.081878
694.357251	2577.264698
694.693786	2575.873340
695.030272	2579.989442
695.366707	2580.632189
695.703093	2580.506160
696.039429	2579.845769
696.375716	2579.689493
696.711952	2580.012127
697.048139	2580.922055
697.384276	2579.203022
697.720363	2579.674370
698.056400	2580.410378
698.392388	2579.414750
698.728326	2580.478434
699.064214	2580.914493
699.400053	2580.690162
699.735842	2578.703947
700.071581	2580.488516
700.407270	2578.474575
700.742910	2577.753690
701.078501	2579.571026
701.414042	2580.211252
701.749533	2579.853331
702.084974	2578.270408
702.420366	2578.875347
702.755709	2578.716550
703.091002	2576.669842
703.426246	2578.240161
703.761440	2581.242168
704.096584	2577.002558
704.431679	2576.868967
704.766725	2578.204873
705.101721	2576.382496
705.436668	2580.543969
705.771565	2577.426015
706.106413	2576.626992
706.441212	2580.223855
706.775961	2577.405850
707.110661	2577.405850
707.445311	2580.080182
707.779913	2578.124215
708.114465	2580.609504
708.448967	2577.058011
708.783421	2580.049936
709.117825	2581.244689
709.452180	2580.143197
709.786485	2578.504822
710.120742	2581.164031
710.454949	2579.485326
710.789107	2576.372414
711.123216	2576.619430
711.457275	2577.083217
711.791286	2576.931982
712.125247	2577.292424
712.459159	2578.146900
712.793023	2583.823239
713.126837	2581.068249
713.460602	2580.473392
713.794318	2580.826273
714.127985	2579.366859
714.461602	2576.531210
714.795171	2579.525656
715.128691	2580.276788
715.462162	2578.179668
715.795584	2579.651684
716.128957	2578.827456
716.462281	2578.892991
716.795556	2580.612024
717.128782	2576.057342
717.461960	2579.155131
717.795088	2574.756724
718.128167	2576.594225
718.461198	2576.707651
718.794180	2576.944585
719.127113	2576.332085
719.459997	2579.293762
719.792833	2577.264698
720.125619	2577.415933
720.458357	2575.908628
720.791046	2576.717733
721.123686	2573.924934
721.456278	2578.129256
721.788821	2578.363670
722.121315	2576.412743
722.453761	2575.966601
722.786158	2573.206569
723.118506	2574.451734
723.450805	2576.102712
723.783056	2578.023392
724.115259	2575.326374
724.447412	2574.550037
724.779518	2574.910479
725.111574	2575.790161
725.443582	2575.366704
725.775542	2576.410223
726.107453	2577.693196
726.439315	2576.483319
726.771129	2579.578588
727.102895	2575.472568
727.434612	2577.657908
727.766281	2578.189750
728.097901	2574.393761
728.429473	2573.698082
728.760996	2576.601786
729.092471	2573.859399
729.423897	2578.653536
729.755276	2576.185891
730.086606	2577.496591
730.417887	2580.657395
730.749120	2576.059862
731.080305	2576.823597
731.411442	2579.036664
731.742530	2578.162023
732.073570	2577.635223
732.404562	2577.052970
732.735506	2578.822415
733.066401	2579.097157
733.397249	2579.102199
733.728048	2575.835531
734.058798	2576.097671
734.389501	2577.821746
734.720156	2579.215625
735.050762	2578.124215
735.381320	2575.651529
735.711831	2579.026581
736.042293	2575.873340
736.372707	2576.216138
736.703073	2577.965418
737.033391	2575.341498
737.363661	2575.482650
737.693883	2575.835531
738.024056	2580.077662
738.354182	2577.499112
738.684260	2577.393247
739.014290	2576.947105
739.344272	2576.100192
739.674207	2575.633885
740.004093	2578.015830
740.333931	2577.799060
740.663722	2575.764955
740.993464	2579.228227
741.323159	2577.335274
741.652806	2576.931982
741.982405	2576.974832
742.311956	2575.535582
742.641460	2575.497774
742.970915	2576.904256
743.300323	2577.060531
743.629683	2574.194635
743.958996	2575.694379
744.288260	2576.006930
744.617477	2576.879050
744.946647	2572.619275
745.275768	2571.409398
745.604842	2572.717577
745.933869	2571.961404
746.262847	2569.264387
746.591778	2575.986766
746.920662	2576.261508
747.249498	2575.081878
747.578286	2574.597928
747.907027	2577.531879
748.235720	2572.901579
748.564365	2576.634554
748.892963	2574.923082
749.221514	2577.214287
749.550017	2573.992989
749.878473	2576.808474
750.206881	2575.288566
750.535242	2576.536251
750.863555	2575.008782
751.191821	2573.539285
751.520039	2576.629513
751.848210	2576.032136
752.176334	2573.317475
752.504411	2577.214287
752.832440	2574.676066
753.160421	2573.894687
753.488356	2574.227403
753.816243	2575.593556
754.144082	2574.597928
754.471875	2573.393092
754.799620	2574.464337
755.127318	2573.065417
755.454969	2575.154975
755.782572	2575.848134
756.110129	2576.551375
756.437638	2574.222362
756.765100	2574.275294
757.092515	2574.043401
757.419882	2572.213462
757.747203	2575.679255
758.074477	2573.519121
758.401703	2574.839903
758.728882	2574.439131
759.056014	2573.211610
759.383099	2572.994841
759.710138	2575.863257
760.037129	2577.078175
760.364073	2575.018864
760.690970	2575.669173
761.017820	2575.580953
761.344623	2574.570201
761.671379	2578.028433
761.998088	2571.210272
762.324751	2575.923751
762.651366	2576.349729
762.977935	2578.330902
763.304456	2576.672362
763.630931	2583.319124
763.957359	2583.051943
764.283740	2583.835842
764.610074	2579.485326
764.936362	2580.669998
765.262602	2576.059862
765.588796	2577.133628
765.914943	2579.492888
766.241044	2575.061714
766.567097	2574.673545
766.893104	2574.045921
767.219064	2571.921075
767.544978	2572.478122
767.870845	2573.899728
768.196665	2573.932495
768.522438	2572.873853
768.848165	2571.472412
769.173846	2574.048442
769.499479	2572.427711
769.825066	2572.490725
770.150607	2572.886456
770.476101	2570.849830
770.801548	2573.415777
771.126949	2571.278328
771.452303	2571.900910
771.777611	2573.254460
772.102872	2574.303020
772.428087	2572.684810
772.753256	2571.515262
773.078378	2570.401167
773.403453	2568.145251
773.728482	2570.736404
774.053465	2570.486867
774.378401	2571.931157
774.703291	2570.804459
775.028135	2570.282700
775.352932	2570.600293
775.677683	2570.522155
776.002388	2572.886456
776.327046	2571.709347
776.651658	2572.034501
776.976224	2573.897207
777.300743	2572.195818
777.625216	2571.537947
777.949643	2570.622978
778.274024	2573.917372
778.598359	2568.677092
778.922647	2569.798749
779.246889	2570.958215
779.571086	2565.228943
779.895236	2568.795560
780.219339	2570.680951
780.543397	2571.253122
780.867409	2570.693554
781.191374	2570.287741
781.515294	2570.958215
781.839167	2571.394274
782.162995	2571.666497
782.486776	2570.696075
782.810511	2569.924778
783.134201	2570.859912
783.457844	2567.076526
783.781441	2570.433935
784.104993	2570.108780
784.428498	2572.770509
784.751958	2569.655076
785.075372	2569.035014
785.398739	2568.843451
785.722061	2569.670200
786.045337	2568.903944
786.368568	2571.210272
786.691752	2570.247412
787.014891	2572.092474
787.337983	2568.966959
787.661030	2570.418811
787.984031	2573.647670
788.306987	2571.976528
788.629897	2570.446537
788.952760	2571.023750
789.275579	2573.148596
789.598351	2573.509038
789.921078	2572.684810
790.243759	2571.764799
790.566395	2570.121383
790.888984	2573.151117
791.211529	2570.060889
791.534027	2573.244378
791.856480	2573.466189
792.178888	2569.965107
792.501249	2569.319840
792.823566	2570.716239
793.145836	2570.534758
793.468062	2572.805798
793.790241	2571.868143
794.112375	2571.752196
794.434464	2568.402350
794.756507	2571.154820
795.078505	2572.720098
795.400457	2568.508214
795.722364	2569.443348
796.044226	2568.016701
796.366042	2566.872359
796.687812	2570.381002
797.009538	2569.982751
797.331218	2570.285221
797.652852	2571.971487
797.974442	2571.293451
798.295986	2570.121383
798.617484	2571.389233
798.938938	2567.442010
799.260346	2568.936712
799.581709	2570.204562
799.903026	2574.560119
800.224299	2570.277659
800.545526	2571.681620
800.866708	2569.357648
801.187845	2567.951166
801.508936	2568.934191
801.829983	2569.392936
802.150984	2568.790518
802.471940	2569.037535
802.792851	2571.918554
803.113717	2572.334450
803.434538	2570.406208
803.755314	2568.815724
804.076045	2571.270766
804.396731	2567.550395
804.717372	2569.725652
805.037967	2571.830334
805.358518	2568.964438
805.679024	2572.578946
805.999485	2569.728173
806.319901	2569.077864
806.640272	2568.195662
806.960598	2569.692885
807.280879	2573.665314
807.601115	2568.614078
807.921306	2568.014181
808.241453	2568.903944
808.561554	2568.533420
808.881611	2569.350087
809.201623	2567.618450
809.521590	2570.209603
809.841513	2567.983934
810.161390	2568.483008
810.481223	2567.189952
810.801011	2569.483677
811.120755	2569.949984
811.440453	2571.636250
811.760107	2569.150961
812.079716	2566.017884
812.399281	2564.175342
812.718801	2566.411094
813.038276	2564.208110
813.357707	2566.630384
813.677093	2571.777402
813.996434	2570.433935
814.315731	2571.749676
814.634983	2568.039387
814.954191	2568.039387
815.273354	2568.767833
815.592473	2569.632391
815.911547	2570.751527
816.230577	2569.798749
816.549562	2570.068451
816.868502	2572.334450
817.187399	2571.258163
817.506250	2570.822103
817.825058	2569.130796
818.143821	2569.944943
818.462539	2570.307906
818.781213	2570.418811
819.099843	2571.754717
819.418429	2570.539799
819.736970	2572.140365
820.055466	2572.364697
820.373919	2576.281673
820.692327	2576.758062
821.010691	2577.234451
821.329011	2585.045719
821.647286	2595.102821
821.965517	2607.869543
822.283704	2616.890688
822.601847	2623.285392
822.919945	2619.403703
823.237999	2614.516304
823.556010	2609.676797
823.873976	2603.801332
824.191897	2599.160950
824.509775	2596.095928
824.827609	2594.271031
825.145398	2586.058991
825.463144	2584.120667
825.780845	2583.538414
826.098502	2586.122005
826.416116	2585.567478
826.733685	2589.406317
827.051210	2591.253900
827.368692	2591.934456
827.686129	2587.301635
828.003522	2582.603280
828.320872	2577.287383
828.638177	2577.123546
828.955439	2577.249575
829.272656	2575.177660
829.589830	2573.007444
829.906960	2573.045252
830.224046	2573.776220
830.541088	2573.289748
830.858086	2570.186918
831.175041	2571.573235
831.491952	2568.256156
831.808819	2570.880077
832.125642	2570.675910
832.442421	2573.476271
832.759157	2571.820252
833.075849	2574.635736
833.392497	2576.195973
833.709101	2580.622107
834.025662	2580.662436
834.342179	2577.703278
834.658653	2577.201684
834.975083	2578.328382
835.291469	2579.681931
835.607811	2572.495767
835.924110	2572.258832
836.240366	2570.164233
836.556578	2572.165571
836.872746	2571.210272
837.188871	2568.921588
837.504952	2568.079716
837.820990	2570.312947
838.136984	2567.686506
838.452935	2569.397977
838.768842	2567.487380
839.084706	2566.627863
839.400526	2572.508369
839.716303	2572.392423
840.032037	2570.925447
840.347727	2570.733883
840.663373	2571.694223
840.978977	2570.633060
841.294537	2572.727660
841.610054	2570.940571
841.925527	2571.452248
842.240957	2569.997875
842.556344	2569.952504
842.871687	2564.813048
843.186987	2568.281362
843.502244	2566.307750
843.817458	2562.060578
844.132629	2566.524520
844.447756	2567.794891
844.762840	2563.235167
845.077881	2563.265414
845.392879	2564.669375
845.707833	2562.768860
846.022745	2564.006463
846.337613	2565.518810
846.652438	2565.357493
846.967221	2564.881104
847.281960	2566.290106
847.596656	2567.159705
847.911309	2565.886814
848.225919	2566.080898
848.540485	2564.608881
848.855009	2568.273800
849.169490	2568.228430
849.483928	2566.794222
849.798323	2566.683316
850.112675	2567.169787
850.426984	2566.017884
850.741251	2566.355641
851.055474	2565.541495
851.369654	2565.659962
851.683792	2566.118707
851.997887	2564.271124
852.311938	2566.572411
852.625947	2565.052503
852.939914	2568.397308
853.253837	2568.253636
853.567718	2567.522668
853.881555	2565.470919
854.195350	2566.340518
854.509103	2567.431927
854.822812	2562.839436
855.136479	2564.029149
855.450103	2567.227761
855.763685	2566.025446
856.077224	2564.187945
856.390720	2564.835733
856.704173	2566.600137
857.017584	2566.058213
857.330953	2567.293296
857.644278	2565.952349
857.957561	2567.187432
858.270802	2568.609037
858.584000	2566.703481
858.897155	2565.644838
859.210268	2564.329097
859.523339	2564.871021
859.836367	2564.220712
860.149352	2566.474108
860.462295	2565.115517
860.775195	2561.145609
861.088054	2559.547563
861.400869	2562.539488
861.713642	2562.196689
862.026373	2564.563511
862.339062	2563.151988
862.651708	2566.093501
862.964312	2566.872359
863.276873	2565.743141
863.589392	2565.276834
863.901869	2565.685168
864.214303	2565.264231
864.526696	2565.657441
864.839045	2565.165929
865.151353	2566.033007
865.463619	2566.184242
865.775842	2563.774570
866.088023	2567.752041
866.400162	2566.191804
866.712258	2565.481001
867.024313	2565.445713
867.336325	2567.336146
867.648296	2566.476629
867.960224	2567.197514
868.272110	2565.614592
868.583954	2569.902093
868.895755	2566.174160
869.207515	2565.748182
869.519233	2569.783626
869.830909	2566.033007
870.142542	2568.775395
870.454134	2568.009140
870.765684	2566.055692
871.077191	2569.002247
871.388657	2570.249932
871.700081	2567.464695
872.011463	2563.862791
872.322803	2566.272462
872.634101	2565.866649
872.945357	2565.448233
873.256571	2565.803635
873.567744	2566.373285
873.878874	2567.547874
874.189963	2565.604509
874.501010	2567.699109
874.812015	2567.593244
875.122979	2568.883780
875.433900	2568.248594
875.744780	2565.624674
876.055618	2568.873698
876.366415	2565.803635
876.677169	2565.266752
876.987882	2564.981927
877.298554	2564.656772
877.609183	2563.948490
877.919771	2564.137533
878.230317	2563.877914
878.540822	2571.641291
878.851285	2569.231619
879.161707	2569.798749
879.472087	2567.787329
879.782425	2567.815055
880.092722	2574.431570
880.402977	2573.582135
880.713191	2581.330389
881.023363	2586.119485
881.333494	2591.142995
881.643583	2594.092070
881.953631	2596.413521
882.263637	2592.781370
882.573602	2593.177100
882.883526	2588.173755
883.193408	2588.163673
883.503248	2586.288363
883.813048	2585.874989
884.122806	2582.872982
884.432522	2581.678228
884.742197	2578.093968
885.051831	2575.921231
885.361424	2574.345870
885.670975	2575.190263
885.980485	2570.698595
886.289954	2571.177505
886.599382	2572.208421
886.908768	2570.822103
887.218113	2572.831003
887.527417	2570.297823
887.836680	2568.404870
888.145901	2568.107442
888.455082	2567.452092
888.764221	2568.573749
889.073319	2566.214489
889.382376	2568.339335
889.691392	2566.549726
890.000366	2564.485373
890.309300	2566.579972
890.618193	2568.099880
890.927044	2566.806824
891.235855	2566.796742
891.544625	2568.208265
891.853353	2566.930333
892.162041	2565.460836
892.470687	2565.236505
892.779293	2568.064592
893.087858	2564.780281
893.396381	2568.263718
893.704864	2563.767009
894.013306	2566.426217
894.321707	2574.154306
894.630068	2573.027608
894.938387	2575.202866
895.246665	2573.027608
895.554903	2574.197156
895.863100	2573.259501
896.171256	2572.561302
896.479371	2573.128431
896.787446	2569.697926
897.095480	2571.043914
897.403473	2568.682134
897.711425	2572.785633
898.019336	2569.183728
898.327207	2568.147771
898.635038	2568.198183
898.942827	2566.713563
899.250576	2568.556105
899.558284	2567.898234
899.865952	2567.701629
900.173579	2565.753223
900.481165	2563.666186
900.788711	2565.425548
901.096216	2565.511248
901.403681	2565.710373
901.711105	2567.933522
902.018489	2568.354459
902.325832	2569.002247
902.633135	2567.779767
902.940397	2566.685837
903.247619	2568.190621
903.554800	2567.043759
903.861941	2573.347722
904.169041	2573.942578
904.476101	2575.134811
904.783121	2575.797722
905.090100	2575.691858
905.397039	2575.585994
905.703938	2574.814697
906.010796	2573.347722
906.317614	2573.244378
906.624391	2571.714388
906.931129	2569.879408
907.237826	2570.703636
907.544483	2572.089954
907.851099	2565.145764
908.157675	2568.167936
908.464211	2567.391598
908.770707	2563.688871
909.077163	2562.126113
909.383578	2560.777604
909.689954	2561.107800
909.996289	2558.118396
910.302584	2563.804817
910.608839	2565.551577
910.915054	2567.308419
911.221229	2561.803479
911.527363	2562.942780
911.833458	2565.352452
912.139513	2563.983778
912.445527	2563.774570
912.751502	2566.668193
913.057436	2566.181721
913.363331	2564.923953
913.669186	2563.104097
913.975000	2564.893707
914.280775	2565.370096
914.586510	2566.128789
914.892205	2567.273131
915.197859	2569.657597
915.503475	2570.852350
915.809050	2574.091292
916.114585	2573.327557
916.420081	2575.777558
916.725536	2575.459965
917.030952	2574.918041
917.336328	2573.451065
917.641665	2574.103895
917.946961	2572.677248
918.252218	2570.970818
918.557435	2570.635581
918.862612	2572.740262
919.167750	2573.977866
919.472848	2568.296485
919.777906	2569.662638
920.082925	2566.718604
920.387904	2567.847823
920.692843	2567.704150
920.997743	2565.975034
921.302603	2567.575600
921.607423	2566.779098
921.912204	2564.462688
922.216946	2568.397308
922.521647	2566.106104
922.826310	2562.554611
923.130932	2567.605847
923.435516	2566.675754
923.740059	2565.733059
924.044564	2563.681309
924.349028	2565.039900
924.653454	2561.619477
924.957840	2561.012018
925.262186	2562.967986
925.566493	2562.355486
925.870761	2559.613098
926.174989	2564.399673
926.479178	2564.523182
926.783328	2563.688871
927.087438	2562.957903
927.391509	2564.417317
927.695541	2563.812379
927.999533	2562.715928
928.303486	2561.861452
928.607400	2564.369427
928.911275	2561.768191
929.215110	2566.368244
929.518906	2563.116700
929.822663	2562.892368
930.126381	2561.052347
930.430060	2564.200548
930.733699	2560.691905
931.037299	2562.421021
931.340861	2562.887327
931.644383	2563.570404
931.947866	2565.186093
932.251309	2565.428069
932.554714	2563.978737
932.858080	2565.730538
933.161407	2562.509241
933.464694	2564.447564
933.767943	2564.334138
934.071153	2561.173335
934.374323	2563.555280
934.677455	2563.764488
934.980548	2562.373130
935.283602	2561.614436
935.586617	2563.809858
935.889593	2563.265414
936.192530	2563.444375
936.495428	2561.763150
936.798287	2563.459498
937.101108	2560.477656
937.403890	2563.751885
937.706632	2563.388922
938.009336	2562.491597
938.312002	2563.845147
938.614628	2564.896227
938.917216	2561.853891
939.219765	2562.831875
939.522275	2562.181566
939.824747	2564.026628
940.127179	2561.047306
940.429573	2560.442368
940.731929	2560.281051
941.034246	2558.990515
941.336524	2561.717780
941.638763	2562.625187
941.940964	2562.897410
942.243126	2563.875393
942.545250	2564.278686
942.847335	2564.550908
943.149381	2563.467060
943.451389	2564.215671
943.753359	2563.948490
944.055290	2563.893038
944.357182	2561.380022
944.659036	2561.967317
944.960851	2562.904971
945.262628	2564.429920
945.564367	2563.424210
945.866067	2563.517472
946.167729	2564.477811
946.469352	2562.000084
946.770937	2562.302553
947.072484	2563.517472
947.373992	2561.339693
947.675462	2561.490928
947.976893	2562.463870
948.278286	2562.776422
948.579641	2560.684343
948.880958	2562.121072
949.182236	2564.671896
949.483476	2561.939590
949.784678	2563.562842
950.085841	2564.225754
950.386967	2563.590568
950.688054	2561.649724
950.989103	2558.201575
951.290114	2562.478994
951.591087	2564.566032
951.892021	2563.018397
952.192917	2563.482183
952.493776	2563.167111
952.794596	2563.983778
953.095378	2560.903633
953.396122	2563.577965
953.696828	2564.760116
953.997496	2561.364899
954.298126	2561.687533
954.598718	2561.490928
954.899272	2561.596792
955.199788	2565.160888
955.500266	2562.116031
955.800706	2558.859445
956.101108	2557.765515
956.401472	2560.649055
956.701798	2557.929352
957.002087	2558.423386
957.302337	2560.460012
957.602550	2563.361196
957.902724	2562.990671
958.202861	2564.215671
958.502960	2561.952193
958.803022	2563.593089
959.103045	2560.016390
959.403031	2563.767009
959.702979	2562.834395
960.002889	2563.424210
960.302762	2563.623336
960.602596	2559.754250
960.902393	2560.805331
961.202153	2560.570917
961.501875	2560.381874
961.801559	2562.952862
962.101205	2559.877758
962.400814	2560.028993
962.700385	2560.477656
962.999918	2563.088973
963.299414	2559.446740
963.598873	2558.962789
963.898293	2561.911864
964.197677	2562.834395
964.497022	2559.620660
964.796331	2562.105948
965.095601	2561.397666
965.394835	2562.098387
965.694030	2564.051834
965.993189	2562.468912
966.292309	2563.071329
966.591393	2559.540001
966.890439	2564.341700
967.189447	2559.918088
967.488419	2559.729044
967.787353	2563.530074
968.086249	2561.473284
968.385108	2560.795248
968.683930	2560.717111
968.982714	2560.613767
969.281462	2560.013870
969.580172	2559.212326
969.878844	2560.802810
970.177480	2557.944476
970.476078	2558.372974
970.774639	2560.185269
971.073162	2561.382543
971.371649	2558.821637
971.670098	2559.842470
971.968510	2557.379867
972.266885	2560.386915
972.565223	2560.787687
972.863524	2559.963458
973.161788	2564.011505
973.460014	2560.913716
973.758204	2559.643345
974.056356	2561.251473
974.354471	2561.405228
974.652550	2562.436144
974.950591	2561.619477
975.248595	2561.243911
975.546563	2560.601164
975.844493	2558.960268
976.142386	2561.518654
976.440243	2559.839950
976.738062	2559.603016
977.035845	2560.202913
977.333590	2561.251473
977.631299	2562.514282
977.928971	2559.978582
978.226606	2559.902964
978.524204	2561.495969
978.821765	2560.500341
979.119290	2561.286761
979.416777	2561.271637
979.714228	2560.896072
980.011642	2561.032183
980.309020	2561.634601
980.606360	2562.552091
980.903664	2562.854560
981.200931	2560.079405
981.498162	2559.882800
981.795356	2559.227450
982.092513	2563.527554
982.389633	2563.066288
982.686717	2561.962276
982.983764	2561.248952
983.280775	2561.997564
983.577749	2563.315825
983.874686	2565.352452
984.171587	2561.629559
984.468451	2562.657955
984.765279	2561.841288
985.062070	2561.470763
985.358824	2563.454457
985.655543	2560.354147
985.952224	2558.751061
986.248869	2559.527398
986.545478	2557.223591
986.842050	2556.308622
987.138586	2556.059084
987.435086	2557.364743
987.731549	2555.403734
988.027975	2559.910526
988.324366	2562.910012
988.620719	2561.027142
988.917037	2558.766184
989.213318	2560.339024
989.509563	2558.264589
989.805772	2558.642676
990.101944	2558.751061
990.398080	2558.446071
990.694180	2559.091338
990.990244	2562.234498
991.286271	2561.322049
991.582262	2562.632749
991.878217	2561.732903
992.174136	2557.614280
992.470019	2560.611246
992.765865	2560.633932
993.061676	2560.911195
993.357450	2558.342727
993.653188	2560.109652
993.948890	2559.882800
994.244556	2559.925649
994.540186	2562.700805
994.835780	2559.953376
995.131337	2562.017728
995.426859	2561.758109
995.722345	2559.565207
996.017795	2562.010167
996.313208	2562.542008
996.608586	2561.863973
996.903928	2560.326421
997.199234	2560.149981
997.494504	2561.717780
997.789738	2561.206102
998.084936	2561.538819
998.380099	2559.603016
998.675225	2558.246945
998.970316	2559.227450
999.265371	2561.067471
999.560390	2561.904302
999.855373	2561.833726
1000.150320	2561.657286
1000.445232	2558.919939
1000.740108	2561.203582
1001.034948	2562.806669
1001.329752	2560.376833
1001.624521	2560.346586
1001.919254	2557.941955
1002.213951	2557.079918
1002.508613	2556.422047
1002.803239	2561.069991
1003.097829	2554.740823
1003.392384	2561.697615
1003.686903	2560.575958
1003.981386	2556.928683
1004.275834	2559.648386
1004.570246	2558.861966
1004.864623	2561.357337
1005.158964	2560.800290
1005.453270	2559.265258
1005.747540	2560.555794
1006.041775	2559.189641
1006.335974	2558.022614
1006.630138	2559.630742
1006.924266	2559.212326
1007.218359	2558.577141
1007.512416	2560.966648
1007.806438	2559.292985
1008.100425	2561.395146
1008.394376	2557.548745
1008.688292	2559.534960
1008.982172	2560.323901
1009.276017	2560.011349
1009.569827	2558.148643
1009.863602	2560.807851
1010.157341	2558.899775
1010.451045	2561.874055
1010.744714	2559.058571
1011.038347	2557.710062
1011.331945	2562.657955
1011.625508	2559.502193
1011.919036	2558.325083
1012.212528	2560.533108
1012.505986	2558.241904
1012.799408	2560.752399
1013.092795	2558.942624
1013.386147	2560.434806
1013.679464	2559.277861
1013.972745	2559.902964
1014.265992	2559.111503
1014.559204	2561.410269
1014.852380	2560.628890
1015.145521	2561.697615
1015.438628	2557.934394
1015.731699	2562.174004
1016.024736	2559.958417
1016.317737	2561.889179
1016.610703	2560.913716
1016.903635	2557.992367
1017.196531	2556.031358
1017.489393	2557.034548
1017.782219	2554.889537
1018.075011	2558.415824
1018.367768	2559.318190
1018.660490	2560.646534
1018.953177	2560.646534
1019.245829	2560.646534
