Dividing Wavelength (nm)	Counts (n)	Blue Motor Position (mm): 0.000000	Red Motor Position (mm): 11.000000	
326.493990	2085.883268
326.888308	2085.883268
327.282561	2085.883268
327.676750	2061.237067
328.070874	2062.477191
328.464933	2069.504559
328.858929	2078.417319
329.252859	2092.535071
329.646726	2104.389344
330.040528	2121.148660
330.434265	2142.568523
330.827938	2159.675678
331.221547	2180.026816
331.615091	2202.636391
332.008571	2222.538867
332.401986	2242.910169
332.795338	2260.657551
333.188625	2283.035233
333.581847	2299.655918
333.975006	2318.202323
334.368100	2336.612616
334.761129	2351.355471
335.154095	2369.675024
335.546996	2385.363095
335.939833	2400.461350
336.332606	2416.245203
336.725315	2424.459763
337.117960	2431.582914
337.510540	2441.138421
337.903056	2450.341047
338.295508	2456.771039
338.687896	2465.867801
339.080220	2468.779067
339.472480	2476.209728
339.864676	2482.382621
340.256807	2482.886736
340.648875	2484.033599
341.040879	2486.004690
341.432818	2486.813795
341.824694	2489.389825
342.216506	2484.822539
342.608253	2487.950575
342.999937	2489.210864
343.391557	2483.411016
343.783113	2483.824391
344.174605	2480.240131
344.566033	2480.378762
344.957397	2479.637713
345.348697	2478.773155
345.739934	2475.657722
346.131106	2474.611682
346.522215	2472.398616
346.913260	2469.653707
347.304241	2471.639922
347.695159	2469.290744
348.086012	2466.147585
348.476802	2464.468881
348.867528	2465.731690
349.258191	2463.627008
349.648789	2463.417800
350.039324	2458.994188
350.429796	2463.190948
350.820203	2459.883951
351.210548	2458.013683
351.600828	2458.719445
351.991045	2460.446040
352.381198	2460.317491
352.771288	2455.109979
353.161314	2458.648869
353.551276	2458.774898
353.941175	2457.658282
354.331010	2459.031996
354.720782	2459.987295
355.110490	2457.817078
355.500135	2460.355299
355.889717	2462.147429
356.279235	2459.853704
356.668689	2462.127265
357.058080	2462.207923
357.447408	2461.650876
357.836672	2459.931842
358.225873	2461.739096
358.615010	2457.524691
359.004084	2464.249591
359.393095	2464.962914
359.782043	2466.568521
360.170927	2466.797894
360.559748	2468.786629
360.948505	2467.735548
361.337199	2470.094808
361.725830	2469.028604
362.114398	2471.148410
362.502903	2472.028091
362.891344	2470.971969
363.279722	2471.574387
363.668037	2470.409881
364.056289	2467.838892
364.444478	2473.590849
364.832603	2473.815180
365.220665	2476.333236
365.608665	2473.916003
365.996601	2474.457927
366.384474	2477.785089
366.772284	2473.608493
367.160031	2476.615541
367.547715	2478.243834
367.935336	2476.837352
368.322893	2478.856334
368.710388	2481.087044
369.097820	2482.715337
369.485189	2480.925728
369.872495	2480.998824
370.259738	2483.806747
370.646918	2481.956643
371.034035	2484.807416
371.421090	2487.635503
371.808081	2491.285299
372.195010	2495.204796
372.581875	2501.755775
372.968678	2504.873729
373.355418	2505.823986
373.742096	2518.333610
374.128710	2527.430372
374.515262	2539.201466
374.901751	2550.269319
375.288177	2565.317163
375.674540	2583.475400
376.060841	2600.408635
376.447079	2621.684825
376.833254	2643.578556
377.219367	2667.829027
377.605417	2699.164839
377.991404	2723.581668
378.377329	2758.864704
378.763191	2789.731689
379.148991	2832.163081
379.534727	2876.464741
379.920402	2920.554672
380.306013	2966.262814
380.691563	3024.861186
381.077049	3078.945205
381.462474	3131.980664
381.847835	3196.164635
382.233134	3264.331118
382.618371	3321.820436
383.003545	3402.405801
383.388657	3475.991523
383.773706	3566.185328
384.158693	3628.846870
384.543618	3720.628637
384.928480	3789.790747
385.313280	3891.914442
385.698017	3984.769975
386.082692	4100.814816
386.467305	4161.049043
386.851856	4276.625057
387.236344	4423.736008
387.620770	4483.672807
388.005133	4590.308334
388.389435	4730.099530
388.773674	4803.922187
389.157851	4927.823667
389.541965	5051.097522
389.926018	5071.420934
390.310008	5232.470676
390.693936	5344.154919
391.077802	5440.967758
391.461606	5556.982352
391.845348	5655.824255
392.229027	5751.306230
392.612645	5943.205313
392.996200	6039.322472
393.379694	6176.966137
393.763125	6358.351893
394.146494	6415.226191
394.529801	6512.177662
394.913047	6692.910589
395.296230	6654.733931
395.679351	6663.145096
396.062410	6846.774166
396.445408	6709.848866
396.828343	6799.914121
397.211217	6854.093922
397.594028	6710.239555
397.976778	6816.867521
398.359466	6891.090950
398.742092	6809.520039
399.124656	6855.686926
399.507158	6928.461023
399.889598	6877.053857
400.271977	6955.864735
400.654294	6901.329533
401.036549	6960.190045
401.418742	6892.308388
401.800874	7014.679877
402.182944	6982.242573
402.564952	7121.285158
402.946898	6908.694659
403.328783	6842.103537
403.710606	6849.922367
404.092367	6902.957826
404.474067	6999.805953
404.855705	6775.048629
405.237282	6626.841227
405.618797	6740.678042
406.000250	6748.630463
406.381642	6809.262940
406.762972	6653.405587
407.144240	6441.571261
407.525447	6430.599190
407.906593	6276.377691
408.287677	6264.674652
408.668700	6195.522624
409.049661	6062.778961
409.430560	5994.917469
409.811399	5857.419998
410.192176	5791.695954
410.572891	5690.285583
410.953545	5716.136620
411.334138	5427.281025
411.714669	5475.192151
412.095139	5159.996527
412.475547	5172.612015
412.855894	5020.767420
413.236180	4982.421883
413.616405	4793.923059
413.996568	4743.118310
414.376670	4625.513232
414.756711	4500.139736
415.136691	4446.050676
415.516609	4379.540213
415.896466	4292.363539
416.276262	4236.071495
416.655997	4211.800859
417.035670	4119.860296
417.415283	4113.369810
417.794834	4026.470400
418.174324	3906.806011
418.553753	3806.620640
418.933121	3774.533695
419.312428	3674.749096
419.691674	3587.184254
420.070859	3550.290569
420.449983	3452.242648
420.829045	3427.011673
421.208047	3346.217100
421.586988	3314.236020
421.965867	3270.511572
422.344686	3213.733056
422.723444	3187.203984
423.102141	3075.769278
423.480777	3079.109043
423.859352	3016.833149
424.237866	3013.803415
424.616319	2966.451857
424.994712	2948.878395
425.373044	2906.966242
425.751314	2891.600805
426.129524	2838.348576
426.507673	2836.339677
426.885762	2805.190387
427.263789	2787.284208
427.641756	2765.614809
428.019662	2750.942530
428.397508	2730.367061
428.775292	2720.826677
429.153016	2702.129038
429.530679	2694.196782
429.908282	2681.198167
430.285824	2667.423214
430.663305	2664.423727
431.040726	2651.929228
431.418086	2646.406644
431.795385	2644.594349
432.172624	2637.657721
432.549802	2629.526340
432.926920	2625.682460
433.303977	2623.481997
433.680974	2622.367902
434.057910	2617.760287
434.434786	2612.439349
434.811601	2611.373145
435.188355	2612.683845
435.565050	2606.495829
435.941683	2606.858792
436.318257	2604.401229
436.694770	2602.745210
437.071222	2602.780498
437.447614	2596.305136
437.823946	2593.754312
438.200218	2595.372523
438.576429	2593.666092
438.952580	2592.136102
439.328670	2591.999991
439.704700	2594.933942
440.080670	2589.411358
440.456580	2593.900506
440.832429	2591.871441
441.208218	2586.205184
441.583947	2586.106882
441.959616	2590.769949
442.335224	2587.576378
442.710773	2588.362798
443.086261	2590.623756
443.461689	2586.873137
443.837057	2585.708631
444.212365	2586.835329
444.587612	2588.753488
444.962800	2587.538570
445.337927	2588.566965
445.712995	2580.102868
446.088002	2587.833477
446.462949	2589.698704
446.837837	2590.520412
447.212664	2591.284147
447.587431	2600.937957
447.962139	2610.700151
448.336786	2621.649537
448.711374	2614.483537
449.085901	2602.069696
449.460369	2597.938470
449.834776	2601.124479
450.209124	2607.902311
450.583412	2608.691251
450.957640	2608.441714
451.331808	2604.129007
451.705917	2599.206320
452.079965	2598.127513
452.453954	2600.653131
452.827883	2601.512648
453.201752	2600.640528
453.575562	2599.775971
453.949311	2603.045159
454.323001	2603.874429
454.696632	2602.599017
455.070202	2609.273504
455.443713	2609.016406
455.817164	2609.071858
456.190556	2609.119749
456.563888	2610.125459
456.937160	2605.953905
457.310373	2607.854420
457.683526	2605.895931
458.056619	2608.751745
458.429653	2608.010695
458.802628	2610.874071
459.175542	2609.989348
459.548398	2616.532766
459.921194	2618.544186
460.293930	2621.793210
460.666607	2630.763943
461.039224	2637.060344
461.411782	2636.772999
461.784280	2635.636218
462.156719	2632.263687
462.529099	2629.861577
462.901419	2625.811010
463.273680	2624.013838
463.645882	2623.814713
464.018024	2623.572737
464.390106	2624.664147
464.762130	2637.839203
465.134094	2653.640699
465.505999	2674.362362
465.877845	2691.835002
466.249631	2694.501772
466.621358	2689.884075
466.993026	2686.045236
467.364634	2679.128773
467.736184	2670.513441
468.107674	2662.830723
468.479105	2661.893068
468.850477	2658.865855
469.221790	2655.226142
469.593043	2647.752632
469.964238	2645.862199
470.335373	2648.342447
470.706449	2657.363592
471.077467	2663.675116
471.448425	2682.647499
471.819324	2692.770136
472.190164	2690.085721
472.560945	2672.713905
472.931667	2662.177893
473.302330	2655.682367
473.672934	2654.280926
474.043479	2655.533653
474.413965	2652.829074
474.784393	2646.031078
475.154761	2655.838642
475.525070	2652.985349
475.895321	2651.593991
476.265513	2648.884371
476.635645	2658.729744
477.005719	2656.715803
477.375734	2655.692449
477.745691	2656.315032
478.115588	2662.674447
478.485427	2668.416321
478.855207	2681.936696
479.224928	2690.113447
479.594591	2694.269879
479.964194	2689.437933
480.333739	2688.351564
480.703226	2686.544311
481.072653	2687.789476
481.442022	2688.177644
481.811333	2685.883919
482.180584	2679.413598
482.549777	2680.114319
482.918912	2672.161899
483.287988	2671.022598
483.657005	2666.548574
484.025964	2664.065806
484.394864	2662.019097
484.763706	2661.121772
485.132489	2654.762356
485.501213	2653.877634
485.869879	2655.044661
486.238487	2649.529638
486.607036	2651.838487
486.975527	2647.823208
487.343959	2645.360604
487.712333	2645.463948
488.080648	2647.477889
488.448905	2647.359422
488.817104	2643.507980
489.185244	2647.639206
489.553326	2649.718682
489.921350	2661.900630
490.289315	2666.777946
490.657222	2670.024449
491.025070	2669.104439
491.392861	2665.799962
491.760593	2662.389622
492.128267	2653.507109
492.495883	2649.055770
492.863440	2644.753145
493.230939	2641.325161
493.598380	2636.442803
493.965763	2629.861577
494.333088	2630.857205
494.700354	2626.317646
495.067563	2626.675567
495.434713	2624.243211
495.801805	2625.914353
496.168839	2625.359826
496.535815	2625.954682
496.902733	2622.579630
497.269593	2623.350927
497.636395	2621.369753
498.003139	2621.745319
498.369825	2623.368571
498.736453	2621.823457
499.103023	2617.730040
499.469535	2617.861110
499.835989	2617.268774
500.202385	2617.326748
500.568723	2619.532252
500.935003	2616.220214
501.301226	2615.837087
501.667390	2618.052674
502.033497	2619.297839
502.399546	2620.041409
502.765537	2617.283898
503.131470	2614.775924
503.497345	2614.463372
503.863163	2613.742487
504.228923	2610.364914
504.594625	2612.419184
504.960269	2613.492950
505.325856	2610.306941
505.691385	2607.569594
506.056856	2609.152517
506.422270	2609.248299
506.787625	2609.477671
507.152924	2605.724532
507.518164	2606.672269
507.883347	2606.692434
508.248472	2606.377362
508.613540	2604.802001
508.978550	2606.599172
509.343503	2605.764861
509.708398	2607.181426
510.073236	2609.878443
510.438016	2608.862650
510.802738	2605.099429
511.167403	2605.419542
511.532010	2603.546754
511.896561	2605.643874
512.261053	2607.304934
512.625488	2602.861157
512.989866	2601.656321
513.354186	2599.811259
513.718449	2598.921495
514.082655	2602.505755
514.446803	2602.344438
514.810894	2603.854264
515.174927	2600.852257
515.538904	2601.931064
515.902822	2600.375868
516.266684	2600.491814
516.630488	2603.710591
516.994235	2599.181114
517.357925	2604.292844
517.721558	2598.200610
518.085133	2601.489963
518.448651	2601.434510
518.812112	2599.717997
519.175516	2600.275045
519.538863	2600.753954
519.902152	2600.464088
520.265385	2597.464602
520.628560	2597.807400
520.991678	2597.343614
521.354739	2598.782863
521.717743	2596.121134
522.080690	2599.372678
522.443580	2596.700867
522.806413	2598.823193
523.169189	2595.614498
523.531908	2598.382092
523.894569	2595.241453
524.257174	2596.237081
524.619722	2595.448140
524.982213	2599.047524
525.344647	2596.491659
525.707025	2593.083839
526.069345	2591.863880
526.431608	2593.557707
526.793815	2598.099787
527.155964	2591.722727
527.518057	2593.598037
527.880093	2592.741040
528.242072	2592.441092
528.603995	2591.826071
528.965860	2591.697522
529.327669	2589.280288
529.689421	2590.666606
530.051117	2590.268354
530.412755	2588.738364
530.774337	2590.633838
531.135862	2586.104361
531.497331	2584.818867
531.858743	2583.765266
532.220098	2586.956316
532.581396	2587.594022
532.942638	2584.644947
533.303824	2586.537901
533.664953	2586.752150
534.026025	2585.496902
534.387040	2586.379104
534.747999	2584.478589
535.108902	2583.944227
535.469748	2585.375915
535.830537	2582.971284
536.191270	2586.134608
536.551947	2580.523804
536.912567	2585.229721
537.273131	2581.161510
537.633638	2584.024885
537.994089	2582.681418
538.354483	2581.174113
538.714821	2582.419278
539.075103	2582.658733
539.435328	2581.658064
539.795497	2580.044894
540.155609	2583.107395
540.515665	2582.822570
540.875665	2580.740574
541.235609	2578.953485
541.595496	2579.069431
541.955328	2580.460790
542.315102	2578.441807
542.674821	2579.815522
543.034483	2579.230748
543.394090	2577.814184
543.753640	2581.907601
544.113134	2580.710327
544.472571	2578.099009
544.831953	2581.630337
545.191278	2576.662280
545.550548	2577.085737
545.909761	2577.363001
546.268918	2575.734708
546.628019	2578.139338
546.987064	2575.114646
547.346053	2578.968608
547.704986	2575.172619
548.063863	2576.140521
548.422684	2575.535582
548.781449	2574.920562
549.140158	2573.756055
549.498811	2575.225551
549.857408	2574.877712
550.215949	2572.871333
550.574434	2572.238668
550.932864	2573.211610
551.291237	2568.389747
551.649555	2575.833010
552.007817	2572.286559
552.366022	2573.516600
552.724173	2574.053483
553.082267	2573.740932
553.440305	2575.369224
553.798288	2572.518452
554.156215	2574.557598
554.514086	2575.102043
554.871902	2572.883935
555.229661	2572.750345
555.587365	2570.723801
555.945014	2575.039029
556.302606	2571.916034
556.660143	2573.418298
557.017625	2574.315623
557.375050	2571.580797
557.732421	2572.261353
558.089735	2570.844789
558.446994	2570.920406
558.804197	2574.050963
559.161345	2572.147927
559.518437	2569.990313
559.875474	2570.900241
560.232455	2569.476115
560.589381	2569.894531
560.946251	2574.081209
561.303065	2573.204049
561.659825	2571.611044
562.016528	2570.474264
562.373177	2570.534758
562.729770	2571.933678
563.086307	2570.678431
563.442789	2570.602813
563.799216	2568.344376
564.155587	2568.152812
564.511904	2567.734397
564.868164	2568.540981
565.224370	2571.479974
565.580520	2568.062072
565.936615	2566.141392
566.292654	2571.013667
566.648638	2567.147102
567.004567	2567.956207
567.360441	2569.342525
567.716260	2567.378995
568.072023	2569.541650
568.427732	2565.271793
568.783385	2566.673234
569.138982	2563.756926
569.494525	2564.855898
569.850013	2562.279868
570.205445	2566.847154
570.560823	2566.970662
570.916145	2567.865467
571.271412	2567.850343
571.626625	2571.079202
571.981782	2567.520148
572.336884	2569.017370
572.691931	2567.399160
573.046923	2568.215827
573.401860	2566.007802
573.756743	2567.782288
574.111570	2568.036866
574.466342	2567.810014
574.821059	2566.103583
575.175722	2564.054354
575.530330	2565.160888
575.884882	2567.366392
576.239380	2565.249108
576.593823	2565.513768
576.948211	2563.000753
577.302544	2562.063099
577.656823	2564.760116
578.011047	2562.206772
578.365216	2563.610733
578.719330	2564.258521
579.073389	2563.275496
579.427394	2560.724672
579.781344	2561.886658
580.135239	2562.647873
580.489080	2561.702656
580.842866	2561.329611
581.196597	2564.258521
581.550273	2560.003787
581.903895	2561.377502
582.257463	2560.470094
582.610975	2561.168294
582.964434	2559.686195
583.317837	2560.943962
583.671186	2558.982954
584.024481	2559.908005
584.377721	2559.166956
584.730906	2561.511092
585.084037	2558.698128
585.437113	2559.855073
585.790135	2558.115875
586.143103	2557.024465
586.496016	2560.737275
586.848874	2552.421892
587.201679	2556.336348
587.554428	2554.022458
587.907124	2555.217212
588.259765	2555.754095
588.612352	2558.035217
588.964884	2554.506409
589.317362	2558.844322
589.669786	2558.428427
590.022155	2558.519167
590.374470	2556.555638
590.726731	2556.734599
591.078937	2554.836605
591.431090	2557.722665
591.783188	2555.365926
592.135232	2554.219063
592.487222	2553.785524
592.839157	2555.476831
593.191038	2556.679146
593.542866	2555.439022
593.894639	2554.377860
594.246358	2556.505227
594.598022	2555.055895
594.949633	2555.817109
595.301190	2553.132695
595.652692	2552.469783
596.004141	2551.834598
596.355535	2553.394835
596.706876	2551.615307
597.058162	2550.939793
597.409395	2552.507592
597.760573	2553.646892
598.111698	2550.556665
598.462768	2553.097407
598.813785	2551.582540
599.164748	2551.859803
599.515657	2552.595812
599.866511	2548.613300
600.217312	2551.035575
600.568060	2552.477345
600.918753	2554.292160
601.269392	2553.525905
601.619978	2551.403579
601.970510	2549.767724
602.320988	2551.902653
602.671412	2554.329969
603.021783	2552.552962
603.372100	2552.245452
603.722363	2550.924669
604.072572	2549.180430
604.422728	2554.708055
604.772830	2548.497354
605.122878	2546.866540
605.472872	2547.773948
605.822813	2546.750594
606.172701	2549.170348
606.522534	2547.968032
606.872314	2550.962478
607.222041	2551.229659
607.571714	2550.168496
607.921333	2551.108671
608.270899	2549.944165
608.620411	2549.228321
608.969870	2550.455842
609.319276	2550.339895
609.668627	2552.736964
610.017926	2547.824360
610.367171	2550.619679
610.716362	2551.995914
611.065500	2549.563558
611.414585	2551.930379
611.763616	2552.144628
612.112594	2550.150852
612.461518	2548.759494
612.810389	2549.679504
613.159207	2550.034906
613.507971	2548.199926
613.856682	2549.785368
614.205340	2550.816284
614.553945	2551.698486
614.902496	2548.557848
615.250994	2546.848896
615.599439	2550.309648
615.947830	2549.180430
616.296169	2549.308979
616.644454	2553.997253
616.992686	2553.452808
617.340864	2549.573640
617.688990	2550.662529
618.037063	2550.297046
618.385082	2552.497509
618.733048	2551.282591
619.080961	2552.003476
619.428821	2553.457849
619.776628	2553.130174
620.124382	2552.210163
620.472083	2551.025492
620.819731	2551.852242
621.167326	2550.440718
621.514868	2552.421892
621.862357	2549.089689
622.209793	2548.615821
622.557176	2548.502395
622.904506	2548.686397
623.251783	2544.681200
623.599007	2543.728422
623.946179	2543.463762
624.293297	2543.073072
624.640363	2547.539534
624.987376	2548.210008
625.334336	2547.534493
625.681243	2548.036088
626.028097	2544.391334
626.374899	2547.048022
626.721647	2546.687579
627.068343	2546.642209
627.414987	2543.899821
627.761577	2546.054915
628.108115	2544.736653
628.454600	2544.222455
628.801032	2546.674977
629.147412	2544.945861
629.493739	2543.947712
629.840014	2545.712116
630.186236	2541.560726
630.532405	2542.021992
630.878521	2542.382434
631.224585	2545.132383
631.570597	2545.167672
631.916556	2544.522404
632.262462	2546.196067
632.608316	2544.585418
632.954117	2543.877136
633.299866	2543.168854
633.645562	2543.168854
633.991206	2544.106509
634.336797	2541.253216
634.682336	2540.219779
635.027823	2542.725232
635.373257	2541.943854
635.718639	2542.263967
636.063968	2538.856147
636.409245	2540.686086
636.754470	2539.559388
637.099642	2538.646939
637.444762	2540.963349
637.789829	2538.863709
638.134845	2540.600386
638.479808	2539.095602
638.824719	2539.957639
639.169577	2541.684234
639.514383	2540.144162
639.859137	2539.985365
640.203839	2538.808256
640.548489	2539.934954
640.893086	2536.060827
641.237632	2532.675692
641.582125	2538.581404
641.926566	2532.791639
642.270955	2537.731970
642.615292	2538.019315
642.959576	2536.764068
643.303809	2536.731301
643.647990	2541.515356
643.992118	2539.297248
644.336195	2536.544778
644.680219	2537.936136
645.024192	2536.955632
645.368112	2537.893287
645.711981	2537.038811
646.055797	2539.216589
646.399562	2538.135262
646.743274	2539.708102
647.086935	2540.544933
647.430544	2538.687268
647.774101	2540.174409
648.117606	2540.618030
648.461059	2539.393030
648.804460	2542.967208
649.147810	2538.883873
649.491108	2539.977804
649.834354	2537.837834
650.177548	2539.211548
650.520690	2536.653163
650.863781	2537.638708
651.206820	2539.750952
651.549807	2535.768440
651.892742	2538.730118
652.235626	2537.459747
652.578458	2535.677699
652.921238	2534.084695
653.263967	2535.740714
653.606644	2533.031094
653.949269	2536.098636
654.291843	2532.884900
654.634365	2533.943543
654.976836	2533.494880
655.319255	2536.569984
655.661622	2536.055786
656.003938	2533.774664
656.346203	2535.513862
656.688416	2535.589479
657.030577	2537.232895
657.372687	2533.046217
657.714746	2533.608306
658.056753	2534.740045
658.398708	2529.976154
658.740612	2532.227030
659.082465	2531.100332
659.424266	2531.861546
659.766016	2529.436751
660.107715	2532.579910
660.449362	2533.308357
660.790958	2533.063861
661.132503	2534.591331
661.473996	2537.255581
661.815438	2536.897659
662.156829	2538.125180
662.498168	2533.101670
662.839456	2535.952442
663.180693	2534.893800
663.521879	2533.308357
663.863013	2536.373379
664.204097	2534.578728
664.545129	2537.248019
664.886110	2534.417411
665.227040	2534.193080
665.567918	2534.679551
665.908746	2534.833306
666.249522	2537.505118
666.590248	2534.903882
666.930922	2537.121990
667.271545	2533.893131
667.612118	2538.117618
667.952639	2535.453368
668.293109	2535.738193
668.633528	2535.206352
668.973896	2535.866743
669.314213	2536.343132
669.654480	2534.873635
669.994695	2533.169725
670.334859	2534.135106
670.674973	2534.601413
671.015035	2533.507483
671.355047	2530.076977
671.695008	2529.855167
672.034918	2534.614016
672.374777	2532.791639
672.714585	2535.440765
673.054342	2533.933460
673.394049	2533.963707
673.733705	2535.549150
674.073310	2534.931609
674.412864	2533.996475
674.752368	2531.669982
675.091820	2534.498069
675.431223	2533.149561
675.770574	2531.370033
676.109875	2529.703932
676.449125	2529.156967
676.788324	2529.303160
677.127473	2532.332894
677.466571	2528.879703
677.805619	2531.722914
678.144616	2529.504807
678.483562	2534.324150
678.822458	2527.538757
679.161303	2536.086033
679.500098	2530.071936
679.838842	2533.918337
680.177535	2529.207378
680.516179	2531.672503
680.854771	2532.552184
681.193314	2535.113090
681.531805	2533.981351
681.870247	2534.654345
682.208638	2533.247863
682.546978	2533.159643
682.885268	2532.690816
683.223508	2534.412370
683.561697	2534.273738
683.899836	2532.201824
684.237925	2534.107380
684.575963	2533.847761
684.913951	2534.419932
685.251889	2533.194931
685.589776	2530.840712
685.927614	2531.929602
686.265401	2533.270548
686.603137	2535.949922
686.940824	2533.197452
687.278460	2532.784077
687.616046	2535.874304
687.953582	2533.021011
688.291068	2535.977648
688.628504	2531.559077
688.965889	2535.377751
689.303224	2533.986392
689.640510	2532.887421
689.977745	2533.255425
690.314930	2530.697039
690.652065	2535.216434
690.989150	2530.755013
691.326185	2527.810979
691.663170	2530.954138
692.000105	2529.285516
692.336990	2533.371372
692.673825	2530.457585
693.010610	2532.063192
693.347345	2529.524971
693.684030	2524.932480
694.020665	2524.672861
694.357251	2522.399300
694.693786	2525.716379
695.030272	2529.277955
695.366707	2526.444826
695.703093	2528.428520
696.039429	2525.562624
696.375716	2527.672347
696.711952	2528.693181
697.048139	2526.230577
697.384276	2528.466329
697.720363	2526.800228
698.056400	2527.402645
698.392388	2525.497089
698.728326	2524.929959
699.064214	2528.584796
699.400053	2527.546318
699.735842	2525.683612
700.071581	2526.134795
700.407270	2526.853160
700.742910	2526.979188
701.078501	2523.470545
701.414042	2527.760567
701.749533	2525.822244
702.084974	2524.314939
702.420366	2524.057840
702.755709	2526.754857
703.091002	2524.277130
703.426246	2524.902233
703.761440	2522.752181
704.096584	2522.706811
704.431679	2523.548683
704.766725	2524.234280
705.101721	2520.735719
705.436668	2525.968437
705.771565	2521.605318
706.106413	2525.119003
706.441212	2523.820906
706.775961	2524.975330
707.110661	2525.262676
707.445311	2525.204702
707.779913	2522.888292
708.114465	2524.791328
708.448967	2526.739734
708.783421	2525.416431
709.117825	2524.299815
709.452180	2528.579755
709.786485	2525.544980
710.120742	2527.251411
710.454949	2527.974816
710.789107	2524.471214
711.123216	2522.416944
711.457275	2525.464322
711.791286	2524.229239
712.125247	2525.088756
712.459159	2527.236287
712.793023	2527.453057
713.126837	2528.272244
713.460602	2528.836854
713.794318	2527.906761
714.127985	2526.512882
714.461602	2527.198479
714.795171	2527.006915
715.128691	2525.673530
715.462162	2525.726462
715.795584	2523.175638
716.128957	2525.625639
716.462281	2522.132119
716.795556	2526.923736
717.128782	2523.911646
717.461960	2525.045906
717.795088	2522.694208
718.128167	2523.389887
718.461198	2522.764784
718.794180	2524.009949
719.127113	2520.657582
719.459997	2525.300484
719.792833	2524.884589
720.125619	2523.770494
720.458357	2522.031296
720.791046	2524.975330
721.123686	2518.293280
721.456278	2523.243693
721.788821	2522.825278
722.121315	2522.979033
722.453761	2522.928621
722.786158	2522.421985
723.118506	2521.726306
723.450805	2520.972654
723.783056	2519.598939
724.115259	2521.895185
724.447412	2521.665812
724.779518	2522.885772
725.111574	2520.445853
725.443582	2521.945596
725.775542	2520.806296
726.107453	2524.181348
726.439315	2520.027437
726.771129	2526.696884
727.102895	2524.566996
727.434612	2523.851153
727.766281	2522.459794
728.097901	2518.424350
728.429473	2519.394773
728.760996	2520.594567
729.092471	2518.699093
729.423897	2522.656399
729.755276	2523.357119
730.086606	2521.978364
730.417887	2524.193951
730.749120	2524.337624
731.080305	2523.294105
731.411442	2524.355268
731.742530	2525.479445
732.073570	2523.616739
732.404562	2525.055988
732.735506	2523.604136
733.066401	2523.790659
733.397249	2524.201513
733.728048	2520.765966
734.058798	2524.738396
734.389501	2522.651358
734.720156	2520.539114
735.050762	2522.772346
735.381320	2522.147243
735.711831	2521.504495
736.042293	2522.270751
736.372707	2522.883251
736.703073	2524.342665
737.033391	2518.878054
737.363661	2519.742612
737.693883	2519.992149
738.024056	2526.991791
738.354182	2519.901408
738.684260	2522.971471
739.014290	2521.194464
739.344272	2519.548528
739.674207	2521.983405
740.004093	2523.072294
740.333931	2520.715555
740.663722	2524.642614
740.993464	2521.504495
741.323159	2524.302336
741.652806	2522.227901
741.982405	2522.916018
742.311956	2519.422499
742.641460	2522.371574
742.970915	2520.725637
743.300323	2521.950638
743.629683	2518.928466
743.958996	2519.614063
744.288260	2521.015503
744.617477	2522.558097
744.946647	2514.502333
745.275768	2519.929135
745.604842	2515.200533
745.933869	2515.818074
746.262847	2514.930831
746.591778	2518.343692
746.920662	2517.159021
747.249498	2520.448374
747.578286	2518.058867
747.907027	2522.666481
748.235720	2519.109947
748.564365	2520.100534
748.892963	2519.109947
749.221514	2518.817560
749.550017	2518.842766
749.878473	2518.230266
750.206881	2519.651871
750.535242	2521.280164
750.863555	2518.706655
751.191821	2521.285205
751.520039	2519.742612
751.848210	2518.157169
752.176334	2519.825791
752.504411	2519.344361
752.832440	2520.710514
753.160421	2519.845956
753.488356	2519.268744
753.816243	2514.978722
754.144082	2517.874865
754.471875	2519.641789
754.799620	2518.628517
755.127318	2517.620286
755.454969	2519.293949
755.782572	2519.346882
756.110129	2519.707324
756.437638	2518.384021
756.765100	2515.623989
757.092515	2520.816378
757.419882	2520.418127
757.747203	2517.761439
758.074477	2519.535925
758.401703	2518.071470
758.728882	2516.226407
759.056014	2517.844618
759.383099	2519.898888
759.710138	2521.252438
760.037129	2519.677077
760.364073	2517.048115
760.690970	2519.286388
761.017820	2519.956861
761.344623	2518.605832
761.671379	2519.074659
761.998088	2519.387211
762.324751	2519.732530
762.651366	2520.662623
762.977935	2525.499610
763.304456	2528.526823
763.630931	2533.852802
763.957359	2531.962369
764.283740	2531.425486
764.610074	2528.322656
764.936362	2528.728469
765.262602	2521.484331
765.588796	2523.503313
765.914943	2519.939217
766.241044	2522.162366
766.567097	2517.736233
766.893104	2518.101717
767.219064	2519.939217
767.544978	2517.201871
767.870845	2518.152128
768.196665	2519.394773
768.522438	2515.631551
768.848165	2517.658095
769.173846	2513.554596
769.499479	2517.262364
769.825066	2514.078876
770.150607	2513.627693
770.476101	2516.102899
770.801548	2515.926459
771.126949	2516.871675
771.452303	2516.337313
771.777611	2514.209946
772.102872	2512.392610
772.428087	2515.303876
772.753256	2515.460152
773.078378	2513.844462
773.403453	2512.654750
773.728482	2515.455111
774.053465	2514.000738
774.378401	2513.378155
774.703291	2515.409740
775.028135	2513.090810
775.352932	2513.599966
775.677683	2514.802281
776.002388	2514.230110
776.327046	2512.080058
776.651658	2513.184071
776.976224	2512.324554
777.300743	2511.782630
777.625216	2516.498630
777.949643	2513.587363
778.274024	2514.106602
778.598359	2511.686848
778.922647	2508.657115
779.246889	2510.492095
779.571086	2511.840603
779.895236	2512.022085
780.219339	2512.652229
780.543397	2514.968639
780.867409	2511.457476
781.191374	2514.577950
781.515294	2513.541993
781.839167	2513.191633
782.162995	2513.143742
782.486776	2513.715913
782.810511	2512.730367
783.134201	2513.156345
783.457844	2514.328413
783.781441	2514.633403
784.104993	2514.734226
784.428498	2514.230110
784.751958	2512.498474
785.075372	2513.103413
785.398739	2513.978053
785.722061	2513.683145
786.045337	2513.317662
786.368568	2512.183402
786.691752	2515.245903
787.014891	2514.041067
787.337983	2513.673063
787.661030	2515.371932
787.984031	2515.248423
788.306987	2517.063239
788.629897	2514.835049
788.952760	2517.012827
789.275579	2516.405368
789.598351	2516.571726
789.921078	2515.104751
790.243759	2515.134998
790.566395	2516.022241
790.888984	2514.504853
791.211529	2513.514267
791.534027	2514.646006
791.856480	2516.173475
792.178888	2512.967301
792.501249	2511.654081
792.823566	2512.475789
793.145836	2511.636437
793.468062	2512.455624
793.790241	2515.162724
794.112375	2514.162055
794.434464	2512.155676
794.756507	2512.581653
795.078505	2517.423681
795.400457	2511.374297
795.722364	2511.717095
796.044226	2510.303052
796.366042	2511.520490
796.687812	2509.811539
797.009538	2516.123064
797.331218	2513.801612
797.652852	2516.538959
797.974442	2514.053670
798.295986	2513.148783
798.617484	2515.802950
798.938938	2515.702127
799.260346	2510.250119
799.581709	2514.661129
799.903026	2514.575429
800.224299	2512.561488
800.545526	2511.830521
800.866708	2512.400172
801.187845	2509.551920
801.508936	2513.708351
801.829983	2512.475789
802.150984	2513.967970
802.471940	2510.978566
802.792851	2512.493433
803.113717	2513.078207
803.434538	2513.846983
803.755314	2514.275481
804.076045	2512.271622
804.396731	2514.242713
804.717372	2511.439832
805.037967	2511.369256
805.358518	2513.426046
805.679024	2513.579802
805.999485	2514.658608
806.319901	2513.105933
806.640272	2513.189112
806.960598	2509.877074
807.280879	2512.115346
807.601115	2513.728516
807.921306	2513.053001
808.241453	2512.884122
808.561554	2512.740449
808.881611	2517.254803
809.201623	2512.863958
809.521590	2512.881602
809.841513	2513.955368
810.161390	2513.612569
810.481223	2513.347908
810.801011	2512.664832
811.120755	2510.434122
811.440453	2510.769358
811.760107	2512.332116
812.079716	2510.534945
812.399281	2509.521673
812.718801	2510.870181
813.038276	2504.714933
813.357707	2511.656601
813.677093	2513.204236
813.996434	2513.405882
814.315731	2511.717095
814.634983	2516.019720
814.954191	2512.475789
815.273354	2513.037878
815.592473	2511.643998
815.911547	2513.995697
816.230577	2510.171982
816.549562	2514.472086
816.868502	2513.189112
817.187399	2512.226252
817.506250	2513.547034
817.825058	2513.599966
818.143821	2512.513597
818.462539	2512.962260
818.781213	2511.941427
819.099843	2514.961078
819.418429	2514.504853
819.736970	2516.029802
820.055466	2518.018538
820.373919	2520.786131
820.692327	2523.420134
821.010691	2531.491021
821.329011	2543.357897
821.647286	2562.789025
821.965517	2577.675552
822.283704	2593.240115
822.601847	2593.401432
822.919945	2588.080494
823.237999	2576.183371
823.556010	2567.459654
823.873976	2560.028993
824.191897	2547.887374
824.509775	2542.261446
824.827609	2538.530992
825.145398	2531.289375
825.463144	2532.902544
825.780845	2531.274252
826.098502	2537.089223
826.416116	2543.015099
826.733685	2546.044832
827.051210	2540.860006
827.368692	2541.291024
827.686129	2536.683410
828.003522	2532.007739
828.320872	2523.891482
828.638177	2524.516585
828.955439	2519.984587
829.272656	2517.300173
829.589830	2515.039216
829.906960	2518.257992
830.224046	2515.724812
830.541088	2516.251613
830.858086	2516.400327
831.175041	2514.310769
831.491952	2514.696417
831.808819	2515.412261
832.125642	2515.230779
832.442421	2516.783455
832.759157	2518.804958
833.075849	2522.222860
833.392497	2528.083201
833.709101	2529.141843
834.025662	2527.957172
834.342179	2524.367871
834.658653	2522.336286
834.975083	2522.532891
835.291469	2524.657737
835.607811	2518.981398
835.924110	2518.273116
836.240366	2514.913187
836.556578	2515.470234
836.872746	2515.180368
837.188871	2510.270284
837.504952	2512.392610
837.820990	2509.982938
838.136984	2506.615447
838.452935	2512.075017
838.768842	2510.691220
839.084706	2511.933865
839.400526	2512.536283
839.716303	2512.969822
840.032037	2515.223218
840.347727	2515.654236
840.663373	2515.760101
840.978977	2512.594256
841.294537	2510.499657
841.610054	2511.613752
841.925527	2510.590397
842.240957	2512.120388
842.556344	2510.492095
842.871687	2511.417147
843.186987	2511.402023
843.502244	2509.448576
843.817458	2511.056704
844.132629	2509.153668
844.447756	2511.051663
844.762840	2504.576301
845.077881	2507.550582
845.392879	2504.989675
845.707833	2506.958246
846.022745	2504.571260
846.337613	2511.288597
846.652438	2508.221055
846.967221	2508.914214
847.281960	2507.084275
847.596656	2509.085613
847.911309	2507.643843
848.225919	2507.830366
848.540485	2508.394975
848.855009	2507.800119
849.169490	2507.825324
849.483928	2508.158041
849.798323	2508.054697
850.112675	2505.345077
850.426984	2505.372803
850.741251	2510.280366
851.055474	2508.407578
851.369654	2508.226096
851.683792	2507.356497
851.997887	2507.787516
852.311938	2510.537465
852.625947	2506.993534
852.939914	2506.844820
853.253837	2512.044770
853.567718	2505.859274
853.881555	2508.016888
854.195350	2509.562002
854.509103	2506.539830
854.822812	2507.056548
855.136479	2511.124760
855.450103	2505.367762
855.763685	2507.979080
856.077224	2508.624347
856.390720	2508.231137
856.704173	2507.669049
857.017584	2509.567043
857.330953	2505.783657
857.644278	2508.052176
857.957561	2512.180881
858.270802	2510.660973
858.584000	2510.802126
858.897155	2508.946981
859.210268	2506.328102
859.523339	2507.026302
859.836367	2504.838441
860.149352	2506.582680
860.462295	2509.173833
860.775195	2503.005981
861.088054	2503.394150
861.400869	2504.515807
861.713642	2503.313492
862.026373	2505.569408
862.339062	2506.146620
862.651708	2507.369100
862.964312	2507.036384
863.276873	2507.162413
863.589392	2510.189626
863.901869	2505.705519
864.214303	2508.193329
864.526696	2506.849861
864.839045	2506.595283
865.151353	2509.614934
865.463619	2509.161230
865.775842	2507.059069
866.088023	2507.069151
866.400162	2510.282887
866.712258	2507.767351
867.024313	2508.546209
867.336325	2507.343894
867.648296	2505.859274
867.960224	2510.487054
868.272110	2508.629388
868.583954	2506.249964
868.895755	2510.976046
869.207515	2507.860613
869.519233	2509.004954
869.830909	2507.641322
870.142542	2510.300531
870.454134	2507.134686
870.765684	2509.309944
871.077191	2510.114008
871.388657	2510.613083
871.700081	2505.138389
872.011463	2509.330109
872.322803	2509.589728
872.634101	2508.120232
872.945357	2508.654594
873.256571	2508.510921
873.567744	2506.917917
873.878874	2513.478978
874.189963	2506.940602
874.501010	2510.754235
874.812015	2508.765500
875.122979	2511.255830
875.433900	2511.091992
875.744780	2509.052845
876.055618	2509.690551
876.366415	2506.081085
876.677169	2509.156189
876.987882	2507.837927
877.298554	2506.370952
877.609183	2504.016733
877.919771	2503.900786
878.230317	2504.001609
878.540822	2509.998062
878.851285	2511.470079
879.161707	2512.561488
879.472087	2514.565347
879.782425	2514.517456
880.092722	2520.647499
880.402977	2527.889117
880.713191	2537.908410
881.023363	2545.356715
881.333494	2551.534649
881.643583	2548.898125
881.953631	2547.325285
882.263637	2547.410985
882.573602	2544.139276
882.883526	2536.630478
883.193408	2537.928575
883.503248	2530.878521
883.813048	2529.225022
884.122806	2526.134795
884.432522	2524.879548
884.742197	2520.324865
885.051831	2519.961902
885.361424	2519.178003
885.670975	2515.785306
885.980485	2515.011489
886.289954	2517.027951
886.599382	2513.284894
886.908768	2511.911180
887.218113	2513.136180
887.527417	2512.833711
887.836680	2509.912362
888.145901	2508.208452
888.455082	2508.599142
888.764221	2511.999400
889.073319	2507.918586
889.382376	2510.116529
889.691392	2512.241375
890.000366	2510.459327
890.309300	2511.671725
890.618193	2509.229286
890.927044	2509.826663
891.235855	2510.756755
891.544625	2507.784995
891.853353	2509.751045
892.162041	2508.291631
892.470687	2510.451766
892.779293	2511.492764
893.087858	2509.322547
893.396381	2511.094513
893.704864	2513.564678
894.013306	2512.022085
894.321707	2518.910822
894.630068	2522.021214
894.938387	2519.974505
895.246665	2521.348220
895.554903	2519.190606
895.863100	2516.178516
896.171256	2515.999555
896.479371	2515.535769
896.787446	2513.993176
897.095480	2514.303207
897.403473	2515.553413
897.711425	2510.466889
898.019336	2514.953516
898.327207	2509.327588
898.635038	2509.980418
898.942827	2508.684841
899.250576	2509.335150
899.558284	2510.078720
899.865952	2507.507732
900.173579	2507.608555
900.481165	2507.611075
900.788711	2508.757938
901.096216	2509.942609
901.403681	2509.211642
901.711105	2507.346415
902.018489	2507.563184
902.325832	2510.557630
902.633135	2505.947495
902.940397	2509.320027
903.247619	2510.459327
903.554800	2513.814215
903.861941	2518.058867
904.169041	2524.677902
904.476101	2521.214629
904.783121	2521.832170
905.090100	2520.360153
905.397039	2517.897550
905.703938	2516.400327
906.010796	2518.704134
906.317614	2515.417302
906.624391	2516.551562
906.931129	2513.945285
907.237826	2510.134173
907.544483	2510.867661
907.851099	2511.119718
908.157675	2508.762979
908.464211	2505.191322
908.770707	2504.364572
909.077163	2506.950684
909.383578	2505.466064
909.689954	2503.862978
909.996289	2503.328615
910.302584	2504.684686
910.608839	2506.232320
910.915054	2507.023781
911.221229	2509.803977
911.527363	2505.834069
911.833458	2509.660304
912.139513	2507.616117
912.445527	2507.275839
912.751502	2506.181908
913.057436	2507.001096
913.363331	2507.560664
913.669186	2508.095026
913.975000	2507.006137
914.280775	2509.015037
914.586510	2508.606703
914.892205	2512.778258
915.197859	2513.907477
915.503475	2518.540297
915.809050	2521.471728
916.114585	2521.254958
916.420081	2519.823271
916.725536	2523.951976
917.030952	2520.405524
917.336328	2521.378467
917.641665	2516.866634
917.946961	2518.623476
918.252218	2514.950995
918.557435	2517.688342
918.862612	2515.490399
919.167750	2513.040398
919.472848	2514.648526
919.777906	2511.084430
920.082925	2512.533762
920.387904	2507.497649
920.692843	2512.400172
920.997743	2510.219873
921.302603	2506.081085
921.607423	2510.832373
921.912204	2507.865654
922.216946	2507.956394
922.521647	2507.704337
922.826310	2505.486229
923.130932	2506.771723
923.435516	2506.375993
923.740059	2507.679131
924.044564	2504.861126
924.349028	2504.876249
924.653454	2502.184273
924.957840	2503.346259
925.262186	2498.990702
925.566493	2504.674603
925.870761	2504.102432
926.174989	2505.579490
926.479178	2506.184429
926.783328	2504.725015
927.087438	2504.498163
927.391509	2505.821466
927.695541	2502.726197
927.999533	2504.646877
928.303486	2504.717453
928.607400	2503.245436
928.911275	2505.040087
929.215110	2506.691065
929.518906	2504.162926
929.822663	2502.897597
930.126381	2503.772237
930.430060	2505.766013
930.733699	2503.351300
931.037299	2502.985817
931.340861	2504.450272
931.644383	2505.279542
931.947866	2505.879439
932.251309	2505.907165
932.554714	2504.046980
932.858080	2507.374141
933.161407	2503.424397
933.464694	2504.286434
933.767943	2505.536641
934.071153	2502.685868
934.374323	2504.084788
934.677455	2503.873060
934.980548	2504.067144
935.283602	2505.912207
935.586617	2505.004799
935.889593	2504.064624
936.192530	2504.702330
936.495428	2503.794922
936.798287	2502.247288
937.101108	2505.483708
937.403890	2503.865498
937.706632	2506.179388
938.009336	2506.073523
938.312002	2505.723163
938.614628	2505.352638
938.917216	2508.523524
939.219765	2504.180570
939.522275	2509.297341
939.824747	2507.321209
940.127179	2504.291476
940.429573	2502.930364
940.731929	2505.400529
941.034246	2497.957266
941.336524	2502.514469
941.638763	2503.774757
941.940964	2507.689213
942.243126	2502.491784
942.545250	2504.840961
942.847335	2503.396671
943.149381	2505.463544
943.451389	2504.674603
943.753359	2506.612927
944.055290	2505.241733
944.357182	2505.231651
944.659036	2505.387927
944.960851	2504.034377
945.262628	2504.520848
945.564367	2505.322392
945.866067	2502.978255
946.167729	2505.254336
946.469352	2504.604027
946.770937	2506.920437
947.072484	2507.106960
947.373992	2502.963132
947.675462	2505.561846
947.976893	2505.309789
948.278286	2503.792401
948.579641	2503.555467
948.880958	2503.852895
949.182236	2504.906496
949.483476	2503.459685
949.784678	2506.963287
950.085841	2504.798112
950.386967	2504.304078
950.688054	2503.341218
950.989103	2501.760816
951.290114	2503.830210
951.591087	2502.985817
951.892021	2504.384737
952.192917	2504.435148
952.493776	2501.579335
952.794596	2507.805160
953.095378	2506.605365
953.396122	2503.905827
953.696828	2506.065962
953.997496	2505.380365
954.298126	2504.084788
954.598718	2505.319871
954.899272	2504.573780
955.199788	2506.108812
955.500266	2503.275683
955.800706	2501.702843
956.101108	2502.348111
956.401472	2503.573111
956.701798	2498.847029
957.002087	2501.443224
957.302337	2503.242916
957.602550	2502.668224
957.902724	2501.188645
958.202861	2504.074706
958.502960	2504.135200
958.803022	2505.372803
959.103045	2503.805004
959.403031	2504.604027
959.702979	2504.543533
960.002889	2504.750221
960.302762	2505.831548
960.602596	2504.102432
960.902393	2502.113697
961.202153	2502.247288
961.501875	2502.101094
961.801559	2502.118738
962.101205	2502.285096
962.400814	2502.743841
962.700385	2501.269304
962.999918	2503.961280
963.299414	2498.902482
963.598873	2502.819459
963.898293	2500.646721
964.197677	2502.837103
964.497022	2501.458347
964.796331	2502.141423
965.095601	2501.657473
965.394835	2504.293996
965.694030	2502.622854
965.993189	2503.573111
966.292309	2503.363903
966.591393	2504.815756
966.890439	2505.108143
967.189447	2502.511948
967.488419	2502.655621
967.787353	2503.129490
968.086249	2499.731752
968.385108	2503.875580
968.683930	2504.286434
968.982714	2505.783657
969.281462	2501.715446
969.580172	2503.288286
969.878844	2503.371465
970.177480	2503.389109
970.476078	2502.879952
970.774639	2502.950529
971.073162	2503.699140
971.371649	2499.325939
971.670098	2501.234016
971.968510	2500.626557
972.266885	2496.729745
972.565223	2502.338028
972.863524	2499.129334
973.161788	2504.924140
973.460014	2499.885507
973.758204	2502.827020
974.056356	2500.676968
974.354471	2504.649397
974.652550	2503.464726
974.950591	2504.621671
975.248595	2501.433141
975.546563	2502.264932
975.844493	2502.945488
976.142386	2503.789881
976.440243	2503.777278
976.738062	2505.992865
977.035845	2502.993378
977.333590	2502.501866
977.631299	2504.679644
977.928971	2501.934736
978.226606	2503.041269
978.524204	2505.511435
978.821765	2502.932885
979.119290	2504.248626
979.416777	2501.082781
979.714228	2503.827689
980.011642	2502.224602
980.309020	2505.592093
980.606360	2500.016577
980.903664	2504.893893
981.200931	2503.792401
981.498162	2504.578821
981.795356	2501.697802
982.092513	2502.564880
982.389633	2503.263080
982.686717	2503.005981
982.983764	2503.517658
983.280775	2505.884480
983.577749	2504.541013
983.874686	2504.354490
984.171587	2506.398678
984.468451	2504.979593
984.765279	2502.448934
985.062070	2505.030005
985.358824	2503.310971
985.655543	2502.128821
985.952224	2501.871722
986.248869	2501.871722
986.545478	2498.645383
986.842050	2500.142606
987.138586	2498.990702
987.435086	2497.879128
987.731549	2499.373830
988.027975	2503.573111
988.324366	2499.691423
988.620719	2499.179746
988.917037	2501.843995
989.213318	2504.679644
989.509563	2500.931547
989.805772	2501.849037
990.101944	2501.488594
990.398080	2502.927843
990.694180	2501.420538
990.990244	2500.598830
991.286271	2503.210148
991.582262	2503.419356
991.878217	2504.662000
992.174136	2502.159067
992.470019	2502.864829
992.765865	2501.922133
993.061676	2501.939777
993.357450	2501.808707
993.653188	2503.368944
993.948890	2502.317864
994.244556	2504.533451
994.540186	2502.917761
994.835780	2500.586227
995.131337	2503.439521
995.426859	2504.964470
995.722345	2497.057420
996.017795	2503.116887
996.313208	2503.628564
996.608586	2503.139572
996.903928	2503.164778
997.199234	2501.773419
997.494504	2501.745693
997.789738	2503.653770
998.084936	2502.093533
998.380099	2502.746362
998.675225	2502.824500
998.970316	2499.706546
999.265371	2502.244767
999.560390	2504.014212
999.855373	2501.675117
1000.150320	2502.428769
1000.445232	2503.497494
1000.740108	2501.624705
1001.034948	2502.138903
1001.329752	2500.046824
1001.624521	2502.892555
1001.919254	2497.231340
1002.213951	2501.380209
1002.508613	2498.728562
1002.803239	2502.796773
1003.097829	2496.079436
1003.392384	2501.100425
1003.686903	2500.351814
1003.981386	2501.155878
1004.275834	2502.242247
1004.570246	2501.715446
1004.864623	2501.907010
1005.158964	2504.835920
1005.453270	2503.227792
1005.747540	2500.777791
1006.041775	2501.415497
1006.335974	2500.349293
1006.630138	2499.477174
1006.924266	2500.026659
1007.218359	2500.261073
1007.512416	2500.223264
1007.806438	2500.566063
1008.100425	2503.076558
1008.394376	2499.220075
1008.688292	2502.224603
1008.982172	2499.641011
1009.276017	2503.386588
1009.569827	2499.487256
1009.863602	2502.330467
1010.157341	2502.292658
1010.451045	2501.153357
1010.744714	2502.794253
1011.038347	2500.813079
1011.331945	2501.672596
1011.625508	2502.537154
1011.919036	2502.650580
1012.212528	2500.482884
1012.505986	2499.920795
1012.799408	2500.699653
1013.092795	2502.816938
1013.386147	2501.947339
1013.679464	2501.473471
1013.972745	2501.586897
1014.265992	2501.914572
1014.559204	2504.528410
1014.852380	2501.007164
1015.145521	2501.733090
1015.438628	2501.448265
1015.731699	2501.775940
1016.024736	2499.373830
1016.317737	2500.742503
1016.610703	2500.442555
1016.903635	2498.635301
1017.196531	2497.432986
1017.489393	2498.968017
1017.782219	2495.769405
1018.075011	2501.617143
1018.367768	2501.599499
1018.660490	2503.396671
1018.953177	2503.396671
1019.245829	2503.396671
