Dividing Wavelength (nm)	Counts (n)	Blue Motor Position (mm): 0.000000	Red Motor Position (mm): 47.200000	
326.493990	2129.010339
326.888308	2129.010339
327.282561	2129.010339
327.676750	2093.205544
328.070874	2091.955338
328.464933	2095.690833
328.858929	2104.149889
329.252859	2113.997783
329.646726	2125.592437
330.040528	2137.383696
330.434265	2155.652837
330.827938	2172.349139
331.221547	2188.453105
331.615091	2208.988245
332.008571	2228.036245
332.401986	2248.896539
332.795338	2264.778695
333.188625	2286.160749
333.581847	2303.880404
333.975006	2322.242807
334.368100	2340.907679
334.761129	2358.370236
335.154095	2374.985879
335.546996	2397.827348
335.939833	2424.003539
336.332606	2438.186825
336.725315	2452.763322
337.117960	2460.612398
337.510540	2466.903758
337.903056	2479.665439
338.295508	2486.944865
338.687896	2496.160094
339.080220	2506.028153
339.472480	2511.991838
339.864676	2513.597446
340.256807	2517.733712
340.648875	2521.315452
341.040879	2526.671678
341.432818	2527.029600
341.824694	2528.441123
342.216506	2526.132275
342.608253	2528.234436
342.999937	2527.785773
343.391557	2528.773839
343.783113	2524.330062
344.174605	2527.735362
344.566033	2523.750329
344.957397	2525.547501
345.348697	2520.337468
345.739934	2522.240504
346.131106	2519.021727
346.522215	2518.835204
346.913260	2514.141890
347.304241	2512.296828
347.695159	2511.681807
348.086012	2509.372959
348.476802	2509.647702
348.867528	2506.920437
349.258191	2506.852382
349.648789	2509.085613
350.039324	2501.909530
350.429796	2501.962462
350.820203	2500.971876
351.210548	2499.368789
351.600828	2499.318377
351.991045	2495.698829
352.381198	2496.462564
352.771288	2496.943994
353.161314	2496.830568
353.551276	2498.559684
353.941175	2494.375526
354.331010	2497.077584
354.720782	2496.129848
355.110490	2497.191010
355.500135	2496.654128
355.889717	2497.987513
356.279235	2496.117245
356.668689	2499.444406
357.058080	2496.462564
357.447408	2496.689416
357.836672	2493.616832
358.225873	2499.875425
358.615010	2494.403252
359.004084	2499.242760
359.393095	2497.531288
359.782043	2503.411794
360.170927	2502.738800
360.559748	2502.811897
360.948505	2504.069665
361.337199	2504.596465
361.725830	2504.049500
362.114398	2505.826507
362.502903	2505.350118
362.891344	2505.156033
363.279722	2505.584532
363.668037	2511.339009
364.056289	2507.651405
364.444478	2507.593431
364.832603	2509.546878
365.220665	2510.577794
365.608665	2510.416478
365.996601	2513.047960
366.384474	2515.313958
366.772284	2514.698938
367.160031	2516.647344
367.547715	2519.276305
367.935336	2519.261182
368.322893	2523.667150
368.710388	2525.691174
369.097820	2534.402287
369.485189	2536.575025
369.872495	2542.851261
370.259738	2548.184802
370.646918	2554.012376
371.034035	2561.564024
371.421090	2576.289235
371.808081	2583.298959
372.195010	2592.040320
372.581875	2607.804008
372.968678	2619.592746
373.355418	2631.862915
373.742096	2645.731129
374.128710	2662.621515
374.515262	2676.164575
374.901751	2691.419106
375.288177	2704.611806
375.674540	2727.370095
376.060841	2746.849113
376.447079	2765.602206
376.833254	2784.272119
377.219367	2799.531692
377.605417	2836.715242
377.991404	2844.791171
378.377329	2867.584748
378.763191	2882.214177
379.148991	2922.719848
379.534727	2946.559464
379.920402	2975.067189
380.306013	2986.649240
380.691563	3037.716129
381.077049	3061.631363
381.462474	3078.932603
381.847835	3119.433233
382.233134	3140.207827
382.618371	3137.344452
383.003545	3205.705019
383.388657	3215.535269
383.773706	3249.661360
384.158693	3261.114861
384.543618	3288.821043
384.928480	3324.789676
385.313280	3370.386912
385.698017	3369.988661
386.082692	3423.661826
386.467305	3430.006118
386.851856	3457.356898
387.236344	3482.038387
387.620770	3516.529962
388.005133	3538.693395
388.389435	3566.702046
388.773674	3576.267635
389.157851	3621.693473
389.541965	3637.729383
389.926018	3601.183538
390.310008	3672.188190
390.693936	3689.131508
391.077802	3730.136253
391.461606	3722.425809
391.845348	3784.386631
392.229027	3786.551806
392.612645	3797.680153
392.996200	3873.383161
393.379694	3914.753390
393.763125	3981.457937
394.146494	3949.209676
394.529801	4009.728728
394.913047	4056.119946
395.296230	4025.880585
395.679351	4080.254470
396.062410	4102.861525
396.445408	4082.031477
396.828343	4118.610089
397.211217	4140.934839
397.594028	4061.569434
397.976778	4127.205257
398.359466	4154.487981
398.742092	4183.746838
399.124656	4104.610805
399.507158	4188.714895
399.889598	4209.497052
400.271977	4271.694808
400.654294	4240.255652
401.036549	4249.349894
401.418742	4222.092375
401.800874	4322.416378
402.182944	4344.771374
402.564952	4407.145571
402.946898	4397.867327
403.328783	4391.008838
403.710606	4306.259480
404.092367	4497.238552
404.474067	4463.069611
404.855705	4470.795179
405.237282	4397.189292
405.618797	4510.569883
406.000250	4545.457188
406.381642	4623.277480
406.762972	4585.052931
407.144240	4595.354529
407.525447	4590.923355
407.906593	4655.548427
408.287677	4698.481413
408.668700	4627.154128
409.049661	4675.685316
409.430560	4720.130649
409.811399	4646.348321
410.192176	4809.820337
410.572891	4746.218620
410.953545	4848.614537
411.334138	4728.693048
411.714669	4797.903050
412.095139	4690.856668
412.475547	4834.693390
412.855894	4814.304444
413.236180	4824.951361
413.616405	4774.217188
413.996568	4862.553327
414.376670	4807.327487
414.756711	4761.170682
415.136691	4792.095640
415.516609	4871.453484
415.896466	4906.630656
416.276262	4942.533753
416.655997	4924.884674
417.035670	5104.329586
417.415283	5197.346436
417.794834	5138.571624
418.174324	5092.969346
418.553753	5000.748998
418.933121	5183.818500
419.312428	5251.858953
419.691674	5190.785375
420.070859	5319.433100
420.449983	5230.308021
420.829045	5342.146019
421.208047	5255.435652
421.586988	5321.608358
421.965867	5336.497406
422.344686	5465.492971
422.723444	5322.218338
423.102141	5140.903157
423.480777	5440.224187
423.859352	5211.592737
424.237866	5471.968333
424.616319	5458.571467
424.994712	5567.465431
425.373044	5447.773315
425.751314	5590.652218
426.129524	5396.325820
426.507673	5589.472588
426.885762	5667.030740
427.263789	5603.784424
427.641756	5484.803111
428.019662	5598.271922
428.397508	5614.920333
428.775292	5557.368000
429.153016	5657.409698
429.530679	5582.165436
429.908282	5668.984187
430.285824	5538.728334
430.663305	5813.294778
431.040726	5547.784767
431.418086	5544.092121
431.795385	5651.660262
432.172624	5670.226832
432.549802	5658.254091
432.926920	5672.656668
433.303977	5679.295867
433.680974	5716.499583
434.057910	5740.702162
434.434786	5742.143932
434.811601	5715.284665
435.188355	5948.485921
435.565050	5821.615202
435.941683	5803.693900
436.318257	6014.945973
436.694770	6000.898798
437.071222	6034.349374
437.447614	5965.111647
437.823946	5878.991095
438.200218	6035.213932
438.576429	5897.159413
438.952580	5993.561398
439.328670	6042.135436
439.704700	5949.685716
440.080670	5935.575526
440.456580	6208.531322
440.832429	6090.006233
441.208218	5934.143838
441.583947	6095.455720
441.959616	6094.765082
442.335224	6022.989134
442.710773	6158.379403
443.086261	6187.744124
443.461689	5982.264173
443.837057	6132.712368
444.212365	6285.061078
444.587612	6177.074522
444.962800	6332.571433
445.337927	6315.615512
445.712995	5920.903248
446.088002	6498.090157
446.462949	6332.881464
446.837837	6262.224651
447.212664	6433.349139
447.587431	6574.057825
447.962139	7118.777184
448.336786	8040.743728
448.711374	7787.435830
449.085901	6859.321598
449.460369	6781.249248
449.834776	6715.948662
450.209124	7105.067766
450.583412	7253.217195
450.957640	7404.421563
451.331808	7171.157293
451.705917	6718.640638
452.079965	6642.473845
452.453954	6852.306832
452.827883	6729.849644
453.201752	6828.683986
453.575562	6625.311237
453.949311	6828.036197
454.323001	6717.244239
454.696632	6791.311392
455.070202	6927.175529
455.443713	7085.480362
455.817164	7187.251176
456.190556	7267.856706
456.563888	7336.660894
456.937160	7387.868935
457.310373	7041.365225
457.683526	7067.372538
458.056619	6961.036959
458.429653	6945.051460
458.802628	6880.343210
459.175542	6987.515620
459.548398	7347.890064
459.921194	7507.924014
460.293930	7507.888726
460.666607	8037.426649
461.039224	8348.496088
461.411782	8474.658525
461.784280	8496.101073
462.156719	8385.062098
462.529099	8262.390660
462.901419	7851.324893
463.273680	7746.267247
463.645882	7756.964575
464.018024	7619.898123
464.390106	7789.444730
464.762130	8175.667690
465.134094	8642.211355
465.505999	9665.936111
465.877845	10887.964735
466.249631	11536.486492
466.621358	11159.014975
466.993026	10529.657164
467.364634	10278.199369
467.736184	9907.591382
468.107674	9575.205424
468.479105	9606.190876
468.850477	9374.043221
469.221790	9147.269436
469.593043	8815.997572
469.964238	8679.258795
470.335373	8692.842184
470.706449	8751.705217
471.077467	8724.309066
471.448425	10031.563438
471.819324	11110.425813
472.190164	11140.776080
472.560945	9885.853927
472.931667	9100.905944
473.302330	8960.134243
473.672934	8606.920758
474.043479	8971.746541
474.413965	8908.220441
474.784393	8780.026419
475.154761	8946.578581
475.525070	9031.953042
475.895321	8859.916105
476.265513	9035.179380
476.635645	9203.909320
477.005719	9205.169608
477.375734	9325.350716
477.745691	9554.541734
478.115588	9687.986118
478.485427	9938.213871
478.855207	10471.396549
479.224928	11284.166660
479.594591	11913.514389
479.964194	11722.875594
480.333739	11666.419712
480.703226	11584.339645
481.072653	11673.855414
481.442022	11912.337279
481.811333	12098.786875
482.180584	11906.529870
482.549777	11617.676796
482.918912	11438.657861
483.287988	11465.108795
483.657005	11481.270734
484.025964	11149.492235
484.394864	11287.337546
484.763706	11258.895356
485.132489	11017.471978
485.501213	10977.286420
485.869879	11054.655528
486.238487	10895.259285
486.607036	11005.116110
486.975527	10782.191245
487.343959	10973.800462
487.712333	11021.767041
488.080648	10954.182812
488.448905	10999.694349
488.817104	10936.911819
489.185244	11207.352078
489.553326	11360.623320
489.921350	11891.116542
490.289315	12953.511989
490.657222	13293.653762
491.025070	13212.108058
491.392861	13085.517123
491.760593	12703.009493
492.128267	12357.733304
492.495883	12032.684745
492.863440	11693.692355
493.230939	11353.472443
493.598380	11281.663727
493.965763	11154.780406
494.333088	11058.209542
494.700354	10975.340534
495.067563	11038.186079
495.434713	10866.746519
495.801805	10987.280507
496.168839	10917.987327
496.535815	10846.286996
496.902733	10849.906544
497.269593	10783.570001
497.636395	10882.497604
498.003139	10871.127282
498.369825	10742.890410
498.736453	10893.983873
499.103023	10820.859416
499.469535	10849.835968
499.835989	10833.285860
500.202385	10802.865017
500.568723	10654.178705
500.935003	10878.373940
501.301226	10678.996306
501.667390	10936.027096
502.033497	11034.790862
502.399546	10895.912114
502.765537	10808.392643
503.131470	10880.869311
503.497345	11058.562423
503.863163	10664.770169
504.228923	10970.435492
504.594625	11040.164732
504.960269	10791.005703
505.325856	11007.021666
505.691385	10811.379526
506.056856	10958.014089
506.422270	10981.641977
506.787625	10872.027128
507.152924	10998.585295
507.518164	10972.618311
507.883347	10884.176308
508.248472	10805.307456
508.613540	11039.249762
508.978550	10924.175343
509.343503	10900.716334
509.708398	11019.122956
510.073236	11133.665533
510.438016	11135.112344
510.802738	11081.310629
511.167403	11132.702672
511.532010	11034.190964
511.896561	11265.491706
512.261053	11339.591626
512.625488	11204.622294
512.989866	11195.596108
513.354186	11180.530619
513.718449	11082.555794
514.082655	11272.388004
514.446803	11177.989878
514.810894	11289.883329
515.174927	11163.030254
515.538904	11187.232833
515.902822	11341.204795
516.266684	11212.146216
516.630488	11167.156438
516.994235	11226.485778
517.357925	11285.515169
517.721558	11365.102385
518.085133	11389.141127
518.448651	11397.325441
518.812112	11272.448498
519.175516	11296.081427
519.538863	11409.706514
519.902152	11332.707931
520.265385	11495.484268
520.628560	11401.668395
520.991678	11376.563448
521.354739	11444.208171
521.717743	11372.228056
522.080690	11351.614778
522.443580	11486.425314
522.806413	11445.652462
523.169189	11471.584157
523.531908	11527.493074
523.894569	11353.346414
524.257174	11358.460665
524.619722	11477.005918
524.982213	11424.391396
525.344647	11465.630555
525.707025	11418.606672
526.069345	11513.932370
526.431608	11431.630493
526.793815	11552.098946
527.155964	11331.692138
527.518057	11388.369831
527.880093	11339.483241
528.242072	11405.570248
528.603995	11313.173459
528.965860	11235.937941
529.327669	11291.849379
529.689421	11230.697662
530.051117	11206.973992
530.412755	11312.129941
530.774337	11195.767507
531.135862	11180.830568
531.497331	11204.642458
531.858743	11053.251567
532.220098	11216.390867
532.581396	11096.890315
532.942638	11075.203272
533.303824	11037.560976
533.664953	11053.044880
534.026025	10970.513630
534.387040	11066.666077
534.747999	11068.919473
535.108902	11125.839141
535.469748	10881.756554
535.830537	10988.016516
536.191270	10962.967022
536.551947	10992.828297
536.912567	10985.027112
537.273131	10907.355534
537.633638	10889.948429
537.994089	10876.186079
538.354483	10834.498258
538.714821	10977.288940
539.075103	10980.963942
539.435328	10948.493870
539.795497	10774.430389
540.155609	10928.848493
540.515665	11015.412666
540.875665	10752.758469
541.235609	10822.132307
541.595496	10822.311268
541.955328	10983.524848
542.315102	10860.886178
542.674821	10813.864815
543.034483	10806.960955
543.394090	10818.543006
543.753640	10740.397559
544.113134	10962.137753
544.472571	10818.134672
544.831953	10963.531632
545.191278	10764.978226
545.550548	10796.694645
545.909761	10941.544639
546.268918	10914.100598
546.628019	10987.378810
546.987064	10857.165806
547.346053	10774.508527
547.704986	10870.232477
548.063863	10861.145797
548.422684	10855.285456
548.781449	10770.218505
549.140158	10873.839422
549.498811	10746.262942
549.857408	10601.095355
550.215949	10829.464666
550.574434	10690.464931
550.932864	10779.355596
551.291237	10842.798518
551.649555	10788.938830
552.007817	10805.456170
552.366022	10762.918914
552.724173	10756.443552
553.082267	10747.770247
553.440305	10882.106915
553.798288	10674.015646
554.156215	10835.844246
554.514086	10816.029991
554.871902	10662.418471
555.229661	10690.696824
555.587365	10663.290591
555.945014	10572.290202
556.302606	10692.597339
556.660143	10592.616134
557.017625	10742.885369
557.375050	10639.982816
557.732421	10779.048086
558.089735	10688.140959
558.446994	10690.752276
558.804197	10727.056146
559.161345	10724.555733
559.518437	10577.303630
559.875474	10665.859059
560.232455	10697.673781
560.589381	10647.657973
560.946251	10647.421038
561.303065	10749.549774
561.659825	10684.690289
562.016528	10614.890473
562.373177	10491.268777
562.729770	10609.332601
563.086307	10525.155414
563.442789	10617.474064
563.799216	10495.795734
564.155587	10544.984792
564.511904	10501.164562
564.868164	10484.059927
565.224370	10503.208750
565.580520	10428.277040
565.936615	10428.375342
566.292654	10295.775352
566.648638	10430.749726
567.004567	10383.993024
567.360441	10375.629749
567.716260	10280.367065
568.072023	10373.583041
568.427732	10328.230300
568.783385	10241.918185
569.138982	10307.816148
569.494525	10321.616307
569.850013	10205.261435
570.205445	10280.795563
570.560823	10175.480818
570.916145	10092.407644
571.271412	10163.535804
571.626625	10110.865829
571.981782	10087.905894
572.336884	10066.271782
572.691931	10063.927645
573.046923	10010.093163
573.401860	9969.731165
573.756743	9906.633563
574.111570	9948.802815
574.466342	9928.454198
574.821059	9961.083066
575.175722	9849.923103
575.530330	9856.927786
575.884882	9856.499288
576.239380	9780.138410
576.593823	9760.949258
576.948211	9773.854612
577.302544	9658.780193
577.656823	9670.014404
578.011047	9672.371144
578.365216	9640.059868
578.719330	9569.312315
579.073389	9577.035363
579.427394	9526.064256
579.781344	9499.484773
580.135239	9452.712947
580.489080	9457.391138
580.842866	9356.933545
581.196597	9364.097024
581.550273	9400.526923
581.903895	9374.776709
582.257463	9436.566132
582.610975	9320.483482
582.964434	9343.554323
583.317837	9266.565821
583.671186	9245.113191
584.024481	9239.089012
584.377721	9167.998660
584.730906	9136.693095
585.084037	9170.405811
585.437113	9106.660421
585.790135	9128.748237
586.143103	9027.877269
586.496016	8995.127413
586.848874	9059.444974
587.201679	9048.064569
587.554428	8931.913864
587.907124	8976.754927
588.259765	8947.828787
588.612352	8955.556876
588.964884	8829.341507
589.317362	8843.721398
589.669786	8851.457049
590.022155	8896.963544
590.374470	8905.223475
590.726731	8848.119805
591.078937	8692.811937
591.431090	8810.278383
591.783188	8684.060494
592.135232	8676.670162
592.487222	8670.739245
592.839157	8724.233449
593.191038	8657.337337
593.542866	8606.988813
593.894639	8505.782609
594.246358	8559.170949
594.598022	8573.069410
594.949633	8471.560736
595.301190	8442.841283
595.652692	8469.768606
596.004141	8582.088034
596.355535	8362.749951
596.706876	8343.477620
597.058162	8268.634129
597.409395	8348.634720
597.760573	8416.337416
598.111698	8322.582037
598.462768	8307.075448
598.813785	8269.796115
599.164748	8242.553720
599.515657	8227.757933
599.866511	8148.153073
600.217312	8268.676979
600.568060	8126.546687
600.918753	8233.721618
601.269392	8196.452368
601.619978	8109.812577
601.970510	8177.054008
602.320988	8172.141403
602.671412	8227.836071
603.021783	8166.512955
603.372100	8141.234089
603.722363	8138.418605
604.072572	8117.157538
604.422728	8125.024259
604.772830	8058.919608
605.122878	8063.491935
605.472872	8060.976399
605.822813	8092.173580
606.172701	8036.930095
606.522534	8109.416847
606.872314	8103.876618
607.222041	8078.605314
607.571714	8135.514900
607.921333	8090.134433
608.270899	8097.297913
608.620411	8188.648662
608.969870	8087.649144
609.319276	8081.950120
609.668627	8102.273532
610.017926	8134.317626
610.367171	8185.719751
610.716362	8156.304618
611.065500	8148.163155
611.414585	8173.850354
611.763616	8161.978437
612.112594	8148.589132
612.461518	8160.645052
612.810389	8222.673929
613.159207	8163.412645
613.507971	8106.540868
613.856682	8227.037048
614.205340	8181.228083
614.553945	8254.584433
614.902496	8157.413672
615.250994	8216.395172
615.599439	8192.091770
615.947830	8202.219448
616.296169	8176.731374
616.644454	8195.741565
616.992686	8189.745112
617.340864	8250.014627
617.688990	8149.753639
618.037063	8242.929286
618.385082	8192.958848
618.733048	8280.213659
619.080961	8220.702838
619.428821	8235.816218
619.776628	8237.908296
620.124382	8189.145215
620.472083	8173.878081
620.819731	8200.664252
621.167326	8097.597861
621.514868	8106.742514
621.862357	7989.492838
622.209793	8009.743153
622.557176	7939.756814
622.904506	7921.235615
623.251783	7849.124429
623.599007	7805.546175
623.946179	7811.323337
624.293297	7766.300792
624.640363	7685.705345
624.987376	7660.577714
625.334336	7609.457893
625.681243	7555.207516
626.028097	7548.190230
626.374899	7525.091663
626.721647	7519.813575
627.068343	7451.180786
627.414987	7417.815909
627.761577	7375.747480
628.108115	7405.931389
628.454600	7304.299207
628.801032	7359.761982
629.147412	7318.341341
629.493739	7302.310472
629.840014	7242.940803
630.186236	7298.827034
630.532405	7180.528798
630.878521	7235.081644
631.224585	7187.672113
631.570597	7110.381142
631.916556	7145.681822
632.262462	7141.306100
632.608316	7104.099864
632.954117	7078.105154
633.299866	7064.806591
633.645562	7058.255611
633.991206	6979.621173
634.336797	6921.277379
634.682336	6878.717438
635.027823	6848.387335
635.373257	6836.868299
635.718639	6768.737105
636.063968	6782.771677
636.409245	6671.316807
636.754470	6678.293763
637.099642	6628.782071
637.444762	6577.100162
637.789829	6588.052068
638.134845	6531.336567
638.479808	6510.070460
638.824719	6517.201172
639.169577	6445.473114
639.514383	6468.193595
639.859137	6394.318006
640.203839	6400.879067
640.548489	6385.574124
640.893086	6370.763214
641.237632	6339.714748
641.582125	6361.074117
641.926566	6326.806873
642.270955	6338.678791
642.615292	6339.046795
642.959576	6355.095308
643.303809	6342.923442
643.647990	6349.449216
643.992118	6337.209294
644.336195	6284.166273
644.680219	6306.859027
645.024192	6298.001720
645.368112	6394.648201
645.711981	6416.007570
646.055797	6494.102605
646.399562	6448.283558
646.743274	6578.607467
647.086935	6631.148893
647.430544	6627.000023
647.774101	6646.232025
648.117606	6648.243445
648.461059	6644.117261
648.804460	6604.355160
649.147810	6515.202354
649.491108	6484.196737
649.834354	6465.579756
650.177548	6376.411827
650.520690	6292.476616
650.863781	6268.079952
651.206820	6285.252642
651.549807	6211.699687
651.892742	6149.524616
652.235626	6151.541077
652.578458	6141.221836
652.921238	6049.742537
653.263967	6088.854329
653.606644	6031.034815
653.949269	6033.421802
654.291843	5972.887626
654.634365	6023.389906
654.976836	5973.769828
655.319255	5976.250076
655.661622	5955.316685
656.003938	5949.037928
656.346203	5909.729530
656.688416	5944.780673
657.030577	5893.895266
657.372687	5863.489547
657.714746	5849.086970
658.056753	5896.335185
658.398708	5831.478220
658.740612	5831.354712
659.082465	5878.189551
659.424266	5864.855699
659.766016	5869.269230
660.107715	5839.493654
660.449362	5856.779771
660.790958	5851.534450
661.132503	5837.971226
661.473996	5878.854984
661.815438	5865.523652
662.156829	5858.861768
662.498168	5851.675603
662.839456	5829.716337
663.180693	5859.990986
663.521879	5865.881574
663.863013	5849.071847
664.204097	5872.092276
664.545129	5916.875366
664.886110	5905.270630
665.227040	5941.642555
665.567918	5907.884468
665.908746	5936.709786
666.249522	5940.588954
666.590248	5923.675883
666.930922	5953.093536
667.271545	5961.910514
667.612118	5967.299507
667.952639	5945.738492
668.293109	5964.355473
668.633528	5924.671510
668.973896	5925.936840
669.314213	5918.390233
669.654480	5894.293517
669.994695	5888.750769
670.334859	5879.901023
670.674973	5870.892481
671.015035	5876.795672
671.355047	5873.309714
671.695008	5862.128435
672.034918	5829.920503
672.374777	5847.269634
672.714585	5829.663404
673.054342	5831.992418
673.394049	5827.803219
673.733705	5858.985276
674.073310	5840.360733
674.412864	5801.193488
674.752368	5792.817611
675.091820	5797.934382
675.431223	5737.664867
675.770574	5735.587912
676.109875	5686.330798
676.449125	5689.647877
676.788324	5660.343650
677.127473	5603.454228
677.466571	5597.230924
677.805619	5581.651238
678.144616	5571.190844
678.483562	5552.586466
678.822458	5518.175549
679.161303	5513.058778
679.500098	5502.119474
679.838842	5487.081712
680.177535	5492.231251
680.516179	5506.321276
680.854771	5519.516496
681.193314	5594.644812
681.531805	5706.702100
681.870247	5859.905286
682.208638	5959.538651
682.546978	5970.767821
682.885268	5951.959276
683.223508	5864.714547
683.561697	5809.367719
683.899836	5786.271673
684.237925	5736.454990
684.575963	5703.153128
684.913951	5661.944216
685.251889	5718.926898
685.589776	5686.658473
685.927614	5663.126367
686.265401	5733.120267
686.603137	5715.103183
686.940824	5794.201408
687.278460	5814.517258
687.616046	5824.077806
687.953582	5889.955604
688.291068	5876.740220
688.628504	5937.281957
688.965889	5902.601339
689.303224	5845.051527
689.640510	5796.071676
689.977745	5721.472681
690.314930	5623.984327
690.652065	5561.567281
690.989150	5477.216174
691.326185	5395.970418
691.663170	5342.692984
692.000105	5266.430409
692.336990	5185.978634
692.673825	5165.322507
693.010610	5097.120736
693.347345	5026.123646
693.684030	5014.347511
694.020665	4973.867045
694.357251	4879.262232
694.693786	4890.093151
695.030272	4856.879508
695.366707	4822.869364
695.703093	4791.878871
696.039429	4809.835461
696.375716	4792.526659
696.711952	4765.800982
697.048139	4754.728087
697.384276	4732.998194
697.720363	4743.763578
698.056400	4753.843365
698.392388	4707.084142
698.728326	4682.483312
699.064214	4662.767359
699.400053	4655.893746
699.735842	4621.883601
700.071581	4601.376188
700.407270	4572.893668
700.742910	4558.508736
701.078501	4498.955065
701.414042	4501.294160
701.749533	4471.778204
702.084974	4404.022576
702.420366	4456.720278
702.755709	4402.200199
703.091002	4344.892362
703.426246	4393.521853
703.761440	4352.204556
704.096584	4312.596210
704.431679	4332.133202
704.766725	4316.087209
705.101721	4307.975993
705.436668	4334.905836
705.771565	4282.941623
706.106413	4311.063699
706.441212	4341.413966
706.775961	4349.172302
707.110661	4332.176052
707.445311	4363.879868
707.779913	4379.086509
708.114465	4395.152666
708.448967	4416.247374
708.783421	4476.569821
709.117825	4519.643960
709.452180	4523.898694
709.786485	4569.805962
710.120742	4656.483561
710.454949	4639.351199
710.789107	4705.914595
711.123216	4782.761944
711.457275	4774.943114
711.791286	4845.060523
712.125247	4862.951578
712.459159	4763.101444
712.793023	4838.897713
713.126837	4797.782062
713.460602	4792.929951
713.794318	4711.527920
714.127985	4720.319692
714.461602	4633.117813
714.795171	4604.365592
715.128691	4538.772618
715.462162	4482.047035
715.795584	4431.950568
716.128957	4417.822735
716.462281	4364.827605
716.795556	4338.379191
717.128782	4295.547028
717.461960	4230.790886
717.795088	4239.302874
718.128167	4200.175959
718.461198	4139.127586
718.794180	4137.668172
719.127113	4113.405098
719.459997	4095.992953
719.792833	4053.501067
720.125619	4043.557391
720.458357	4002.971061
720.791046	4009.930374
721.123686	3984.885922
721.456278	3943.230868
721.788821	3955.180923
722.121315	3929.818878
722.453761	3905.190321
722.786158	3920.235644
723.118506	3942.462092
723.450805	3897.212695
723.783056	3918.914862
724.115259	3929.808796
724.447412	3938.358592
724.779518	3928.377108
725.111574	3931.225360
725.443582	3963.024958
725.775542	3949.905355
726.107453	3998.718848
726.439315	3995.999146
726.771129	4010.840302
727.102895	4049.710119
727.434612	4091.816357
727.766281	4107.998461
728.097901	4105.309005
728.429473	4110.761013
728.760996	4121.720481
729.092471	4121.871716
729.423897	4103.370681
729.755276	4105.056947
730.086606	4104.895630
730.417887	4143.883914
730.749120	4203.961865
731.080305	4272.665230
731.411442	4298.042399
731.742530	4264.785907
732.073570	4269.731279
732.404562	4323.238086
732.735506	4320.939320
733.066401	4281.741828
733.397249	4216.393351
733.728048	4138.963748
734.058798	4058.010379
734.389501	3989.246520
734.720156	3923.857713
735.050762	3880.680231
735.381320	3878.416753
735.711831	3825.192250
736.042293	3791.673618
736.372707	3813.363183
736.703073	3788.311169
737.033391	3775.030249
737.363661	3794.070687
737.693883	3823.122857
738.024056	3830.493024
738.354182	3825.081345
738.684260	3884.672825
739.014290	3904.971031
739.344272	3901.807707
739.674207	3941.441258
740.004093	3948.488791
740.333931	3944.891928
740.663722	3943.525775
740.993464	3940.876649
741.323159	3915.353287
741.652806	3891.233886
741.982405	3861.528887
742.311956	3828.985719
742.641460	3819.278977
742.970915	3795.514978
743.300323	3756.990480
743.629683	3722.077969
743.958996	3711.438614
744.288260	3684.692772
744.617477	3653.858555
744.946647	3637.557984
745.275768	3613.609982
745.604842	3611.162502
745.933869	3565.444278
746.262847	3555.172927
746.591778	3592.341354
746.920662	3567.014597
747.249498	3530.801469
747.578286	3580.986155
747.907027	3598.660441
748.235720	3595.749174
748.564365	3618.915797
748.892963	3618.419243
749.221514	3600.659258
749.550017	3575.395516
749.878473	3577.739652
750.206881	3547.162533
750.535242	3540.495607
750.863555	3545.345197
751.191821	3539.041235
751.520039	3521.228317
751.848210	3497.141684
752.176334	3532.081922
752.504411	3539.154661
752.832440	3500.040348
753.160421	3480.457986
753.488356	3489.728668
753.816243	3503.256604
754.144082	3459.958134
754.471875	3445.202676
754.799620	3464.681695
755.127318	3456.686425
755.454969	3453.293728
755.782572	3463.408803
756.110129	3439.692695
756.437638	3427.036878
756.765100	3440.279990
757.092515	3449.714509
757.419882	3455.705920
757.747203	3426.734409
758.074477	3431.291612
758.401703	3444.509518
758.728882	3469.150678
759.056014	3478.900269
759.383099	3482.330774
759.710138	3474.448930
760.037129	3495.939369
760.364073	3523.748894
760.690970	3508.902696
761.017820	3486.214983
761.344623	3503.095287
761.671379	3547.850651
761.998088	3596.117178
762.324751	3725.332034
762.651366	3967.998057
762.977935	4433.364612
763.304456	4873.096900
763.630931	4970.081139
763.957359	4616.885297
764.283740	4273.481897
764.610074	4085.109102
764.936362	3887.137949
765.262602	3729.745564
765.588796	3620.768421
765.914943	3532.654093
766.241044	3447.846762
766.567097	3416.372317
766.893104	3369.532437
767.219064	3338.579752
767.544978	3311.629743
767.870845	3258.871548
768.196665	3240.473857
768.522438	3246.800505
768.848165	3241.139289
769.173846	3207.691233
769.499479	3187.791279
769.825066	3173.161850
770.150607	3155.608552
770.476101	3171.218485
770.801548	3168.730676
771.126949	3123.642596
771.452303	3106.565687
771.777611	3110.344032
772.102872	3114.621451
772.428087	3092.573965
772.753256	3080.336564
773.078378	3074.882035
773.403453	3042.505225
773.728482	3027.815303
774.053465	3049.933365
774.378401	3038.842827
774.703291	3006.970131
775.028135	3006.506345
775.352932	3002.319667
775.677683	2992.605363
776.002388	2985.635968
776.327046	2989.162255
776.651658	2978.391830
776.976224	2966.892958
777.300743	2967.719708
777.625216	2958.030610
777.949643	2952.311421
778.274024	2957.045064
778.598359	2945.561316
778.922647	2949.896708
779.246889	2946.108281
779.571086	2932.971034
779.895236	2929.200251
780.219339	2936.940943
780.543397	2949.332099
780.867409	2952.066925
781.191374	2943.393620
781.515294	2941.107456
781.839167	2942.869340
782.162995	2934.735438
782.486776	2944.190122
782.810511	2941.077209
783.134201	2930.730241
783.457844	2930.982299
783.781441	2924.491813
784.104993	2904.954822
784.428498	2906.570511
784.751958	2921.046185
785.075372	2915.856317
785.398739	2897.370406
785.722061	2915.795823
786.045337	2926.354520
786.368568	2912.151069
786.691752	2901.942732
787.014891	2949.506019
787.337983	2980.297386
787.661030	3006.713033
787.984031	3076.031418
788.306987	3119.390383
788.629897	3111.443004
788.952760	3092.589088
789.275579	3080.828076
789.598351	3023.051412
789.921078	2977.237406
790.243759	2969.670634
790.566395	2952.906277
790.888984	2928.058430
791.211529	2914.391862
791.534027	2902.673699
791.856480	2894.118861
792.178888	2876.827704
792.501249	2868.265304
792.823566	2868.141796
793.145836	2862.868749
793.468062	2860.839684
793.790241	2859.554190
794.112375	2864.285313
794.434464	2879.265102
794.756507	2879.648229
795.078505	2886.400855
795.400457	2900.173287
795.722364	2937.313988
796.044226	2960.152936
796.366042	2965.990592
796.687812	2952.664302
797.009538	2974.598362
797.331218	2960.311732
797.652852	2944.676593
797.974442	2923.675146
798.295986	2922.687080
798.617484	2916.652819
798.938938	2905.355593
799.260346	2888.296329
799.581709	2882.342726
799.903026	2875.287631
800.224299	2869.218082
800.545526	2858.641741
800.866708	2847.125225
801.187845	2836.843792
801.508936	2836.783298
801.829983	2844.118177
802.150984	2829.342555
802.471940	2818.536842
802.792851	2819.003148
803.113717	2816.588436
803.434538	2822.239569
803.755314	2816.739670
804.076045	2809.699699
804.396731	2810.385296
804.717372	2810.511325
805.037967	2805.722229
805.358518	2811.695996
805.679024	2821.770742
805.999485	2819.804692
806.319901	2820.444918
806.640272	2812.621048
806.960598	2819.207315
807.280879	2829.440857
807.601115	2837.330263
807.921306	2824.576144
808.241453	2819.305618
808.561554	2827.225270
808.881611	2826.138902
809.201623	2822.063129
809.521590	2821.576657
809.841513	2817.722695
810.161390	2819.466935
810.481223	2812.215235
810.801011	2804.610654
811.120755	2805.288689
811.440453	2806.322126
811.760107	2805.591159
812.079716	2804.177115
812.399281	2793.308387
812.718801	2785.955864
813.038276	2782.608538
813.357707	2789.162038
813.677093	2796.383491
813.996434	2788.824281
814.315731	2784.796399
814.634983	2781.383538
814.954191	2781.340688
815.273354	2795.443316
815.592473	2805.046714
815.911547	2805.669297
816.230577	2812.827735
816.549562	2819.257727
816.868502	2819.736636
817.187399	2830.466732
817.506250	2849.466841
817.825058	2838.769513
818.143821	2853.124198
818.462539	2865.255735
818.781213	2891.033675
819.099843	2928.428954
819.418429	2985.126812
819.736970	3047.306924
820.055466	3118.273767
820.373919	3217.463510
820.692327	3353.700693
821.010691	3520.762011
821.329011	3954.704534
821.647286	4843.386860
821.965517	6206.998811
822.283704	6959.141485
822.601847	6937.736746
822.919945	6296.446524
823.237999	5786.052383
823.556010	5219.131783
823.873976	4676.282692
824.191897	4265.370681
824.509775	3979.141527
824.827609	3712.434242
825.145398	3592.575768
825.463144	3576.799477
825.780845	3668.424969
826.098502	3771.509003
826.416116	4043.310374
826.733685	4361.971791
827.051210	4426.178447
827.368692	4312.591169
827.686129	4048.734656
828.003522	3727.482086
828.320872	3475.605875
828.638177	3286.156793
828.955439	3151.928510
829.272656	3069.578742
829.589830	3003.325377
829.906960	2954.007769
830.224046	2912.135945
830.541088	2878.433311
830.858086	2862.435209
831.175041	2844.458455
831.491952	2847.427694
831.808819	2860.224663
832.125642	2884.470093
832.442421	2925.792431
832.759157	3003.075840
833.075849	3175.742921
833.392497	3456.071404
833.709101	3653.137670
834.025662	3605.387860
834.342179	3447.793829
834.658653	3275.207407
834.975083	3130.090232
835.291469	3035.770243
835.607811	2951.870320
835.924110	2893.884448
836.240366	2844.876871
836.556578	2803.191569
836.872746	2778.794905
837.188871	2761.496186
837.504952	2744.598238
837.820990	2736.000550
838.136984	2722.071842
838.452935	2716.287118
838.768842	2712.234031
839.084706	2732.179356
839.400526	2809.248516
839.716303	2937.571087
840.032037	3016.933972
840.347727	3005.178001
840.663373	2942.521500
840.978977	2868.101466
841.294537	2799.473718
841.610054	2748.825246
841.925527	2729.283213
842.240957	2707.230685
842.556344	2687.204702
842.871687	2674.233813
843.186987	2664.269972
843.502244	2659.279230
843.817458	2654.142294
844.132629	2642.971097
844.447756	2633.977679
844.762840	2629.753192
845.077881	2631.993985
845.392879	2629.072636
845.707833	2628.077008
846.022745	2616.373970
846.337613	2619.421347
846.652438	2621.508385
846.967221	2620.109465
847.281960	2618.576954
847.596656	2614.816253
847.911309	2617.772890
848.225919	2613.601335
848.540485	2610.097733
848.855009	2608.973556
849.169490	2611.201746
849.483928	2608.925665
849.798323	2609.538165
850.112675	2607.173864
850.426984	2611.481530
850.741251	2605.568256
851.055474	2608.650922
851.369654	2612.729215
851.683792	2608.590428
851.997887	2607.050356
852.311938	2606.100098
852.625947	2606.389964
852.939914	2608.814759
853.253837	2611.804164
853.567718	2608.746704
853.881555	2607.924996
854.195350	2608.290479
854.509103	2610.241406
854.822812	2604.595314
855.136479	2605.374172
855.450103	2608.121601
855.763685	2611.259719
856.077224	2606.503390
856.390720	2605.411981
856.704173	2606.120263
857.017584	2612.124277
857.330953	2612.174688
857.644278	2616.154679
857.957561	2614.049998
858.270802	2607.751076
858.584000	2610.957250
858.897155	2611.385748
859.210268	2612.320882
859.523339	2609.868361
859.836367	2602.717484
860.149352	2606.107660
860.462295	2605.568256
860.775195	2602.195724
861.088054	2603.806373
861.400869	2599.861670
861.713642	2600.295209
862.026373	2603.208996
862.339062	2603.541712
862.651708	2609.482712
862.964312	2610.974894
863.276873	2608.184615
863.589392	2613.694596
863.901869	2618.385390
864.214303	2618.892026
864.526696	2623.050978
864.839045	2623.159363
865.151353	2627.351082
865.463619	2626.496607
865.775842	2625.934518
866.088023	2625.828654
866.400162	2625.785804
866.712258	2625.319497
867.024313	2625.132974
867.336325	2621.339506
867.648296	2626.231946
867.960224	2629.735548
868.272110	2627.983747
868.583954	2619.958230
868.895755	2625.173304
869.207515	2626.829323
869.519233	2633.985241
869.830909	2633.516413
870.142542	2627.252780
870.454134	2628.097173
870.765684	2633.029942
871.077191	2633.977679
871.388657	2638.358442
871.700081	2635.106897
872.011463	2636.951960
872.322803	2637.388019
872.634101	2639.026394
872.945357	2649.191881
873.256571	2654.631286
873.567744	2649.277581
873.878874	2649.549803
874.189963	2648.985194
874.501010	2654.414517
874.812015	2659.758140
875.122979	2659.954745
875.433900	2648.085348
875.744780	2647.256078
876.055618	2656.340237
876.366415	2660.385763
876.677169	2656.708242
876.987882	2650.159783
877.298554	2653.481903
877.609183	2661.459529
877.919771	2668.232319
878.230317	2673.018895
878.540822	2683.789320
878.851285	2696.805579
879.161707	2719.412634
879.472087	2758.330341
879.782425	2802.301806
880.092722	2912.312386
880.402977	3096.062443
880.713191	3352.205991
881.023363	3648.978718
881.333494	3840.477029
881.643583	4007.964324
881.953631	4005.232019
882.263637	3823.395079
882.573602	3610.383644
882.883526	3476.888849
883.193408	3362.464739
883.503248	3265.281375
883.813048	3151.522697
884.122806	3040.014895
884.432522	2958.766618
884.742197	2894.020559
885.051831	2859.965044
885.361424	2823.779642
885.670975	2788.040382
885.980485	2759.880496
886.289954	2740.988772
886.599382	2727.546535
886.908768	2717.469269
887.218113	2700.299099
887.527417	2688.497758
887.836680	2677.329081
888.145901	2674.606858
888.455082	2666.256187
888.764221	2656.219250
889.073319	2647.177940
889.382376	2647.871099
889.691392	2648.355050
890.000366	2649.617859
890.309300	2648.733136
890.618193	2650.986532
890.927044	2651.326810
891.235855	2653.857469
891.544625	2654.979126
891.853353	2652.266985
892.162041	2657.247645
892.470687	2678.002075
892.779293	2688.999352
893.087858	2699.492514
893.396381	2722.308777
893.704864	2763.615991
894.013306	2829.098059
894.321707	2923.788572
894.630068	2969.680716
894.938387	2988.464056
895.246665	2982.578508
895.554903	2939.721139
895.863100	2892.598953
896.171256	2839.409739
896.479371	2783.664660
896.787446	2744.404154
897.095480	2727.047461
897.403473	2717.101265
897.711425	2705.582228
898.019336	2685.273940
898.327207	2674.085099
898.635038	2671.395643
898.942827	2670.407577
899.250576	2660.882317
899.558284	2649.542241
899.865952	2646.152065
900.173579	2643.520583
900.481165	2640.765592
900.788711	2632.588841
901.096216	2628.916360
901.403681	2623.429064
901.711105	2624.994343
902.018489	2623.648355
902.325832	2627.514920
902.633135	2627.986267
902.940397	2643.334060
903.247619	2678.811181
903.554800	2746.380286
903.861941	2870.493494
904.169041	2996.492093
904.476101	3058.009293
904.783121	3048.211811
905.090100	2991.052688
905.397039	2917.656009
905.703938	2842.550378
906.010796	2784.320010
906.317614	2734.442834
906.624391	2698.083512
906.931129	2672.935716
907.237826	2650.951244
907.544483	2636.657052
907.851099	2618.894547
908.157675	2610.622013
908.464211	2602.644387
908.770707	2593.219950
909.077163	2591.780701
909.383578	2587.203333
909.689954	2586.338775
909.996289	2582.247879
910.302584	2582.938517
910.608839	2581.045563
910.915054	2580.977508
911.221229	2585.214598
911.527363	2584.697879
911.833458	2582.270564
912.139513	2586.023703
912.445527	2586.023703
912.751502	2593.073757
913.057436	2595.228850
913.363331	2604.207145
913.669186	2616.005965
913.975000	2625.296812
914.280775	2641.171405
914.586510	2661.209992
914.892205	2697.435723
915.197859	2764.467946
915.503475	2843.946778
915.809050	2906.812487
916.114585	2926.299067
916.420081	2937.419852
916.725536	2945.510904
917.030952	2920.834456
917.336328	2877.304093
917.641665	2828.117555
917.946961	2776.755759
918.252218	2743.413567
918.557435	2718.923642
918.862612	2696.455219
919.167750	2681.203208
919.472848	2663.775939
919.777906	2649.232210
920.082925	2639.220479
920.387904	2627.973665
920.692843	2621.735237
920.997743	2618.614762
921.302603	2614.433125
921.607423	2603.665221
921.912204	2598.981989
922.216946	2596.622729
922.521647	2596.211875
922.826310	2593.063674
923.130932	2586.908425
923.435516	2580.281829
923.740059	2582.739391
924.044564	2578.661098
924.349028	2579.482806
924.653454	2568.979562
924.957840	2566.156516
925.262186	2565.173491
925.566493	2566.668193
925.870761	2562.360527
926.174989	2564.250959
926.479178	2561.760629
926.783328	2559.081256
927.087438	2560.326421
927.391509	2558.423386
927.695541	2554.934907
927.999533	2557.205947
928.303486	2553.079763
928.607400	2556.391801
928.911275	2554.851728
929.215110	2553.755277
929.518906	2550.844011
929.822663	2553.848538
930.126381	2551.201933
930.430060	2552.159752
930.733699	2552.941131
931.037299	2555.267623
931.340861	2553.099927
931.644383	2552.767211
931.947866	2554.934907
932.251309	2551.093548
932.554714	2557.427758
932.858080	2554.619835
933.161407	2555.186965
933.464694	2552.222766
933.767943	2550.649926
934.071153	2551.806871
934.374323	2550.332334
934.677455	2551.806871
934.980548	2551.136398
935.283602	2550.985163
935.586617	2547.390820
935.889593	2550.173537
936.192530	2549.026675
936.495428	2550.249155
936.798287	2551.869886
937.101108	2550.556665
937.403890	2557.271482
937.706632	2554.743343
938.009336	2561.478325
938.312002	2566.343038
938.614628	2568.281362
938.917216	2570.317988
939.219765	2570.517114
939.522275	2570.990982
939.824747	2573.851837
940.127179	2568.535940
940.429573	2564.296330
940.731929	2563.943449
941.034246	2560.961607
941.336524	2564.407235
941.638763	2563.008315
941.940964	2562.849519
942.243126	2560.956565
942.545250	2559.872717
942.847335	2558.176369
943.149381	2555.113868
943.451389	2556.316183
943.753359	2555.554969
944.055290	2555.431461
944.357182	2554.130843
944.659036	2551.854762
944.960851	2553.790565
945.262628	2552.873075
945.564367	2553.195709
945.866067	2553.929197
946.167729	2552.868034
946.469352	2554.826522
946.770937	2555.507078
947.072484	2552.689073
947.373992	2553.457849
947.675462	2553.498178
947.976893	2553.334341
948.278286	2549.939124
948.579641	2548.522559
948.880958	2548.658671
949.182236	2549.261088
949.483476	2548.358722
949.784678	2549.906356
950.085841	2549.258568
950.386967	2552.179917
950.688054	2550.239072
950.989103	2551.345606
951.290114	2551.489278
951.591087	2553.679660
951.892021	2557.450443
952.192917	2558.435988
952.493776	2554.944989
952.794596	2556.732078
953.095378	2560.011349
953.396122	2555.572613
953.696828	2557.924311
953.997496	2554.304763
954.298126	2552.671429
954.598718	2555.134033
954.899272	2550.667570
955.199788	2548.313352
955.500266	2546.959802
955.800706	2546.248999
956.101108	2542.755479
956.401472	2545.356715
956.701798	2540.607948
957.002087	2540.832279
957.302337	2542.843700
957.602550	2540.625592
957.902724	2541.895963
958.202861	2540.078627
958.502960	2540.146682
958.803022	2539.476209
959.103045	2540.353370
959.403031	2539.317413
959.702979	2538.828421
960.002889	2539.629964
960.302762	2535.042514
960.602596	2537.479912
960.902393	2535.561753
961.202153	2534.724921
961.501875	2535.128214
961.801559	2536.786753
962.101205	2534.155271
962.400814	2535.743234
962.700385	2533.656197
962.999918	2536.396064
963.299414	2536.063348
963.598873	2536.796836
963.898293	2535.904551
964.197677	2535.476053
964.497022	2536.244829
964.796331	2535.097967
965.095601	2535.846578
965.394835	2537.066537
965.694030	2536.393543
965.993189	2535.924716
966.292309	2533.772143
966.591393	2532.602596
966.890439	2533.457071
967.189447	2537.038811
967.488419	2533.578059
967.787353	2535.428162
968.086249	2533.948584
968.385108	2535.135775
968.683930	2533.512524
968.982714	2537.157278
969.281462	2535.488656
969.580172	2536.106197
969.878844	2535.707946
970.177480	2536.441434
970.476078	2535.597041
970.774639	2538.006713
971.073162	2536.201979
971.371649	2536.491846
971.670098	2534.876156
971.968510	2533.532688
972.266885	2532.166536
972.565223	2533.998995
972.863524	2536.857329
973.161788	2536.512010
973.460014	2536.539737
973.758204	2535.443286
974.056356	2536.680889
974.354471	2534.656866
974.652550	2535.483615
974.950591	2534.646783
975.248595	2536.900179
975.546563	2537.003523
975.844493	2533.971269
976.142386	2536.927906
976.440243	2535.344983
976.738062	2535.740714
977.035845	2536.199459
977.333590	2533.794828
977.631299	2537.043852
977.928971	2534.407329
978.226606	2533.406660
978.524204	2533.862884
978.821765	2531.909437
979.119290	2533.663758
979.416777	2535.143337
979.714228	2536.043183
980.011642	2535.392874
980.309020	2536.448996
980.606360	2535.350024
980.903664	2534.004036
981.200931	2535.705426
981.498162	2535.118131
981.795356	2538.094933
982.092513	2539.110725
982.389633	2543.398227
982.686717	2546.531304
982.983764	2549.130018
983.280775	2550.667570
983.577749	2548.114226
983.874686	2548.724206
984.171587	2546.430481
984.468451	2541.298586
984.765279	2541.417053
985.062070	2542.304296
985.358824	2536.988399
985.655543	2537.832793
985.952224	2537.157278
986.248869	2536.204500
986.545478	2529.227543
986.842050	2535.418080
987.138586	2529.139323
987.435086	2530.339118
987.731549	2527.581606
988.027975	2533.996475
988.324366	2530.152595
988.620719	2533.298275
988.917037	2531.206196
989.213318	2531.851464
989.509563	2530.918850
989.805772	2531.632173
990.101944	2532.368182
990.398080	2532.053110
990.694180	2529.209899
990.990244	2532.111083
991.286271	2527.969775
991.582262	2532.829448
991.878217	2532.766433
992.174136	2530.941535
992.470019	2529.731658
992.765865	2532.975641
993.061676	2533.905734
993.357450	2532.983203
993.653188	2529.038500
993.948890	2532.153933
994.244556	2530.031607
994.540186	2534.230888
994.835780	2530.034128
995.131337	2536.012936
995.426859	2531.609488
995.722345	2532.116124
996.017795	2535.075282
996.313208	2538.470499
996.608586	2534.644263
996.903928	2536.723739
997.199234	2536.126362
997.494504	2534.929088
997.789738	2536.446475
998.084936	2532.922709
998.380099	2534.218285
998.675225	2533.943543
998.970316	2533.268028
999.265371	2534.220806
999.560390	2531.717873
999.855373	2531.677544
1000.150320	2531.869108
1000.445232	2531.992616
1000.740108	2531.438089
1001.034948	2526.974147
1001.329752	2529.426669
1001.624521	2531.785929
1001.919254	2524.398118
1002.213951	2527.448016
1002.508613	2526.162522
1002.803239	2527.659744
1003.097829	2524.919877
1003.392384	2531.032276
1003.686903	2531.586803
1003.981386	2531.599406
1004.275834	2530.760054
1004.570246	2531.261649
1004.864623	2529.847605
1005.158964	2527.274096
1005.453270	2531.987575
1005.747540	2528.957841
1006.041775	2529.426669
1006.335974	2529.245187
1006.630138	2529.572862
1006.924266	2531.644776
1007.218359	2527.349713
1007.512416	2529.953469
1007.806438	2531.022194
1008.100425	2532.433717
1008.394376	2525.860052
1008.688292	2531.291896
1008.982172	2528.121010
1009.276017	2530.578572
1009.569827	2530.334076
1009.863602	2530.008922
1010.157341	2528.995650
1010.451045	2527.871473
1010.744714	2530.684437
1011.038347	2529.169570
1011.331945	2529.487163
1011.625508	2532.688295
1011.919036	2526.555732
1012.212528	2527.566483
1012.505986	2528.652852
1012.799408	2529.353572
1013.092795	2531.778367
1013.386147	2529.046062
1013.679464	2529.686288
1013.972745	2527.243849
1014.265992	2528.378109
1014.559204	2529.567821
1014.852380	2529.746782
1015.145521	2531.019673
1015.438628	2527.163191
1015.731699	2529.691329
1016.024736	2528.446164
1016.317737	2529.330887
1016.610703	2530.457585
1016.903635	2527.495907
1017.196531	2523.742768
1017.489393	2528.519261
1017.782219	2523.770494
1018.075011	2525.797038
1018.367768	2529.058664
1018.660490	2527.876514
1018.953177	2527.876514
1019.245829	2527.876514
