Dividing Wavelength (nm)	Counts (n)	Blue Motor Position (mm): 0.000000	Red Motor Position (mm): 17.500000	
326.493990	2083.397979
326.888308	2083.397979
327.282561	2083.397979
327.676750	2056.576520
328.070874	2060.392674
328.464933	2065.827038
328.858929	2077.393965
329.252859	2087.277147
329.646726	2103.665938
330.040528	2118.618001
330.434265	2136.854375
330.827938	2157.742396
331.221547	2178.726198
331.615091	2198.921061
332.008571	2219.914946
332.401986	2239.701475
332.795338	2259.011615
333.188625	2280.741508
333.581847	2295.743982
333.975006	2316.009421
334.368100	2333.464416
334.761129	2349.570902
335.154095	2365.261494
335.546996	2384.306973
335.939833	2401.560322
336.332606	2415.007600
336.725315	2423.897675
337.117960	2431.086360
337.510540	2440.798143
337.903056	2450.308280
338.295508	2458.243056
338.687896	2463.150619
339.080220	2471.680251
339.472480	2476.532362
339.864676	2481.913794
340.256807	2480.484627
340.648875	2483.524442
341.040879	2486.274392
341.432818	2488.358909
341.824694	2488.454691
342.216506	2488.570637
342.608253	2487.852273
342.999937	2485.971922
343.391557	2484.751963
343.783113	2485.918990
344.174605	2483.330358
344.566033	2482.153248
344.957397	2480.323310
345.348697	2478.485809
345.739934	2475.645119
346.131106	2472.635550
346.522215	2472.852320
346.913260	2470.790488
347.304241	2470.785447
347.695159	2466.815538
348.086012	2467.831330
348.476802	2466.878552
348.867528	2465.212451
349.258191	2463.379992
349.648789	2465.003243
350.039324	2460.113324
350.429796	2460.924950
350.820203	2460.761112
351.210548	2459.026955
351.600828	2457.590226
351.991045	2460.352779
352.381198	2459.243725
352.771288	2457.023097
353.161314	2457.882613
353.551276	2459.599126
353.941175	2456.992850
354.331010	2459.195834
354.720782	2460.622480
355.110490	2460.292285
355.500135	2459.967130
355.889717	2460.647686
356.279235	2461.366051
356.668689	2460.355299
357.058080	2459.447892
357.447408	2459.342027
357.836672	2460.314970
358.225873	2460.461163
358.615010	2460.110803
359.004084	2466.097173
359.393095	2464.592389
359.782043	2468.156485
360.170927	2465.363686
360.559748	2468.350569
360.948505	2471.571867
361.337199	2471.468523
361.725830	2470.775364
362.114398	2471.458441
362.502903	2471.960035
362.891344	2472.668317
363.279722	2472.484315
363.668037	2472.955663
364.056289	2475.070427
364.444478	2474.737711
364.832603	2474.399954
365.220665	2475.599748
365.608665	2478.004379
365.996601	2477.719554
366.384474	2476.658391
366.772284	2480.091417
367.160031	2479.569657
367.547715	2479.390696
367.935336	2479.700727
368.322893	2482.264154
368.710388	2481.938999
369.097820	2485.573671
369.485189	2484.772128
369.872495	2487.970740
370.259738	2486.735657
370.646918	2489.727582
371.034035	2491.194558
371.421090	2497.052379
371.808081	2494.148674
372.195010	2500.223264
372.581875	2502.995899
372.968678	2509.914883
373.355418	2515.538290
373.742096	2527.780732
374.128710	2536.234747
374.515262	2544.429142
374.901751	2557.266441
375.288177	2572.541137
375.674540	2588.566965
376.060841	2609.134873
376.447079	2630.562297
376.833254	2656.468787
377.219367	2673.820438
377.605417	2707.200438
377.991404	2728.874879
378.377329	2764.904006
378.763191	2798.760395
379.148991	2842.515090
379.534727	2888.543345
379.920402	2930.435334
380.306013	2977.497025
380.691563	3036.786036
381.077049	3090.358378
381.462474	3142.047849
381.847835	3209.133003
382.233134	3278.859723
382.618371	3333.069771
383.003545	3414.217224
383.388657	3490.923421
383.773706	3575.488777
384.158693	3644.918068
384.543618	3733.518868
384.928480	3805.987975
385.313280	3904.048499
385.698017	4001.660361
386.082692	4117.178402
386.467305	4179.781971
386.851856	4295.481493
387.236344	4440.099594
387.620770	4502.539325
388.005133	4611.869349
388.389435	4754.876802
388.773674	4834.758925
389.157851	4957.195949
389.541965	5088.346608
389.926018	5108.208754
390.310008	5280.296102
390.693936	5397.697014
391.077802	5511.944683
391.461606	5638.681812
391.845348	5743.605867
392.229027	5859.701120
392.612645	6076.518626
392.996200	6187.300502
393.379694	6359.287027
393.763125	6570.997845
394.146494	6656.115207
394.529801	6787.661596
394.913047	7021.729931
395.296230	7019.335383
395.679351	7071.407982
396.062410	7322.928791
396.445408	7220.429530
396.828343	7367.805143
397.211217	7500.896645
397.594028	7391.811117
397.976778	7587.912002
398.359466	7750.600119
398.742092	7734.806184
399.124656	7877.927062
399.507158	8061.273827
399.889598	8082.048422
400.271977	8293.797048
400.654294	8316.565420
401.036549	8517.223507
401.418742	8544.959936
401.800874	8837.775357
402.182944	8915.570443
402.564952	9273.078992
402.946898	9107.184701
403.328783	9162.723093
403.710606	9350.286783
404.092367	9601.910937
404.474067	9950.375655
404.855705	9767.313715
405.237282	9713.186846
405.618797	10128.484662
406.000250	10363.289005
406.381642	10721.606658
406.762972	10664.606332
407.144240	10484.017078
407.525447	10728.444984
407.906593	10667.910808
408.287677	10923.814901
408.668700	11062.917980
409.049661	11047.514734
409.430560	11199.071983
409.811399	11168.094093
410.192176	11314.244705
410.572891	11379.124355
410.953545	11840.707524
411.334138	11316.205713
411.714669	11878.042310
412.095139	11225.739687
412.475547	11665.172027
412.855894	11517.264573
413.236180	11803.138325
413.616405	11479.440796
413.996568	11718.646066
414.376670	11660.748414
414.756711	11517.486384
415.136691	11745.439799
415.516609	11863.460772
415.896466	11885.954401
416.276262	12105.305087
416.655997	12469.599028
417.035670	12443.233794
417.415283	12962.565901
417.794834	12966.523207
418.174324	12654.629539
418.553753	12481.329793
418.933121	12843.330010
419.312428	12595.007812
419.691674	12411.466963
420.070859	12733.969739
420.449983	12313.832416
420.829045	12691.828213
421.208047	12361.899818
421.586988	12627.399747
421.965867	12701.061087
422.344686	12576.980646
422.723444	12905.890729
423.102141	11734.440001
423.480777	12523.849405
423.859352	12001.386741
424.237866	12684.571472
424.616319	12310.943834
424.994712	12638.081952
425.373044	12310.724544
425.751314	12622.245167
426.129524	11858.832993
426.507673	12399.952967
426.885762	12051.052189
427.263789	11971.845580
427.641756	11904.936865
428.019662	11754.939853
428.397508	11597.912952
428.775292	11575.552914
429.153016	11360.535100
429.530679	11213.076309
429.908282	11032.381190
430.285824	10700.784173
430.663305	10860.898780
431.040726	10471.053751
431.418086	10202.100631
431.795385	10307.639707
432.172624	10306.195417
432.549802	9908.977700
432.926920	9792.857241
433.303977	9548.986383
433.680974	9455.898957
434.057910	9383.795333
434.434786	9200.183907
434.811601	8971.751582
435.188355	9162.302157
435.565050	8845.652160
435.941683	8631.090570
436.318257	8740.539061
436.694770	8475.066858
437.071222	8467.242988
437.447614	7978.402299
437.823946	7794.934546
438.200218	7660.933115
438.576429	7410.612100
438.952580	7315.609036
439.328670	7133.721684
439.704700	7062.885911
440.080670	6796.793646
440.456580	6764.631085
440.832429	6636.941178
441.208218	6271.089520
441.583947	6196.240989
441.959616	6074.887813
442.335224	5968.723633
442.710773	5845.938770
443.086261	5793.248630
443.461689	5549.191248
443.837057	5439.659578
444.212365	5399.867230
444.587612	5268.257827
444.962800	5091.217545
445.337927	5017.052090
445.712995	4750.914455
446.088002	4849.469012
446.462949	4757.147841
446.837837	4665.587885
447.212664	4553.475144
447.587431	4720.357501
447.962139	4879.002612
448.336786	4972.503413
448.711374	4721.854723
449.085901	4320.609124
449.460369	4200.685115
449.834776	4110.466105
450.209124	4176.595962
450.583412	4063.933735
450.957640	4010.482381
451.331808	3855.570243
451.705917	3704.796894
452.079965	3637.603354
452.453954	3583.005137
452.827883	3517.641537
453.201752	3451.488995
453.575562	3404.991913
453.949311	3393.130078
454.323001	3345.939837
454.696632	3294.033596
455.070202	3294.903195
455.443713	3257.646548
455.817164	3231.470356
456.190556	3206.690564
456.563888	3156.944458
456.937160	3131.080818
457.310373	3064.250242
457.683526	3047.561502
458.056619	3020.379601
458.429653	2996.862618
458.802628	2981.706389
459.175542	2964.745427
459.548398	2968.009574
459.921194	2973.675831
460.293930	2969.184163
460.666607	2984.605052
461.039224	2992.265086
461.411782	2982.054228
461.784280	2949.241358
462.156719	2925.961310
462.529099	2910.482447
462.901419	2880.316182
463.273680	2858.283819
463.645882	2851.747963
464.018024	2843.979545
464.390106	2846.585822
464.762130	2869.838144
465.134094	2905.675707
465.505999	2954.244703
465.877845	2994.021928
466.249631	2997.709532
466.621358	2972.181129
466.993026	2947.575257
467.364634	2924.423758
467.736184	2895.963924
468.107674	2882.985473
468.479105	2868.560211
468.850477	2857.401617
469.221790	2844.821418
469.593043	2824.346772
469.964238	2817.803354
470.335373	2811.872436
470.706449	2827.525219
471.077467	2849.953312
471.448425	2885.879095
471.819324	2908.927251
472.190164	2892.523336
472.560945	2862.959489
472.931667	2832.883966
473.302330	2823.078921
473.672934	2814.879485
474.043479	2819.008190
474.413965	2810.808753
474.784393	2802.669810
475.154761	2812.618527
475.525070	2813.415029
475.895321	2809.666932
476.265513	2809.170378
476.635645	2822.720999
477.005719	2824.762667
477.375734	2828.094869
477.745691	2832.586538
478.115588	2846.245544
478.485427	2861.777339
478.855207	2891.104251
479.224928	2915.700041
479.594591	2927.133378
479.964194	2922.959303
480.333739	2924.879982
480.703226	2927.385436
481.072653	2933.908689
481.442022	2937.402208
481.811333	2937.639143
482.180584	2927.521547
482.549777	2920.894950
482.918912	2923.097934
483.287988	2917.202305
483.657005	2911.094947
484.025964	2907.692168
484.394864	2907.082188
484.763706	2902.519944
485.132489	2894.658265
485.501213	2891.893192
485.869879	2894.902761
486.238487	2889.798593
486.607036	2891.326062
486.975527	2886.685680
487.343959	2885.548900
487.712333	2887.197357
488.080648	2881.397510
488.448905	2885.324568
488.817104	2884.765000
489.185244	2889.493603
489.553326	2901.541960
489.921350	2920.169024
490.289315	2948.107098
490.657222	2951.875361
491.025070	2952.984415
491.392861	2939.814400
491.760593	2925.971392
492.128267	2911.059659
492.495883	2894.718759
492.863440	2882.350288
493.230939	2868.590458
493.598380	2858.102338
493.965763	2848.262005
494.333088	2841.763958
494.700354	2833.534274
495.067563	2832.740293
495.434713	2823.651092
495.801805	2823.444405
496.168839	2823.877944
496.535815	2816.913590
496.902733	2816.817808
497.269593	2810.166006
497.636395	2809.787919
498.003139	2810.433187
498.369825	2805.754996
498.736453	2808.031077
499.103023	2799.193934
499.469535	2803.184008
499.835989	2799.647638
500.202385	2797.928605
500.568723	2794.974489
500.935003	2795.597071
501.301226	2793.124385
501.667390	2797.510189
502.033497	2797.598409
502.399546	2794.490538
502.765537	2785.693724
503.131470	2791.599436
503.497345	2791.801082
503.863163	2783.556275
504.228923	2783.856224
504.594625	2788.874692
504.960269	2782.663991
505.325856	2786.946451
505.691385	2783.531069
506.056856	2780.748352
506.422270	2786.533077
506.787625	2782.230452
507.152924	2783.233641
507.518164	2782.081738
507.883347	2773.945315
508.248472	2778.885646
508.613540	2781.116357
508.978550	2783.616769
509.343503	2780.831532
509.708398	2780.367745
510.073236	2785.010648
510.438016	2782.550565
510.802738	2779.142745
511.167403	2780.897067
511.532010	2782.371604
511.896561	2783.352108
512.261053	2791.796041
512.625488	2783.611728
512.989866	2779.334309
513.354186	2779.208280
513.718449	2775.810542
514.082655	2779.273815
514.446803	2779.959412
514.810894	2785.257665
515.174927	2782.096861
515.538904	2779.394803
515.902822	2783.289094
516.266684	2782.366563
516.630488	2781.338167
516.994235	2779.009154
517.357925	2782.006120
517.721558	2781.146604
518.085133	2781.786830
518.448651	2781.880092
518.812112	2780.302210
519.175516	2778.915893
519.538863	2778.268105
519.902152	2777.494288
520.265385	2781.693569
520.628560	2780.408075
520.991678	2777.227107
521.354739	2777.338012
521.717743	2775.984462
522.080690	2776.843979
522.443580	2775.911365
522.806413	2777.660646
523.169189	2773.753752
523.531908	2775.563526
523.894569	2772.551436
524.257174	2770.086312
524.619722	2773.216869
524.982213	2771.117228
525.344647	2770.242588
525.707025	2767.477515
526.069345	2768.858791
526.431608	2766.575148
526.793815	2766.033224
527.155964	2762.156577
527.518057	2760.341762
527.880093	2759.073912
528.242072	2760.787904
528.603995	2761.203799
528.965860	2757.783376
529.327669	2757.622059
529.689421	2755.482089
530.051117	2753.226173
530.412755	2751.834815
530.774337	2753.642068
531.135862	2749.268867
531.497331	2745.714854
531.858743	2741.891139
532.220098	2745.893815
532.581396	2739.920047
532.942638	2736.068606
533.303824	2740.956005
533.664953	2740.136817
534.026025	2736.358472
534.387040	2739.037846
534.747999	2736.900396
535.108902	2735.045252
535.469748	2732.000395
535.830537	2733.613564
536.191270	2732.272617
536.551947	2729.769684
536.912567	2729.789849
537.273131	2729.936042
537.633638	2726.966803
537.994089	2725.429251
538.354483	2722.918756
538.714821	2724.400855
539.075103	2725.464539
539.435328	2720.251986
539.795497	2719.485730
540.155609	2723.324569
540.515665	2721.660988
540.875665	2717.973384
541.235609	2717.960781
541.595496	2717.565051
541.955328	2720.456152
542.315102	2713.922817
542.674821	2709.156406
543.034483	2713.862323
543.394090	2710.240254
543.753640	2707.719677
544.113134	2712.302086
544.472571	2708.680017
544.831953	2711.603886
545.191278	2709.113556
545.550548	2703.585931
545.909761	2703.086857
546.268918	2707.018957
546.628019	2706.817311
546.987064	2701.680375
547.346053	2701.211548
547.704986	2700.999819
548.063863	2699.636187
548.422684	2699.137113
548.781449	2699.215251
549.140158	2698.045703
549.498811	2698.753985
549.857408	2694.080836
550.215949	2694.945393
550.574434	2692.298788
550.932864	2690.998170
551.291237	2691.035979
551.649555	2695.651155
552.007817	2690.809127
552.366022	2691.217460
552.724173	2690.400793
553.082267	2691.020855
553.440305	2691.479600
553.798288	2690.325176
554.156215	2690.017666
554.514086	2690.715865
554.871902	2688.885927
555.229661	2686.894671
555.587365	2684.248065
555.945014	2687.663447
556.302606	2684.376614
556.660143	2683.824608
557.017625	2682.642457
557.375050	2683.209587
557.732421	2681.740091
558.089735	2684.611028
558.446994	2680.252951
558.804197	2682.027437
559.161345	2682.309741
559.518437	2678.995183
559.875474	2679.516942
560.232455	2678.304545
560.589381	2678.392765
560.946251	2678.294462
561.303065	2680.240348
561.659825	2677.744977
562.016528	2677.271108
562.373177	2674.536282
562.729770	2674.863957
563.086307	2674.954698
563.442789	2675.229441
563.799216	2676.698937
564.155587	2672.721467
564.511904	2670.747855
564.868164	2672.476971
565.224370	2674.773216
565.580520	2670.024449
565.936615	2671.955211
566.292654	2667.892041
566.648638	2670.394974
567.004567	2668.975889
567.360441	2669.590910
567.716260	2671.095695
568.072023	2666.929181
568.427732	2664.821979
568.783385	2665.578152
569.138982	2663.256700
569.494525	2664.529592
569.850013	2662.298881
570.205445	2664.519509
570.560823	2665.109324
570.916145	2661.646052
571.271412	2662.452636
571.626625	2662.802997
571.981782	2661.900630
572.336884	2661.275527
572.691931	2659.543891
573.046923	2658.896102
573.401860	2656.509116
573.756743	2658.823006
574.111570	2655.679846
574.466342	2657.204795
574.821059	2655.397542
575.175722	2654.580875
575.530330	2652.282108
575.884882	2654.958961
576.239380	2652.806388
576.593823	2652.430822
576.948211	2650.056439
577.302544	2650.931079
577.656823	2650.011069
578.011047	2652.516522
578.365216	2649.575009
578.719330	2647.762714
579.073389	2645.980666
579.427394	2644.627116
579.781344	2646.895636
580.135239	2643.260964
580.489080	2645.141314
580.842866	2646.192395
581.196597	2644.773310
581.550273	2642.834986
581.903895	2641.483957
582.257463	2643.364307
582.610975	2641.778864
582.964434	2642.109060
583.317837	2640.034625
583.671186	2639.684265
584.024481	2641.272228
584.377721	2638.794501
584.730906	2637.246867
585.084037	2638.862557
585.437113	2636.387350
585.790135	2636.750313
586.143103	2636.422638
586.496016	2636.725108
586.848874	2633.027421
587.201679	2633.365179
587.554428	2629.934673
587.907124	2632.901392
588.259765	2627.424179
588.612352	2636.233595
588.964884	2631.431896
589.317362	2633.284520
589.669786	2629.859056
590.022155	2631.767133
590.374470	2629.705301
590.726731	2631.552884
591.078937	2630.073305
591.431090	2628.525671
591.783188	2629.964920
592.135232	2627.867800
592.487222	2625.868983
592.839157	2626.980557
593.191038	2625.556431
593.542866	2623.313118
593.894639	2625.311935
594.246358	2623.653396
594.598022	2623.045937
594.949633	2619.179372
595.301190	2619.595267
595.652692	2620.487551
596.004141	2623.262706
596.355535	2619.295318
596.706876	2615.932869
597.058162	2618.604680
597.409395	2615.237189
597.760573	2616.552931
598.111698	2617.926645
598.462768	2619.010493
598.813785	2617.740122
599.164748	2615.290122
599.515657	2614.453290
599.866511	2615.413630
600.217312	2616.585698
600.568060	2614.009668
600.918753	2616.815071
601.269392	2614.528907
601.619978	2613.203084
601.970510	2615.267436
602.320988	2614.962447
602.671412	2613.840790
603.021783	2613.344236
603.372100	2611.607559
603.722363	2613.591253
604.072572	2609.575974
604.422728	2611.965481
604.772830	2609.205449
605.122878	2608.832403
605.472872	2610.974894
605.822813	2608.119080
606.172701	2609.323916
606.522534	2611.557147
606.872314	2609.220572
607.222041	2612.073865
607.571714	2612.162086
607.921333	2610.017075
608.270899	2611.554627
608.620411	2611.574791
608.969870	2610.743001
609.319276	2610.309462
609.668627	2610.692589
610.017926	2610.768207
610.367171	2609.122270
610.716362	2608.512290
611.065500	2609.202928
611.414585	2610.790892
611.763616	2609.661673
612.112594	2607.294852
612.461518	2608.202259
612.810389	2609.303751
613.159207	2609.157558
613.507971	2605.401898
613.856682	2607.327619
614.205340	2607.872064
614.553945	2610.427929
614.902496	2609.767537
615.250994	2609.351642
615.599439	2610.828700
615.947830	2610.743001
616.296169	2609.843155
616.644454	2611.352980
616.992686	2606.795777
617.340864	2609.664194
617.688990	2609.880963
618.037063	2611.194184
618.385082	2607.746035
618.733048	2609.016406
619.080961	2611.060593
619.428821	2610.208638
619.776628	2608.930706
620.124382	2610.377517
620.472083	2607.703185
620.819731	2609.772579
621.167326	2610.947167
621.514868	2610.133021
621.862357	2605.490118
622.209793	2608.177053
622.557176	2606.846189
622.904506	2602.770416
623.251783	2601.197576
623.599007	2599.972576
623.946179	2598.470312
624.293297	2599.838985
624.640363	2597.610795
624.987376	2599.962493
625.334336	2600.559870
625.681243	2597.149529
626.028097	2597.830085
626.374899	2594.961669
626.721647	2597.749427
627.068343	2595.218767
627.414987	2594.273551
627.761577	2596.297574
628.108115	2594.560897
628.454600	2593.996288
628.801032	2592.499065
629.147412	2595.256576
629.493739	2590.777511
629.840014	2593.328335
630.186236	2590.976637
630.532405	2593.061154
630.878521	2593.968561
631.224585	2592.194075
631.570597	2591.213571
631.916556	2592.804055
632.262462	2590.248190
632.608316	2590.215422
632.954117	2592.257090
633.299866	2589.849939
633.645562	2591.732810
633.991206	2589.466811
634.336797	2586.061512
634.682336	2585.728795
635.027823	2589.018148
635.373257	2584.776017
635.718639	2580.790985
636.063968	2582.799885
636.409245	2583.230904
636.754470	2584.231573
637.099642	2582.560430
637.444762	2582.278126
637.789829	2580.980028
638.134845	2579.321489
638.479808	2579.603793
638.824719	2581.844586
639.169577	2579.802919
639.514383	2577.335274
639.859137	2578.847620
640.203839	2582.063877
640.548489	2577.322671
640.893086	2575.979204
641.237632	2573.670355
641.582125	2575.079358
641.926566	2570.829665
642.270955	2576.241344
642.615292	2574.779409
642.959576	2576.629513
643.303809	2575.109605
643.647990	2575.976683
643.992118	2575.311251
644.336195	2572.831003
644.680219	2575.336457
645.024192	2574.769327
645.368112	2572.904100
645.711981	2578.356108
646.055797	2578.124215
646.399562	2577.418453
646.743274	2580.090265
647.086935	2580.279308
647.430544	2578.472054
647.774101	2578.991293
648.117606	2581.249730
648.461059	2577.925089
648.804460	2580.949782
649.147810	2579.356777
649.491108	2576.168247
649.834354	2576.120356
650.177548	2576.768144
650.520690	2571.878225
650.863781	2575.966601
651.206820	2575.225551
651.549807	2571.878225
651.892742	2574.996179
652.235626	2569.077864
652.578458	2569.619788
652.921238	2570.441496
653.263967	2570.171795
653.606644	2566.897565
653.949269	2568.651887
654.291843	2567.832699
654.634365	2570.174315
654.976836	2569.319840
655.319255	2568.397308
655.661622	2569.700447
656.003938	2567.699109
656.346203	2566.489232
656.688416	2568.147771
657.030577	2567.754561
657.372687	2564.833213
657.714746	2564.629046
658.056753	2572.213462
658.398708	2562.037893
658.740612	2563.462019
659.082465	2562.650393
659.424266	2563.121741
659.766016	2558.438509
660.107715	2565.307081
660.449362	2562.970506
660.790958	2565.755744
661.132503	2564.288768
661.473996	2567.489901
661.815438	2565.649880
662.156829	2565.982596
662.498168	2563.167111
662.839456	2566.007802
663.180693	2564.344221
663.521879	2565.339849
663.863013	2564.760116
664.204097	2564.666855
664.545129	2567.857905
664.886110	2564.865980
665.227040	2565.145764
665.567918	2563.953531
665.908746	2564.649211
666.249522	2567.028635
666.590248	2565.533933
666.930922	2567.782288
667.271545	2565.969993
667.612118	2566.890003
667.952639	2563.910682
668.293109	2568.480487
668.633528	2562.988150
668.973896	2564.750034
669.314213	2564.293809
669.654480	2565.952349
669.994695	2564.931515
670.334859	2565.685168
670.674973	2560.810372
671.015035	2561.526216
671.355047	2564.245918
671.695008	2563.406566
672.034918	2561.064950
672.374777	2563.935887
672.714585	2561.969837
673.054342	2564.876062
673.394049	2564.142575
673.733705	2565.748182
674.073310	2563.404046
674.412864	2562.168963
674.752368	2559.408931
675.091820	2566.537123
675.431223	2561.339693
675.770574	2562.383212
676.109875	2555.955741
676.449125	2559.688715
676.788324	2556.296019
677.127473	2558.995557
677.466571	2555.940617
677.805619	2559.439178
678.144616	2557.634445
678.483562	2558.211657
678.822458	2558.549414
679.161303	2556.333827
679.500098	2556.482541
679.838842	2560.147460
680.177535	2557.684857
680.516179	2559.575289
680.854771	2558.748540
681.193314	2562.098387
681.531805	2559.141750
681.870247	2563.121741
682.208638	2564.462688
682.546978	2564.543346
682.885268	2562.289951
683.223508	2561.697615
683.561697	2562.050496
683.899836	2563.706515
684.237925	2561.720300
684.575963	2561.949673
684.913951	2560.828016
685.251889	2562.113510
685.589776	2559.504713
685.927614	2561.367419
686.265401	2561.518654
686.603137	2560.381874
686.940824	2561.919426
687.278460	2565.160888
687.616046	2561.768191
687.953582	2563.918243
688.291068	2563.222564
688.628504	2565.012174
688.965889	2565.599468
689.303224	2565.425548
689.640510	2560.946483
689.977745	2561.412790
690.314930	2559.030845
690.652065	2561.100238
690.989150	2558.015052
691.326185	2554.816440
691.663170	2558.105793
692.000105	2555.733930
692.336990	2553.309135
692.673825	2553.097407
693.010610	2553.712427
693.347345	2547.340409
693.684030	2547.778989
694.020665	2548.943496
694.357251	2544.343443
694.693786	2548.845193
695.030272	2545.021478
695.366707	2547.156407
695.703093	2544.847558
696.039429	2546.062476
696.375716	2545.003834
696.711952	2546.599359
697.048139	2544.913093
697.384276	2543.945192
697.720363	2547.726057
698.056400	2544.625747
698.392388	2545.696993
698.728326	2544.663556
699.064214	2545.560882
699.400053	2543.587270
699.735842	2542.848741
700.071581	2543.189019
700.407270	2538.951929
700.742910	2540.131559
701.078501	2542.420243
701.414042	2542.984852
701.749533	2536.353214
702.084974	2540.078627
702.420366	2541.638864
702.755709	2541.175078
703.091002	2539.153575
703.426246	2540.214738
703.761440	2540.131559
704.096584	2542.679862
704.431679	2540.005530
704.766725	2540.408822
705.101721	2537.280786
705.436668	2536.885056
705.771565	2538.843544
706.106413	2537.865560
706.441212	2536.670807
706.775961	2539.443441
707.110661	2539.703061
707.445311	2539.967721
707.779913	2539.534182
708.114465	2539.551826
708.448967	2542.120294
708.783421	2541.437218
709.117825	2543.199101
709.452180	2543.456200
709.786485	2542.813453
710.120742	2546.380069
710.454949	2544.666077
710.789107	2544.146838
711.123216	2543.680531
711.457275	2544.192208
711.791286	2545.039122
712.125247	2546.332178
712.459159	2546.685059
712.793023	2551.711089
713.126837	2547.458876
713.460602	2547.390820
713.794318	2545.528114
714.127985	2545.828063
714.461602	2545.094575
714.795171	2546.125491
715.128691	2542.783206
715.462162	2541.603576
715.795584	2539.748431
716.128957	2541.570808
716.462281	2537.956301
716.795556	2542.631971
717.128782	2537.958822
717.461960	2539.647608
717.795088	2538.412525
718.128167	2538.309182
718.461198	2537.976466
718.794180	2535.972607
719.127113	2535.755837
719.459997	2535.120652
719.792833	2535.909593
720.125619	2534.331711
720.458357	2531.533871
720.791046	2534.853471
721.123686	2532.290044
721.456278	2535.995292
721.788821	2531.906916
722.121315	2532.300126
722.453761	2531.697708
722.786158	2534.034283
723.118506	2532.373223
723.450805	2531.846422
723.783056	2532.300126
724.115259	2534.525796
724.447412	2533.429345
724.779518	2534.432534
725.111574	2529.963552
725.443582	2532.567307
725.775542	2535.289531
726.107453	2536.365817
726.439315	2531.982534
726.771129	2538.339429
727.102895	2535.662576
727.434612	2537.643749
727.766281	2533.862884
728.097901	2532.158974
728.429473	2534.435055
728.760996	2536.602751
729.092471	2533.918337
729.423897	2536.486805
729.755276	2538.273894
730.086606	2538.412525
730.417887	2537.442103
730.749120	2539.483771
731.080305	2538.483102
731.411442	2540.489481
731.742530	2539.456044
732.073570	2542.823535
732.404562	2540.444110
732.735506	2542.243802
733.066401	2541.079296
733.397249	2538.856147
733.728048	2537.585776
734.058798	2537.898328
734.389501	2531.876669
734.720156	2533.804911
735.050762	2535.216434
735.381320	2534.182997
735.711831	2531.659900
736.042293	2534.598893
736.372707	2531.919519
736.703073	2533.250384
737.033391	2530.727286
737.363661	2533.872966
737.693883	2533.041176
738.024056	2537.414377
738.354182	2536.340611
738.684260	2533.464633
739.014290	2534.175436
739.344272	2533.179808
739.674207	2533.557894
740.004093	2536.184335
740.333931	2537.822710
740.663722	2535.760878
740.993464	2535.342463
741.323159	2536.270035
741.652806	2536.585107
741.982405	2535.987730
742.311956	2534.198121
742.641460	2533.726773
742.970915	2533.469674
743.300323	2535.395395
743.629683	2528.047913
743.958996	2531.916999
744.288260	2532.176618
744.617477	2528.196627
744.946647	2527.364837
745.275768	2527.042203
745.604842	2526.351565
745.933869	2527.674868
746.262847	2524.723272
746.591778	2526.565814
746.920662	2526.175124
747.249498	2527.853829
747.578286	2529.686288
747.907027	2531.042358
748.235720	2531.193593
748.564365	2527.609333
748.892963	2530.374406
749.221514	2529.464477
749.550017	2528.909950
749.878473	2529.071267
750.206881	2529.346010
750.535242	2530.258459
750.863555	2527.909281
751.191821	2525.597912
751.520039	2529.335928
751.848210	2530.011442
752.176334	2527.563962
752.504411	2530.606299
752.832440	2525.718900
753.160421	2527.253931
753.488356	2529.615712
753.816243	2527.924405
754.144082	2527.364837
754.471875	2527.911802
754.799620	2528.536905
755.127318	2524.617408
755.454969	2527.677388
755.782572	2527.684950
756.110129	2526.931298
756.437638	2528.441123
756.765100	2525.613036
757.092515	2529.048582
757.419882	2527.304343
757.747203	2527.395084
758.074477	2528.433561
758.401703	2526.003725
758.728882	2528.017666
759.056014	2527.367357
759.383099	2530.341638
759.710138	2529.056144
760.037129	2532.037986
760.364073	2529.008253
760.690970	2529.890455
761.017820	2527.319466
761.344623	2530.210568
761.671379	2531.274252
761.998088	2527.778211
762.324751	2531.924560
762.651366	2540.532331
762.977935	2548.615821
763.304456	2550.178578
763.630931	2556.578323
763.957359	2553.757798
764.283740	2548.696479
764.610074	2543.415871
764.936362	2540.345808
765.262602	2535.539068
765.588796	2534.929088
765.914943	2531.165867
766.241044	2530.082019
766.567097	2528.166380
766.893104	2527.448016
767.219064	2524.879548
767.544978	2523.866276
767.870845	2525.227388
768.196665	2523.127747
768.522438	2521.794362
768.848165	2523.558766
769.173846	2525.421472
769.499479	2523.253776
769.825066	2522.802592
770.150607	2522.031296
770.476101	2523.863755
770.801548	2522.512726
771.126949	2520.486182
771.452303	2520.844104
771.777611	2521.333096
772.102872	2519.964423
772.428087	2519.730009
772.753256	2520.705472
773.078378	2519.135153
773.403453	2519.626666
773.728482	2518.285719
774.053465	2518.638599
774.378401	2516.090296
774.703291	2519.543487
775.028135	2516.667508
775.352932	2517.937879
775.677683	2518.328568
776.002388	2517.244720
776.327046	2516.952333
776.651658	2515.331602
776.976224	2517.884947
777.300743	2517.958044
777.625216	2518.878054
777.949643	2516.269257
778.274024	2518.683970
778.598359	2513.857065
778.922647	2512.682476
779.246889	2512.861437
779.571086	2512.047291
779.895236	2514.620800
780.219339	2516.793537
780.543397	2515.155162
780.867409	2516.962416
781.191374	2516.722961
781.515294	2516.415451
781.839167	2516.118022
782.162995	2516.448218
782.486776	2516.586850
782.810511	2516.821263
783.134201	2515.104751
783.457844	2516.007117
783.781441	2514.343536
784.104993	2516.039885
784.428498	2517.711027
784.751958	2514.666170
785.075372	2517.549710
785.398739	2512.561488
785.722061	2517.960564
786.045337	2516.707838
786.368568	2516.483506
786.691752	2517.411078
787.014891	2518.260513
787.337983	2520.985257
787.661030	2519.117509
787.984031	2520.806296
788.306987	2519.225894
788.629897	2522.946265
788.952760	2523.024403
789.275579	2521.083559
789.598351	2519.805627
789.921078	2521.537263
790.243759	2519.409896
790.566395	2517.844618
790.888984	2517.680780
791.211529	2513.360511
791.534027	2518.530215
791.856480	2517.829494
792.178888	2518.764628
792.501249	2515.457631
792.823566	2516.848990
793.145836	2513.796571
793.468062	2516.629700
793.790241	2516.680111
794.112375	2517.582478
794.434464	2513.373114
794.756507	2514.076355
795.078505	2516.705317
795.400457	2515.969308
795.722364	2514.706499
796.044226	2514.971160
796.366042	2516.203722
796.687812	2516.327230
797.009538	2517.920235
797.331218	2519.170441
797.652852	2517.159021
797.974442	2516.654905
798.295986	2519.230935
798.617484	2516.654905
798.938938	2517.211953
799.260346	2517.688342
799.581709	2517.796727
799.903026	2516.793537
800.224299	2517.080883
800.545526	2514.046108
800.866708	2515.261026
801.187845	2513.660460
801.508936	2514.492250
801.829983	2515.301356
802.150984	2512.400172
802.471940	2515.354288
802.792851	2516.559123
803.113717	2515.087107
803.434538	2512.684997
803.755314	2513.925121
804.076045	2513.050480
804.396731	2513.179030
804.717372	2514.406551
805.037967	2512.894205
805.358518	2513.907477
805.679024	2512.057373
805.999485	2514.701458
806.319901	2515.949144
806.640272	2513.153824
806.960598	2514.724143
807.280879	2513.970491
807.601115	2518.142046
807.921306	2513.514267
808.241453	2516.964936
808.561554	2513.426046
808.881611	2516.009638
809.201623	2515.051818
809.521590	2514.547703
809.841513	2514.651047
810.161390	2516.039885
810.481223	2513.940244
810.801011	2516.566685
811.120755	2515.490399
811.440453	2512.450583
811.760107	2514.817405
812.079716	2510.711385
812.399281	2508.142917
812.718801	2509.325068
813.038276	2510.431601
813.357707	2513.055522
813.677093	2514.943434
813.996434	2513.708351
814.315731	2514.404030
814.634983	2515.997035
814.954191	2514.144411
815.273354	2513.433608
815.592473	2516.082734
815.911547	2516.468383
816.230577	2512.957219
816.549562	2516.607014
816.868502	2517.958044
817.187399	2516.997704
817.506250	2516.985101
817.825058	2517.481655
818.143821	2518.192457
818.462539	2518.079031
818.781213	2519.351923
819.099843	2520.339989
819.418429	2524.294774
819.736970	2528.257121
820.055466	2528.438602
820.373919	2535.521424
820.692327	2539.362783
821.010691	2551.968188
821.329011	2575.578432
821.647286	2617.230966
821.965517	2654.568272
822.283704	2681.316634
822.601847	2686.471214
822.919945	2666.725014
823.237999	2648.145842
823.556010	2629.304529
823.873976	2612.071345
824.191897	2593.716504
824.509775	2580.294432
824.827609	2569.216496
825.145398	2559.131668
825.463144	2558.632593
825.780845	2558.057902
826.098502	2562.983109
826.416116	2574.960891
826.733685	2581.779051
827.051210	2584.082859
827.368692	2580.964905
827.686129	2570.509552
828.003522	2555.938097
828.320872	2547.345450
828.638177	2541.495191
828.955439	2532.849612
829.272656	2531.773326
829.589830	2524.060360
829.906960	2522.737058
830.224046	2521.771677
830.541088	2522.129598
830.858086	2522.056502
831.175041	2517.516943
831.491952	2518.005935
831.808819	2520.768487
832.125642	2521.401152
832.442421	2523.278982
832.759157	2530.147554
833.075849	2536.002854
833.392497	2546.281767
833.709101	2549.702189
834.025662	2547.695810
834.342179	2544.396375
834.658653	2539.287166
834.975083	2533.376413
835.291469	2528.673016
835.607811	2526.830474
835.924110	2522.220339
836.240366	2520.138343
836.556578	2518.593229
836.872746	2517.068280
837.188871	2516.942251
837.504952	2515.465193
837.820990	2513.978053
838.136984	2510.958402
838.452935	2514.093999
838.768842	2514.066273
839.084706	2515.810512
839.400526	2518.807478
839.716303	2522.540453
840.032037	2527.016997
840.347727	2524.347706
840.663373	2523.102541
840.978977	2519.646830
841.294537	2518.948630
841.610054	2515.208094
841.925527	2516.213804
842.240957	2515.031654
842.556344	2511.921262
842.871687	2511.190295
843.186987	2512.753052
843.502244	2507.600993
843.817458	2508.815911
844.132629	2509.083092
844.447756	2511.117198
844.762840	2503.870539
845.077881	2506.723832
845.392879	2503.689058
845.707833	2505.672752
846.022745	2504.447751
846.337613	2509.073010
846.652438	2505.977742
846.967221	2507.021260
847.281960	2508.800788
847.596656	2509.650222
847.911309	2503.517658
848.225919	2506.456651
848.540485	2506.552433
848.855009	2508.528565
849.169490	2507.540499
849.483928	2508.891528
849.798323	2508.294152
850.112675	2505.675272
850.426984	2507.353977
850.741251	2508.861282
851.055474	2507.641322
851.369654	2509.151148
851.683792	2504.379696
851.997887	2505.660149
852.311938	2507.285921
852.625947	2509.488905
852.939914	2505.667711
853.253837	2507.732063
853.567718	2508.102588
853.881555	2506.262567
854.195350	2505.226610
854.509103	2505.521517
854.822812	2505.120745
855.136479	2508.478154
855.450103	2506.297855
855.763685	2510.998731
856.077224	2508.200890
856.390720	2505.629902
856.704173	2506.721312
857.017584	2505.277021
857.330953	2508.906652
857.644278	2508.778102
857.957561	2511.558299
858.270802	2507.991682
858.584000	2505.362721
858.897155	2509.214162
859.210268	2503.164778
859.523339	2507.089316
859.836367	2507.124604
860.149352	2506.333143
860.462295	2506.239882
860.775195	2502.781650
861.088054	2502.040600
861.400869	2501.672596
861.713642	2501.065137
862.026373	2505.277021
862.339062	2507.742145
862.651708	2507.545540
862.964312	2508.498318
863.276873	2507.038904
863.589392	2503.444562
863.901869	2506.859943
864.214303	2507.631240
864.526696	2507.858092
864.839045	2505.367762
865.151353	2505.879439
865.463619	2509.640140
865.775842	2505.513955
866.088023	2508.087464
866.400162	2507.724501
866.712258	2507.134686
867.024313	2509.831704
867.336325	2506.691065
867.648296	2507.835407
867.960224	2509.115860
868.272110	2506.754079
868.583954	2506.554954
868.895755	2507.001096
869.207515	2508.654594
869.519233	2505.738287
869.830909	2508.034532
870.142542	2506.716271
870.454134	2507.951353
870.765684	2508.634430
871.077191	2510.139214
871.388657	2511.863289
871.700081	2506.502022
872.011463	2512.518639
872.322803	2507.225427
872.634101	2510.096364
872.945357	2509.224245
873.256571	2507.974038
873.567744	2508.576456
873.878874	2511.502846
874.189963	2510.842455
874.501010	2509.682990
874.812015	2508.533607
875.122979	2510.013185
875.433900	2506.310458
875.744780	2511.308762
876.055618	2510.534945
876.366415	2512.168278
876.677169	2510.776920
876.987882	2507.805160
877.298554	2507.454800
877.609183	2509.899759
877.919771	2506.895232
878.230317	2510.655932
878.540822	2514.567868
878.851285	2512.561488
879.161707	2516.780934
879.472087	2518.469721
879.782425	2524.078004
880.092722	2533.474715
880.402977	2549.208156
880.713191	2566.431258
881.023363	2583.772828
881.333494	2592.138622
881.643583	2596.375712
881.953631	2590.414548
882.263637	2584.745770
882.573602	2583.538414
882.883526	2574.106415
883.193408	2570.383523
883.503248	2561.735424
883.813048	2554.829043
884.122806	2547.970553
884.432522	2540.897814
884.742197	2536.393543
885.051831	2533.663758
885.361424	2528.582275
885.670975	2526.656555
885.980485	2523.616739
886.289954	2522.613549
886.599382	2518.492406
886.908768	2518.845287
887.218113	2514.514936
887.527417	2514.313289
887.836680	2514.096520
888.145901	2514.774555
888.455082	2512.828670
888.764221	2512.226252
889.073319	2510.366066
889.382376	2511.636437
889.691392	2513.226921
890.000366	2510.454286
890.309300	2509.430932
890.618193	2512.879081
890.927044	2512.248937
891.235855	2510.638288
891.544625	2509.249450
891.853353	2509.012516
892.162041	2511.553258
892.470687	2511.631396
892.779293	2514.814884
893.087858	2513.867147
893.396381	2513.698269
893.704864	2520.327386
894.013306	2520.816378
894.321707	2529.575383
894.630068	2532.166536
894.938387	2531.594365
895.246665	2533.610826
895.554903	2531.470857
895.863100	2526.800228
896.171256	2525.867614
896.479371	2522.409382
896.787446	2519.823271
897.095480	2517.640451
897.403473	2518.252951
897.711425	2519.397293
898.019336	2514.751870
898.327207	2515.071983
898.635038	2513.005110
898.942827	2512.584174
899.250576	2513.491581
899.558284	2510.892867
899.865952	2511.270953
900.173579	2509.778772
900.481165	2508.762979
900.788711	2509.902280
901.096216	2509.534276
901.403681	2508.647033
901.711105	2509.249450
902.018489	2507.865654
902.325832	2508.210973
902.633135	2507.026302
902.940397	2511.956550
903.247619	2515.296314
903.554800	2521.025586
903.861941	2529.686288
904.169041	2536.585107
904.476101	2538.944367
904.783121	2537.999151
905.090100	2533.436907
905.397039	2532.897503
905.703938	2526.964065
906.010796	2526.270906
906.317614	2522.381656
906.624391	2520.912160
906.931129	2516.143228
907.237826	2515.220697
907.544483	2516.218846
907.851099	2508.924296
908.157675	2510.182064
908.464211	2510.537465
908.770707	2502.060765
909.077163	2505.158554
909.383578	2503.764675
909.689954	2503.953718
909.996289	2502.683348
910.302584	2505.760972
910.608839	2505.534120
910.915054	2505.241733
911.221229	2504.503204
911.527363	2504.440190
911.833458	2504.553616
912.139513	2507.563184
912.445527	2505.518997
912.751502	2506.242402
913.057436	2507.348935
913.363331	2507.205263
913.669186	2509.990500
913.975000	2511.258350
914.280775	2513.393279
914.586510	2515.208094
914.892205	2518.920904
915.197859	2523.465504
915.503475	2528.100845
915.809050	2534.200641
916.114585	2538.147865
916.420081	2537.694161
916.725536	2536.340611
917.030952	2537.152237
917.336328	2532.824406
917.641665	2529.769467
917.946961	2527.163191
918.252218	2522.427027
918.557435	2523.619259
918.862612	2523.117665
919.167750	2524.236801
919.472848	2519.316635
919.777906	2515.271109
920.082925	2514.746829
920.387904	2513.471417
920.692843	2513.163906
920.997743	2512.049811
921.302603	2510.545027
921.607423	2511.003772
921.912204	2510.353463
922.216946	2510.492095
922.521647	2505.443379
922.826310	2508.601662
923.130932	2507.590911
923.435516	2507.129645
923.740059	2507.175016
924.044564	2504.268790
924.349028	2504.775426
924.653454	2496.835609
924.957840	2502.693430
925.262186	2501.355003
925.566493	2504.236023
925.870761	2501.102946
926.174989	2504.931702
926.479178	2502.622854
926.783328	2503.414315
927.087438	2501.513800
927.391509	2503.129490
927.695541	2503.305930
927.999533	2503.923471
928.303486	2503.994047
928.607400	2501.851557
928.911275	2501.498676
929.215110	2504.324243
929.518906	2500.944149
929.822663	2502.310302
930.126381	2503.389109
930.430060	2504.662000
930.733699	2501.622185
931.037299	2505.176198
931.340861	2499.121772
931.644383	2503.021105
931.947866	2505.062772
932.251309	2503.442041
932.554714	2500.868532
932.858080	2502.874911
933.161407	2502.670745
933.464694	2504.024294
933.767943	2503.684017
934.071153	2500.273676
934.374323	2502.930364
934.677455	2503.013543
934.980548	2500.535816
935.283602	2500.833244
935.586617	2500.981958
935.889593	2503.187463
936.192530	2503.583193
936.495428	2501.324757
936.798287	2501.060096
937.101108	2501.216372
937.403890	2503.197545
937.706632	2502.159068
938.009336	2505.075375
938.312002	2505.823986
938.614628	2505.576970
938.917216	2506.743997
939.219765	2508.135355
939.522275	2503.613440
939.824747	2505.559326
940.127179	2501.838954
940.429573	2504.316681
940.731929	2501.750734
941.034246	2500.724859
941.336524	2504.309120
941.638763	2503.462206
941.940964	2502.438852
942.243126	2502.630415
942.545250	2502.847185
942.847335	2503.026146
943.149381	2503.310971
943.451389	2503.235354
943.753359	2503.041269
944.055290	2505.783657
944.357182	2503.386588
944.659036	2504.089829
944.960851	2502.595127
945.262628	2504.762823
945.564367	2504.268790
945.866067	2503.419356
946.167729	2501.110508
946.469352	2503.235354
946.770937	2504.934223
947.072484	2503.343739
947.373992	2502.809376
947.675462	2500.669407
947.976893	2503.011023
948.278286	2501.982627
948.579641	2501.375168
948.880958	2501.410456
949.182236	2502.776609
949.483476	2501.145796
949.784678	2503.971362
950.085841	2503.744510
950.386967	2503.371465
950.688054	2502.143944
950.989103	2501.380209
951.290114	2501.138234
951.591087	2503.308451
951.892021	2503.361383
952.192917	2502.254849
952.493776	2503.605879
952.794596	2501.957421
953.095378	2502.287617
953.396122	2503.540344
953.696828	2503.845333
953.997496	2505.340036
954.298126	2503.603358
954.598718	2502.569922
954.899272	2500.346773
955.199788	2502.227123
955.500266	2503.323574
955.800706	2503.868019
956.101108	2496.669251
956.401472	2500.392143
956.701798	2499.489777
957.002087	2500.893738
957.302337	2498.937770
957.602550	2501.632267
957.902724	2498.794097
958.202861	2500.684530
958.502960	2499.318377
958.803022	2500.162771
959.103045	2500.119921
959.403031	2501.770899
959.702979	2499.789725
960.002889	2501.450785
960.302762	2500.717298
960.602596	2499.855260
960.902393	2498.171515
961.202153	2501.002123
961.501875	2499.925836
961.801559	2502.287617
962.101205	2501.065137
962.400814	2502.204438
962.700385	2499.739314
962.999918	2503.106804
963.299414	2498.292503
963.598873	2499.212513
963.898293	2501.322236
964.197677	2500.457678
964.497022	2500.566063
964.796331	2496.109683
965.095601	2499.696464
965.394835	2498.766371
965.694030	2501.007164
965.993189	2499.819972
966.292309	2499.615805
966.591393	2498.516834
966.890439	2498.814262
967.189447	2500.140085
967.488419	2500.581186
967.787353	2499.209992
968.086249	2500.452637
968.385108	2500.213182
968.683930	2497.737976
968.982714	2500.790394
969.281462	2498.569766
969.580172	2499.877945
969.878844	2498.647904
970.177480	2498.559684
970.476078	2496.943994
970.774639	2501.407936
971.073162	2498.947852
971.371649	2497.634632
971.670098	2494.746051
971.968510	2497.458192
972.266885	2495.066164
972.565223	2499.174704
972.863524	2496.709580
973.161788	2498.350476
973.460014	2499.366268
973.758204	2498.753768
974.056356	2498.968017
974.354471	2499.673779
974.652550	2499.520023
974.950591	2500.618995
975.248595	2498.128665
975.546563	2500.603872
975.844493	2499.368789
976.142386	2497.576659
976.440243	2500.180415
976.738062	2500.064468
977.035845	2499.036073
977.333590	2501.236536
977.631299	2498.874756
977.928971	2499.827534
978.226606	2500.510610
978.524204	2500.782833
978.821765	2499.845178
979.119290	2500.712256
979.416777	2499.668738
979.714228	2500.717298
980.011642	2498.486587
980.309020	2499.860301
980.606360	2498.352996
980.903664	2501.919613
981.200931	2498.920126
981.498162	2497.072543
981.795356	2498.524396
982.092513	2501.672596
982.389633	2499.167143
982.686717	2503.600838
982.983764	2502.267452
983.280775	2504.999758
983.577749	2502.975734
983.874686	2504.246105
984.171587	2503.195025
984.468451	2502.907679
984.765279	2500.382061
985.062070	2502.360714
985.358824	2498.302585
985.655543	2501.022287
985.952224	2498.995743
986.248869	2500.059427
986.545478	2497.768223
986.842050	2498.042965
987.138586	2492.492655
987.435086	2497.256545
987.731549	2495.494662
988.027975	2499.177225
988.324366	2497.541371
988.620719	2497.669920
988.917037	2499.688902
989.213318	2501.828872
989.509563	2499.343583
989.805772	2500.447596
990.101944	2497.508603
990.398080	2499.698984
990.694180	2497.705208
990.990244	2497.334683
991.286271	2496.946514
991.582262	2497.299395
991.878217	2499.003305
992.174136	2498.264776
992.470019	2500.298882
992.765865	2501.317195
993.061676	2499.078923
993.357450	2500.089674
993.653188	2499.625888
993.948890	2500.520693
994.244556	2500.016577
994.540186	2499.071361
994.835780	2497.788387
995.131337	2499.804849
995.426859	2499.910713
995.722345	2500.555981
996.017795	2501.213851
996.313208	2500.591269
996.608586	2500.250991
996.903928	2500.752586
997.199234	2502.766527
997.494504	2499.184787
997.789738	2501.178563
998.084936	2498.443737
998.380099	2500.321567
998.675225	2498.579848
998.970316	2502.534633
999.265371	2499.197390
999.560390	2499.305774
999.855373	2498.226967
1000.150320	2498.030363
1000.445232	2502.302740
1000.740108	2498.161432
1001.034948	2497.775784
1001.329752	2497.226298
1001.624521	2498.567245
1001.919254	2490.483755
1002.213951	2496.908706
1002.508613	2492.439723
1002.803239	2496.883500
1003.097829	2492.742192
1003.392384	2499.613285
1003.686903	2498.176556
1003.981386	2498.584889
1004.275834	2497.228819
1004.570246	2498.791577
1004.864623	2496.276041
1005.158964	2498.332832
1005.453270	2498.993223
1005.747540	2494.383088
1006.041775	2496.520537
1006.335974	2498.877276
1006.630138	2496.719663
1006.924266	2496.533140
1007.218359	2498.002636
1007.512416	2497.369971
1007.806438	2497.806031
1008.100425	2497.188490
1008.394376	2496.538181
1008.688292	2495.154384
1008.982172	2497.359889
1009.276017	2498.479025
1009.569827	2495.585403
1009.863602	2500.029180
1010.157341	2495.499703
1010.451045	2500.568583
1010.744714	2498.773933
1011.038347	2498.244612
1011.331945	2497.377533
1011.625508	2498.592451
1011.919036	2496.762512
1012.212528	2497.385095
1012.505986	2496.205465
1012.799408	2497.901813
1013.092795	2495.575321
1013.386147	2497.995074
1013.679464	2498.957935
1013.972745	2496.349138
1014.265992	2495.414004
1014.559204	2497.884169
1014.852380	2498.698315
1015.145521	2496.777636
1015.438628	2495.260248
1015.731699	2498.320229
1016.024736	2495.615650
1016.317737	2496.220588
1016.610703	2497.942142
1016.903635	2495.444251
1017.196531	2494.499034
1017.489393	2495.676144
1017.782219	2494.035248
1018.075011	2494.725886
1018.367768	2493.712614
1018.660490	2496.386946
1018.953177	2496.386946
1019.245829	2496.386946
