Dividing Wavelength (nm)	Counts (n)	Blue Motor Position (mm): 0.000000	Red Motor Position (mm): 22.500000	
326.493990	2146.311579
326.888308	2146.311579
327.282561	2146.311579
327.676750	2121.620008
328.070874	2119.054060
328.464933	2125.557149
328.858929	2136.488891
329.252859	2145.048770
329.646726	2161.563590
330.040528	2176.346774
330.434265	2193.650534
330.827938	2214.785572
331.221547	2232.255691
331.615091	2252.395100
332.008571	2272.002668
332.401986	2293.256173
332.795338	2313.307362
333.188625	2335.410301
333.581847	2355.118692
333.975006	2371.835158
334.368100	2390.346275
334.761129	2404.960580
335.154095	2424.260638
335.546996	2443.094388
335.939833	2456.186265
336.332606	2471.118163
336.725315	2480.378762
337.117960	2487.595174
337.510540	2496.860815
337.903056	2504.568739
338.295508	2512.528721
338.687896	2519.843435
339.080220	2526.802748
339.472480	2534.442617
339.864676	2537.225334
340.256807	2541.538041
340.648875	2542.238761
341.040879	2545.235727
341.432818	2547.048022
341.824694	2546.543907
342.216506	2545.749925
342.608253	2548.000800
342.999937	2544.444266
343.391557	2543.383103
343.783113	2541.777496
344.174605	2542.180788
344.566033	2537.774819
344.957397	2538.684748
345.348697	2534.964376
345.739934	2534.619057
346.131106	2531.226361
346.522215	2531.901875
346.913260	2531.087729
347.304241	2528.148736
347.695159	2524.002387
348.086012	2527.382481
348.476802	2521.141532
348.867528	2521.801923
349.258191	2518.719258
349.648789	2517.879906
350.039324	2518.096675
350.429796	2518.610873
350.820203	2513.605007
351.210548	2514.910666
351.600828	2511.646519
351.991045	2513.431087
352.381198	2511.878412
352.771288	2514.436798
353.161314	2511.999400
353.551276	2511.495284
353.941175	2512.140552
354.331010	2513.826818
354.720782	2515.598784
355.110490	2514.419154
355.500135	2515.815553
355.889717	2515.634072
356.279235	2514.174658
356.668689	2518.560462
357.058080	2514.265398
357.447408	2514.943434
357.836672	2514.656088
358.225873	2513.514267
358.615010	2513.882271
359.004084	2517.101047
359.393095	2518.429392
359.782043	2518.328568
360.170927	2518.709176
360.559748	2522.137160
360.948505	2518.447036
361.337199	2521.259999
361.725830	2522.840401
362.114398	2521.186903
362.502903	2522.303518
362.891344	2522.575741
363.279722	2520.844104
363.668037	2521.917870
364.056289	2526.114631
364.444478	2524.589682
364.832603	2526.205371
365.220665	2526.875845
365.608665	2527.379960
365.996601	2528.236956
366.384474	2524.173786
366.772284	2528.426000
367.160031	2526.069260
367.547715	2527.337110
367.935336	2528.451205
368.322893	2526.333921
368.710388	2527.458098
369.097820	2531.186031
369.485189	2530.515558
369.872495	2529.449354
370.259738	2528.998171
370.646918	2530.339118
371.034035	2528.708304
371.421090	2530.959179
371.808081	2531.012112
372.195010	2532.627801
372.581875	2530.538243
372.968678	2532.216947
373.355418	2534.699716
373.742096	2533.719211
374.128710	2536.847247
374.515262	2537.051414
374.901751	2536.058307
375.288177	2539.453524
375.674540	2537.777340
376.060841	2540.315561
376.447079	2544.683721
376.833254	2545.810419
377.219367	2543.831766
377.605417	2549.939124
377.991404	2549.087169
378.377329	2552.038764
378.763191	2553.999773
379.148991	2561.022100
379.534727	2562.262224
379.920402	2568.755230
380.306013	2571.414439
380.691563	2574.993658
381.077049	2579.142528
381.462474	2583.742581
381.847835	2588.188878
382.233134	2595.574169
382.618371	2600.244798
383.003545	2605.064141
383.388657	2611.605038
383.773706	2617.220883
384.158693	2622.816564
384.543618	2630.879890
384.928480	2637.009933
385.313280	2647.429998
385.698017	2655.430309
386.082692	2660.385763
386.467305	2666.256187
386.851856	2676.741787
387.236344	2687.003056
387.620770	2692.860876
388.005133	2700.883873
388.389435	2713.935420
388.773674	2719.679815
389.157851	2728.426217
389.541965	2739.108422
389.926018	2742.390213
390.310008	2755.814806
390.693936	2764.606578
391.077802	2773.499173
391.461606	2785.865124
391.845348	2791.760753
392.229027	2800.449182
392.612645	2812.079124
392.996200	2824.238387
393.379694	2838.146930
393.763125	2853.184692
394.146494	2862.891434
394.529801	2876.069010
394.913047	2891.623490
395.296230	2892.465363
395.679351	2897.262021
396.062410	2915.024526
396.445408	2910.575708
396.828343	2922.515681
397.211217	2929.580858
397.594028	2925.202616
397.976778	2940.704164
398.359466	2951.958540
398.742092	2948.964095
399.124656	2964.122844
399.507158	2981.963488
399.889598	2982.981801
400.271977	2999.161384
400.654294	3004.648680
401.036549	3017.569157
401.418742	3024.982174
401.800874	3046.812891
402.182944	3052.010320
402.564952	3079.547623
402.946898	3069.303999
403.328783	3081.370000
403.710606	3097.065633
404.092367	3120.514560
404.474067	3143.345946
404.855705	3136.139616
405.237282	3136.784884
405.618797	3167.475429
406.000250	3192.061136
406.381642	3223.152452
406.762972	3223.918708
407.144240	3213.531410
407.525447	3237.613002
407.906593	3238.124679
408.287677	3259.524377
408.668700	3277.861574
409.049661	3272.843106
409.430560	3294.852783
409.811399	3294.202475
410.192176	3314.301555
410.572891	3321.762463
410.953545	3362.913402
411.334138	3331.812003
411.714669	3382.664642
412.095139	3328.280675
412.475547	3378.422511
412.855894	3368.176366
413.236180	3400.606109
413.616405	3379.067779
413.996568	3405.246491
414.376670	3409.413005
414.756711	3402.988054
415.136691	3431.662137
415.516609	3454.233903
415.896466	3456.958647
416.276262	3486.109119
416.655997	3513.626258
417.035670	3521.992052
417.415283	3586.770879
417.794834	3608.140330
418.174324	3593.568875
418.553753	3591.817074
418.933121	3635.327273
419.312428	3625.597846
419.691674	3621.204481
420.070859	3659.106396
420.449983	3638.563694
420.829045	3689.126467
421.208047	3672.823375
421.586988	3717.639233
421.965867	3753.249944
422.344686	3756.221704
422.723444	3793.599339
423.102141	3697.933363
423.480777	3799.321049
423.859352	3769.840381
424.237866	3868.379815
424.616319	3847.890046
424.994712	3911.842123
425.373044	3903.816606
425.751314	3961.994042
426.129524	3897.812592
426.507673	3997.138446
426.885762	3973.376968
427.263789	3995.482427
427.641756	4000.959641
428.019662	4030.092469
428.397508	4028.350750
428.775292	4069.562183
429.153016	4072.478491
429.530679	4086.868464
429.908282	4091.168568
430.285824	4069.395825
430.663305	4144.007423
431.040726	4098.916822
431.418086	4090.417437
431.795385	4164.121626
432.172624	4196.185885
432.549802	4159.098117
432.926920	4177.299203
433.303977	4170.261752
433.680974	4208.453533
434.057910	4227.453642
434.434786	4231.983119
434.811601	4224.678487
435.188355	4321.579546
435.565050	4292.424033
435.941683	4283.503711
436.318257	4364.981360
436.694770	4363.007748
437.071222	4420.418929
437.447614	4352.144062
437.823946	4346.271118
438.200218	4356.918035
438.576429	4339.876414
438.952580	4350.735059
439.328670	4351.458465
439.704700	4386.857447
440.080670	4340.004963
440.456580	4389.236872
440.832429	4409.593051
441.208218	4310.690654
441.583947	4350.210779
441.959616	4355.705637
442.335224	4365.553531
442.710773	4375.905541
443.086261	4411.677568
443.461689	4357.369218
443.837057	4354.944423
444.212365	4408.645314
444.587612	4397.476638
444.962800	4351.738249
445.337927	4371.161815
445.712995	4264.017131
446.088002	4407.208585
446.462949	4411.148247
446.837837	4407.614398
447.212664	4376.303792
447.587431	4542.170356
447.962139	4752.081482
448.336786	4997.585674
448.711374	4966.958144
449.085901	4662.820291
449.460369	4593.237245
449.834776	4518.045914
450.209124	4664.299870
450.583412	4643.401767
450.957640	4704.364440
451.331808	4579.666458
451.705917	4444.898772
452.079965	4410.399636
452.453954	4404.756064
452.827883	4352.925441
453.201752	4327.492820
453.575562	4322.151717
453.949311	4373.780694
454.323001	4349.963763
454.696632	4309.319460
455.070202	4373.427813
455.443713	4356.043394
455.817164	4368.575703
456.190556	4377.818658
456.563888	4325.052901
456.937160	4330.552800
457.310373	4210.601065
457.683526	4205.176783
458.056619	4165.951565
458.429653	4121.493629
458.802628	4109.261270
459.175542	4082.333946
459.548398	4108.205148
459.921194	4154.452693
460.293930	4141.640601
460.666607	4208.070406
461.039224	4254.474227
461.411782	4264.564096
461.784280	4187.550389
462.156719	4147.140500
462.529099	4084.340326
462.901419	3984.076817
463.273680	3894.306470
463.645882	3851.607897
464.018024	3804.979744
464.390106	3782.528965
464.762130	3826.460101
465.134094	3905.470105
465.505999	4048.069224
465.877845	4205.927915
466.249631	4249.186056
466.621358	4168.701515
466.993026	4061.186306
467.364634	3947.798153
467.736184	3827.324658
468.107674	3739.459868
468.479105	3676.415198
468.850477	3615.979325
469.221790	3539.590720
469.593043	3456.865386
469.964238	3399.308012
470.335373	3357.214377
470.706449	3347.857996
471.077467	3341.420442
471.448425	3405.138106
471.819324	3457.493009
472.190164	3426.492434
472.560945	3325.286229
472.931667	3232.178638
473.302330	3169.721263
473.672934	3130.695170
474.043479	3110.422170
474.413965	3072.477405
474.784393	3036.042466
475.154761	3027.021321
475.525070	3008.835358
475.895321	2978.580873
476.265513	2967.036631
476.635645	2958.252421
477.005719	2936.532609
477.375734	2925.716814
477.745691	2910.704258
478.115588	2904.856519
478.485427	2900.934501
478.855207	2910.663928
479.224928	2920.531987
479.594591	2920.877306
479.964194	2900.024573
480.333739	2878.889536
480.703226	2863.022504
481.072653	2850.641430
481.442022	2839.999554
481.811333	2833.947649
482.180584	2813.455359
482.549777	2797.674027
482.918912	2786.830505
483.287988	2773.410953
483.657005	2758.945362
484.025964	2745.561099
484.394864	2739.151272
484.763706	2734.014336
485.132489	2717.887685
485.501213	2714.608414
485.869879	2705.068030
486.238487	2696.450178
486.607036	2694.451360
486.975527	2688.366688
487.343959	2682.546676
487.712333	2678.470903
488.080648	2675.645336
488.448905	2670.831034
488.817104	2667.206444
489.185244	2667.592093
489.553326	2664.539674
489.921350	2668.199552
490.289315	2672.454286
490.657222	2673.344049
491.025070	2673.034018
491.392861	2671.728359
491.760593	2664.625374
492.128267	2659.417862
492.495883	2655.069867
492.863440	2650.842859
493.230939	2643.679379
493.598380	2643.865902
493.965763	2636.755355
494.333088	2635.164871
494.700354	2634.322998
495.067563	2634.834675
495.434713	2626.909981
495.801805	2633.770992
496.168839	2630.642956
496.535815	2630.358130
496.902733	2629.780918
497.269593	2627.492234
497.636395	2626.713376
498.003139	2626.809158
498.369825	2625.470732
498.736453	2628.813017
499.103023	2624.580968
499.469535	2624.681791
499.835989	2622.768673
500.202385	2621.042078
500.568723	2620.979064
500.935003	2618.713065
501.301226	2622.287243
501.667390	2620.016203
502.033497	2621.493261
502.399546	2616.394134
502.765537	2618.224073
503.131470	2616.726850
503.497345	2618.897067
503.863163	2616.573095
504.228923	2613.911366
504.594625	2615.537138
504.960269	2614.647374
505.325856	2615.340533
505.691385	2612.855244
506.056856	2614.249123
506.422270	2612.482199
506.787625	2611.370624
507.152924	2612.593104
507.518164	2614.475975
507.883347	2612.270470
508.248472	2612.537652
508.613540	2613.129987
508.978550	2614.198712
509.343503	2612.693927
509.708398	2613.324072
510.073236	2610.296859
510.438016	2611.751232
510.802738	2612.025974
511.167403	2612.081427
511.532010	2610.317023
511.896561	2610.856427
512.261053	2615.559823
512.625488	2609.959101
512.989866	2607.370469
513.354186	2606.989862
513.718449	2605.434666
514.082655	2606.452979
514.446803	2608.867692
514.810894	2609.817949
515.174927	2611.657970
515.538904	2609.399533
515.902822	2611.768876
516.266684	2609.376848
516.630488	2612.416664
516.994235	2611.421036
517.357925	2612.366252
517.721558	2612.520007
518.085133	2609.361725
518.448651	2611.781478
518.812112	2612.968670
519.175516	2611.731067
519.538863	2611.844493
519.902152	2612.709051
520.265385	2611.494133
520.628560	2612.638475
520.991678	2609.822990
521.354739	2611.715943
521.717743	2612.343567
522.080690	2613.364401
522.443580	2612.212497
522.806413	2613.497991
523.169189	2611.854575
523.531908	2611.340377
523.894569	2610.959770
524.257174	2610.422887
524.619722	2610.806015
524.982213	2610.576643
525.344647	2609.775099
525.707025	2611.113526
526.069345	2610.135542
526.431608	2611.317692
526.793815	2611.282404
527.155964	2609.422218
527.518057	2610.735439
527.880093	2610.463217
528.242072	2609.533124
528.603995	2613.175357
528.965860	2611.592435
529.327669	2610.107815
529.689421	2609.061776
530.051117	2610.110336
530.412755	2612.353649
530.774337	2609.916252
531.135862	2607.917434
531.497331	2606.760489
531.858743	2605.658997
532.220098	2605.984152
532.581396	2604.224789
532.942638	2600.968203
533.303824	2608.114039
533.664953	2606.170674
534.026025	2607.740994
534.387040	2606.372320
534.747999	2607.892228
535.108902	2612.671242
535.469748	2608.819801
535.830537	2608.038422
536.191270	2608.449276
536.551947	2607.758638
536.912567	2606.846189
537.273131	2608.126642
537.633638	2606.810901
537.994089	2608.534975
538.354483	2607.458689
538.714821	2603.506424
539.075103	2607.436004
539.435328	2606.314347
539.795497	2606.742845
540.155609	2608.517331
540.515665	2605.409460
540.875665	2607.705706
541.235609	2605.452310
541.595496	2607.804008
541.955328	2607.483895
542.315102	2606.974738
542.674821	2606.173195
543.034483	2607.703185
543.394090	2609.207969
543.753640	2608.580346
544.113134	2607.322578
544.472571	2608.219903
544.831953	2606.153030
545.191278	2605.101950
545.550548	2604.683534
545.909761	2608.529934
546.268918	2607.231837
546.628019	2607.332660
546.987064	2607.128493
547.346053	2607.380551
547.704986	2606.755448
548.063863	2605.381734
548.422684	2603.687906
548.781449	2606.286621
549.140158	2605.167485
549.498811	2609.568412
549.857408	2606.352156
550.215949	2601.593307
550.574434	2603.294696
550.932864	2604.897783
551.291237	2604.935592
551.649555	2605.432145
552.007817	2605.669079
552.366022	2607.436004
552.724173	2608.219903
553.082267	2605.401898
553.440305	2605.754779
553.798288	2607.181426
554.156215	2608.824842
554.514086	2606.591611
554.871902	2603.761003
555.229661	2604.948194
555.587365	2607.635129
555.945014	2607.403236
556.302606	2606.314347
556.660143	2606.800818
557.017625	2607.131014
557.375050	2606.747886
557.732421	2606.301744
558.089735	2607.844337
558.446994	2606.883997
558.804197	2605.754779
559.161345	2608.666045
559.518437	2607.219234
559.875474	2605.293513
560.232455	2606.820983
560.589381	2607.178905
560.946251	2611.973042
561.303065	2608.451796
561.659825	2606.473143
562.016528	2607.380551
562.373177	2607.748555
562.729770	2606.238730
563.086307	2604.950715
563.442789	2608.408947
563.799216	2606.314347
564.155587	2608.076230
564.511904	2606.379882
564.868164	2606.382403
565.224370	2607.884667
565.580520	2605.853082
565.936615	2608.597990
566.292654	2604.925509
566.648638	2605.099429
567.004567	2607.940119
567.360441	2608.058586
567.716260	2607.725870
568.072023	2609.941457
568.427732	2603.483739
568.783385	2601.472319
569.138982	2603.672782
569.494525	2604.456682
569.850013	2602.843513
570.205445	2607.988010
570.560823	2607.277207
570.916145	2606.311827
571.271412	2608.222424
571.626625	2610.475820
571.981782	2605.943822
572.336884	2605.906014
572.691931	2606.072372
573.046923	2607.824173
573.401860	2608.159409
573.756743	2609.177722
574.111570	2605.732094
574.466342	2605.694285
574.821059	2606.127824
575.175722	2606.848709
575.530330	2606.563884
575.884882	2604.698657
576.239380	2605.860643
576.593823	2607.846858
576.948211	2605.250664
577.302544	2605.787547
577.656823	2605.737135
578.011047	2604.975921
578.365216	2604.156733
578.719330	2603.458533
579.073389	2603.304778
579.427394	2601.651280
579.781344	2604.229830
580.135239	2604.600355
580.489080	2604.071034
580.842866	2606.014398
581.196597	2605.863164
581.550273	2603.241764
581.903895	2603.816455
582.257463	2604.527258
582.610975	2604.305447
582.964434	2604.323091
583.317837	2602.931733
583.671186	2603.526589
584.024481	2604.194542
584.377721	2606.112701
584.730906	2603.854264
585.084037	2603.188832
585.437113	2603.642536
585.790135	2603.627412
586.143103	2605.895931
586.496016	2604.930550
586.848874	2600.355703
587.201679	2602.243615
587.554428	2602.646908
587.907124	2602.500714
588.259765	2600.045672
588.612352	2603.090529
588.964884	2600.960642
589.317362	2601.777309
589.669786	2603.634974
590.022155	2605.525407
590.374470	2604.522217
590.726731	2604.857454
591.078937	2604.897783
591.431090	2600.663214
591.783188	2602.599017
592.135232	2601.341249
592.487222	2605.076744
592.839157	2599.922164
593.191038	2601.195055
593.542866	2598.921495
593.894639	2600.897627
594.246358	2601.137082
594.598022	2602.052052
594.949633	2600.219592
595.301190	2601.764706
595.652692	2601.247987
596.004141	2599.188676
596.355535	2602.798142
596.706876	2600.098604
597.058162	2600.869901
597.409395	2598.271186
597.760573	2601.464757
598.111698	2600.380909
598.462768	2598.717328
598.813785	2598.072061
599.164748	2599.312184
599.515657	2600.701022
599.866511	2599.624736
600.217312	2601.399222
600.568060	2598.356886
600.918753	2600.489294
601.269392	2601.779829
601.619978	2602.800663
601.970510	2603.733276
602.320988	2601.552977
602.671412	2600.728749
603.021783	2600.406115
603.372100	2602.024325
603.722363	2601.600868
604.072572	2600.418718
604.422728	2602.097422
604.772830	2596.090887
605.122878	2594.686926
605.472872	2597.751947
605.822813	2596.390836
606.172701	2595.344796
606.522534	2598.770260
606.872314	2601.779829
607.222041	2598.631629
607.571714	2601.709253
607.921333	2597.499890
608.270899	2595.876638
608.620411	2601.832761
608.969870	2598.858481
609.319276	2599.508789
609.668627	2601.661362
610.017926	2599.823862
610.367171	2600.096084
610.716362	2599.188676
611.065500	2599.912082
611.414585	2599.329828
611.763616	2600.123810
612.112594	2597.840167
612.461518	2598.760178
612.810389	2600.862339
613.159207	2600.393512
613.507971	2599.584407
613.856682	2601.651280
614.205340	2598.296392
614.553945	2600.998450
614.902496	2599.113059
615.250994	2600.141454
615.599439	2601.114397
615.947830	2600.537185
616.296169	2602.578852
616.644454	2600.290168
616.992686	2598.646752
617.340864	2600.030549
617.688990	2598.878645
618.037063	2600.612802
618.385082	2600.915271
618.733048	2601.863008
619.080961	2600.680858
619.428821	2598.616505
619.776628	2601.547936
620.124382	2600.514500
620.472083	2603.995416
620.819731	2599.493666
621.167326	2600.149016
621.514868	2600.527102
621.862357	2598.855960
622.209793	2600.804366
622.557176	2601.489963
622.904506	2596.879828
623.251783	2596.854622
623.599007	2593.706421
623.946179	2595.974941
624.293297	2593.161977
624.640363	2597.066350
624.987376	2600.103646
625.334336	2595.811103
625.681243	2598.099787
626.028097	2598.404777
626.374899	2596.970568
626.721647	2596.191710
627.068343	2595.468305
627.414987	2596.721031
627.761577	2597.177256
628.108115	2597.333532
628.454600	2594.724734
628.801032	2594.533171
629.147412	2597.232708
629.493739	2595.430496
629.840014	2598.966865
630.186236	2597.464602
630.532405	2596.274889
630.878521	2595.687595
631.224585	2592.786411
631.570597	2595.627101
631.916556	2596.242122
632.262462	2594.180290
632.608316	2594.651638
632.954117	2593.923191
633.299866	2594.313880
633.645562	2594.172728
633.991206	2593.224991
634.336797	2594.563417
634.682336	2597.104159
635.027823	2594.674323
635.373257	2595.279261
635.718639	2593.477049
636.063968	2596.365630
636.409245	2592.955289
636.754470	2592.625094
637.099642	2594.727255
637.444762	2591.437902
637.789829	2593.734148
638.134845	2593.933273
638.479808	2590.878334
638.824719	2591.198447
639.169577	2590.747264
639.514383	2591.546287
639.859137	2592.476380
640.203839	2594.613829
640.548489	2591.117789
640.893086	2589.073601
641.237632	2587.760380
641.582125	2586.991604
641.926566	2587.561255
642.270955	2591.316914
642.615292	2589.164342
642.959576	2588.052767
643.303809	2591.397573
643.647990	2593.802203
643.992118	2592.483942
644.336195	2592.020155
644.680219	2590.427151
645.024192	2590.185175
645.368112	2592.100814
645.711981	2590.676688
646.055797	2589.670978
646.399562	2592.473859
646.743274	2591.924373
647.086935	2594.659199
647.430544	2590.832964
647.774101	2593.396390
648.117606	2593.900506
648.461059	2592.841863
648.804460	2594.528129
649.147810	2592.325145
649.491108	2592.907398
649.834354	2591.004363
650.177548	2590.069229
650.520690	2592.733479
650.863781	2590.769949
651.206820	2592.236925
651.549807	2588.491348
651.892742	2591.362285
652.235626	2592.199116
652.578458	2589.398755
652.921238	2591.263982
653.263967	2590.898499
653.606644	2590.250710
653.949269	2590.870772
654.291843	2589.592840
654.634365	2589.824733
654.976836	2587.238621
655.319255	2587.911615
655.661622	2589.250041
656.003938	2588.045206
656.346203	2590.016297
656.688416	2590.797676
657.030577	2587.563775
657.372687	2589.620566
657.714746	2588.690473
658.056753	2588.135946
658.398708	2583.619072
658.740612	2582.925914
659.082465	2587.117633
659.424266	2585.328024
659.766016	2583.432550
660.107715	2586.999166
660.449362	2588.115782
660.790958	2588.859352
661.132503	2589.791965
661.473996	2590.795155
661.815438	2587.417582
662.156829	2589.013107
662.498168	2588.216605
662.839456	2589.456729
663.180693	2588.703076
663.521879	2587.185689
663.863013	2589.033272
664.204097	2587.528487
664.545129	2588.377922
664.886110	2589.184506
665.227040	2587.896492
665.567918	2587.939341
665.908746	2587.031934
666.249522	2589.749116
666.590248	2587.271388
666.930922	2589.429002
667.271545	2587.959506
667.612118	2588.801379
667.952639	2585.809454
668.293109	2588.952613
668.633528	2587.493199
668.973896	2586.411872
669.314213	2588.103179
669.654480	2588.715679
669.994695	2587.495720
670.334859	2588.690473
670.674973	2585.333065
671.015035	2586.961357
671.355047	2588.582088
671.695008	2589.716348
672.034918	2588.367839
672.374777	2588.188878
672.714585	2588.153590
673.054342	2586.283322
673.394049	2588.743405
673.733705	2589.239959
674.073310	2591.689960
674.412864	2589.527305
674.752368	2588.340113
675.091820	2587.828436
675.431223	2589.378591
675.770574	2589.171903
676.109875	2583.886254
676.449125	2585.494382
676.788324	2585.443970
677.127473	2585.776686
677.466571	2581.806778
677.805619	2587.697366
678.144616	2586.590833
678.483562	2587.563775
678.822458	2586.936152
679.161303	2589.602922
679.500098	2587.997315
679.838842	2585.935483
680.177535	2586.484968
680.516179	2585.660740
680.854771	2585.340627
681.193314	2587.445308
681.531805	2585.943044
681.870247	2587.500761
682.208638	2587.762901
682.546978	2589.091245
682.885268	2589.628128
683.223508	2588.072932
683.561697	2586.883220
683.899836	2585.968250
684.237925	2587.591502
684.575963	2589.202150
684.913951	2584.949937
685.251889	2588.859352
685.589776	2589.396235
685.927614	2587.720051
686.265401	2587.503282
686.603137	2587.672160
686.940824	2588.017479
687.278460	2589.658375
687.616046	2586.341296
687.953582	2588.902202
688.291068	2588.103179
688.628504	2586.149732
688.965889	2588.309866
689.303224	2587.863724
689.640510	2590.936307
689.977745	2586.800041
690.314930	2588.960175
690.652065	2587.299115
690.989150	2588.728282
691.326185	2586.333734
691.663170	2586.502612
692.000105	2582.356263
692.336990	2584.418095
692.673825	2585.519587
693.010610	2584.481110
693.347345	2579.697055
693.684030	2578.318299
694.020665	2579.376942
694.357251	2579.840728
694.693786	2580.493557
695.030272	2582.673856
695.366707	2585.973291
695.703093	2584.012283
696.039429	2582.033630
696.375716	2583.835842
696.711952	2585.171748
697.048139	2581.431212
697.384276	2583.442632
697.720363	2583.593867
698.056400	2586.684094
698.392388	2582.318455
698.728326	2581.942889
699.064214	2581.942889
699.400053	2583.208218
699.735842	2580.591860
700.071581	2582.149576
700.407270	2580.836356
700.742910	2581.809298
701.078501	2580.508681
701.414042	2582.872982
701.749533	2583.014134
702.084974	2581.441294
702.420366	2579.941551
702.755709	2580.659915
703.091002	2581.453897
703.426246	2579.714699
703.761440	2581.433732
704.096584	2579.492888
704.431679	2577.483988
704.766725	2581.605132
705.101721	2577.305027
705.436668	2579.749987
705.771565	2581.222004
706.106413	2581.632858
706.441212	2576.385017
706.775961	2580.039853
707.110661	2580.591860
707.445311	2581.211922
707.779913	2581.048084
708.114465	2583.553538
708.448967	2580.508681
708.783421	2580.642271
709.117825	2583.339288
709.452180	2581.736202
709.786485	2579.535738
710.120742	2581.408527
710.454949	2581.370718
710.789107	2577.279822
711.123216	2580.523804
711.457275	2580.143197
711.791286	2580.957343
712.125247	2583.556058
712.459159	2581.826942
712.793023	2584.854155
713.126837	2584.508836
713.460602	2584.854155
713.794318	2583.361974
714.127985	2583.997159
714.461602	2581.653022
714.795171	2580.886767
715.128691	2580.445666
715.462162	2584.652509
715.795584	2582.288208
716.128957	2581.511870
716.462281	2580.453228
716.795556	2579.117322
717.128782	2581.249730
717.461960	2580.400296
717.795088	2579.197981
718.128167	2579.389544
718.461198	2578.219997
718.794180	2580.332240
719.127113	2580.115471
719.459997	2579.298804
719.792833	2577.652867
720.125619	2578.640933
720.458357	2575.520459
720.791046	2578.900553
721.123686	2578.973649
721.456278	2582.303331
721.788821	2579.427353
722.121315	2578.474575
722.453761	2578.477096
722.786158	2578.872826
723.118506	2580.869123
723.450805	2579.742425
723.783056	2577.607497
724.115259	2577.794019
724.447412	2580.334761
724.779518	2581.315265
725.111574	2579.578588
725.443582	2577.158834
725.775542	2578.194791
726.107453	2578.983732
726.439315	2576.513566
726.771129	2580.349884
727.102895	2579.313927
727.434612	2579.757549
727.766281	2577.882239
728.097901	2577.846951
728.429473	2578.923238
728.760996	2575.119687
729.092471	2577.680593
729.423897	2578.933320
729.755276	2578.076324
730.086606	2582.376428
730.417887	2580.536407
730.749120	2581.126222
731.080305	2578.267888
731.411442	2581.680749
731.742530	2581.310224
732.073570	2583.417426
732.404562	2578.076324
732.735506	2580.808629
733.066401	2580.470872
733.397249	2580.511201
733.728048	2580.359967
734.058798	2579.374421
734.389501	2580.246541
734.720156	2579.500450
735.050762	2579.293762
735.381320	2577.874678
735.711831	2577.811663
736.042293	2580.677559
736.372707	2576.548854
736.703073	2576.437949
737.033391	2576.934503
737.363661	2577.126066
737.693883	2575.913669
738.024056	2580.551530
738.354182	2579.760069
738.684260	2578.953485
739.014290	2577.927610
739.344272	2577.917527
739.674207	2578.787127
740.004093	2577.887281
740.333931	2579.389544
740.663722	2577.184040
740.993464	2577.804102
741.323159	2577.373083
741.652806	2576.848803
741.982405	2577.206725
742.311956	2580.022209
742.641460	2578.865264
742.970915	2577.516756
743.300323	2579.651684
743.629683	2579.064390
743.958996	2578.507342
744.288260	2576.011971
744.617477	2576.742939
744.946647	2573.438462
745.275768	2575.628844
745.604842	2575.724626
745.933869	2571.144737
746.262847	2574.817218
746.591778	2575.301169
746.920662	2578.202353
747.249498	2576.463155
747.578286	2577.773855
747.907027	2574.663463
748.235720	2575.472568
748.564365	2577.254616
748.892963	2577.060531
749.221514	2575.906107
749.550017	2578.184709
749.878473	2577.350398
750.206881	2576.238823
750.535242	2575.674214
750.863555	2576.788309
751.191821	2578.058680
751.520039	2577.345357
751.848210	2575.598597
752.176334	2577.725964
752.504411	2577.446180
752.832440	2575.157496
753.160421	2575.893504
753.488356	2575.570870
753.816243	2576.886612
754.144082	2571.860581
754.471875	2575.568350
754.799620	2574.111456
755.127318	2573.408215
755.454969	2575.664132
755.782572	2577.864595
756.110129	2575.099522
756.437638	2576.009451
756.765100	2574.000551
757.092515	2574.292938
757.419882	2573.680438
757.747203	2577.592373
758.074477	2577.952816
758.401703	2576.528690
758.728882	2576.102712
759.056014	2573.791343
759.383099	2579.941551
759.710138	2576.841241
760.037129	2575.780078
760.364073	2577.040367
760.690970	2576.957188
761.017820	2578.328382
761.344623	2577.894842
761.671379	2576.430387
761.998088	2570.567525
762.324751	2576.669842
762.651366	2576.538772
762.977935	2580.170923
763.304456	2579.949112
763.630931	2585.680904
763.957359	2584.622262
764.283740	2584.065215
764.610074	2583.631675
764.936362	2583.165369
765.262602	2581.121181
765.588796	2580.496078
765.914943	2577.352918
766.241044	2575.412074
766.567097	2575.328895
766.893104	2576.006930
767.219064	2573.158678
767.544978	2573.531724
767.870845	2577.763772
768.196665	2572.412588
768.522438	2574.736559
768.848165	2574.902917
769.173846	2573.204049
769.499479	2576.332085
769.825066	2572.427711
770.150607	2573.161199
770.476101	2573.748493
770.801548	2574.509707
771.126949	2574.290417
771.452303	2573.834193
771.777611	2573.738411
772.102872	2573.841755
772.428087	2571.074161
772.753256	2575.964080
773.078378	2570.741445
773.403453	2570.330591
773.728482	2571.079202
774.053465	2571.558112
774.378401	2573.725808
774.703291	2569.967628
775.028135	2573.395612
775.352932	2570.272618
775.677683	2572.853688
776.002388	2573.783781
776.327046	2572.647001
776.651658	2571.686661
776.976224	2569.370251
777.300743	2570.703636
777.625216	2572.604151
777.949643	2569.934860
778.274024	2571.280848
778.598359	2566.703481
778.922647	2570.156671
779.246889	2567.389078
779.571086	2570.088616
779.895236	2566.786660
780.219339	2570.035683
780.543397	2571.646332
780.867409	2572.969635
781.191374	2571.759758
781.515294	2572.941909
781.839167	2569.418142
782.162995	2571.152299
782.486776	2572.505849
782.810511	2571.918554
783.134201	2571.351425
783.457844	2569.647515
783.781441	2572.745304
784.104993	2570.517114
784.428498	2569.720611
784.751958	2568.997206
785.075372	2570.368400
785.398739	2573.012485
785.722061	2571.837896
786.045337	2569.818914
786.368568	2569.859243
786.691752	2570.900241
787.014891	2572.795715
787.337983	2572.203380
787.661030	2575.691858
787.984031	2574.474419
788.306987	2575.157496
788.629897	2572.168092
788.952760	2571.061558
789.275579	2571.358986
789.598351	2573.642629
789.921078	2571.880746
790.243759	2570.481826
790.566395	2573.282187
790.888984	2575.147413
791.211529	2570.012998
791.534027	2570.885118
791.856480	2568.414953
792.178888	2571.409398
792.501249	2572.773030
792.823566	2571.283369
793.145836	2568.730025
793.468062	2571.616085
793.790241	2568.921588
794.112375	2572.251271
794.434464	2572.374779
794.756507	2571.147258
795.078505	2569.924778
795.400457	2567.131979
795.722364	2569.828996
796.044226	2569.324881
796.366042	2568.198183
796.687812	2567.104252
797.009538	2571.490056
797.331218	2571.064079
797.652852	2570.668348
797.974442	2572.354614
798.295986	2567.822617
798.617484	2571.913513
798.938938	2568.414952
799.260346	2571.916034
799.581709	2572.281517
799.903026	2574.018195
800.224299	2569.413101
800.545526	2570.718760
800.866708	2570.955694
801.187845	2571.701785
801.508936	2571.308575
801.829983	2570.728842
802.150984	2572.180694
802.471940	2569.213975
802.792851	2570.517114
803.113717	2571.734552
803.434538	2571.202711
803.755314	2571.953842
804.076045	2568.566187
804.396731	2570.260015
804.717372	2570.721280
805.037967	2569.695406
805.358518	2570.459140
805.679024	2570.852350
805.999485	2570.859912
806.319901	2568.215827
806.640272	2568.861095
806.960598	2570.980900
807.280879	2572.538616
807.601115	2571.865622
807.921306	2571.071641
808.241453	2572.808318
808.561554	2566.864798
808.881611	2573.075499
809.201623	2569.823955
809.521590	2568.359500
809.841513	2569.768502
810.161390	2569.614747
810.481223	2569.841599
810.801011	2572.001733
811.120755	2572.241188
811.440453	2572.838565
811.760107	2569.670200
812.079716	2567.333625
812.399281	2567.608368
812.718801	2569.032494
813.038276	2566.426217
813.357707	2568.639284
813.677093	2570.212124
813.996434	2570.832186
814.315731	2570.325550
814.634983	2569.551733
814.954191	2568.689695
815.273354	2570.426373
815.592473	2572.460478
815.911547	2569.886969
816.230577	2570.741445
816.549562	2569.322360
816.868502	2570.691033
817.187399	2571.626168
817.506250	2571.200190
817.825058	2571.089285
818.143821	2571.674058
818.462539	2571.182546
818.781213	2569.977710
819.099843	2574.156827
819.418429	2571.827814
819.736970	2575.195304
820.055466	2575.601117
820.373919	2578.305696
820.692327	2576.710171
821.010691	2583.792992
821.329011	2588.609815
821.647286	2601.265632
821.965517	2616.192488
822.283704	2624.429733
822.601847	2630.816875
822.919945	2625.687501
823.237999	2621.926801
823.556010	2617.515791
823.873976	2611.063114
824.191897	2603.929881
824.509775	2597.809921
824.827609	2596.174066
825.145398	2591.599219
825.463144	2590.046544
825.780845	2586.996646
826.098502	2589.149218
826.416116	2590.739702
826.733685	2593.880341
827.051210	2593.832450
827.368692	2597.459560
827.686129	2592.486462
828.003522	2589.933118
828.320872	2582.457087
828.638177	2580.828794
828.955439	2577.718402
829.272656	2574.550037
829.589830	2573.463668
829.906960	2576.168247
830.224046	2572.967114
830.541088	2574.318144
830.858086	2575.112125
831.175041	2570.706157
831.491952	2571.971487
831.808819	2572.271435
832.125642	2570.136507
832.442421	2574.139183
832.759157	2572.967114
833.075849	2574.718915
833.392497	2578.663618
833.709101	2581.113619
834.025662	2582.326017
834.342179	2584.796182
834.658653	2580.680080
834.975083	2577.272260
835.291469	2582.971284
835.607811	2577.670511
835.924110	2574.229923
836.240366	2571.535427
836.556578	2571.966445
836.872746	2573.209090
837.188871	2575.011302
837.504952	2570.738924
837.820990	2569.271949
838.136984	2570.552402
838.452935	2568.818245
838.768842	2570.824624
839.084706	2567.137020
839.400526	2571.714388
839.716303	2572.067268
840.032037	2573.730849
840.347727	2575.613720
840.663373	2574.300500
840.978977	2573.287228
841.294537	2571.036352
841.610054	2573.448545
841.925527	2572.548699
842.240957	2572.531055
842.556344	2571.235478
842.871687	2567.991496
843.186987	2571.217834
843.502244	2567.633574
843.817458	2565.929664
844.132629	2566.045610
844.447756	2567.613409
844.762840	2563.588048
845.077881	2566.655590
845.392879	2562.665517
845.707833	2567.268090
846.022745	2565.874211
846.337613	2566.080898
846.652438	2567.512586
846.967221	2565.821279
847.281960	2568.757751
847.596656	2567.545353
847.911309	2569.350087
848.225919	2565.302040
848.540485	2567.358831
848.855009	2564.634087
849.169490	2565.939746
849.483928	2567.137020
849.798323	2565.554098
850.112675	2566.453944
850.426984	2565.506207
850.741251	2565.433110
851.055474	2565.423028
851.369654	2565.216340
851.683792	2569.085426
851.997887	2564.974365
852.311938	2565.959911
852.625947	2567.610888
852.939914	2564.203068
853.253837	2565.133161
853.567718	2566.438820
853.881555	2567.285734
854.195350	2567.777247
854.509103	2565.803635
854.822812	2565.216340
855.136479	2566.776577
855.450103	2568.921588
855.763685	2565.728017
856.077224	2565.501166
856.390720	2567.681465
856.704173	2563.968655
857.017584	2563.714077
857.330953	2567.608368
857.644278	2567.994016
857.957561	2569.463512
858.270802	2565.430589
858.584000	2566.423697
858.897155	2566.895045
859.210268	2566.927812
859.523339	2568.737586
859.836367	2567.822617
860.149352	2569.208934
860.462295	2565.849005
860.775195	2563.615774
861.088054	2560.449929
861.400869	2559.892882
861.713642	2561.851370
862.026373	2565.032338
862.339062	2564.205589
862.651708	2567.114335
862.964312	2564.434962
863.276873	2566.955538
863.589392	2566.542164
863.901869	2565.758264
864.214303	2565.722976
864.526696	2566.811866
864.839045	2568.692216
865.151353	2566.653069
865.463619	2567.744479
865.775842	2566.337997
866.088023	2566.466547
866.400162	2567.363872
866.712258	2568.150292
867.024313	2567.709191
867.336325	2566.859757
867.648296	2566.358162
867.960224	2565.370096
868.272110	2566.983265
868.583954	2567.338666
868.895755	2568.397308
869.207515	2568.924109
869.519233	2567.847823
869.830909	2566.660631
870.142542	2564.195507
870.454134	2566.363203
870.765684	2567.436969
871.077191	2567.159705
871.388657	2567.164746
871.700081	2564.676937
872.011463	2567.830179
872.322803	2568.377144
872.634101	2566.370765
872.945357	2568.336815
873.256571	2566.045610
873.567744	2567.300858
873.878874	2567.099211
874.189963	2567.328584
874.501010	2569.024932
874.812015	2565.881773
875.122979	2568.329253
875.433900	2564.528223
875.744780	2569.019891
876.055618	2568.109963
876.366415	2567.026115
876.677169	2568.787998
876.987882	2564.666855
877.298554	2560.505382
877.609183	2566.557287
877.919771	2563.401525
878.230317	2562.670558
878.540822	2568.924109
878.851285	2567.595765
879.161707	2570.935529
879.472087	2569.420663
879.782425	2572.649522
880.092722	2575.916189
880.402977	2578.749318
880.713191	2583.225862
881.023363	2591.992429
881.333494	2599.279417
881.643583	2597.668768
881.953631	2599.473501
882.263637	2598.472832
882.573602	2599.256732
882.883526	2595.632142
883.193408	2592.410845
883.503248	2586.742067
883.813048	2585.587643
884.122806	2586.467324
884.432522	2583.220821
884.742197	2583.581264
885.051831	2580.231417
885.361424	2578.542631
885.670975	2576.942064
885.980485	2575.412074
886.289954	2573.062896
886.599382	2569.650035
886.908768	2571.482495
887.218113	2569.413101
887.527417	2572.556260
887.836680	2571.265725
888.145901	2569.387895
888.455082	2566.668193
888.764221	2569.319840
889.073319	2567.857905
889.382376	2567.550395
889.691392	2568.714901
890.000366	2566.579973
890.309300	2570.330591
890.618193	2566.585014
890.927044	2568.235992
891.235855	2567.260528
891.544625	2564.142575
891.853353	2566.506876
892.162041	2567.283213
892.470687	2568.644325
892.779293	2568.160374
893.087858	2566.022925
893.396381	2565.632236
893.704864	2569.080385
894.013306	2567.605847
894.321707	2574.701271
894.630068	2573.745973
894.938387	2575.485171
895.246665	2575.424677
895.554903	2577.748649
895.863100	2572.856209
896.171256	2574.602969
896.479371	2572.495767
896.787446	2572.962073
897.095480	2571.873184
897.403473	2572.725139
897.711425	2571.626167
898.019336	2571.558112
898.327207	2567.941084
898.635038	2568.634243
898.942827	2567.416804
899.250576	2567.787329
899.558284	2568.351938
899.865952	2567.192473
900.173579	2567.709191
900.481165	2564.689540
900.788711	2567.752041
901.096216	2568.145251
901.403681	2566.101063
901.711105	2565.382698
902.018489	2569.483677
902.325832	2568.321691
902.633135	2566.796742
902.940397	2566.930333
903.247619	2567.701629
903.554800	2571.351425
903.861941	2571.162381
904.169041	2579.858372
904.476101	2579.034143
904.783121	2578.411561
905.090100	2576.937023
905.397039	2575.517938
905.703938	2575.805284
906.010796	2574.756724
906.317614	2572.883935
906.624391	2573.516600
906.931129	2572.689851
907.237826	2571.984089
907.544483	2569.667679
907.851099	2568.581311
908.157675	2568.982082
908.464211	2569.849161
908.770707	2562.300033
909.077163	2565.269272
909.383578	2561.190979
909.689954	2560.202913
909.996289	2561.778273
910.302584	2568.692216
910.608839	2564.719787
910.915054	2567.305899
911.221229	2566.254818
911.527363	2565.906978
911.833458	2566.161557
912.139513	2565.803635
912.445527	2566.330435
912.751502	2563.761967
913.057436	2566.620302
913.363331	2569.576938
913.669186	2564.440003
913.975000	2564.492935
914.280775	2569.997875
914.586510	2568.235992
914.892205	2569.140879
915.197859	2573.035170
915.503475	2573.438462
915.809050	2574.635736
916.114585	2576.692527
916.420081	2579.200501
916.725536	2579.959195
917.030952	2578.146900
917.336328	2578.792168
917.641665	2577.121025
917.946961	2574.383679
918.252218	2574.877712
918.557435	2573.624985
918.862612	2576.001889
919.167750	2569.798749
919.472848	2573.095664
919.777906	2569.864284
920.082925	2570.922927
920.387904	2570.633060
920.692843	2570.741445
920.997743	2569.171126
921.302603	2566.007802
921.607423	2567.812535
921.912204	2564.770198
922.216946	2567.560477
922.521647	2566.758933
922.826310	2565.667524
923.130932	2565.423028
923.435516	2563.749365
923.740059	2566.035528
924.044564	2562.282389
924.349028	2567.021073
924.653454	2559.799621
924.957840	2564.034190
925.262186	2559.295505
925.566493	2563.240208
925.870761	2562.436144
926.174989	2564.016546
926.479178	2565.717935
926.783328	2563.940928
927.087438	2562.037893
927.391509	2567.016032
927.695541	2564.019066
927.999533	2564.008984
928.303486	2562.297512
928.607400	2562.131154
928.911275	2564.339180
929.215110	2562.665517
929.518906	2561.072512
929.822663	2565.211299
930.126381	2564.838254
930.430060	2562.398335
930.733699	2564.465208
931.037299	2560.517985
931.340861	2562.368088
931.644383	2562.229457
931.947866	2565.022256
932.251309	2561.669889
932.554714	2562.489076
932.858080	2562.294992
933.161407	2565.188614
933.464694	2563.444375
933.767943	2561.503531
934.071153	2564.669375
934.374323	2562.320197
934.677455	2562.060578
934.980548	2562.746175
935.283602	2562.209292
935.586617	2563.121741
935.889593	2560.679302
936.192530	2565.176011
936.495428	2564.752554
936.798287	2563.532595
937.101108	2563.915723
937.403890	2563.048644
937.706632	2562.680640
938.009336	2562.766340
938.312002	2564.840774
938.614628	2561.750547
938.917216	2565.793553
939.219765	2563.056206
939.522275	2565.211299
939.824747	2564.566032
940.127179	2560.747358
940.429573	2560.013870
940.731929	2559.247614
941.034246	2560.679302
941.336524	2561.352296
941.638763	2560.822975
941.940964	2564.535785
942.243126	2563.494786
942.545250	2563.542677
942.847335	2564.503017
943.149381	2561.942111
943.451389	2562.010167
943.753359	2562.065619
944.055290	2563.910682
944.357182	2563.577965
944.659036	2563.542677
944.960851	2563.887996
945.262628	2561.992522
945.564367	2564.387071
945.866067	2564.913871
946.167729	2563.031000
946.469352	2564.427400
946.770937	2561.173335
947.072484	2563.910682
947.373992	2563.351113
947.675462	2562.849519
947.976893	2563.066288
948.278286	2564.074519
948.579641	2563.315825
948.880958	2561.006977
949.182236	2562.153839
949.483476	2560.727193
949.784678	2564.036710
950.085841	2563.754406
950.386967	2564.245918
950.688054	2561.160732
950.989103	2564.666855
951.290114	2563.789694
951.591087	2561.992522
951.892021	2565.486042
952.192917	2564.089642
952.493776	2564.366906
952.794596	2566.098542
953.095378	2563.542677
953.396122	2564.147616
953.696828	2565.521330
953.997496	2567.084088
954.298126	2564.951680
954.598718	2563.162070
954.899272	2563.368757
955.199788	2561.921946
955.500266	2561.921946
955.800706	2561.122923
956.101108	2557.263920
956.401472	2558.128478
956.701798	2562.325239
957.002087	2559.116544
957.302337	2562.839436
957.602550	2565.186093
957.902724	2563.802297
958.202861	2562.630228
958.502960	2561.755588
958.803022	2562.224416
959.103045	2563.250290
959.403031	2563.514951
959.702979	2561.589230
960.002889	2562.168963
960.302762	2562.063099
960.602596	2563.519992
960.902393	2564.790363
961.202153	2560.623849
961.501875	2561.894220
961.801559	2563.325908
962.101205	2565.206258
962.400814	2563.686350
962.700385	2562.569735
962.999918	2562.350444
963.299414	2559.608057
963.598873	2562.189127
963.898293	2561.286761
964.197677	2563.131823
964.497022	2562.637790
964.796331	2560.510423
965.095601	2560.545711
965.394835	2560.170145
965.694030	2560.013870
965.993189	2563.154508
966.292309	2561.783315
966.591393	2562.365568
966.890439	2560.891030
967.189447	2559.585372
967.488419	2559.509754
967.787353	2561.881617
968.086249	2561.483366
968.385108	2560.006308
968.683930	2564.288768
968.982714	2560.258366
969.281462	2563.149467
969.580172	2561.231308
969.878844	2564.792883
970.177480	2562.209292
970.476078	2561.632080
970.774639	2560.281051
971.073162	2560.543191
971.371649	2557.881462
971.670098	2558.405742
971.968510	2556.442212
972.266885	2555.655792
972.565223	2560.712069
972.863524	2560.623849
973.161788	2561.906823
973.460014	2561.627039
973.758204	2561.763150
974.056356	2559.315670
974.354471	2559.507234
974.652550	2560.525547
974.950591	2562.965465
975.248595	2560.157542
975.546563	2561.374981
975.844493	2560.228119
976.142386	2562.683161
976.440243	2564.503017
976.738062	2563.303223
977.035845	2563.182235
977.333590	2563.441854
977.631299	2561.790876
977.928971	2558.844322
978.226606	2559.877758
978.524204	2561.533777
978.821765	2559.718962
979.119290	2560.938921
979.416777	2563.661144
979.714228	2562.040413
980.011642	2560.838098
980.309020	2564.717266
980.606360	2562.529405
980.903664	2560.606205
981.200931	2560.323901
981.498162	2561.017059
981.795356	2562.494117
982.092513	2562.118551
982.389633	2560.250804
982.686717	2563.300702
982.983764	2563.242729
983.280775	2564.465208
983.577749	2562.045455
983.874686	2566.055693
984.171587	2562.045455
984.468451	2563.353634
984.765279	2563.411607
985.062070	2564.077040
985.358824	2562.753737
985.655543	2560.339024
985.952224	2559.580330
986.248869	2562.723490
986.545478	2558.531770
986.842050	2558.282233
987.138586	2556.122099
987.435086	2558.153684
987.731549	2555.333158
988.027975	2560.336503
988.324366	2560.308777
988.620719	2560.407080
988.917037	2561.117882
989.213318	2562.060578
989.509563	2559.928170
989.805772	2560.276010
990.101944	2561.843808
990.398080	2562.766340
990.694180	2560.104610
990.990244	2560.888510
991.286271	2564.140054
991.582262	2561.425393
991.878217	2558.037737
992.174136	2560.177707
992.470019	2560.165104
992.765865	2560.472615
993.061676	2559.552604
993.357450	2561.085115
993.653188	2559.189641
993.948890	2562.695763
994.244556	2559.938252
994.540186	2558.743499
994.835780	2561.327090
995.131337	2561.453119
995.426859	2560.472615
995.722345	2558.977912
996.017795	2560.966648
996.313208	2561.289282
996.608586	2562.489076
996.903928	2563.406566
997.199234	2561.495969
997.494504	2563.560321
997.789738	2564.003943
998.084936	2563.038562
998.380099	2560.263407
998.675225	2561.380022
998.970316	2560.215516
999.265371	2561.218705
999.560390	2560.679302
999.855373	2559.139229
1000.150320	2559.986143
1000.445232	2561.997564
1000.740108	2558.080587
1001.034948	2562.355486
1001.329752	2561.720300
1001.624521	2560.782646
1001.919254	2555.098745
1002.213951	2558.894733
1002.508613	2557.727706
1002.803239	2559.923129
1003.097829	2557.727706
1003.392384	2561.032183
1003.686903	2557.392470
1003.981386	2561.664847
1004.275834	2561.690053
1004.570246	2561.077553
1004.864623	2561.117882
1005.158964	2560.591082
1005.453270	2558.395659
1005.747540	2559.855073
1006.041775	2558.884651
1006.335974	2558.861966
1006.630138	2560.202913
1006.924266	2563.192317
1007.218359	2557.957079
1007.512416	2560.155022
1007.806438	2558.632593
1008.100425	2561.440516
1008.394376	2559.350958
1008.688292	2560.712069
1008.982172	2562.473953
1009.276017	2561.309446
1009.569827	2558.776266
1009.863602	2559.199723
1010.157341	2560.870866
1010.451045	2558.874569
1010.744714	2558.751061
1011.038347	2561.374981
1011.331945	2557.803324
1011.625508	2560.538150
1011.919036	2560.553273
1012.212528	2557.788200
1012.505986	2558.272151
1012.799408	2558.720814
1013.092795	2559.262738
1013.386147	2560.132337
1013.679464	2560.903633
1013.972745	2562.158881
1014.265992	2559.376164
1014.559204	2558.718293
1014.852380	2560.021431
1015.145521	2557.999929
1015.438628	2561.314487
1015.731699	2560.555794
1016.024736	2556.308622
1016.317737	2560.938921
1016.610703	2563.240208
1016.903635	2555.862479
1017.196531	2557.831050
1017.489393	2554.811399
1017.782219	2553.689742
1018.075011	2556.023796
1018.367768	2560.916236
1018.660490	2557.725186
1018.953177	2557.725186
1019.245829	2557.725186
