Dividing Wavelength (nm)	Counts (n)	Blue Motor Position (mm): 0.000000	Red Motor Position (mm): 7.000000	
326.493990	2064.352500
326.888308	2064.352500
327.282561	2064.352500
327.676750	2092.078846
328.070874	2061.831923
328.464933	2059.311346
328.858929	1998.817500
329.252859	2081.996538
329.646726	2124.846346
330.040528	2145.010962
330.434265	2066.873077
330.827938	2066.873077
331.221547	2165.175577
331.615091	2185.340192
332.008571	2160.134423
332.401986	2228.190000
332.795338	2233.231154
333.188625	2271.039808
333.581847	2235.751731
333.975006	2303.807308
334.368100	2278.601538
334.761129	2311.369038
335.154095	2303.807308
335.546996	2321.451346
335.939833	2336.574808
336.332606	2334.054231
336.725315	2414.712692
337.117960	2407.150962
337.510540	2399.589231
337.903056	2366.821731
338.295508	2381.945192
338.687896	2371.862885
339.080220	2442.439038
339.472480	2409.671538
339.864676	2407.150962
340.256807	2460.083077
340.648875	2495.371154
341.040879	2450.000769
341.432818	2515.535769
341.824694	2538.220962
342.216506	2460.083077
342.608253	2487.809423
342.999937	2515.535769
343.391557	2492.850577
343.783113	2447.480192
344.174605	2515.535769
344.566033	2442.439038
344.957397	2497.891731
345.348697	2429.836154
345.739934	2548.303269
346.131106	2452.521346
346.522215	2465.124231
346.913260	2482.768269
347.304241	2586.111923
347.695159	2462.603654
348.086012	2535.700385
348.476802	2371.862885
348.867528	2434.877308
349.258191	2452.521346
349.648789	2419.753846
350.039324	2381.945192
350.429796	2465.124231
350.820203	2447.480192
351.210548	2485.288846
351.600828	2424.795000
351.991045	2495.371154
352.381198	2397.068654
352.771288	2487.809423
353.161314	2457.562500
353.551276	2477.727115
353.941175	2502.932885
354.331010	2492.850577
354.720782	2442.439038
355.110490	2452.521346
355.500135	2432.356731
355.889717	2399.589231
356.279235	2419.753846
356.668689	2480.247692
357.058080	2470.165385
357.447408	2339.095385
357.836672	2409.671538
358.225873	2374.383462
358.615010	2409.671538
359.004084	2530.659231
359.393095	2389.506923
359.782043	2450.000769
360.170927	2397.068654
360.559748	2505.453462
360.948505	2414.712692
361.337199	2394.548077
361.725830	2434.877308
362.114398	2427.315577
362.502903	2492.850577
362.891344	2462.603654
363.279722	2432.356731
363.668037	2487.809423
364.056289	2447.480192
364.444478	2485.288846
364.832603	2495.371154
365.220665	2535.700385
365.608665	2477.727115
365.996601	2528.138654
366.384474	2477.727115
366.772284	2472.685962
367.160031	2366.821731
367.547715	2497.891731
367.935336	2422.274423
368.322893	2437.397885
368.710388	2530.659231
369.097820	2492.850577
369.485189	2492.850577
369.872495	2434.877308
370.259738	2518.056346
370.646918	2444.959615
371.034035	2460.083077
371.421090	2409.671538
371.808081	2502.932885
372.195010	2371.862885
372.581875	2502.932885
372.968678	2460.083077
373.355418	2455.041923
373.742096	2455.041923
374.128710	2434.877308
374.515262	2404.630385
374.901751	2444.959615
375.288177	2543.262115
375.674540	2518.056346
376.060841	2397.068654
376.447079	2417.233269
376.833254	2477.727115
377.219367	2450.000769
377.605417	2437.397885
377.991404	2482.768269
378.377329	2371.862885
378.763191	2462.603654
379.148991	2500.412308
379.534727	2513.015192
379.920402	2470.165385
380.306013	2450.000769
380.691563	2475.206538
381.077049	2465.124231
381.462474	2455.041923
381.847835	2510.494615
382.233134	2429.836154
382.618371	2523.097500
383.003545	2397.068654
383.388657	2467.644808
383.773706	2460.083077
384.158693	2475.206538
384.543618	2444.959615
384.928480	2482.768269
385.313280	2427.315577
385.698017	2450.000769
386.082692	2447.480192
386.467305	2482.768269
386.851856	2414.712692
387.236344	2472.685962
387.620770	2444.959615
388.005133	2528.138654
388.389435	2495.371154
388.773674	2427.315577
389.157851	2429.836154
389.541965	2422.274423
389.926018	2402.109808
390.310008	2462.603654
390.693936	2502.932885
391.077802	2470.165385
391.461606	2409.671538
391.845348	2510.494615
392.229027	2505.453462
392.612645	2455.041923
392.996200	2434.877308
393.379694	2555.865000
393.763125	2465.124231
394.146494	2452.521346
394.529801	2452.521346
394.913047	2492.850577
395.296230	2492.850577
395.679351	2492.850577
396.062410	2540.741538
396.445408	2475.206538
396.828343	2460.083077
397.211217	2455.041923
397.594028	2500.412308
397.976778	2460.083077
398.359466	2462.603654
398.742092	2505.453462
399.124656	2467.644808
399.507158	2535.700385
399.889598	2455.041923
400.271977	2495.371154
400.654294	2563.426731
401.036549	2452.521346
401.418742	2533.179808
401.800874	2467.644808
402.182944	2487.809423
402.564952	2409.671538
402.946898	2450.000769
403.328783	2399.589231
403.710606	2447.480192
404.092367	2477.727115
404.474067	2515.535769
404.855705	2540.741538
405.237282	2495.371154
405.618797	2442.439038
406.000250	2432.356731
406.381642	2507.974038
406.762972	2550.823846
407.144240	2462.603654
407.525447	2520.576923
407.906593	2510.494615
408.287677	2487.809423
408.668700	2495.371154
409.049661	2540.741538
409.430560	2439.918462
409.811399	2530.659231
410.192176	2472.685962
410.572891	2523.097500
410.953545	2455.041923
411.334138	2439.918462
411.714669	2429.836154
412.095139	2480.247692
412.475547	2460.083077
412.855894	2523.097500
413.236180	2460.083077
413.616405	2475.206538
413.996568	2439.918462
414.376670	2515.535769
414.756711	2475.206538
415.136691	2495.371154
415.516609	2497.891731
415.896466	2581.070769
416.276262	2588.632500
416.655997	2492.850577
417.035670	2412.192115
417.415283	2477.727115
417.794834	2550.823846
418.174324	2502.932885
418.553753	2444.959615
418.933121	2404.630385
419.312428	2402.109808
419.691674	2485.288846
420.070859	2465.124231
420.449983	2533.179808
420.829045	2447.480192
421.208047	2505.453462
421.586988	2558.385577
421.965867	2472.685962
422.344686	2505.453462
422.723444	2452.521346
423.102141	2518.056346
423.480777	2442.439038
423.859352	2515.535769
424.237866	2513.015192
424.616319	2444.959615
424.994712	2533.179808
425.373044	2384.465769
425.751314	2457.562500
426.129524	2475.206538
426.507673	2467.644808
426.885762	2545.782692
427.263789	2472.685962
427.641756	2487.809423
428.019662	2507.974038
428.397508	2477.727115
428.775292	2477.727115
429.153016	2434.877308
429.530679	2497.891731
429.908282	2563.426731
430.285824	2492.850577
430.663305	2507.974038
431.040726	2543.262115
431.418086	2482.768269
431.795385	2389.506923
432.172624	2581.070769
432.549802	2462.603654
432.926920	2500.412308
433.303977	2429.836154
433.680974	2439.918462
434.057910	2555.865000
434.434786	2500.412308
434.811601	2475.206538
435.188355	2545.782692
435.565050	2520.576923
435.941683	2608.797115
436.318257	2475.206538
436.694770	2543.262115
437.071222	2558.385577
437.447614	2535.700385
437.823946	2437.397885
438.200218	2462.603654
438.576429	2429.836154
438.952580	2558.385577
439.328670	2467.644808
439.704700	2548.303269
440.080670	2520.576923
440.456580	2465.124231
440.832429	2417.233269
441.208218	2558.385577
441.583947	2528.138654
441.959616	2465.124231
442.335224	2513.015192
442.710773	2487.809423
443.086261	2573.509038
443.461689	2477.727115
443.837057	2457.562500
444.212365	2444.959615
444.587612	2487.809423
444.962800	2576.029615
445.337927	2507.974038
445.712995	2578.550192
446.088002	2462.603654
446.462949	2502.932885
446.837837	2543.262115
447.212664	2447.480192
447.587431	2452.521346
447.962139	2460.083077
448.336786	2389.506923
448.711374	2434.877308
449.085901	2417.233269
449.460369	2520.576923
449.834776	2475.206538
450.209124	2505.453462
450.583412	2502.932885
450.957640	2427.315577
451.331808	2480.247692
451.705917	2432.356731
452.079965	2507.974038
452.453954	2540.741538
452.827883	2548.303269
453.201752	2444.959615
453.575562	2576.029615
453.949311	2507.974038
454.323001	2560.906154
454.696632	2472.685962
455.070202	2432.356731
455.443713	2482.768269
455.817164	2507.974038
456.190556	2515.535769
456.563888	2530.659231
456.937160	2480.247692
457.310373	2530.659231
457.683526	2417.233269
458.056619	2528.138654
458.429653	2495.371154
458.802628	2515.535769
459.175542	2555.865000
459.548398	2533.179808
459.921194	2528.138654
460.293930	2477.727115
460.666607	2518.056346
461.039224	2543.262115
461.411782	2495.371154
461.784280	2472.685962
462.156719	2477.727115
462.529099	2563.426731
462.901419	2510.494615
463.273680	2462.603654
463.645882	2485.288846
464.018024	2432.356731
464.390106	2460.083077
464.762130	2444.959615
465.134094	2439.918462
465.505999	2492.850577
465.877845	2460.083077
466.249631	2520.576923
466.621358	2462.603654
466.993026	2404.630385
467.364634	2515.535769
467.736184	2480.247692
468.107674	2475.206538
468.479105	2495.371154
468.850477	2502.932885
469.221790	2472.685962
469.593043	2495.371154
469.964238	2482.768269
470.335373	2472.685962
470.706449	2510.494615
471.077467	2545.782692
471.448425	2442.439038
471.819324	2530.659231
472.190164	2565.947308
472.560945	2455.041923
472.931667	2437.397885
473.302330	2505.453462
473.672934	2525.618077
474.043479	2452.521346
474.413965	2487.809423
474.784393	2457.562500
475.154761	2452.521346
475.525070	2573.509038
475.895321	2576.029615
476.265513	2447.480192
476.635645	2477.727115
477.005719	2485.288846
477.375734	2500.412308
477.745691	2538.220962
478.115588	2447.480192
478.485427	2507.974038
478.855207	2553.344423
479.224928	2439.918462
479.594591	2397.068654
479.964194	2437.397885
480.333739	2528.138654
480.703226	2450.000769
481.072653	2409.671538
481.442022	2497.891731
481.811333	2437.397885
482.180584	2523.097500
482.549777	2485.288846
482.918912	2485.288846
483.287988	2487.809423
483.657005	2563.426731
484.025964	2505.453462
484.394864	2533.179808
484.763706	2422.274423
485.132489	2548.303269
485.501213	2591.153077
485.869879	2528.138654
486.238487	2495.371154
486.607036	2500.412308
486.975527	2442.439038
487.343959	2560.906154
487.712333	2447.480192
488.080648	2492.850577
488.448905	2439.918462
488.817104	2470.165385
489.185244	2419.753846
489.553326	2558.385577
489.921350	2510.494615
490.289315	2404.630385
490.657222	2475.206538
491.025070	2545.782692
491.392861	2412.192115
491.760593	2560.906154
492.128267	2568.467885
492.495883	2432.356731
492.863440	2578.550192
493.230939	2555.865000
493.598380	2555.865000
493.965763	2442.439038
494.333088	2394.548077
494.700354	2538.220962
495.067563	2502.932885
495.434713	2492.850577
495.801805	2470.165385
496.168839	2477.727115
496.535815	2568.467885
496.902733	2490.330000
497.269593	2515.535769
497.636395	2450.000769
498.003139	2558.385577
498.369825	2523.097500
498.736453	2545.782692
499.103023	2492.850577
499.469535	2490.330000
499.835989	2472.685962
500.202385	2495.371154
500.568723	2447.480192
500.935003	2460.083077
501.301226	2475.206538
501.667390	2520.576923
502.033497	2563.426731
502.399546	2386.986346
502.765537	2565.947308
503.131470	2417.233269
503.497345	2450.000769
503.863163	2419.753846
504.228923	2412.192115
504.594625	2593.673654
504.960269	2497.891731
505.325856	2475.206538
505.691385	2520.576923
506.056856	2621.400000
506.422270	2409.671538
506.787625	2523.097500
507.152924	2472.685962
507.518164	2495.371154
507.883347	2550.823846
508.248472	2429.836154
508.613540	2540.741538
508.978550	2505.453462
509.343503	2558.385577
509.708398	2500.412308
510.073236	2495.371154
510.438016	2505.453462
510.802738	2523.097500
511.167403	2593.673654
511.532010	2450.000769
511.896561	2523.097500
512.261053	2553.344423
512.625488	2545.782692
512.989866	2460.083077
513.354186	2591.153077
513.718449	2475.206538
514.082655	2560.906154
514.446803	2533.179808
514.810894	2555.865000
515.174927	2515.535769
515.538904	2573.509038
515.902822	2394.548077
516.266684	2525.618077
516.630488	2502.932885
516.994235	2523.097500
517.357925	2379.424615
517.721558	2437.397885
518.085133	2437.397885
518.448651	2495.371154
518.812112	2444.959615
519.175516	2530.659231
519.538863	2442.439038
519.902152	2407.150962
520.265385	2538.220962
520.628560	2462.603654
520.991678	2576.029615
521.354739	2455.041923
521.717743	2528.138654
522.080690	2558.385577
522.443580	2465.124231
522.806413	2507.974038
523.169189	2502.932885
523.531908	2487.809423
523.894569	2487.809423
524.257174	2518.056346
524.619722	2568.467885
524.982213	2500.412308
525.344647	2513.015192
525.707025	2533.179808
526.069345	2482.768269
526.431608	2462.603654
526.793815	2545.782692
527.155964	2480.247692
527.518057	2510.494615
527.880093	2545.782692
528.242072	2540.741538
528.603995	2467.644808
528.965860	2535.700385
529.327669	2576.029615
529.689421	2482.768269
530.051117	2485.288846
530.412755	2447.480192
530.774337	2467.644808
531.135862	2553.344423
531.497331	2555.865000
531.858743	2568.467885
532.220098	2513.015192
532.581396	2528.138654
532.942638	2460.083077
533.303824	2502.932885
533.664953	2492.850577
534.026025	2485.288846
534.387040	2487.809423
534.747999	2520.576923
535.108902	2505.453462
535.469748	2515.535769
535.830537	2497.891731
536.191270	2437.397885
536.551947	2540.741538
536.912567	2507.974038
537.273131	2523.097500
537.633638	2553.344423
537.994089	2528.138654
538.354483	2505.453462
538.714821	2412.192115
539.075103	2560.906154
539.435328	2374.383462
539.795497	2548.303269
540.155609	2457.562500
540.515665	2495.371154
540.875665	2450.000769
541.235609	2518.056346
541.595496	2523.097500
541.955328	2442.439038
542.315102	2492.850577
542.674821	2505.453462
543.034483	2598.714808
543.394090	2515.535769
543.753640	2490.330000
544.113134	2485.288846
544.472571	2553.344423
544.831953	2477.727115
545.191278	2593.673654
545.550548	2434.877308
545.909761	2497.891731
546.268918	2480.247692
546.628019	2558.385577
546.987064	2460.083077
547.346053	2608.797115
547.704986	2513.015192
548.063863	2500.412308
548.422684	2497.891731
548.781449	2429.836154
549.140158	2487.809423
549.498811	2560.906154
549.857408	2465.124231
550.215949	2482.768269
550.574434	2490.330000
550.932864	2482.768269
551.291237	2480.247692
551.649555	2462.603654
552.007817	2475.206538
552.366022	2560.906154
552.724173	2500.412308
553.082267	2560.906154
553.440305	2439.918462
553.798288	2497.891731
554.156215	2485.288846
554.514086	2555.865000
554.871902	2550.823846
555.229661	2540.741538
555.587365	2513.015192
555.945014	2427.315577
556.302606	2487.809423
556.660143	2535.700385
557.017625	2530.659231
557.375050	2490.330000
557.732421	2442.439038
558.089735	2573.509038
558.446994	2447.480192
558.804197	2460.083077
559.161345	2444.959615
559.518437	2485.288846
559.875474	2560.906154
560.232455	2477.727115
560.589381	2515.535769
560.946251	2452.521346
561.303065	2487.809423
561.659825	2510.494615
562.016528	2543.262115
562.373177	2523.097500
562.729770	2470.165385
563.086307	2472.685962
563.442789	2540.741538
563.799216	2560.906154
564.155587	2510.494615
564.511904	2530.659231
564.868164	2540.741538
565.224370	2520.576923
565.580520	2490.330000
565.936615	2515.535769
566.292654	2530.659231
566.648638	2555.865000
567.004567	2480.247692
567.360441	2525.618077
567.716260	2417.233269
568.072023	2485.288846
568.427732	2447.480192
568.783385	2515.535769
569.138982	2437.397885
569.494525	2513.015192
569.850013	2477.727115
570.205445	2513.015192
570.560823	2457.562500
570.916145	2477.727115
571.271412	2485.288846
571.626625	2518.056346
571.981782	2515.535769
572.336884	2467.644808
572.691931	2568.467885
573.046923	2548.303269
573.401860	2507.974038
573.756743	2553.344423
574.111570	2487.809423
574.466342	2553.344423
574.821059	2543.262115
575.175722	2472.685962
575.530330	2555.865000
575.884882	2472.685962
576.239380	2505.453462
576.593823	2444.959615
576.948211	2495.371154
577.302544	2523.097500
577.656823	2606.276538
578.011047	2603.755962
578.365216	2513.015192
578.719330	2507.974038
579.073389	2560.906154
579.427394	2518.056346
579.781344	2465.124231
580.135239	2555.865000
580.489080	2598.714808
580.842866	2505.453462
581.196597	2548.303269
581.550273	2502.932885
581.903895	2407.150962
582.257463	2482.768269
582.610975	2507.974038
582.964434	2472.685962
583.317837	2460.083077
583.671186	2528.138654
584.024481	2520.576923
584.377721	2518.056346
584.730906	2520.576923
585.084037	2510.494615
585.437113	2507.974038
585.790135	2439.918462
586.143103	2487.809423
586.496016	2424.795000
586.848874	2535.700385
587.201679	2553.344423
587.554428	2565.947308
587.907124	2442.439038
588.259765	2477.727115
588.612352	2507.974038
588.964884	2475.206538
589.317362	2492.850577
589.669786	2495.371154
590.022155	2452.521346
590.374470	2513.015192
590.726731	2523.097500
591.078937	2485.288846
591.431090	2507.974038
591.783188	2525.618077
592.135232	2581.070769
592.487222	2409.671538
592.839157	2407.150962
593.191038	2507.974038
593.542866	2538.220962
593.894639	2520.576923
594.246358	2485.288846
594.598022	2472.685962
594.949633	2462.603654
595.301190	2457.562500
595.652692	2671.811538
596.004141	2492.850577
596.355535	2505.453462
596.706876	2460.083077
597.058162	2573.509038
597.409395	2565.947308
597.760573	2520.576923
598.111698	2467.644808
598.462768	2470.165385
598.813785	2419.753846
599.164748	2482.768269
599.515657	2490.330000
599.866511	2563.426731
600.217312	2439.918462
600.568060	2424.795000
600.918753	2500.412308
601.269392	2520.576923
601.619978	2570.988462
601.970510	2434.877308
602.320988	2573.509038
602.671412	2555.865000
603.021783	2495.371154
603.372100	2475.206538
603.722363	2568.467885
604.072572	2465.124231
604.422728	2558.385577
604.772830	2538.220962
605.122878	2507.974038
605.472872	2457.562500
605.822813	2462.603654
606.172701	2513.015192
606.522534	2497.891731
606.872314	2502.932885
607.222041	2407.150962
607.571714	2535.700385
607.921333	2465.124231
608.270899	2482.768269
608.620411	2525.618077
608.969870	2457.562500
609.319276	2553.344423
609.668627	2432.356731
610.017926	2505.453462
610.367171	2462.603654
610.716362	2477.727115
611.065500	2470.165385
611.414585	2465.124231
611.763616	2477.727115
612.112594	2505.453462
612.461518	2457.562500
612.810389	2545.782692
613.159207	2467.644808
613.507971	2381.945192
613.856682	2482.768269
614.205340	2518.056346
614.553945	2467.644808
614.902496	2462.603654
615.250994	2444.959615
615.599439	2490.330000
615.947830	2603.755962
616.296169	2467.644808
616.644454	2475.206538
616.992686	2538.220962
617.340864	2470.165385
617.688990	2455.041923
618.037063	2548.303269
618.385082	2523.097500
618.733048	2492.850577
619.080961	2510.494615
619.428821	2518.056346
619.776628	2432.356731
620.124382	2535.700385
620.472083	2525.618077
620.819731	2485.288846
621.167326	2533.179808
621.514868	2550.823846
621.862357	2467.644808
622.209793	2513.015192
622.557176	2538.220962
622.904506	2495.371154
623.251783	2500.412308
623.599007	2518.056346
623.946179	2455.041923
624.293297	2482.768269
624.640363	2543.262115
624.987376	2560.906154
625.334336	2507.974038
625.681243	2507.974038
626.028097	2565.947308
626.374899	2570.988462
626.721647	2510.494615
627.068343	2533.179808
627.414987	2487.809423
627.761577	2472.685962
628.108115	2525.618077
628.454600	2570.988462
628.801032	2540.741538
629.147412	2482.768269
629.493739	2424.795000
629.840014	2518.056346
630.186236	2540.741538
630.532405	2495.371154
630.878521	2565.947308
631.224585	2467.644808
631.570597	2477.727115
631.916556	2485.288846
632.262462	2523.097500
632.608316	2563.426731
632.954117	2523.097500
633.299866	2523.097500
633.645562	2492.850577
633.991206	2490.330000
634.336797	2530.659231
634.682336	2470.165385
635.027823	2500.412308
635.373257	2505.453462
635.718639	2550.823846
636.063968	2520.576923
636.409245	2455.041923
636.754470	2480.247692
637.099642	2573.509038
637.444762	2520.576923
637.789829	2565.947308
638.134845	2487.809423
638.479808	2515.535769
638.824719	2520.576923
639.169577	2485.288846
639.514383	2477.727115
639.859137	2412.192115
640.203839	2432.356731
640.548489	2500.412308
640.893086	2457.562500
641.237632	2437.397885
641.582125	2485.288846
641.926566	2545.782692
642.270955	2576.029615
642.615292	2558.385577
642.959576	2613.838269
643.303809	2528.138654
643.647990	2507.974038
643.992118	2427.315577
644.336195	2538.220962
644.680219	2545.782692
645.024192	2432.356731
645.368112	2513.015192
645.711981	2603.755962
646.055797	2502.932885
646.399562	2593.673654
646.743274	2525.618077
647.086935	2555.865000
647.430544	2495.371154
647.774101	2480.247692
648.117606	2490.330000
648.461059	2543.262115
648.804460	2553.344423
649.147810	2472.685962
649.491108	2495.371154
649.834354	2535.700385
650.177548	2434.877308
650.520690	2570.988462
650.863781	2505.453462
651.206820	2507.974038
651.549807	2392.027500
651.892742	2507.974038
652.235626	2515.535769
652.578458	2583.591346
652.921238	2563.426731
653.263967	2560.906154
653.606644	2558.385577
653.949269	2487.809423
654.291843	2520.576923
654.634365	2480.247692
654.976836	2520.576923
655.319255	2482.768269
655.661622	2482.768269
656.003938	2540.741538
656.346203	2555.865000
656.688416	2455.041923
657.030577	2439.918462
657.372687	2500.412308
657.714746	2560.906154
658.056753	2533.179808
658.398708	2487.809423
658.740612	2455.041923
659.082465	2535.700385
659.424266	2414.712692
659.766016	2414.712692
660.107715	2457.562500
660.449362	2472.685962
660.790958	2472.685962
661.132503	2533.179808
661.473996	2402.109808
661.815438	2568.467885
662.156829	2570.988462
662.498168	2490.330000
662.839456	2505.453462
663.180693	2465.124231
663.521879	2568.467885
663.863013	2540.741538
664.204097	2520.576923
664.545129	2487.809423
664.886110	2452.521346
665.227040	2513.015192
665.567918	2475.206538
665.908746	2470.165385
666.249522	2543.262115
666.590248	2530.659231
666.930922	2545.782692
667.271545	2507.974038
667.612118	2545.782692
667.952639	2409.671538
668.293109	2520.576923
668.633528	2533.179808
668.973896	2497.891731
669.314213	2533.179808
669.654480	2465.124231
669.994695	2495.371154
670.334859	2525.618077
670.674973	2533.179808
671.015035	2470.165385
671.355047	2543.262115
671.695008	2523.097500
672.034918	2497.891731
672.374777	2495.371154
672.714585	2505.453462
673.054342	2586.111923
673.394049	2535.700385
673.733705	2518.056346
674.073310	2523.097500
674.412864	2543.262115
674.752368	2563.426731
675.091820	2482.768269
675.431223	2513.015192
675.770574	2490.330000
676.109875	2429.836154
676.449125	2490.330000
676.788324	2515.535769
677.127473	2480.247692
677.466571	2475.206538
677.805619	2581.070769
678.144616	2510.494615
678.483562	2523.097500
678.822458	2450.000769
679.161303	2427.315577
679.500098	2409.671538
679.838842	2460.083077
680.177535	2460.083077
680.516179	2555.865000
680.854771	2538.220962
681.193314	2475.206538
681.531805	2480.247692
681.870247	2510.494615
682.208638	2452.521346
682.546978	2376.904038
682.885268	2507.974038
683.223508	2485.288846
683.561697	2505.453462
683.899836	2495.371154
684.237925	2482.768269
684.575963	2518.056346
684.913951	2432.356731
685.251889	2543.262115
685.589776	2477.727115
685.927614	2490.330000
686.265401	2477.727115
686.603137	2520.576923
686.940824	2505.453462
687.278460	2477.727115
687.616046	2591.153077
687.953582	2523.097500
688.291068	2409.671538
688.628504	2502.932885
688.965889	2412.192115
689.303224	2540.741538
689.640510	2429.836154
689.977745	2530.659231
690.314930	2480.247692
690.652065	2520.576923
690.989150	2515.535769
691.326185	2565.947308
691.663170	2550.823846
692.000105	2475.206538
692.336990	2450.000769
692.673825	2487.809423
693.010610	2538.220962
693.347345	2525.618077
693.684030	2533.179808
694.020665	2439.918462
694.357251	2482.768269
694.693786	2427.315577
695.030272	2447.480192
695.366707	2530.659231
695.703093	2550.823846
696.039429	2434.877308
696.375716	2457.562500
696.711952	2507.974038
697.048139	2495.371154
697.384276	2535.700385
697.720363	2538.220962
698.056400	2497.891731
698.392388	2452.521346
698.728326	2513.015192
699.064214	2608.797115
699.400053	2518.056346
699.735842	2533.179808
700.071581	2540.741538
700.407270	2475.206538
700.742910	2361.780577
701.078501	2432.356731
701.414042	2500.412308
701.749533	2550.823846
702.084974	2452.521346
702.420366	2520.576923
702.755709	2444.959615
703.091002	2470.165385
703.426246	2555.865000
703.761440	2500.412308
704.096584	2439.918462
704.431679	2548.303269
704.766725	2515.535769
705.101721	2487.809423
705.436668	2525.618077
705.771565	2429.836154
706.106413	2523.097500
706.441212	2447.480192
706.775961	2492.850577
707.110661	2487.809423
707.445311	2520.576923
707.779913	2455.041923
708.114465	2548.303269
708.448967	2576.029615
708.783421	2482.768269
709.117825	2404.630385
709.452180	2538.220962
709.786485	2477.727115
710.120742	2533.179808
710.454949	2475.206538
710.789107	2502.932885
711.123216	2523.097500
711.457275	2447.480192
711.791286	2444.959615
712.125247	2513.015192
712.459159	2419.753846
712.793023	2525.618077
713.126837	2513.015192
713.460602	2553.344423
713.794318	2424.795000
714.127985	2515.535769
714.461602	2412.192115
714.795171	2540.741538
715.128691	2480.247692
715.462162	2518.056346
715.795584	2472.685962
716.128957	2500.412308
716.462281	2424.795000
716.795556	2525.618077
717.128782	2462.603654
717.461960	2540.741538
717.795088	2444.959615
718.128167	2513.015192
718.461198	2538.220962
718.794180	2565.947308
719.127113	2510.494615
719.459997	2487.809423
719.792833	2470.165385
720.125619	2528.138654
720.458357	2497.891731
720.791046	2545.782692
721.123686	2518.056346
721.456278	2520.576923
721.788821	2457.562500
722.121315	2432.356731
722.453761	2563.426731
722.786158	2432.356731
723.118506	2535.700385
723.450805	2497.891731
723.783056	2535.700385
724.115259	2530.659231
724.447412	2404.630385
724.779518	2462.603654
725.111574	2376.904038
725.443582	2588.632500
725.775542	2540.741538
726.107453	2497.891731
726.439315	2434.877308
726.771129	2497.891731
727.102895	2593.673654
727.434612	2560.906154
727.766281	2437.397885
728.097901	2583.591346
728.429473	2437.397885
728.760996	2510.494615
729.092471	2495.371154
729.423897	2452.521346
729.755276	2555.865000
730.086606	2533.179808
730.417887	2439.918462
730.749120	2563.426731
731.080305	2550.823846
731.411442	2432.356731
731.742530	2485.288846
732.073570	2520.576923
732.404562	2480.247692
732.735506	2414.712692
733.066401	2505.453462
733.397249	2558.385577
733.728048	2565.947308
734.058798	2520.576923
734.389501	2513.015192
734.720156	2553.344423
735.050762	2427.315577
735.381320	2578.550192
735.711831	2510.494615
736.042293	2490.330000
736.372707	2480.247692
736.703073	2543.262115
737.033391	2472.685962
737.363661	2500.412308
737.693883	2465.124231
738.024056	2419.753846
738.354182	2475.206538
738.684260	2636.523462
739.014290	2530.659231
739.344272	2407.150962
739.674207	2485.288846
740.004093	2447.480192
740.333931	2543.262115
740.663722	2500.412308
740.993464	2518.056346
741.323159	2452.521346
741.652806	2502.932885
741.982405	2480.247692
742.311956	2540.741538
742.641460	2492.850577
742.970915	2495.371154
743.300323	2460.083077
743.629683	2439.918462
743.958996	2455.041923
744.288260	2505.453462
744.617477	2538.220962
744.946647	2500.412308
745.275768	2505.453462
745.604842	2523.097500
745.933869	2528.138654
746.262847	2518.056346
746.591778	2455.041923
746.920662	2507.974038
747.249498	2490.330000
747.578286	2553.344423
747.907027	2432.356731
748.235720	2507.974038
748.564365	2528.138654
748.892963	2455.041923
749.221514	2389.506923
749.550017	2414.712692
749.878473	2538.220962
750.206881	2422.274423
750.535242	2497.891731
750.863555	2364.301154
751.191821	2507.974038
751.520039	2513.015192
751.848210	2480.247692
752.176334	2502.932885
752.504411	2477.727115
752.832440	2482.768269
753.160421	2500.412308
753.488356	2455.041923
753.816243	2500.412308
754.144082	2558.385577
754.471875	2490.330000
754.799620	2510.494615
755.127318	2472.685962
755.454969	2550.823846
755.782572	2472.685962
756.110129	2530.659231
756.437638	2480.247692
756.765100	2525.618077
757.092515	2434.877308
757.419882	2475.206538
757.747203	2495.371154
758.074477	2505.453462
758.401703	2502.932885
758.728882	2492.850577
759.056014	2472.685962
759.383099	2634.002885
759.710138	2543.262115
760.037129	2545.782692
760.364073	2535.700385
760.690970	2485.288846
761.017820	2455.041923
761.344623	2460.083077
761.671379	2502.932885
761.998088	2497.891731
762.324751	2563.426731
762.651366	2457.562500
762.977935	2444.959615
763.304456	2424.795000
763.630931	2467.644808
763.957359	2500.412308
764.283740	2513.015192
764.610074	2482.768269
764.936362	2558.385577
765.262602	2528.138654
765.588796	2439.918462
765.914943	2470.165385
766.241044	2570.988462
766.567097	2518.056346
766.893104	2497.891731
767.219064	2490.330000
767.544978	2540.741538
767.870845	2450.000769
768.196665	2528.138654
768.522438	2492.850577
768.848165	2540.741538
769.173846	2545.782692
769.499479	2394.548077
769.825066	2533.179808
770.150607	2465.124231
770.476101	2560.906154
770.801548	2548.303269
771.126949	2432.356731
771.452303	2480.247692
771.777611	2422.274423
772.102872	2439.918462
772.428087	2472.685962
772.753256	2495.371154
773.078378	2540.741538
773.403453	2520.576923
773.728482	2510.494615
774.053465	2530.659231
774.378401	2548.303269
774.703291	2510.494615
775.028135	2480.247692
775.352932	2460.083077
775.677683	2535.700385
776.002388	2568.467885
776.327046	2444.959615
776.651658	2540.741538
776.976224	2455.041923
777.300743	2437.397885
777.625216	2472.685962
777.949643	2543.262115
778.274024	2460.083077
778.598359	2457.562500
778.922647	2523.097500
779.246889	2384.465769
779.571086	2505.453462
779.895236	2480.247692
780.219339	2467.644808
780.543397	2465.124231
780.867409	2462.603654
781.191374	2467.644808
781.515294	2490.330000
781.839167	2558.385577
782.162995	2518.056346
782.486776	2520.576923
782.810511	2482.768269
783.134201	2460.083077
783.457844	2513.015192
783.781441	2583.591346
784.104993	2495.371154
784.428498	2455.041923
784.751958	2475.206538
785.075372	2490.330000
785.398739	2490.330000
785.722061	2462.603654
786.045337	2487.809423
786.368568	2513.015192
786.691752	2555.865000
787.014891	2565.947308
787.337983	2565.947308
787.661030	2548.303269
787.984031	2505.453462
788.306987	2497.891731
788.629897	2492.850577
788.952760	2432.356731
789.275579	2649.126346
789.598351	2447.480192
789.921078	2502.932885
790.243759	2439.918462
790.566395	2565.947308
790.888984	2548.303269
791.211529	2452.521346
791.534027	2500.412308
791.856480	2500.412308
792.178888	2513.015192
792.501249	2462.603654
792.823566	2480.247692
793.145836	2460.083077
793.468062	2565.947308
793.790241	2450.000769
794.112375	2586.111923
794.434464	2500.412308
794.756507	2465.124231
795.078505	2487.809423
795.400457	2505.453462
795.722364	2472.685962
796.044226	2581.070769
796.366042	2558.385577
796.687812	2523.097500
797.009538	2538.220962
797.331218	2480.247692
797.652852	2485.288846
797.974442	2442.439038
798.295986	2505.453462
798.617484	2392.027500
798.938938	2581.070769
799.260346	2538.220962
799.581709	2465.124231
799.903026	2558.385577
800.224299	2555.865000
800.545526	2510.494615
800.866708	2578.550192
801.187845	2533.179808
801.508936	2533.179808
801.829983	2513.015192
802.150984	2414.712692
802.471940	2563.426731
802.792851	2480.247692
803.113717	2500.412308
803.434538	2434.877308
803.755314	2507.974038
804.076045	2570.988462
804.396731	2510.494615
804.717372	2530.659231
805.037967	2492.850577
805.358518	2523.097500
805.679024	2399.589231
805.999485	2545.782692
806.319901	2576.029615
806.640272	2389.506923
806.960598	2480.247692
807.280879	2444.959615
807.601115	2563.426731
807.921306	2538.220962
808.241453	2429.836154
808.561554	2535.700385
808.881611	2442.439038
809.201623	2550.823846
809.521590	2487.809423
809.841513	2505.453462
810.161390	2513.015192
810.481223	2581.070769
810.801011	2490.330000
811.120755	2538.220962
811.440453	2492.850577
811.760107	2500.412308
812.079716	2455.041923
812.399281	2525.618077
812.718801	2407.150962
813.038276	2460.083077
813.357707	2439.918462
813.677093	2558.385577
813.996434	2513.015192
814.315731	2528.138654
814.634983	2394.548077
814.954191	2480.247692
815.273354	2462.603654
815.592473	2460.083077
815.911547	2462.603654
816.230577	2427.315577
816.549562	2555.865000
816.868502	2460.083077
817.187399	2535.700385
817.506250	2540.741538
817.825058	2492.850577
818.143821	2502.932885
818.462539	2525.618077
818.781213	2477.727115
819.099843	2455.041923
819.418429	2530.659231
819.736970	2500.412308
820.055466	2523.097500
820.373919	2513.015192
820.692327	2528.138654
821.010691	2465.124231
821.329011	2591.153077
821.647286	2465.124231
821.965517	2515.535769
822.283704	2462.603654
822.601847	2543.262115
822.919945	2525.618077
823.237999	2472.685962
823.556010	2472.685962
823.873976	2475.206538
824.191897	2505.453462
824.509775	2492.850577
824.827609	2535.700385
825.145398	2470.165385
825.463144	2563.426731
825.780845	2492.850577
826.098502	2510.494615
826.416116	2543.262115
826.733685	2460.083077
827.051210	2530.659231
827.368692	2475.206538
827.686129	2581.070769
828.003522	2500.412308
828.320872	2555.865000
828.638177	2495.371154
828.955439	2507.974038
829.272656	2465.124231
829.589830	2540.741538
829.906960	2427.315577
830.224046	2437.397885
830.541088	2558.385577
830.858086	2568.467885
831.175041	2510.494615
831.491952	2507.974038
831.808819	2538.220962
832.125642	2513.015192
832.442421	2487.809423
832.759157	2500.412308
833.075849	2538.220962
833.392497	2598.714808
833.709101	2465.124231
834.025662	2518.056346
834.342179	2419.753846
834.658653	2487.809423
834.975083	2518.056346
835.291469	2578.550192
835.607811	2492.850577
835.924110	2429.836154
836.240366	2497.891731
836.556578	2482.768269
836.872746	2467.644808
837.188871	2434.877308
837.504952	2540.741538
837.820990	2507.974038
838.136984	2490.330000
838.452935	2497.891731
838.768842	2558.385577
839.084706	2535.700385
839.400526	2507.974038
839.716303	2530.659231
840.032037	2452.521346
840.347727	2497.891731
840.663373	2442.439038
840.978977	2528.138654
841.294537	2490.330000
841.610054	2565.947308
841.925527	2558.385577
842.240957	2510.494615
842.556344	2482.768269
842.871687	2520.576923
843.186987	2447.480192
843.502244	2497.891731
843.817458	2450.000769
844.132629	2505.453462
844.447756	2475.206538
844.762840	2507.974038
845.077881	2452.521346
845.392879	2490.330000
845.707833	2558.385577
846.022745	2412.192115
846.337613	2477.727115
846.652438	2470.165385
846.967221	2419.753846
847.281960	2477.727115
847.596656	2545.782692
847.911309	2492.850577
848.225919	2480.247692
848.540485	2550.823846
848.855009	2518.056346
849.169490	2518.056346
849.483928	2570.988462
849.798323	2470.165385
850.112675	2570.988462
850.426984	2442.439038
850.741251	2447.480192
851.055474	2545.782692
851.369654	2505.453462
851.683792	2450.000769
851.997887	2560.906154
852.311938	2502.932885
852.625947	2447.480192
852.939914	2538.220962
853.253837	2540.741538
853.567718	2409.671538
853.881555	2565.947308
854.195350	2497.891731
854.509103	2482.768269
854.822812	2515.535769
855.136479	2520.576923
855.450103	2452.521346
855.763685	2563.426731
856.077224	2419.753846
856.390720	2487.809423
856.704173	2480.247692
857.017584	2500.412308
857.330953	2505.453462
857.644278	2510.494615
857.957561	2492.850577
858.270802	2540.741538
858.584000	2480.247692
858.897155	2442.439038
859.210268	2510.494615
859.523339	2530.659231
859.836367	2450.000769
860.149352	2475.206538
860.462295	2460.083077
860.775195	2535.700385
861.088054	2460.083077
861.400869	2414.712692
861.713642	2467.644808
862.026373	2470.165385
862.339062	2528.138654
862.651708	2369.342308
862.964312	2487.809423
863.276873	2422.274423
863.589392	2485.288846
863.901869	2528.138654
864.214303	2485.288846
864.526696	2518.056346
864.839045	2475.206538
865.151353	2502.932885
865.463619	2518.056346
865.775842	2538.220962
866.088023	2376.904038
866.400162	2487.809423
866.712258	2525.618077
867.024313	2533.179808
867.336325	2477.727115
867.648296	2462.603654
867.960224	2452.521346
868.272110	2492.850577
868.583954	2515.535769
868.895755	2518.056346
869.207515	2485.288846
869.519233	2520.576923
869.830909	2460.083077
870.142542	2553.344423
870.454134	2492.850577
870.765684	2447.480192
871.077191	2530.659231
871.388657	2485.288846
871.700081	2455.041923
872.011463	2520.576923
872.322803	2487.809423
872.634101	2465.124231
872.945357	2513.015192
873.256571	2598.714808
873.567744	2565.947308
873.878874	2502.932885
874.189963	2487.809423
874.501010	2460.083077
874.812015	2548.303269
875.122979	2472.685962
875.433900	2520.576923
875.744780	2462.603654
876.055618	2450.000769
876.366415	2543.262115
876.677169	2470.165385
876.987882	2460.083077
877.298554	2525.618077
877.609183	2500.412308
877.919771	2414.712692
878.230317	2550.823846
878.540822	2555.865000
878.851285	2467.644808
879.161707	2434.877308
879.472087	2477.727115
879.782425	2555.865000
880.092722	2528.138654
880.402977	2518.056346
880.713191	2457.562500
881.023363	2477.727115
881.333494	2442.439038
881.643583	2533.179808
881.953631	2452.521346
882.263637	2528.138654
882.573602	2472.685962
882.883526	2444.959615
883.193408	2626.441154
883.503248	2404.630385
883.813048	2528.138654
884.122806	2450.000769
884.432522	2538.220962
884.742197	2462.603654
885.051831	2513.015192
885.361424	2513.015192
885.670975	2576.029615
885.980485	2482.768269
886.289954	2495.371154
886.599382	2535.700385
886.908768	2465.124231
887.218113	2397.068654
887.527417	2465.124231
887.836680	2467.644808
888.145901	2492.850577
888.455082	2402.109808
888.764221	2502.932885
889.073319	2583.591346
889.382376	2538.220962
889.691392	2460.083077
890.000366	2505.453462
890.309300	2460.083077
890.618193	2515.535769
890.927044	2502.932885
891.235855	2505.453462
891.544625	2492.850577
891.853353	2475.206538
892.162041	2392.027500
892.470687	2581.070769
892.779293	2467.644808
893.087858	2470.165385
893.396381	2467.644808
893.704864	2510.494615
894.013306	2485.288846
894.321707	2497.891731
894.630068	2545.782692
894.938387	2513.015192
895.246665	2480.247692
895.554903	2462.603654
895.863100	2417.233269
896.171256	2502.932885
896.479371	2505.453462
896.787446	2510.494615
897.095480	2510.494615
897.403473	2563.426731
897.711425	2490.330000
898.019336	2523.097500
898.327207	2510.494615
898.635038	2560.906154
898.942827	2480.247692
899.250576	2545.782692
899.558284	2434.877308
899.865952	2485.288846
900.173579	2450.000769
900.481165	2570.988462
900.788711	2482.768269
901.096216	2578.550192
901.403681	2543.262115
901.711105	2591.153077
902.018489	2470.165385
902.325832	2480.247692
902.633135	2412.192115
902.940397	2515.535769
903.247619	2450.000769
903.554800	2500.412308
903.861941	2565.947308
904.169041	2510.494615
904.476101	2467.644808
904.783121	2505.453462
905.090100	2515.535769
905.397039	2518.056346
905.703938	2475.206538
906.010796	2392.027500
906.317614	2462.603654
906.624391	2452.521346
906.931129	2502.932885
907.237826	2432.356731
907.544483	2520.576923
907.851099	2490.330000
908.157675	2515.535769
908.464211	2455.041923
908.770707	2470.165385
909.077163	2535.700385
909.383578	2485.288846
909.689954	2442.439038
909.996289	2538.220962
910.302584	2495.371154
910.608839	2507.974038
910.915054	2518.056346
911.221229	2480.247692
911.527363	2528.138654
911.833458	2482.768269
912.139513	2538.220962
912.445527	2447.480192
912.751502	2450.000769
913.057436	2462.603654
913.363331	2570.988462
913.669186	2417.233269
913.975000	2518.056346
914.280775	2495.371154
914.586510	2475.206538
914.892205	2560.906154
915.197859	2432.356731
915.503475	2467.644808
915.809050	2538.220962
916.114585	2558.385577
916.420081	2434.877308
916.725536	2565.947308
917.030952	2487.809423
917.336328	2452.521346
917.641665	2437.397885
917.946961	2482.768269
918.252218	2538.220962
918.557435	2543.262115
918.862612	2490.330000
919.167750	2548.303269
919.472848	2505.453462
919.777906	2502.932885
920.082925	2480.247692
920.387904	2510.494615
920.692843	2452.521346
920.997743	2533.179808
921.302603	2455.041923
921.607423	2591.153077
921.912204	2470.165385
922.216946	2495.371154
922.521647	2470.165385
922.826310	2442.439038
923.130932	2515.535769
923.435516	2515.535769
923.740059	2447.480192
924.044564	2399.589231
924.349028	2565.947308
924.653454	2412.192115
924.957840	2432.356731
925.262186	2472.685962
925.566493	2525.618077
925.870761	2437.397885
926.174989	2510.494615
926.479178	2485.288846
926.783328	2480.247692
927.087438	2432.356731
927.391509	2548.303269
927.695541	2495.371154
927.999533	2513.015192
928.303486	2455.041923
928.607400	2535.700385
928.911275	2497.891731
929.215110	2417.233269
929.518906	2505.453462
929.822663	2497.891731
930.126381	2482.768269
930.430060	2482.768269
930.733699	2553.344423
931.037299	2507.974038
931.340861	2502.932885
931.644383	2444.959615
931.947866	2520.576923
932.251309	2540.741538
932.554714	2492.850577
932.858080	2485.288846
933.161407	2447.480192
933.464694	2520.576923
933.767943	2515.535769
934.071153	2535.700385
934.374323	2482.768269
934.677455	2518.056346
934.980548	2465.124231
935.283602	2548.303269
935.586617	2472.685962
935.889593	2565.947308
936.192530	2528.138654
936.495428	2528.138654
936.798287	2412.192115
937.101108	2500.412308
937.403890	2432.356731
937.706632	2523.097500
938.009336	2437.397885
938.312002	2500.412308
938.614628	2470.165385
938.917216	2434.877308
939.219765	2450.000769
939.522275	2513.015192
939.824747	2450.000769
940.127179	2455.041923
940.429573	2497.891731
940.731929	2465.124231
941.034246	2626.441154
941.336524	2495.371154
941.638763	2477.727115
941.940964	2462.603654
942.243126	2543.262115
942.545250	2477.727115
942.847335	2487.809423
943.149381	2502.932885
943.451389	2510.494615
943.753359	2429.836154
944.055290	2523.097500
944.357182	2518.056346
944.659036	2470.165385
944.960851	2555.865000
945.262628	2545.782692
945.564367	2485.288846
945.866067	2497.891731
946.167729	2475.206538
946.469352	2422.274423
946.770937	2533.179808
947.072484	2502.932885
947.373992	2492.850577
947.675462	2457.562500
947.976893	2475.206538
948.278286	2455.041923
948.579641	2520.576923
948.880958	2540.741538
949.182236	2538.220962
949.483476	2472.685962
949.784678	2467.644808
950.085841	2500.412308
950.386967	2530.659231
950.688054	2507.974038
950.989103	2490.330000
951.290114	2497.891731
951.591087	2550.823846
951.892021	2475.206538
952.192917	2543.262115
952.493776	2555.865000
952.794596	2518.056346
953.095378	2490.330000
953.396122	2422.274423
953.696828	2490.330000
953.997496	2518.056346
954.298126	2523.097500
954.598718	2480.247692
954.899272	2530.659231
955.199788	2419.753846
955.500266	2492.850577
955.800706	2475.206538
956.101108	2424.795000
956.401472	2540.741538
956.701798	2450.000769
957.002087	2455.041923
957.302337	2477.727115
957.602550	2437.397885
957.902724	2540.741538
958.202861	2460.083077
958.502960	2513.015192
958.803022	2462.603654
959.103045	2432.356731
959.403031	2475.206538
959.702979	2596.194231
960.002889	2460.083077
960.302762	2520.576923
960.602596	2500.412308
960.902393	2528.138654
961.202153	2538.220962
961.501875	2480.247692
961.801559	2525.618077
962.101205	2475.206538
962.400814	2422.274423
962.700385	2492.850577
962.999918	2535.700385
963.299414	2381.945192
963.598873	2427.315577
963.898293	2480.247692
964.197677	2510.494615
964.497022	2492.850577
964.796331	2530.659231
965.095601	2513.015192
965.394835	2525.618077
965.694030	2555.865000
965.993189	2540.741538
966.292309	2500.412308
966.591393	2535.700385
966.890439	2432.356731
967.189447	2513.015192
967.488419	2530.659231
967.787353	2470.165385
968.086249	2538.220962
968.385108	2495.371154
968.683930	2465.124231
968.982714	2565.947308
969.281462	2581.070769
969.580172	2447.480192
969.878844	2518.056346
970.177480	2381.945192
970.476078	2523.097500
970.774639	2475.206538
971.073162	2523.097500
971.371649	2447.480192
971.670098	2475.206538
971.968510	2419.753846
972.266885	2492.850577
972.565223	2485.288846
972.863524	2472.685962
973.161788	2568.467885
973.460014	2515.535769
973.758204	2545.782692
974.056356	2472.685962
974.354471	2414.712692
974.652550	2432.356731
974.950591	2452.521346
975.248595	2462.603654
975.546563	2444.959615
975.844493	2472.685962
976.142386	2434.877308
976.440243	2455.041923
976.738062	2525.618077
977.035845	2553.344423
977.333590	2525.618077
977.631299	2457.562500
977.928971	2513.015192
978.226606	2497.891731
978.524204	2444.959615
978.821765	2462.603654
979.119290	2538.220962
979.416777	2444.959615
979.714228	2472.685962
980.011642	2427.315577
980.309020	2540.741538
980.606360	2502.932885
980.903664	2457.562500
981.200931	2399.589231
981.498162	2467.644808
981.795356	2500.412308
982.092513	2510.494615
982.389633	2518.056346
982.686717	2530.659231
982.983764	2447.480192
983.280775	2530.659231
983.577749	2560.906154
983.874686	2507.974038
984.171587	2444.959615
984.468451	2528.138654
984.765279	2515.535769
985.062070	2485.288846
985.358824	2417.233269
985.655543	2507.974038
985.952224	2487.809423
986.248869	2578.550192
986.545478	2497.891731
986.842050	2472.685962
987.138586	2538.220962
987.435086	2457.562500
987.731549	2497.891731
988.027975	2543.262115
988.324366	2510.494615
988.620719	2528.138654
988.917037	2457.562500
989.213318	2487.809423
989.509563	2419.753846
989.805772	2530.659231
990.101944	2538.220962
990.398080	2618.879423
990.694180	2452.521346
990.990244	2560.906154
991.286271	2505.453462
991.582262	2548.303269
991.878217	2447.480192
992.174136	2485.288846
992.470019	2485.288846
992.765865	2528.138654
993.061676	2437.397885
993.357450	2452.521346
993.653188	2467.644808
993.948890	2477.727115
994.244556	2523.097500
994.540186	2523.097500
994.835780	2470.165385
995.131337	2487.809423
995.426859	2543.262115
995.722345	2490.330000
996.017795	2409.671538
996.313208	2540.741538
996.608586	2397.068654
996.903928	2490.330000
997.199234	2374.383462
997.494504	2480.247692
997.789738	2485.288846
998.084936	2452.521346
998.380099	2429.836154
998.675225	2427.315577
998.970316	2525.618077
999.265371	2457.562500
999.560390	2394.548077
999.855373	2470.165385
1000.150320	2548.303269
1000.445232	2457.562500
1000.740108	2538.220962
1001.034948	2442.439038
1001.329752	2570.988462
1001.624521	2492.850577
1001.919254	2447.480192
1002.213951	2538.220962
1002.508613	2480.247692
1002.803239	2434.877308
1003.097829	2490.330000
1003.392384	2497.891731
1003.686903	2523.097500
1003.981386	2520.576923
1004.275834	2513.015192
1004.570246	2480.247692
1004.864623	2487.809423
1005.158964	2505.453462
1005.453270	2520.576923
1005.747540	2490.330000
1006.041775	2475.206538
1006.335974	2492.850577
1006.630138	2447.480192
1006.924266	2465.124231
1007.218359	2510.494615
1007.512416	2553.344423
1007.806438	2439.918462
1008.100425	2492.850577
1008.394376	2462.603654
1008.688292	2480.247692
1008.982172	2475.206538
1009.276017	2505.453462
1009.569827	2500.412308
1009.863602	2510.494615
1010.157341	2429.836154
1010.451045	2497.891731
1010.744714	2492.850577
1011.038347	2444.959615
1011.331945	2520.576923
1011.625508	2439.918462
1011.919036	2518.056346
1012.212528	2500.412308
1012.505986	2497.891731
1012.799408	2465.124231
1013.092795	2550.823846
1013.386147	2487.809423
1013.679464	2414.712692
1013.972745	2482.768269
1014.265992	2513.015192
1014.559204	2515.535769
1014.852380	2447.480192
1015.145521	2447.480192
1015.438628	2490.330000
1015.731699	2470.165385
1016.024736	2507.974038
1016.317737	2533.179808
1016.610703	2422.274423
1016.903635	2450.000769
1017.196531	2424.795000
1017.489393	2533.179808
1017.782219	2419.753846
1018.075011	2505.453462
1018.367768	2525.618077
1018.660490	2538.220962
1018.953177	2538.220962
1019.245829	2538.220962
