Dividing Wavelength (nm)	Counts (n)	Blue Motor Position (mm): 0.000000	Red Motor Position (mm): 15.300000	
326.493990	2128.780967
326.888308	2128.780967
327.282561	2128.780967
327.676750	2095.905082
328.070874	2096.164701
328.464933	2099.028077
328.858929	2103.562595
329.252859	2112.918976
329.646726	2124.924484
330.040528	2140.015178
330.434265	2155.771304
330.827938	2170.536844
331.221547	2189.347910
331.615091	2209.162165
332.008571	2228.787377
332.401986	2246.703638
332.795338	2267.382451
333.188625	2286.062446
333.581847	2303.724129
333.975006	2322.512509
334.368100	2341.540344
334.761129	2362.135978
335.154095	2377.546786
335.546996	2392.559342
335.939833	2408.136507
336.332606	2421.964392
336.725315	2435.837647
337.117960	2444.815942
337.510540	2452.198712
337.903056	2466.230764
338.295508	2473.623616
338.687896	2481.961685
339.080220	2489.858652
339.472480	2495.149343
339.864676	2501.309633
340.256807	2503.613440
340.648875	2510.328257
341.040879	2511.717095
341.432818	2510.701303
341.824694	2514.343536
342.216506	2513.403361
342.608253	2515.717251
342.999937	2513.035357
343.391557	2513.368073
343.783113	2510.126611
344.174605	2510.149296
344.566033	2509.209121
344.957397	2508.337002
345.348697	2505.040087
345.739934	2504.924140
346.131106	2505.818945
346.522215	2499.671258
346.913260	2498.574807
347.304241	2496.707060
347.695159	2496.207985
348.086012	2491.882675
348.476802	2493.309322
348.867528	2491.980978
349.258191	2490.340082
349.648789	2488.280771
350.039324	2487.723723
350.429796	2486.264309
350.820203	2486.012252
351.210548	2483.443784
351.600828	2484.368836
351.991045	2483.549648
352.381198	2482.203660
352.771288	2481.202991
353.161314	2482.385142
353.551276	2481.608804
353.941175	2479.166365
354.331010	2482.269195
354.720782	2482.165851
355.110490	2481.185347
355.500135	2478.511015
355.889717	2480.270378
356.279235	2480.736684
356.668689	2481.938999
357.058080	2483.070738
357.447408	2481.732312
357.836672	2482.995121
358.225873	2482.735502
358.615010	2481.172744
359.004084	2484.157107
359.393095	2485.974443
359.782043	2485.621562
360.170927	2485.631645
360.559748	2487.746409
360.948505	2490.521564
361.337199	2491.086173
361.725830	2486.806233
362.114398	2488.726913
362.502903	2490.834115
362.891344	2492.008704
363.279722	2489.893940
363.668037	2491.965854
364.056289	2491.572644
364.444478	2493.677326
364.832603	2493.233705
365.220665	2495.880310
365.608665	2496.946514
365.996601	2494.355361
366.384474	2494.884682
366.772284	2498.942811
367.160031	2500.624036
367.547715	2502.693430
367.935336	2503.303409
368.322893	2508.495798
368.710388	2508.470592
369.097820	2517.907632
369.485189	2522.139681
369.872495	2523.783097
370.259738	2531.816176
370.646918	2539.067875
371.034035	2548.353681
371.421090	2561.163253
371.808081	2566.786660
372.195010	2577.978021
372.581875	2590.580906
372.968678	2605.779985
373.355418	2614.919597
373.742096	2631.288223
374.128710	2644.632157
374.515262	2658.722182
374.901751	2676.467044
375.288177	2684.742098
375.674540	2712.178578
376.060841	2728.121227
376.447079	2746.067735
376.833254	2768.619336
377.219367	2783.447890
377.605417	2817.984835
377.991404	2828.488079
378.377329	2849.595391
378.763191	2865.422093
379.148991	2903.286200
379.534727	2929.999274
379.920402	2956.740074
380.306013	2969.156436
380.691563	3018.494209
381.077049	3041.673434
381.462474	3057.464849
381.847835	3095.001280
382.233134	3119.511370
382.618371	3120.141515
383.003545	3189.664067
383.388657	3192.910570
383.773706	3226.260324
384.158693	3242.651635
384.543618	3269.291613
384.928480	3304.062972
385.313280	3347.442100
385.698017	3347.547965
386.082692	3401.669792
386.467305	3406.650452
386.851856	3436.990637
387.236344	3459.597691
387.620770	3493.391066
388.005133	3514.024509
388.389435	3542.068447
388.773674	3555.069583
389.157851	3599.033486
389.541965	3612.556381
389.926018	3576.993561
390.310008	3651.315293
390.693936	3664.145029
391.077802	3705.379147
391.461606	3696.587375
391.845348	3759.339658
392.229027	3756.317486
392.612645	3767.027417
392.996200	3844.688913
393.379694	3882.200139
393.763125	3946.190025
394.146494	3911.640477
394.529801	3969.359168
394.913047	4009.985827
395.296230	3974.695229
395.679351	4021.459493
396.062410	4037.835681
396.445408	4010.500025
396.828343	4034.503479
397.211217	4048.827917
397.594028	3957.683856
397.976778	4008.929705
398.359466	4020.063093
398.742092	4033.225546
399.124656	3945.728759
399.507158	4001.433509
399.889598	4004.206144
400.271977	4039.645456
400.654294	3995.399248
401.036549	3977.893842
401.418742	3926.784103
401.800874	3991.787262
402.182944	3980.938698
402.564952	4005.544570
402.946898	3969.528047
403.328783	3935.790125
403.710606	3835.597192
404.092367	3949.794450
404.474067	3893.673805
404.855705	3865.024927
405.237282	3780.847741
405.618797	3820.103206
406.000250	3801.357675
406.381642	3817.504491
406.762972	3753.189450
407.144240	3719.464131
407.525447	3681.247143
407.906593	3673.652645
408.287677	3657.868792
408.668700	3578.997420
409.049661	3567.609453
409.430560	3543.439641
409.811399	3466.952735
410.192176	3498.255779
410.572891	3431.599123
410.953545	3429.907816
411.334138	3344.324147
411.714669	3327.514419
412.095139	3254.957092
412.475547	3260.908174
412.855894	3216.883777
413.236180	3179.342305
413.616405	3133.341776
413.996568	3119.884416
414.376670	3070.897003
414.756711	3029.892258
415.136691	3003.406036
415.516609	2987.786020
415.896466	2968.246508
416.276262	2943.381017
416.655997	2910.568146
417.035670	2909.189391
417.415283	2895.681619
417.794834	2859.725589
418.174324	2830.678461
418.553753	2798.296609
418.933121	2795.070271
419.312428	2777.622837
419.691674	2748.326172
420.070859	2741.061869
420.449983	2713.408619
420.829045	2707.321426
421.208047	2686.161183
421.586988	2675.403361
421.965867	2657.691267
422.344686	2651.427633
422.723444	2636.553708
423.102141	2614.291973
423.480777	2616.870523
423.859352	2600.441403
424.237866	2598.566094
424.616319	2592.635176
424.994712	2587.132757
425.373044	2578.020871
425.751314	2576.024574
426.129524	2568.818245
426.507673	2562.418500
426.885762	2559.908005
427.263789	2555.454146
427.641756	2551.920297
428.019662	2553.059598
428.397508	2547.257230
428.775292	2546.095244
429.153016	2545.616334
429.530679	2545.235727
429.908282	2545.384441
430.285824	2543.751107
430.663305	2539.793802
431.040726	2538.606610
431.418086	2536.310364
431.795385	2539.960160
432.172624	2536.706095
432.549802	2536.983358
432.926920	2535.980169
433.303977	2539.476209
433.680974	2538.510828
434.057910	2538.563760
434.434786	2537.429500
434.811601	2537.757175
435.188355	2534.394726
435.565050	2535.090405
435.941683	2538.530992
436.318257	2531.584283
436.694770	2532.035466
437.071222	2534.573687
437.447614	2533.000847
437.823946	2531.097811
438.200218	2536.466640
438.576429	2535.821372
438.952580	2533.792308
439.328670	2535.561753
439.704700	2533.280631
440.080670	2537.868081
440.456580	2533.194931
440.832429	2536.111239
441.208218	2535.032432
441.583947	2536.408667
441.959616	2536.335570
442.335224	2537.467309
442.710773	2535.090405
443.086261	2537.381609
443.461689	2535.402957
443.837057	2537.404295
444.212365	2534.331711
444.587612	2535.914634
444.962800	2535.836496
445.337927	2536.658204
445.712995	2536.012936
446.088002	2537.535365
446.462949	2535.249201
446.837837	2537.966383
447.212664	2535.723070
447.587431	2538.374717
447.962139	2539.390509
448.336786	2542.231199
448.711374	2539.090561
449.085901	2540.950746
449.460369	2540.542413
449.834776	2537.109387
450.209124	2538.334388
450.583412	2536.718698
450.957640	2542.982331
451.331808	2538.541075
451.705917	2537.845396
452.079965	2537.510159
452.453954	2538.195756
452.827883	2540.451672
453.201752	2540.398740
453.575562	2541.641384
453.949311	2539.130890
454.323001	2540.272711
454.696632	2540.774306
455.070202	2542.725233
455.443713	2540.038297
455.817164	2538.856147
456.190556	2538.546116
456.563888	2538.271373
456.937160	2537.263142
457.310373	2541.777496
457.683526	2541.659028
458.056619	2542.878988
458.429653	2539.657690
458.802628	2539.256919
459.175542	2544.340922
459.548398	2541.265818
459.921194	2543.310006
460.293930	2541.137269
460.666607	2544.504760
461.039224	2544.729091
461.411782	2545.424770
461.784280	2548.598177
462.156719	2546.720347
462.529099	2549.644216
462.901419	2546.916952
463.273680	2546.317055
463.645882	2546.385110
464.018024	2545.271015
464.390106	2547.229503
464.762130	2549.187992
465.134094	2547.239586
465.505999	2554.957592
465.877845	2555.512119
466.249631	2558.380536
466.621358	2558.670402
466.993026	2558.115875
467.364634	2558.894733
467.736184	2555.885165
468.107674	2554.317366
468.479105	2557.581513
468.850477	2555.186965
469.221790	2555.645710
469.593043	2553.452808
469.964238	2549.079607
470.335373	2554.650082
470.706449	2550.844011
471.077467	2549.157745
471.448425	2557.977243
471.819324	2560.621329
472.190164	2559.088818
472.560945	2555.224773
472.931667	2553.752757
473.302330	2551.310318
473.672934	2550.042467
474.043479	2550.438198
474.413965	2554.362736
474.784393	2550.256716
475.154761	2551.879968
475.525070	2549.795451
475.895321	2553.084804
476.265513	2552.686552
476.635645	2555.146636
477.005719	2555.917932
477.375734	2556.477500
477.745691	2558.748540
478.115588	2558.967830
478.485427	2556.986657
478.855207	2558.725855
479.224928	2564.104766
479.594591	2565.574262
479.964194	2564.392112
480.333739	2564.898748
480.703226	2562.917574
481.072653	2563.746844
481.442022	2564.137533
481.811333	2565.801114
482.180584	2563.525033
482.549777	2562.965465
482.918912	2561.432954
483.287988	2563.406566
483.657005	2563.199879
484.025964	2560.049158
484.394864	2560.921277
484.763706	2561.196020
485.132489	2560.805331
485.501213	2560.860783
485.869879	2559.603016
486.238487	2557.644527
486.607036	2560.785166
486.975527	2559.053530
487.343959	2557.316852
487.712333	2558.826678
488.080648	2560.286092
488.448905	2558.574620
488.817104	2556.948848
489.185244	2562.206772
489.553326	2560.704508
489.921350	2563.416648
490.289315	2564.596278
490.657222	2567.633574
491.025070	2564.936556
491.392861	2563.454457
491.760593	2563.464539
492.128267	2564.039231
492.495883	2563.411607
492.863440	2561.644683
493.230939	2561.289282
493.598380	2558.647717
493.965763	2555.592778
494.333088	2556.928683
494.700354	2559.751730
495.067563	2559.923129
495.434713	2555.970864
495.801805	2560.465053
496.168839	2560.727193
496.535815	2558.730896
496.902733	2559.219888
497.269593	2559.666030
497.636395	2561.221226
498.003139	2560.986812
498.369825	2560.376833
498.736453	2559.119065
499.103023	2560.147460
499.469535	2559.431616
499.835989	2560.230639
500.202385	2560.452450
500.568723	2556.880792
500.935003	2559.746688
501.301226	2559.134188
501.667390	2560.694425
502.033497	2561.362378
502.399546	2559.913047
502.765537	2562.342883
503.131470	2559.424055
503.497345	2560.190310
503.863163	2562.320198
504.228923	2558.987995
504.594625	2562.027811
504.960269	2560.245763
505.325856	2559.436657
505.691385	2558.652758
506.056856	2562.904971
506.422270	2561.284240
506.787625	2558.491441
507.152924	2563.469581
507.518164	2557.717624
507.883347	2558.791390
508.248472	2559.991184
508.613540	2561.112841
508.978550	2561.410269
509.343503	2560.535629
509.708398	2560.369271
510.073236	2561.493448
510.438016	2559.446740
510.802738	2561.521175
511.167403	2563.182235
511.532010	2559.051009
511.896561	2563.162070
512.261053	2561.221226
512.625488	2555.933056
512.989866	2556.558159
513.354186	2558.229301
513.718449	2558.105793
514.082655	2558.045299
514.446803	2558.488921
514.810894	2564.107287
515.174927	2564.364385
515.538904	2563.121741
515.902822	2562.365568
516.266684	2561.440516
516.630488	2562.294992
516.994235	2562.340362
517.357925	2560.442368
517.721558	2560.530588
518.085133	2563.328428
518.448651	2561.732903
518.812112	2561.881617
519.175516	2564.273645
519.538863	2560.938921
519.902152	2563.943449
520.265385	2562.060578
520.628560	2560.878427
520.991678	2563.698953
521.354739	2561.806000
521.717743	2562.912533
522.080690	2563.643500
522.443580	2562.587379
522.806413	2562.884807
523.169189	2564.583676
523.531908	2563.945970
523.894569	2564.492935
524.257174	2562.741134
524.619722	2563.940928
524.982213	2564.339180
525.344647	2564.182904
525.707025	2560.351627
526.069345	2561.889179
526.431608	2563.567883
526.793815	2562.539488
527.155964	2562.174004
527.518057	2562.516802
527.880093	2561.879097
528.242072	2562.912533
528.603995	2561.974878
528.965860	2560.883469
529.327669	2562.103428
529.689421	2562.662996
530.051117	2563.209961
530.412755	2561.813562
530.774337	2562.516802
531.135862	2563.015877
531.497331	2560.979251
531.858743	2556.706873
532.220098	2559.144271
532.581396	2557.447922
532.942638	2558.806513
533.303824	2563.477142
533.664953	2560.578479
534.026025	2561.899261
534.387040	2563.608212
534.747999	2560.805331
535.108902	2563.141906
535.469748	2561.710218
535.830537	2563.532595
536.191270	2559.371123
536.551947	2559.371123
536.912567	2561.352296
537.273131	2562.153839
537.633638	2560.500341
537.994089	2561.478325
538.354483	2563.162070
538.714821	2562.746175
539.075103	2559.930691
539.435328	2560.369271
539.795497	2563.404046
540.155609	2563.769529
540.515665	2562.375650
540.875665	2563.862791
541.235609	2563.267934
541.595496	2564.455126
541.955328	2562.269786
542.315102	2560.659137
542.674821	2560.523026
543.034483	2562.350444
543.394090	2561.397666
543.753640	2562.287430
544.113134	2561.077553
544.472571	2563.769529
544.831953	2562.920095
545.191278	2563.855229
545.550548	2563.905640
545.909761	2561.516133
546.268918	2563.053685
546.628019	2562.879766
546.987064	2560.765002
547.346053	2560.402038
547.704986	2558.196534
548.063863	2562.163922
548.422684	2561.556463
548.781449	2562.720969
549.140158	2560.979251
549.498811	2562.970506
549.857408	2561.521175
550.215949	2558.751061
550.574434	2558.652758
550.932864	2560.149981
551.291237	2556.618652
551.649555	2563.260373
552.007817	2565.274314
552.366022	2562.239539
552.724173	2559.870197
553.082267	2560.139898
553.440305	2561.727862
553.798288	2562.708366
554.156215	2561.662327
554.514086	2561.427913
554.871902	2559.025803
555.229661	2563.996381
555.587365	2561.329611
555.945014	2562.652914
556.302606	2561.294323
556.660143	2561.760629
557.017625	2563.895558
557.375050	2561.750547
557.732421	2560.649055
558.089735	2561.798438
558.446994	2562.249621
558.804197	2561.934549
559.161345	2561.223747
559.518437	2561.652245
559.875474	2560.530588
560.232455	2561.687533
560.589381	2560.908674
560.946251	2562.819272
561.303065	2560.701987
561.659825	2561.566545
562.016528	2559.030845
562.373177	2559.199723
562.729770	2560.364230
563.086307	2561.697615
563.442789	2562.118551
563.799216	2559.013201
564.155587	2559.171997
564.511904	2559.003118
564.868164	2561.866494
565.224370	2562.294992
565.580520	2559.401369
565.936615	2564.455126
566.292654	2561.203582
566.648638	2562.257183
567.004567	2559.681153
567.360441	2559.461863
567.716260	2561.115362
568.072023	2558.950186
568.427732	2559.124106
568.783385	2559.020762
569.138982	2556.114537
569.494525	2556.785011
569.850013	2557.042109
570.205445	2561.435475
570.560823	2560.873386
570.916145	2560.644014
571.271412	2561.390105
571.626625	2562.368088
571.981782	2560.981771
572.336884	2559.540001
572.691931	2560.492779
573.046923	2559.839950
573.401860	2558.350289
573.756743	2558.559497
574.111570	2559.648386
574.466342	2559.844991
574.821059	2559.736606
575.175722	2559.194682
575.530330	2559.426575
575.884882	2556.671585
576.239380	2562.998233
576.593823	2559.456822
576.948211	2559.920608
577.302544	2560.089487
577.656823	2559.809703
578.011047	2560.646534
578.365216	2560.326421
578.719330	2560.344065
579.073389	2557.962120
579.427394	2559.668551
579.781344	2558.803993
580.135239	2559.313149
580.489080	2560.371792
580.842866	2561.014539
581.196597	2559.660989
581.550273	2559.401369
581.903895	2556.006152
582.257463	2558.221739
582.610975	2558.120916
582.964434	2558.471277
583.317837	2560.926318
583.671186	2559.247614
584.024481	2560.117213
584.377721	2559.620660
584.730906	2557.369784
585.084037	2558.657799
585.437113	2558.294836
585.790135	2558.476318
586.143103	2557.064795
586.496016	2558.592264
586.848874	2552.540359
587.201679	2557.389949
587.554428	2553.160421
587.907124	2554.125802
588.259765	2553.135215
588.612352	2559.063612
588.964884	2556.061605
589.317362	2556.532953
589.669786	2557.611760
590.022155	2554.430792
590.374470	2556.651420
590.726731	2557.155535
591.078937	2557.389949
591.431090	2557.924311
591.783188	2558.413303
592.135232	2555.930535
592.487222	2557.642007
592.839157	2555.323076
593.191038	2558.788869
593.542866	2555.857438
593.894639	2554.403065
594.246358	2558.078067
594.598022	2558.836760
594.949633	2556.578323
595.301190	2554.813919
595.652692	2558.725855
596.004141	2556.474980
596.355535	2559.655948
596.706876	2555.144115
597.058162	2557.095042
597.409395	2555.698642
597.760573	2555.968344
598.111698	2557.339537
598.462768	2557.505896
598.813785	2556.686708
599.164748	2555.686039
599.515657	2554.773590
599.866511	2555.161759
600.217312	2557.079918
600.568060	2556.802655
600.918753	2554.781152
601.269392	2555.013045
601.619978	2554.319886
601.970510	2556.938766
602.320988	2553.964485
602.671412	2557.500854
603.021783	2554.955072
603.372100	2556.056564
603.722363	2554.939948
604.072572	2554.844166
604.422728	2556.875751
604.772830	2551.605225
605.122878	2550.108002
605.472872	2552.409289
605.822813	2551.113713
606.172701	2553.190668
606.522534	2557.102603
606.872314	2555.149156
607.222041	2555.169321
607.571714	2554.571944
607.921333	2555.862479
608.270899	2556.921122
608.620411	2553.624207
608.969870	2556.323745
609.319276	2559.174518
609.668627	2560.467573
610.017926	2561.863973
610.367171	2565.055023
610.716362	2560.323901
611.065500	2562.337842
611.414585	2557.105124
611.763616	2560.830537
612.112594	2556.411965
612.461518	2558.811554
612.810389	2557.924311
613.159207	2556.737120
613.507971	2556.462377
613.856682	2559.164435
614.205340	2555.678477
614.553945	2556.033879
614.902496	2557.662171
615.250994	2556.434650
615.599439	2554.859290
615.947830	2554.304763
616.296169	2556.429609
616.644454	2552.454659
616.992686	2553.425082
617.340864	2555.439022
617.688990	2555.169321
618.037063	2554.587068
618.385082	2553.246121
618.733048	2555.471790
619.080961	2554.564382
619.428821	2555.716286
619.776628	2555.318035
620.124382	2555.141594
620.472083	2553.054557
620.819731	2557.238714
621.167326	2555.360885
621.514868	2555.643189
621.862357	2556.238045
622.209793	2555.935576
622.557176	2555.552448
622.904506	2551.549772
623.251783	2550.602035
623.599007	2552.784855
623.946179	2549.306459
624.293297	2549.503064
624.640363	2551.658157
624.987376	2555.696121
625.334336	2554.380380
625.681243	2553.462890
626.028097	2554.458518
626.374899	2551.116233
626.721647	2553.513302
627.068343	2552.321069
627.414987	2553.246121
627.761577	2552.328631
628.108115	2550.854093
628.454600	2554.463559
628.801032	2550.786037
629.147412	2553.367108
629.493739	2553.256203
629.840014	2555.824671
630.186236	2553.319217
630.532405	2553.893909
630.878521	2554.881975
631.224585	2553.036913
631.570597	2548.837632
631.916556	2551.312838
632.262462	2551.733774
632.608316	2552.273178
632.954117	2553.301573
633.299866	2554.771070
633.645562	2551.073383
633.991206	2551.406099
634.336797	2549.382076
634.682336	2551.196892
635.027823	2553.251162
635.373257	2550.763352
635.718639	2547.254709
636.063968	2547.998279
636.409245	2550.470965
636.754470	2551.723692
637.099642	2549.223280
637.444762	2552.091696
637.789829	2548.547765
638.134845	2549.127498
638.479808	2548.343598
638.824719	2546.206149
639.169577	2551.509443
639.514383	2549.820657
639.859137	2546.904349
640.203839	2550.423074
640.548489	2549.682025
640.893086	2547.327806
641.237632	2546.034750
641.582125	2546.191026
641.926566	2541.734646
642.270955	2549.127498
642.615292	2547.763866
642.959576	2546.967363
643.303809	2549.538352
643.647990	2549.805533
643.992118	2549.427447
644.336195	2549.117416
644.680219	2548.570450
645.024192	2548.023485
645.368112	2548.605738
645.711981	2547.668084
646.055797	2550.241593
646.399562	2550.332334
646.743274	2548.648588
647.086935	2549.780327
647.430544	2551.814433
647.774101	2549.495502
648.117606	2550.251675
648.461059	2550.168496
648.804460	2548.562889
649.147810	2548.850234
649.491108	2549.389638
649.834354	2549.924000
650.177548	2549.644216
650.520690	2550.334854
650.863781	2549.470296
651.206820	2552.139587
651.549807	2549.639175
651.892742	2548.023485
652.235626	2548.424257
652.578458	2547.594987
652.921238	2547.882333
653.263967	2548.600697
653.606644	2548.076417
653.949269	2548.850234
654.291843	2546.622044
654.634365	2550.599515
654.976836	2545.137425
655.319255	2548.893084
655.661622	2549.303938
656.003938	2545.886036
656.346203	2546.241437
656.688416	2545.762528
657.030577	2546.385110
657.372687	2548.116747
657.714746	2546.677497
658.056753	2546.944678
658.398708	2541.492670
658.740612	2546.191026
659.082465	2541.038967
659.424266	2544.224976
659.766016	2543.176416
660.107715	2547.423588
660.449362	2544.204811
660.790958	2546.317055
661.132503	2544.716488
661.473996	2547.053063
661.815438	2551.320400
662.156829	2546.324616
662.498168	2546.375028
662.839456	2544.338402
663.180693	2545.535676
663.521879	2544.686241
663.863013	2544.734132
664.204097	2548.618341
664.545129	2547.400903
664.886110	2548.146993
665.227040	2547.458876
665.567918	2548.867878
665.908746	2546.685059
666.249522	2548.704041
666.590248	2548.285625
666.930922	2547.537014
667.271545	2547.804195
667.612118	2547.811757
667.952639	2545.213042
668.293109	2548.368804
668.633528	2548.278063
668.973896	2547.128680
669.314213	2549.671943
669.654480	2547.642878
669.994695	2545.316386
670.334859	2547.501726
670.674973	2547.105995
671.015035	2544.068700
671.355047	2545.175233
671.695008	2545.472661
672.034918	2543.637681
672.374777	2549.205636
672.714585	2546.614483
673.054342	2545.530635
673.394049	2546.417878
673.733705	2544.940820
674.073310	2545.119781
674.412864	2547.980635
674.752368	2545.538196
675.091820	2547.506767
675.431223	2544.270346
675.770574	2545.596170
676.109875	2541.475026
676.449125	2541.991745
676.788324	2543.143648
677.127473	2544.829914
677.466571	2544.343443
677.805619	2544.509801
678.144616	2547.584905
678.483562	2546.763197
678.822458	2545.235727
679.161303	2545.868392
679.500098	2544.429142
679.838842	2545.165151
680.177535	2548.472148
680.516179	2546.117929
680.854771	2547.345450
681.193314	2545.197918
681.531805	2545.255892
681.870247	2547.915100
682.208638	2545.155069
682.546978	2546.364946
682.885268	2548.474668
683.223508	2548.199926
683.561697	2548.870399
683.899836	2546.332178
684.237925	2545.886036
684.575963	2546.027188
684.913951	2546.909390
685.251889	2548.288146
685.589776	2547.010213
685.927614	2548.010882
686.265401	2543.428473
686.603137	2545.512991
686.940824	2545.465100
687.278460	2545.147507
687.616046	2546.107847
687.953582	2549.850903
688.291068	2550.407951
688.628504	2546.248999
688.965889	2543.977959
689.303224	2545.989380
689.640510	2546.712785
689.977745	2547.068187
690.314930	2545.883515
690.652065	2546.438042
690.989150	2545.591128
691.326185	2550.753270
691.663170	2547.375697
692.000105	2546.387631
692.336990	2543.304965
692.673825	2547.191695
693.010610	2546.473330
693.347345	2541.162475
693.684030	2540.938143
694.020665	2542.304296
694.357251	2538.987217
694.693786	2540.882691
695.030272	2542.400078
695.366707	2542.415202
695.703093	2543.783875
696.039429	2541.326312
696.375716	2542.364790
696.711952	2543.078113
697.048139	2543.620037
697.384276	2543.241951
697.720363	2541.553164
698.056400	2543.541899
698.392388	2542.203473
698.728326	2542.616848
699.064214	2542.783206
699.400053	2544.638350
699.735842	2541.096940
700.071581	2544.494677
700.407270	2543.171375
700.742910	2542.616848
701.078501	2543.365459
701.414042	2545.828063
701.749533	2542.513504
702.084974	2543.105840
702.420366	2542.969728
702.755709	2539.612320
703.091002	2539.992927
703.426246	2540.504604
703.761440	2542.148020
704.096584	2540.297917
704.431679	2540.912938
704.766725	2542.163144
705.101721	2540.093750
705.436668	2541.041487
705.771565	2542.894111
706.106413	2542.954605
706.441212	2541.348998
706.775961	2544.406457
707.110661	2540.643236
707.445311	2542.624409
707.779913	2541.573329
708.114465	2543.461241
708.448967	2540.484440
708.783421	2542.137938
709.117825	2541.439738
709.452180	2544.661036
709.786485	2542.742877
710.120742	2545.734801
710.454949	2545.633978
710.789107	2541.250695
711.123216	2539.687937
711.457275	2543.148689
711.791286	2540.181970
712.125247	2542.495860
712.459159	2543.209183
712.793023	2544.484595
713.126837	2544.678680
713.460602	2544.832435
713.794318	2543.715819
714.127985	2544.819832
714.461602	2543.809081
714.795171	2543.574667
715.128691	2542.692465
715.462162	2541.754810
715.795584	2539.735828
716.128957	2541.316230
716.462281	2540.287835
716.795556	2542.347146
717.128782	2540.287835
717.461960	2542.823535
717.795088	2541.653987
718.128167	2539.037628
718.461198	2540.577701
718.794180	2542.873947
719.127113	2541.422094
719.459997	2541.013761
719.792833	2541.739687
720.125619	2543.446118
720.458357	2540.923020
720.791046	2539.894625
721.123686	2542.765562
721.456278	2542.304296
721.788821	2538.049562
722.121315	2543.322609
722.453761	2540.696168
722.786158	2540.587783
723.118506	2539.443441
723.450805	2537.782381
723.783056	2540.882691
724.115259	2541.260777
724.447412	2536.844727
724.779518	2540.953267
725.111574	2540.219779
725.443582	2541.018802
725.775542	2542.286652
726.107453	2538.982176
726.439315	2540.837320
726.771129	2542.362269
727.102895	2540.902855
727.434612	2541.787578
727.766281	2540.998637
728.097901	2538.795653
728.429473	2538.346990
728.760996	2539.859337
729.092471	2537.283307
729.423897	2541.908566
729.755276	2541.825387
730.086606	2540.703730
730.417887	2539.322454
730.749120	2541.674152
731.080305	2541.747249
731.411442	2541.354039
731.742530	2541.170037
732.073570	2541.543082
732.404562	2541.086857
732.735506	2541.144831
733.066401	2541.495191
733.397249	2540.481919
733.728048	2543.080634
734.058798	2541.729605
734.389501	2539.531662
734.720156	2540.844882
735.050762	2538.097453
735.381320	2542.430325
735.711831	2542.200952
736.042293	2539.844213
736.372707	2537.792463
736.703073	2541.071734
737.033391	2537.076620
737.363661	2541.086857
737.693883	2541.079296
738.024056	2541.951415
738.354182	2540.655839
738.684260	2540.761703
739.014290	2541.638864
739.344272	2540.708771
739.674207	2540.943185
740.004093	2543.514173
740.333931	2542.321940
740.663722	2541.749769
740.993464	2538.720036
741.323159	2542.367311
741.652806	2538.238606
741.982405	2541.868236
742.311956	2541.419574
742.641460	2542.304296
742.970915	2540.660880
743.300323	2541.646426
743.629683	2540.247505
743.958996	2538.624254
744.288260	2539.219110
744.617477	2537.764737
744.946647	2536.958152
745.275768	2536.925385
745.604842	2533.252904
745.933869	2534.913965
746.262847	2536.053265
746.591778	2539.226672
746.920662	2539.808925
747.249498	2538.352032
747.578286	2542.122815
747.907027	2539.778678
748.235720	2537.822710
748.564365	2538.533513
748.892963	2538.349511
749.221514	2539.483771
749.550017	2539.385468
749.878473	2539.861857
750.206881	2536.741383
750.535242	2538.261291
750.863555	2541.185160
751.191821	2537.308513
751.520039	2535.324819
751.848210	2539.413194
752.176334	2540.340767
752.504411	2537.222813
752.832440	2538.256250
753.160421	2537.119469
753.488356	2536.849768
753.816243	2539.390509
754.144082	2536.385982
754.471875	2540.091230
754.799620	2537.734490
755.127318	2537.011085
755.454969	2539.677855
755.782572	2540.363452
756.110129	2538.949408
756.437638	2536.640560
756.765100	2537.217772
757.092515	2537.439583
757.419882	2537.641229
757.747203	2538.911600
758.074477	2536.529654
758.401703	2538.404964
758.728882	2538.803215
759.056014	2538.657021
759.383099	2538.636857
759.710138	2538.374717
760.037129	2538.359593
760.364073	2540.025695
760.690970	2539.849254
761.017820	2538.256250
761.344623	2538.878832
761.671379	2538.563760
761.998088	2535.017308
762.324751	2540.489481
762.651366	2538.321785
762.977935	2543.688093
763.304456	2540.668442
763.630931	2544.247661
763.957359	2542.102650
764.283740	2542.674821
764.610074	2540.607948
764.936362	2543.882177
765.262602	2538.384799
765.588796	2541.490150
765.914943	2537.905889
766.241044	2538.014274
766.567097	2539.713143
766.893104	2538.851106
767.219064	2538.785571
767.544978	2538.324305
767.870845	2539.085519
768.196665	2539.781199
768.522438	2535.702905
768.848165	2536.970755
769.173846	2538.651980
769.499479	2533.157123
769.825066	2535.327339
770.150607	2535.957483
770.476101	2537.699202
770.801548	2537.527803
771.126949	2537.064017
771.452303	2537.933616
771.777611	2532.534540
772.102872	2535.352545
772.428087	2535.544109
772.753256	2537.237937
773.078378	2536.756506
773.403453	2537.053934
773.728482	2537.280786
774.053465	2535.173584
774.378401	2532.796680
774.703291	2537.018646
775.028135	2538.712474
775.352932	2537.028729
775.677683	2537.671476
776.002388	2538.026877
776.327046	2537.338760
776.651658	2536.396064
776.976224	2536.355735
777.300743	2535.743234
777.625216	2534.878677
777.949643	2535.425642
778.274024	2536.927906
778.598359	2533.182328
778.922647	2529.865249
779.246889	2534.614016
779.571086	2530.255938
779.895236	2535.508821
780.219339	2535.370189
780.543397	2535.370189
780.867409	2535.465971
781.191374	2532.882380
781.515294	2535.566794
781.839167	2534.051927
782.162995	2534.833306
782.486776	2535.823893
782.810511	2535.914634
783.134201	2536.728780
783.457844	2533.540250
783.781441	2538.105015
784.104993	2534.321629
784.428498	2534.956814
784.751958	2535.841537
785.075372	2536.554860
785.398739	2536.370858
785.722061	2536.333049
786.045337	2533.033614
786.368568	2535.085364
786.691752	2537.890766
787.014891	2536.252391
787.337983	2534.409849
787.661030	2538.425128
787.984031	2535.823893
788.306987	2538.712474
788.629897	2536.648122
788.952760	2537.457227
789.275579	2535.266845
789.598351	2536.063348
789.921078	2533.636032
790.243759	2538.508307
790.566395	2534.677030
790.888984	2535.163502
791.211529	2535.526465
791.534027	2535.846578
791.856480	2537.404295
792.178888	2535.629808
792.501249	2537.401774
792.823566	2533.464633
793.145836	2537.497556
793.468062	2536.290200
793.790241	2535.952442
794.112375	2535.733152
794.434464	2534.379602
794.756507	2537.258101
795.078505	2535.443286
795.400457	2533.736855
795.722364	2533.389016
796.044226	2532.776515
796.366042	2532.879859
796.687812	2532.453882
797.009538	2535.866743
797.331218	2536.804397
797.652852	2532.786598
797.974442	2535.508821
798.295986	2532.915147
798.617484	2534.752648
798.938938	2534.790456
799.260346	2536.096115
799.581709	2536.262473
799.903026	2536.247350
800.224299	2533.671320
800.545526	2536.242309
800.866708	2535.677699
801.187845	2532.751310
801.508936	2534.540919
801.829983	2535.992772
802.150984	2534.543440
802.471940	2536.665766
802.792851	2534.246012
803.113717	2537.374048
803.434538	2535.806249
803.755314	2534.301464
804.076045	2533.633512
804.396731	2535.828934
804.717372	2535.957483
805.037967	2534.888759
805.358518	2536.141486
805.679024	2534.026722
805.999485	2535.723070
806.319901	2535.932278
806.640272	2537.421939
806.960598	2533.199972
807.280879	2530.301309
807.601115	2535.644932
807.921306	2535.045035
808.241453	2533.504962
808.561554	2538.006712
808.881611	2534.291382
809.201623	2535.264325
809.521590	2535.365148
809.841513	2533.842719
810.161390	2534.805580
810.481223	2536.141486
810.801011	2534.969417
811.120755	2534.147709
811.440453	2533.681403
811.760107	2535.556712
812.079716	2531.874149
812.399281	2529.081350
812.718801	2532.771474
813.038276	2529.023376
813.357707	2533.580579
813.677093	2533.842719
813.996434	2533.237781
814.315731	2534.979500
814.634983	2531.916999
814.954191	2536.391023
815.273354	2534.951773
815.592473	2534.074613
815.911547	2533.479756
816.230577	2535.896990
816.549562	2533.038655
816.868502	2534.656866
817.187399	2532.297606
817.506250	2535.690302
817.825058	2536.091074
818.143821	2534.518234
818.462539	2535.755837
818.781213	2532.315250
819.099843	2535.085364
819.418429	2540.103832
819.736970	2535.541588
820.055466	2538.132741
820.373919	2538.011754
820.692327	2536.973276
821.010691	2543.262115
821.329011	2545.714637
821.647286	2556.117058
821.965517	2568.903944
822.283704	2575.775037
822.601847	2578.943402
822.919945	2572.034501
823.237999	2565.077709
823.556010	2559.986143
823.873976	2554.400545
824.191897	2549.876109
824.509775	2547.637837
824.827609	2545.639019
825.145398	2542.957126
825.463144	2544.713968
825.780845	2541.190201
826.098502	2543.269677
826.416116	2543.688093
826.733685	2552.986501
827.051210	2551.597663
827.368692	2548.817467
827.686129	2544.819832
828.003522	2542.357228
828.320872	2534.551002
828.638177	2539.241795
828.955439	2536.887576
829.272656	2536.496887
829.589830	2532.766433
829.906960	2537.812628
830.224046	2535.448327
830.541088	2534.745086
830.858086	2536.774150
831.175041	2534.664427
831.491952	2534.296423
831.808819	2536.103677
832.125642	2534.850950
832.442421	2535.196269
832.759157	2538.530992
833.075849	2536.930426
833.392497	2542.498381
833.709101	2543.373021
834.025662	2542.657177
834.342179	2541.631302
834.658653	2537.661393
834.975083	2537.963863
835.291469	2543.776313
835.607811	2535.662576
835.924110	2535.276928
836.240366	2534.929088
836.556578	2533.237781
836.872746	2534.800539
837.188871	2532.005219
837.504952	2535.486136
837.820990	2532.826927
838.136984	2533.464633
838.452935	2531.627132
838.768842	2532.710980
839.084706	2533.245343
839.400526	2533.978831
839.716303	2532.884900
840.032037	2539.040149
840.347727	2536.832124
840.663373	2535.097967
840.978977	2536.391023
841.294537	2534.979500
841.610054	2534.339273
841.925527	2535.649973
842.240957	2531.730476
842.556344	2533.429345
842.871687	2531.218799
843.186987	2534.001516
843.502244	2533.426824
843.817458	2530.152595
844.132629	2531.536392
844.447756	2536.779192
844.762840	2527.994981
845.077881	2529.088911
845.392879	2529.593027
845.707833	2532.453882
846.022745	2526.074301
846.337613	2530.334076
846.652438	2532.138809
846.967221	2533.721732
847.281960	2535.135775
847.596656	2532.731145
847.911309	2535.229037
848.225919	2532.642925
848.540485	2532.708460
848.855009	2533.346166
849.169490	2534.004036
849.483928	2532.022863
849.798323	2531.450692
850.112675	2531.584283
850.426984	2533.414221
850.741251	2530.197965
851.055474	2533.255425
851.369654	2530.074457
851.683792	2534.631660
851.997887	2530.883562
852.311938	2531.972451
852.625947	2533.731814
852.939914	2533.956145
853.253837	2534.248532
853.567718	2528.912471
853.881555	2532.539581
854.195350	2532.632843
854.509103	2532.113604
854.822812	2531.743079
855.136479	2534.437576
855.450103	2528.705784
855.763685	2533.036135
856.077224	2533.169725
856.390720	2534.026722
856.704173	2530.104704
857.017584	2535.448327
857.330953	2529.726617
857.644278	2531.806093
857.957561	2534.135106
858.270802	2534.437576
858.584000	2532.647966
858.897155	2532.738707
859.210268	2530.646628
859.523339	2533.389016
859.836367	2531.790970
860.149352	2534.261135
860.462295	2534.682072
860.775195	2527.130423
861.088054	2530.288706
861.400869	2529.474560
861.713642	2529.247708
862.026373	2531.158305
862.339062	2530.785260
862.651708	2532.315250
862.964312	2532.189221
863.276873	2534.372041
863.589392	2531.856505
863.901869	2530.770136
864.214303	2532.932791
864.526696	2530.137471
864.839045	2533.383974
865.151353	2534.301464
865.463619	2532.070754
865.775842	2530.800383
866.088023	2532.877338
866.400162	2533.522606
866.712258	2531.274252
867.024313	2530.724766
867.336325	2531.871628
867.648296	2529.043541
867.960224	2530.734848
868.272110	2535.095446
868.583954	2528.405835
868.895755	2533.051258
869.207515	2532.579910
869.519233	2529.930784
869.830909	2530.066895
870.142542	2532.819365
870.454134	2532.348017
870.765684	2531.569159
871.077191	2531.221319
871.388657	2534.369520
871.700081	2531.538912
872.011463	2533.036135
872.322803	2532.305167
872.634101	2534.976979
872.945357	2532.683254
873.256571	2532.826927
873.567744	2532.408511
873.878874	2534.848430
874.189963	2530.046731
874.501010	2533.469674
874.812015	2534.808100
875.122979	2532.007739
875.433900	2530.626463
875.744780	2535.566794
876.055618	2530.795342
876.366415	2534.740045
876.677169	2534.188038
876.987882	2529.164529
877.298554	2527.566483
877.609183	2530.442461
877.919771	2529.252749
878.230317	2530.966741
878.540822	2536.688451
878.851285	2530.427338
879.161707	2532.622760
879.472087	2534.838347
879.782425	2535.271887
880.092722	2537.623585
880.402977	2542.715150
880.713191	2544.560213
881.023363	2554.566903
881.333494	2556.573282
881.643583	2557.528581
881.953631	2558.229301
882.263637	2553.969526
882.573602	2553.861141
882.883526	2550.266799
883.193408	2548.172199
883.503248	2545.301262
883.813048	2542.710109
884.122806	2539.400592
884.432522	2537.489994
884.742197	2537.270704
885.051831	2535.289531
885.361424	2534.198121
885.670975	2534.177956
885.980485	2533.787267
886.289954	2536.179294
886.599382	2535.266845
886.908768	2532.741227
887.218113	2534.775333
887.527417	2534.225847
887.836680	2535.135775
888.145901	2529.530012
888.455082	2532.900024
888.764221	2529.124199
889.073319	2530.918850
889.382376	2532.794159
889.691392	2535.022349
890.000366	2532.569828
890.309300	2533.502442
890.618193	2534.414890
890.927044	2533.930940
891.235855	2531.569159
891.544625	2530.452543
891.853353	2534.982020
892.162041	2532.186700
892.470687	2532.673172
892.779293	2533.154602
893.087858	2529.842564
893.396381	2530.003881
893.704864	2534.775333
894.013306	2533.192411
894.321707	2537.956301
894.630068	2536.663245
894.938387	2538.924203
895.246665	2538.261291
895.554903	2539.312371
895.863100	2537.401774
896.171256	2535.836496
896.479371	2534.787936
896.787446	2535.269366
897.095480	2534.059489
897.403473	2535.264325
897.711425	2534.813142
898.019336	2534.709798
898.327207	2535.029911
898.635038	2536.232226
898.942827	2534.588810
899.250576	2533.797349
899.558284	2532.950435
899.865952	2530.376926
900.173579	2531.387677
900.481165	2532.295085
900.788711	2533.827596
901.096216	2534.624098
901.403681	2532.365661
901.711105	2533.517565
902.018489	2532.678213
902.325832	2534.593851
902.633135	2531.415404
902.940397	2532.811803
903.247619	2532.698378
903.554800	2531.722914
903.861941	2536.817000
904.169041	2542.059800
904.476101	2543.143648
904.783121	2543.473844
905.090100	2539.902186
905.397039	2539.841692
905.703938	2536.078471
906.010796	2536.716177
906.317614	2535.579397
906.624391	2534.301464
906.931129	2532.937832
907.237826	2533.351207
907.544483	2532.537061
907.851099	2534.303985
908.157675	2531.143182
908.464211	2529.320804
908.770707	2528.158818
909.077163	2529.656041
909.383578	2527.921884
909.689954	2528.846936
909.996289	2528.652852
910.302584	2530.916330
910.608839	2530.117307
910.915054	2531.370033
911.221229	2529.477080
911.527363	2529.784591
911.833458	2528.083201
912.139513	2531.455733
912.445527	2532.025383
912.751502	2530.301309
913.057436	2532.572349
913.363331	2531.120496
913.669186	2533.338604
913.975000	2531.561597
914.280775	2531.269210
914.586510	2532.721063
914.892205	2531.758202
915.197859	2534.031763
915.503475	2537.575694
915.809050	2541.033925
916.114585	2541.868236
916.420081	2542.992414
916.725536	2542.420243
917.030952	2542.531148
917.336328	2540.358411
917.641665	2539.259439
917.946961	2536.504449
918.252218	2535.831455
918.557435	2535.004705
918.862612	2534.729963
919.167750	2534.004036
919.472848	2533.416742
919.777906	2534.296423
920.082925	2532.879859
920.387904	2533.338604
920.692843	2532.844571
920.997743	2529.245187
921.302603	2531.548994
921.607423	2531.879190
921.912204	2531.677544
922.216946	2534.162833
922.521647	2533.391536
922.826310	2528.700742
923.130932	2532.789118
923.435516	2530.195445
923.740059	2529.719056
924.044564	2532.113604
924.349028	2528.743592
924.653454	2525.791997
924.957840	2530.114786
925.262186	2524.367871
925.566493	2529.081350
925.870761	2528.443644
926.174989	2530.079498
926.479178	2530.311391
926.783328	2529.580424
927.087438	2529.875331
927.391509	2532.176618
927.695541	2529.187214
927.999533	2531.052441
928.303486	2529.477080
928.607400	2530.182842
928.911275	2529.335928
929.215110	2529.892975
929.518906	2527.122861
929.822663	2531.422966
930.126381	2528.945238
930.430060	2530.190403
930.733699	2527.906761
931.037299	2530.860877
931.340861	2529.530012
931.644383	2532.113604
931.947866	2529.439272
932.251309	2529.542615
932.554714	2530.187883
932.858080	2530.089580
933.161407	2528.299971
933.464694	2530.298788
933.767943	2531.518748
934.071153	2529.842564
934.374323	2527.533715
934.677455	2530.823068
934.980548	2529.149405
935.283602	2529.537574
935.586617	2527.279137
935.889593	2531.085208
936.192530	2528.052954
936.495428	2528.844415
936.798287	2530.266021
937.101108	2531.906916
937.403890	2529.643438
937.706632	2529.242667
938.009336	2529.892975
938.312002	2530.444982
938.614628	2530.815507
938.917216	2530.898686
939.219765	2528.889786
939.522275	2530.019004
939.824747	2532.572349
940.127179	2527.185876
940.429573	2525.020700
940.731929	2527.533715
941.034246	2525.580268
941.336524	2528.138654
941.638763	2529.522451
941.940964	2529.466998
942.243126	2530.049251
942.545250	2530.134951
942.847335	2531.080167
943.149381	2528.408356
943.451389	2527.339631
943.753359	2531.876669
944.055290	2527.006915
944.357182	2531.783408
944.659036	2526.139836
944.960851	2528.743592
945.262628	2527.765608
945.564367	2530.087060
945.866067	2530.117307
946.167729	2529.782070
946.469352	2527.831143
946.770937	2530.155115
947.072484	2528.337779
947.373992	2529.416586
947.675462	2530.520599
947.976893	2529.527492
948.278286	2528.196627
948.579641	2528.965403
948.880958	2527.054806
949.182236	2530.142512
949.483476	2527.392563
949.784678	2529.280475
950.085841	2526.976668
950.386967	2531.768285
950.688054	2530.074457
950.989103	2526.427182
951.290114	2531.758202
951.591087	2530.122348
951.892021	2529.247708
952.192917	2528.607481
952.493776	2530.394570
952.794596	2526.495238
953.095378	2528.499096
953.396122	2529.507327
953.696828	2528.988088
953.997496	2529.315763
954.298126	2528.448685
954.598718	2531.964890
954.899272	2531.864067
955.199788	2531.397760
955.500266	2529.668644
955.800706	2527.286699
956.101108	2524.584640
956.401472	2524.637572
956.701798	2522.427027
957.002087	2522.537932
957.302337	2528.015146
957.602550	2528.678057
957.902724	2527.200999
958.202861	2532.229550
958.502960	2527.596730
958.803022	2524.816533
959.103045	2524.816533
959.403031	2528.657893
959.702979	2528.947759
960.002889	2529.711494
960.302762	2524.642614
960.602596	2528.768798
960.902393	2526.071781
961.202153	2525.756709
961.501875	2527.480783
961.801559	2528.667975
962.101205	2526.654034
962.400814	2526.747295
962.700385	2528.075639
962.999918	2529.459436
963.299414	2524.262007
963.598873	2526.742254
963.898293	2528.284847
964.197677	2527.387522
964.497022	2529.313243
964.796331	2525.648324
965.095601	2525.650844
965.394835	2530.467667
965.694030	2528.236956
965.993189	2529.093953
966.292309	2527.006915
966.591393	2526.102028
966.890439	2525.897861
967.189447	2527.853829
967.488419	2528.017666
967.787353	2525.784435
968.086249	2527.032121
968.385108	2529.111597
968.683930	2529.202337
968.982714	2526.941380
969.281462	2529.920702
969.580172	2526.235618
969.878844	2527.024559
970.177480	2528.015146
970.476078	2525.033303
970.774639	2528.083201
971.073162	2528.143695
971.371649	2524.050278
971.670098	2523.059691
971.968510	2524.009949
972.266885	2524.708149
972.565223	2525.214785
972.863524	2525.605474
973.161788	2527.082532
973.460014	2526.979188
973.758204	2529.111597
974.056356	2528.042872
974.354471	2530.318953
974.652550	2526.812830
974.950591	2526.591020
975.248595	2527.735362
975.546563	2527.584127
975.844493	2527.173273
976.142386	2527.062368
976.440243	2527.712676
976.738062	2527.064888
977.035845	2526.401976
977.333590	2527.926925
977.631299	2527.894158
977.928971	2526.636390
978.226606	2526.654034
978.524204	2528.713345
978.821765	2527.868952
979.119290	2527.324508
979.416777	2529.885414
979.714228	2526.893489
980.011642	2526.646472
980.309020	2530.308871
980.606360	2525.287881
980.903664	2527.712676
981.200931	2527.261493
981.498162	2526.601102
981.795356	2526.548170
982.092513	2526.601102
982.389633	2525.852491
982.686717	2527.778211
982.983764	2526.396935
983.280775	2526.694363
983.577749	2526.096987
983.874686	2528.554549
984.171587	2525.847449
984.468451	2528.710825
984.765279	2532.300126
985.062070	2525.645803
985.358824	2529.280475
985.655543	2528.657893
985.952224	2529.688809
986.248869	2530.752492
986.545478	2521.007942
986.842050	2525.920546
987.138586	2522.898374
987.435086	2525.746626
987.731549	2522.802593
988.027975	2527.737882
988.324366	2526.344003
988.620719	2528.012625
988.917037	2526.608664
989.213318	2526.394415
989.509563	2528.983047
989.805772	2527.488345
990.101944	2525.741585
990.398080	2525.325690
990.694180	2525.996163
990.990244	2529.376257
991.286271	2525.234949
991.582262	2528.481452
991.878217	2527.589168
992.174136	2526.921215
992.470019	2526.228057
992.765865	2528.284847
993.061676	2526.482635
993.357450	2528.373067
993.653188	2526.853160
993.948890	2526.076822
994.244556	2527.334590
994.540186	2527.286699
994.835780	2528.000022
995.131337	2527.354754
995.426859	2525.774353
995.722345	2524.171266
996.017795	2523.810823
996.313208	2527.374919
996.608586	2529.356092
996.903928	2528.700742
997.199234	2526.853160
997.494504	2528.491535
997.789738	2525.078673
998.084936	2527.377440
998.380099	2526.628828
998.675225	2526.669158
998.970316	2526.288550
999.265371	2527.427851
999.560390	2526.591020
999.855373	2522.822757
1000.150320	2525.234949
1000.445232	2530.223171
1000.740108	2526.641431
1001.034948	2528.037831
1001.329752	2526.901051
1001.624521	2527.846267
1001.919254	2522.401821
1002.213951	2525.217305
1002.508613	2523.218488
1002.803239	2524.698066
1003.097829	2522.903416
1003.392384	2526.757378
1003.686903	2524.007428
1003.981386	2527.032121
1004.275834	2525.287881
1004.570246	2525.718900
1004.864623	2526.306194
1005.158964	2527.052285
1005.453270	2525.063550
1005.747540	2527.964734
1006.041775	2525.272758
1006.335974	2526.175124
1006.630138	2525.189579
1006.924266	2525.635721
1007.218359	2525.817202
1007.512416	2529.766947
1007.806438	2527.538757
1008.100425	2528.239477
1008.394376	2525.950793
1008.688292	2526.661596
1008.982172	2526.596061
1009.276017	2525.565145
1009.569827	2523.954496
1009.863602	2527.185876
1010.157341	2525.779394
1010.451045	2524.786287
1010.744714	2526.729651
1011.038347	2528.181504
1011.331945	2523.208405
1011.625508	2528.693181
1011.919036	2525.572707
1012.212528	2527.931967
1012.505986	2525.098838
1012.799408	2527.873993
1013.092795	2526.976668
1013.386147	2527.221164
1013.679464	2524.887110
1013.972745	2527.745444
1014.265992	2525.121523
1014.559204	2527.112779
1014.852380	2525.739065
1015.145521	2528.748633
1015.438628	2526.273427
1015.731699	2528.730989
1016.024736	2525.592871
1016.317737	2525.340813
1016.610703	2527.354754
1016.903635	2525.774353
1017.196531	2524.693025
1017.489393	2525.504651
1017.782219	2521.363343
1018.075011	2525.837367
1018.367768	2527.269055
1018.660490	2525.960875
1018.953177	2525.960875
1019.245829	2525.960875
