Dividing Wavelength (nm)	Counts (n)	Blue Motor Position (mm): 0.000000	Red Motor Position (mm): 8.000000	
326.493990	2182.819615
326.888308	2182.819615
327.282561	2182.819615
327.676750	2097.120000
328.070874	2092.078846
328.464933	2099.640577
328.858929	2024.023269
329.252859	2112.243462
329.646726	2117.284615
330.040528	2200.463654
330.434265	2142.490385
330.827938	2170.216731
331.221547	2064.352500
331.615091	2157.613846
332.008571	2152.572692
332.401986	2260.957500
332.795338	2258.436923
333.188625	2235.751731
333.581847	2268.519231
333.975006	2306.327885
334.368100	2313.889615
334.761129	2293.725000
335.154095	2260.957500
335.546996	2278.601538
335.939833	2356.739423
336.332606	2371.862885
336.725315	2366.821731
337.117960	2434.877308
337.510540	2439.918462
337.903056	2427.315577
338.295508	2434.877308
338.687896	2462.603654
339.080220	2407.150962
339.472480	2455.041923
339.864676	2432.356731
340.256807	2482.768269
340.648875	2439.918462
341.040879	2523.097500
341.432818	2447.480192
341.824694	2434.877308
342.216506	2535.700385
342.608253	2460.083077
342.999937	2455.041923
343.391557	2492.850577
343.783113	2492.850577
344.174605	2482.768269
344.566033	2555.865000
344.957397	2457.562500
345.348697	2490.330000
345.739934	2535.700385
346.131106	2394.548077
346.522215	2457.562500
346.913260	2447.480192
347.304241	2525.618077
347.695159	2386.986346
348.086012	2477.727115
348.476802	2477.727115
348.867528	2472.685962
349.258191	2472.685962
349.648789	2447.480192
350.039324	2462.603654
350.429796	2492.850577
350.820203	2439.918462
351.210548	2419.753846
351.600828	2467.644808
351.991045	2349.177692
352.381198	2394.548077
352.771288	2439.918462
353.161314	2470.165385
353.551276	2523.097500
353.941175	2424.795000
354.331010	2407.150962
354.720782	2444.959615
355.110490	2480.247692
355.500135	2475.206538
355.889717	2407.150962
356.279235	2457.562500
356.668689	2417.233269
357.058080	2495.371154
357.447408	2432.356731
357.836672	2523.097500
358.225873	2427.315577
358.615010	2548.303269
359.004084	2457.562500
359.393095	2490.330000
359.782043	2394.548077
360.170927	2442.439038
360.559748	2386.986346
360.948505	2482.768269
361.337199	2419.753846
361.725830	2386.986346
362.114398	2429.836154
362.502903	2442.439038
362.891344	2369.342308
363.279722	2490.330000
363.668037	2392.027500
364.056289	2515.535769
364.444478	2555.865000
364.832603	2379.424615
365.220665	2434.877308
365.608665	2323.971923
365.996601	2462.603654
366.384474	2442.439038
366.772284	2434.877308
367.160031	2422.274423
367.547715	2472.685962
367.935336	2530.659231
368.322893	2505.453462
368.710388	2432.356731
369.097820	2409.671538
369.485189	2460.083077
369.872495	2555.865000
370.259738	2477.727115
370.646918	2475.206538
371.034035	2465.124231
371.421090	2429.836154
371.808081	2437.397885
372.195010	2376.904038
372.581875	2402.109808
372.968678	2553.344423
373.355418	2414.712692
373.742096	2467.644808
374.128710	2427.315577
374.515262	2465.124231
374.901751	2409.671538
375.288177	2457.562500
375.674540	2477.727115
376.060841	2457.562500
376.447079	2533.179808
376.833254	2409.671538
377.219367	2487.809423
377.605417	2437.397885
377.991404	2452.521346
378.377329	2429.836154
378.763191	2480.247692
379.148991	2402.109808
379.534727	2457.562500
379.920402	2560.906154
380.306013	2505.453462
380.691563	2444.959615
381.077049	2515.535769
381.462474	2402.109808
381.847835	2424.795000
382.233134	2412.192115
382.618371	2381.945192
383.003545	2487.809423
383.388657	2490.330000
383.773706	2518.056346
384.158693	2495.371154
384.543618	2470.165385
384.928480	2442.439038
385.313280	2429.836154
385.698017	2437.397885
386.082692	2422.274423
386.467305	2525.618077
386.851856	2399.589231
387.236344	2570.988462
387.620770	2568.467885
388.005133	2480.247692
388.389435	2497.891731
388.773674	2429.836154
389.157851	2525.618077
389.541965	2422.274423
389.926018	2581.070769
390.310008	2497.891731
390.693936	2530.659231
391.077802	2437.397885
391.461606	2414.712692
391.845348	2424.795000
392.229027	2442.439038
392.612645	2485.288846
392.996200	2397.068654
393.379694	2472.685962
393.763125	2422.274423
394.146494	2500.412308
394.529801	2437.397885
394.913047	2523.097500
395.296230	2470.165385
395.679351	2364.301154
396.062410	2485.288846
396.445408	2447.480192
396.828343	2429.836154
397.211217	2520.576923
397.594028	2472.685962
397.976778	2482.768269
398.359466	2437.397885
398.742092	2465.124231
399.124656	2465.124231
399.507158	2490.330000
399.889598	2414.712692
400.271977	2472.685962
400.654294	2442.439038
401.036549	2528.138654
401.418742	2465.124231
401.800874	2386.986346
402.182944	2460.083077
402.564952	2510.494615
402.946898	2452.521346
403.328783	2507.974038
403.710606	2497.891731
404.092367	2485.288846
404.474067	2460.083077
404.855705	2510.494615
405.237282	2422.274423
405.618797	2553.344423
406.000250	2452.521346
406.381642	2515.535769
406.762972	2540.741538
407.144240	2429.836154
407.525447	2460.083077
407.906593	2429.836154
408.287677	2427.315577
408.668700	2429.836154
409.049661	2465.124231
409.430560	2525.618077
409.811399	2510.494615
410.192176	2553.344423
410.572891	2490.330000
410.953545	2553.344423
411.334138	2442.439038
411.714669	2490.330000
412.095139	2379.424615
412.475547	2450.000769
412.855894	2470.165385
413.236180	2520.576923
413.616405	2520.576923
413.996568	2495.371154
414.376670	2545.782692
414.756711	2470.165385
415.136691	2525.618077
415.516609	2434.877308
415.896466	2452.521346
416.276262	2578.550192
416.655997	2470.165385
417.035670	2487.809423
417.415283	2412.192115
417.794834	2505.453462
418.174324	2477.727115
418.553753	2470.165385
418.933121	2553.344423
419.312428	2565.947308
419.691674	2467.644808
420.070859	2447.480192
420.449983	2475.206538
420.829045	2515.535769
421.208047	2467.644808
421.586988	2457.562500
421.965867	2518.056346
422.344686	2472.685962
422.723444	2482.768269
423.102141	2447.480192
423.480777	2477.727115
423.859352	2518.056346
424.237866	2434.877308
424.616319	2525.618077
424.994712	2502.932885
425.373044	2573.509038
425.751314	2523.097500
426.129524	2432.356731
426.507673	2548.303269
426.885762	2505.453462
427.263789	2530.659231
427.641756	2444.959615
428.019662	2520.576923
428.397508	2412.192115
428.775292	2467.644808
429.153016	2485.288846
429.530679	2447.480192
429.908282	2565.947308
430.285824	2394.548077
430.663305	2502.932885
431.040726	2502.932885
431.418086	2477.727115
431.795385	2492.850577
432.172624	2482.768269
432.549802	2444.959615
432.926920	2414.712692
433.303977	2492.850577
433.680974	2520.576923
434.057910	2460.083077
434.434786	2397.068654
434.811601	2523.097500
435.188355	2439.918462
435.565050	2545.782692
435.941683	2525.618077
436.318257	2513.015192
436.694770	2535.700385
437.071222	2545.782692
437.447614	2502.932885
437.823946	2563.426731
438.200218	2495.371154
438.576429	2538.220962
438.952580	2402.109808
439.328670	2500.412308
439.704700	2344.136538
440.080670	2487.809423
440.456580	2437.397885
440.832429	2535.700385
441.208218	2450.000769
441.583947	2467.644808
441.959616	2472.685962
442.335224	2482.768269
442.710773	2492.850577
443.086261	2475.206538
443.461689	2558.385577
443.837057	2394.548077
444.212365	2530.659231
444.587612	2555.865000
444.962800	2447.480192
445.337927	2538.220962
445.712995	2427.315577
446.088002	2450.000769
446.462949	2548.303269
446.837837	2482.768269
447.212664	2376.904038
447.587431	2442.439038
447.962139	2525.618077
448.336786	2492.850577
448.711374	2500.412308
449.085901	2457.562500
449.460369	2399.589231
449.834776	2538.220962
450.209124	2429.836154
450.583412	2414.712692
450.957640	2513.015192
451.331808	2450.000769
451.705917	2492.850577
452.079965	2490.330000
452.453954	2422.274423
452.827883	2535.700385
453.201752	2465.124231
453.575562	2520.576923
453.949311	2555.865000
454.323001	2490.330000
454.696632	2477.727115
455.070202	2523.097500
455.443713	2591.153077
455.817164	2472.685962
456.190556	2530.659231
456.563888	2533.179808
456.937160	2495.371154
457.310373	2495.371154
457.683526	2455.041923
458.056619	2480.247692
458.429653	2510.494615
458.802628	2513.015192
459.175542	2482.768269
459.548398	2457.562500
459.921194	2550.823846
460.293930	2394.548077
460.666607	2414.712692
461.039224	2550.823846
461.411782	2543.262115
461.784280	2515.535769
462.156719	2457.562500
462.529099	2543.262115
462.901419	2460.083077
463.273680	2540.741538
463.645882	2467.644808
464.018024	2492.850577
464.390106	2465.124231
464.762130	2455.041923
465.134094	2500.412308
465.505999	2533.179808
465.877845	2409.671538
466.249631	2442.439038
466.621358	2533.179808
466.993026	2439.918462
467.364634	2535.700385
467.736184	2470.165385
468.107674	2434.877308
468.479105	2530.659231
468.850477	2535.700385
469.221790	2467.644808
469.593043	2591.153077
469.964238	2457.562500
470.335373	2450.000769
470.706449	2467.644808
471.077467	2472.685962
471.448425	2520.576923
471.819324	2472.685962
472.190164	2545.782692
472.560945	2543.262115
472.931667	2495.371154
473.302330	2545.782692
473.672934	2560.906154
474.043479	2533.179808
474.413965	2525.618077
474.784393	2467.644808
475.154761	2518.056346
475.525070	2601.235385
475.895321	2495.371154
476.265513	2492.850577
476.635645	2523.097500
477.005719	2452.521346
477.375734	2525.618077
477.745691	2558.385577
478.115588	2485.288846
478.485427	2490.330000
478.855207	2510.494615
479.224928	2432.356731
479.594591	2528.138654
479.964194	2412.192115
480.333739	2450.000769
480.703226	2576.029615
481.072653	2520.576923
481.442022	2528.138654
481.811333	2515.535769
482.180584	2520.576923
482.549777	2528.138654
482.918912	2520.576923
483.287988	2513.015192
483.657005	2513.015192
484.025964	2555.865000
484.394864	2583.591346
484.763706	2485.288846
485.132489	2520.576923
485.501213	2490.330000
485.869879	2412.192115
486.238487	2500.412308
486.607036	2543.262115
486.975527	2581.070769
487.343959	2419.753846
487.712333	2379.424615
488.080648	2465.124231
488.448905	2475.206538
488.817104	2455.041923
489.185244	2475.206538
489.553326	2450.000769
489.921350	2477.727115
490.289315	2487.809423
490.657222	2477.727115
491.025070	2502.932885
491.392861	2515.535769
491.760593	2502.932885
492.128267	2482.768269
492.495883	2457.562500
492.863440	2490.330000
493.230939	2472.685962
493.598380	2485.288846
493.965763	2510.494615
494.333088	2467.644808
494.700354	2444.959615
495.067563	2465.124231
495.434713	2568.467885
495.801805	2455.041923
496.168839	2472.685962
496.535815	2513.015192
496.902733	2523.097500
497.269593	2548.303269
497.636395	2502.932885
498.003139	2525.618077
498.369825	2545.782692
498.736453	2480.247692
499.103023	2593.673654
499.469535	2495.371154
499.835989	2492.850577
500.202385	2467.644808
500.568723	2505.453462
500.935003	2586.111923
501.301226	2598.714808
501.667390	2525.618077
502.033497	2457.562500
502.399546	2492.850577
502.765537	2427.315577
503.131470	2563.426731
503.497345	2518.056346
503.863163	2558.385577
504.228923	2581.070769
504.594625	2442.439038
504.960269	2490.330000
505.325856	2472.685962
505.691385	2447.480192
506.056856	2520.576923
506.422270	2475.206538
506.787625	2424.795000
507.152924	2530.659231
507.518164	2548.303269
507.883347	2414.712692
508.248472	2502.932885
508.613540	2467.644808
508.978550	2560.906154
509.343503	2528.138654
509.708398	2518.056346
510.073236	2485.288846
510.438016	2472.685962
510.802738	2505.453462
511.167403	2513.015192
511.532010	2452.521346
511.896561	2477.727115
512.261053	2525.618077
512.625488	2472.685962
512.989866	2470.165385
513.354186	2525.618077
513.718449	2452.521346
514.082655	2558.385577
514.446803	2409.671538
514.810894	2485.288846
515.174927	2548.303269
515.538904	2475.206538
515.902822	2487.809423
516.266684	2455.041923
516.630488	2457.562500
516.994235	2553.344423
517.357925	2553.344423
517.721558	2437.397885
518.085133	2492.850577
518.448651	2452.521346
518.812112	2515.535769
519.175516	2470.165385
519.538863	2568.467885
519.902152	2465.124231
520.265385	2500.412308
520.628560	2528.138654
520.991678	2399.589231
521.354739	2538.220962
521.717743	2447.480192
522.080690	2540.741538
522.443580	2553.344423
522.806413	2550.823846
523.169189	2497.891731
523.531908	2502.932885
523.894569	2485.288846
524.257174	2485.288846
524.619722	2485.288846
524.982213	2452.521346
525.344647	2570.988462
525.707025	2538.220962
526.069345	2467.644808
526.431608	2518.056346
526.793815	2485.288846
527.155964	2485.288846
527.518057	2482.768269
527.880093	2507.974038
528.242072	2518.056346
528.603995	2487.809423
528.965860	2513.015192
529.327669	2490.330000
529.689421	2487.809423
530.051117	2538.220962
530.412755	2492.850577
530.774337	2480.247692
531.135862	2460.083077
531.497331	2447.480192
531.858743	2492.850577
532.220098	2545.782692
532.581396	2540.741538
532.942638	2510.494615
533.303824	2452.521346
533.664953	2535.700385
534.026025	2502.932885
534.387040	2560.906154
534.747999	2495.371154
535.108902	2535.700385
535.469748	2492.850577
535.830537	2394.548077
536.191270	2495.371154
536.551947	2543.262115
536.912567	2502.932885
537.273131	2510.494615
537.633638	2467.644808
537.994089	2472.685962
538.354483	2525.618077
538.714821	2520.576923
539.075103	2500.412308
539.435328	2513.015192
539.795497	2495.371154
540.155609	2523.097500
540.515665	2520.576923
540.875665	2434.877308
541.235609	2510.494615
541.595496	2533.179808
541.955328	2455.041923
542.315102	2505.453462
542.674821	2497.891731
543.034483	2500.412308
543.394090	2465.124231
543.753640	2427.315577
544.113134	2558.385577
544.472571	2538.220962
544.831953	2570.988462
545.191278	2513.015192
545.550548	2533.179808
545.909761	2518.056346
546.268918	2623.920577
546.628019	2500.412308
546.987064	2555.865000
547.346053	2460.083077
547.704986	2523.097500
548.063863	2515.535769
548.422684	2465.124231
548.781449	2467.644808
549.140158	2495.371154
549.498811	2515.535769
549.857408	2497.891731
550.215949	2492.850577
550.574434	2452.521346
550.932864	2442.439038
551.291237	2437.397885
551.649555	2528.138654
552.007817	2470.165385
552.366022	2525.618077
552.724173	2520.576923
553.082267	2482.768269
553.440305	2432.356731
553.798288	2530.659231
554.156215	2507.974038
554.514086	2515.535769
554.871902	2515.535769
555.229661	2485.288846
555.587365	2505.453462
555.945014	2497.891731
556.302606	2543.262115
556.660143	2462.603654
557.017625	2487.809423
557.375050	2487.809423
557.732421	2477.727115
558.089735	2429.836154
558.446994	2510.494615
558.804197	2583.591346
559.161345	2492.850577
559.518437	2371.862885
559.875474	2515.535769
560.232455	2485.288846
560.589381	2510.494615
560.946251	2596.194231
561.303065	2470.165385
561.659825	2507.974038
562.016528	2472.685962
562.373177	2601.235385
562.729770	2513.015192
563.086307	2555.865000
563.442789	2447.480192
563.799216	2555.865000
564.155587	2510.494615
564.511904	2510.494615
564.868164	2407.150962
565.224370	2492.850577
565.580520	2573.509038
565.936615	2460.083077
566.292654	2490.330000
566.648638	2492.850577
567.004567	2475.206538
567.360441	2576.029615
567.716260	2470.165385
568.072023	2581.070769
568.427732	2505.453462
568.783385	2507.974038
569.138982	2482.768269
569.494525	2540.741538
569.850013	2510.494615
570.205445	2528.138654
570.560823	2573.509038
570.916145	2439.918462
571.271412	2470.165385
571.626625	2510.494615
571.981782	2492.850577
572.336884	2581.070769
572.691931	2505.453462
573.046923	2565.947308
573.401860	2586.111923
573.756743	2490.330000
574.111570	2495.371154
574.466342	2447.480192
574.821059	2533.179808
575.175722	2462.603654
575.530330	2434.877308
575.884882	2502.932885
576.239380	2487.809423
576.593823	2470.165385
576.948211	2515.535769
577.302544	2583.591346
577.656823	2470.165385
578.011047	2492.850577
578.365216	2545.782692
578.719330	2568.467885
579.073389	2540.741538
579.427394	2555.865000
579.781344	2545.782692
580.135239	2467.644808
580.489080	2593.673654
580.842866	2460.083077
581.196597	2432.356731
581.550273	2482.768269
581.903895	2538.220962
582.257463	2485.288846
582.610975	2455.041923
582.964434	2460.083077
583.317837	2515.535769
583.671186	2467.644808
584.024481	2543.262115
584.377721	2492.850577
584.730906	2500.412308
585.084037	2523.097500
585.437113	2548.303269
585.790135	2439.918462
586.143103	2480.247692
586.496016	2520.576923
586.848874	2545.782692
587.201679	2467.644808
587.554428	2576.029615
587.907124	2631.482308
588.259765	2450.000769
588.612352	2523.097500
588.964884	2482.768269
589.317362	2518.056346
589.669786	2540.741538
590.022155	2490.330000
590.374470	2540.741538
590.726731	2530.659231
591.078937	2487.809423
591.431090	2404.630385
591.783188	2565.947308
592.135232	2460.083077
592.487222	2500.412308
592.839157	2497.891731
593.191038	2502.932885
593.542866	2447.480192
593.894639	2525.618077
594.246358	2460.083077
594.598022	2492.850577
594.949633	2540.741538
595.301190	2452.521346
595.652692	2573.509038
596.004141	2500.412308
596.355535	2540.741538
596.706876	2495.371154
597.058162	2520.576923
597.409395	2495.371154
597.760573	2444.959615
598.111698	2490.330000
598.462768	2548.303269
598.813785	2570.988462
599.164748	2492.850577
599.515657	2563.426731
599.866511	2510.494615
600.217312	2492.850577
600.568060	2404.630385
600.918753	2495.371154
601.269392	2460.083077
601.619978	2535.700385
601.970510	2545.782692
602.320988	2452.521346
602.671412	2533.179808
603.021783	2565.947308
603.372100	2477.727115
603.722363	2618.879423
604.072572	2455.041923
604.422728	2480.247692
604.772830	2568.467885
605.122878	2502.932885
605.472872	2548.303269
605.822813	2507.974038
606.172701	2495.371154
606.522534	2452.521346
606.872314	2465.124231
607.222041	2502.932885
607.571714	2477.727115
607.921333	2497.891731
608.270899	2520.576923
608.620411	2553.344423
608.969870	2404.630385
609.319276	2518.056346
609.668627	2507.974038
610.017926	2515.535769
610.367171	2500.412308
610.716362	2497.891731
611.065500	2492.850577
611.414585	2412.192115
611.763616	2598.714808
612.112594	2460.083077
612.461518	2507.974038
612.810389	2399.589231
613.159207	2560.906154
613.507971	2578.550192
613.856682	2480.247692
614.205340	2482.768269
614.553945	2465.124231
614.902496	2389.506923
615.250994	2513.015192
615.599439	2455.041923
615.947830	2485.288846
616.296169	2472.685962
616.644454	2545.782692
616.992686	2409.671538
617.340864	2452.521346
617.688990	2507.974038
618.037063	2450.000769
618.385082	2477.727115
618.733048	2399.589231
619.080961	2475.206538
619.428821	2568.467885
619.776628	2455.041923
620.124382	2502.932885
620.472083	2429.836154
620.819731	2497.891731
621.167326	2598.714808
621.514868	2477.727115
621.862357	2414.712692
622.209793	2535.700385
622.557176	2497.891731
622.904506	2497.891731
623.251783	2518.056346
623.599007	2553.344423
623.946179	2457.562500
624.293297	2528.138654
624.640363	2412.192115
624.987376	2497.891731
625.334336	2616.358846
625.681243	2477.727115
626.028097	2533.179808
626.374899	2550.823846
626.721647	2452.521346
627.068343	2578.550192
627.414987	2402.109808
627.761577	2480.247692
628.108115	2510.494615
628.454600	2495.371154
628.801032	2603.755962
629.147412	2530.659231
629.493739	2606.276538
629.840014	2384.465769
630.186236	2548.303269
630.532405	2444.959615
630.878521	2444.959615
631.224585	2452.521346
631.570597	2397.068654
631.916556	2407.150962
632.262462	2518.056346
632.608316	2528.138654
632.954117	2525.618077
633.299866	2523.097500
633.645562	2523.097500
633.991206	2442.439038
634.336797	2513.015192
634.682336	2472.685962
635.027823	2424.795000
635.373257	2576.029615
635.718639	2470.165385
636.063968	2500.412308
636.409245	2555.865000
636.754470	2477.727115
637.099642	2528.138654
637.444762	2450.000769
637.789829	2490.330000
638.134845	2457.562500
638.479808	2507.974038
638.824719	2543.262115
639.169577	2495.371154
639.514383	2444.959615
639.859137	2482.768269
640.203839	2437.397885
640.548489	2525.618077
640.893086	2472.685962
641.237632	2492.850577
641.582125	2460.083077
641.926566	2568.467885
642.270955	2477.727115
642.615292	2500.412308
642.959576	2460.083077
643.303809	2525.618077
643.647990	2502.932885
643.992118	2588.632500
644.336195	2460.083077
644.680219	2409.671538
645.024192	2452.521346
645.368112	2500.412308
645.711981	2467.644808
646.055797	2530.659231
646.399562	2485.288846
646.743274	2515.535769
647.086935	2545.782692
647.430544	2487.809423
647.774101	2515.535769
648.117606	2548.303269
648.461059	2538.220962
648.804460	2513.015192
649.147810	2523.097500
649.491108	2472.685962
649.834354	2543.262115
650.177548	2417.233269
650.520690	2530.659231
650.863781	2565.947308
651.206820	2525.618077
651.549807	2560.906154
651.892742	2492.850577
652.235626	2475.206538
652.578458	2452.521346
652.921238	2568.467885
653.263967	2480.247692
653.606644	2455.041923
653.949269	2462.603654
654.291843	2515.535769
654.634365	2432.356731
654.976836	2576.029615
655.319255	2497.891731
655.661622	2525.618077
656.003938	2548.303269
656.346203	2500.412308
656.688416	2513.015192
657.030577	2553.344423
657.372687	2467.644808
657.714746	2523.097500
658.056753	2535.700385
658.398708	2510.494615
658.740612	2555.865000
659.082465	2457.562500
659.424266	2450.000769
659.766016	2407.150962
660.107715	2495.371154
660.449362	2442.439038
660.790958	2482.768269
661.132503	2550.823846
661.473996	2502.932885
661.815438	2412.192115
662.156829	2530.659231
662.498168	2581.070769
662.839456	2525.618077
663.180693	2540.741538
663.521879	2525.618077
663.863013	2490.330000
664.204097	2550.823846
664.545129	2452.521346
664.886110	2500.412308
665.227040	2447.480192
665.567918	2510.494615
665.908746	2530.659231
666.249522	2439.918462
666.590248	2515.535769
666.930922	2497.891731
667.271545	2485.288846
667.612118	2515.535769
667.952639	2576.029615
668.293109	2502.932885
668.633528	2492.850577
668.973896	2538.220962
669.314213	2417.233269
669.654480	2487.809423
669.994695	2535.700385
670.334859	2530.659231
670.674973	2427.315577
671.015035	2513.015192
671.355047	2472.685962
671.695008	2467.644808
672.034918	2409.671538
672.374777	2538.220962
672.714585	2439.918462
673.054342	2535.700385
673.394049	2507.974038
673.733705	2530.659231
674.073310	2543.262115
674.412864	2560.906154
674.752368	2502.932885
675.091820	2507.974038
675.431223	2576.029615
675.770574	2429.836154
676.109875	2591.153077
676.449125	2424.795000
676.788324	2482.768269
677.127473	2442.439038
677.466571	2505.453462
677.805619	2480.247692
678.144616	2467.644808
678.483562	2460.083077
678.822458	2515.535769
679.161303	2487.809423
679.500098	2444.959615
679.838842	2492.850577
680.177535	2520.576923
680.516179	2513.015192
680.854771	2427.315577
681.193314	2538.220962
681.531805	2429.836154
681.870247	2510.494615
682.208638	2495.371154
682.546978	2432.356731
682.885268	2412.192115
683.223508	2505.453462
683.561697	2540.741538
683.899836	2467.644808
684.237925	2576.029615
684.575963	2525.618077
684.913951	2497.891731
685.251889	2505.453462
685.589776	2492.850577
685.927614	2502.932885
686.265401	2513.015192
686.603137	2487.809423
686.940824	2502.932885
687.278460	2591.153077
687.616046	2560.906154
687.953582	2450.000769
688.291068	2422.274423
688.628504	2500.412308
688.965889	2495.371154
689.303224	2490.330000
689.640510	2475.206538
689.977745	2444.959615
690.314930	2485.288846
690.652065	2457.562500
690.989150	2515.535769
691.326185	2482.768269
691.663170	2558.385577
692.000105	2513.015192
692.336990	2467.644808
692.673825	2487.809423
693.010610	2510.494615
693.347345	2563.426731
693.684030	2581.070769
694.020665	2432.356731
694.357251	2538.220962
694.693786	2505.453462
695.030272	2500.412308
695.366707	2424.795000
695.703093	2495.371154
696.039429	2518.056346
696.375716	2492.850577
696.711952	2485.288846
697.048139	2472.685962
697.384276	2548.303269
697.720363	2502.932885
698.056400	2475.206538
698.392388	2507.974038
698.728326	2490.330000
699.064214	2588.632500
699.400053	2530.659231
699.735842	2432.356731
700.071581	2467.644808
700.407270	2525.618077
700.742910	2523.097500
701.078501	2591.153077
701.414042	2485.288846
701.749533	2523.097500
702.084974	2502.932885
702.420366	2535.700385
702.755709	2414.712692
703.091002	2568.467885
703.426246	2570.988462
703.761440	2450.000769
704.096584	2528.138654
704.431679	2613.838269
704.766725	2482.768269
705.101721	2520.576923
705.436668	2520.576923
705.771565	2548.303269
706.106413	2404.630385
706.441212	2525.618077
706.775961	2439.918462
707.110661	2485.288846
707.445311	2477.727115
707.779913	2523.097500
708.114465	2457.562500
708.448967	2530.659231
708.783421	2467.644808
709.117825	2397.068654
709.452180	2485.288846
709.786485	2518.056346
710.120742	2480.247692
710.454949	2412.192115
710.789107	2502.932885
711.123216	2472.685962
711.457275	2588.632500
711.791286	2505.453462
712.125247	2424.795000
712.459159	2520.576923
712.793023	2555.865000
713.126837	2502.932885
713.460602	2492.850577
713.794318	2603.755962
714.127985	2500.412308
714.461602	2487.809423
714.795171	2555.865000
715.128691	2515.535769
715.462162	2616.358846
715.795584	2510.494615
716.128957	2573.509038
716.462281	2497.891731
716.795556	2492.850577
717.128782	2437.397885
717.461960	2510.494615
717.795088	2540.741538
718.128167	2563.426731
718.461198	2525.618077
718.794180	2392.027500
719.127113	2510.494615
719.459997	2399.589231
719.792833	2560.906154
720.125619	2497.891731
720.458357	2510.494615
720.791046	2515.535769
721.123686	2530.659231
721.456278	2475.206538
721.788821	2533.179808
722.121315	2621.400000
722.453761	2462.603654
722.786158	2565.947308
723.118506	2482.768269
723.450805	2389.506923
723.783056	2505.453462
724.115259	2455.041923
724.447412	2492.850577
724.779518	2480.247692
725.111574	2495.371154
725.443582	2452.521346
725.775542	2472.685962
726.107453	2535.700385
726.439315	2505.453462
726.771129	2472.685962
727.102895	2505.453462
727.434612	2490.330000
727.766281	2376.904038
728.097901	2462.603654
728.429473	2450.000769
728.760996	2482.768269
729.092471	2560.906154
729.423897	2447.480192
729.755276	2470.165385
730.086606	2439.918462
730.417887	2515.535769
730.749120	2545.782692
731.080305	2518.056346
731.411442	2591.153077
731.742530	2505.453462
732.073570	2543.262115
732.404562	2497.891731
732.735506	2568.467885
733.066401	2576.029615
733.397249	2588.632500
733.728048	2490.330000
734.058798	2497.891731
734.389501	2487.809423
734.720156	2472.685962
735.050762	2543.262115
735.381320	2550.823846
735.711831	2497.891731
736.042293	2573.509038
736.372707	2495.371154
736.703073	2550.823846
737.033391	2505.453462
737.363661	2437.397885
737.693883	2545.782692
738.024056	2422.274423
738.354182	2470.165385
738.684260	2573.509038
739.014290	2548.303269
739.344272	2563.426731
739.674207	2500.412308
740.004093	2505.453462
740.333931	2500.412308
740.663722	2507.974038
740.993464	2460.083077
741.323159	2485.288846
741.652806	2507.974038
741.982405	2495.371154
742.311956	2613.838269
742.641460	2520.576923
742.970915	2523.097500
743.300323	2457.562500
743.629683	2543.262115
743.958996	2460.083077
744.288260	2520.576923
744.617477	2485.288846
744.946647	2563.426731
745.275768	2429.836154
745.604842	2550.823846
745.933869	2500.412308
746.262847	2543.262115
746.591778	2505.453462
746.920662	2414.712692
747.249498	2465.124231
747.578286	2475.206538
747.907027	2510.494615
748.235720	2452.521346
748.564365	2543.262115
748.892963	2477.727115
749.221514	2603.755962
749.550017	2439.918462
749.878473	2470.165385
750.206881	2520.576923
750.535242	2583.591346
750.863555	2455.041923
751.191821	2576.029615
751.520039	2520.576923
751.848210	2530.659231
752.176334	2485.288846
752.504411	2507.974038
752.832440	2412.192115
753.160421	2495.371154
753.488356	2374.383462
753.816243	2523.097500
754.144082	2543.262115
754.471875	2570.988462
754.799620	2487.809423
755.127318	2533.179808
755.454969	2490.330000
755.782572	2500.412308
756.110129	2591.153077
756.437638	2447.480192
756.765100	2434.877308
757.092515	2530.659231
757.419882	2485.288846
757.747203	2495.371154
758.074477	2513.015192
758.401703	2502.932885
758.728882	2525.618077
759.056014	2472.685962
759.383099	2497.891731
759.710138	2520.576923
760.037129	2475.206538
760.364073	2477.727115
760.690970	2475.206538
761.017820	2497.891731
761.344623	2570.988462
761.671379	2482.768269
761.998088	2513.015192
762.324751	2457.562500
762.651366	2447.480192
762.977935	2429.836154
763.304456	2394.548077
763.630931	2490.330000
763.957359	2533.179808
764.283740	2598.714808
764.610074	2455.041923
764.936362	2497.891731
765.262602	2505.453462
765.588796	2530.659231
765.914943	2477.727115
766.241044	2447.480192
766.567097	2513.015192
766.893104	2553.344423
767.219064	2540.741538
767.544978	2477.727115
767.870845	2472.685962
768.196665	2495.371154
768.522438	2429.836154
768.848165	2439.918462
769.173846	2402.109808
769.499479	2419.753846
769.825066	2492.850577
770.150607	2495.371154
770.476101	2555.865000
770.801548	2460.083077
771.126949	2515.535769
771.452303	2505.453462
771.777611	2482.768269
772.102872	2553.344423
772.428087	2444.959615
772.753256	2482.768269
773.078378	2447.480192
773.403453	2535.700385
773.728482	2444.959615
774.053465	2482.768269
774.378401	2530.659231
774.703291	2422.274423
775.028135	2457.562500
775.352932	2523.097500
775.677683	2540.741538
776.002388	2535.700385
776.327046	2470.165385
776.651658	2548.303269
776.976224	2505.453462
777.300743	2510.494615
777.625216	2502.932885
777.949643	2545.782692
778.274024	2487.809423
778.598359	2558.385577
778.922647	2565.947308
779.246889	2460.083077
779.571086	2477.727115
779.895236	2437.397885
780.219339	2573.509038
780.543397	2467.644808
780.867409	2520.576923
781.191374	2482.768269
781.515294	2533.179808
781.839167	2439.918462
782.162995	2533.179808
782.486776	2515.535769
782.810511	2465.124231
783.134201	2515.535769
783.457844	2515.535769
783.781441	2530.659231
784.104993	2518.056346
784.428498	2507.974038
784.751958	2442.439038
785.075372	2528.138654
785.398739	2550.823846
785.722061	2452.521346
786.045337	2497.891731
786.368568	2490.330000
786.691752	2477.727115
787.014891	2505.453462
787.337983	2495.371154
787.661030	2447.480192
787.984031	2520.576923
788.306987	2528.138654
788.629897	2533.179808
788.952760	2467.644808
789.275579	2487.809423
789.598351	2530.659231
789.921078	2432.356731
790.243759	2581.070769
790.566395	2467.644808
790.888984	2482.768269
791.211529	2434.877308
791.534027	2475.206538
791.856480	2465.124231
792.178888	2538.220962
792.501249	2500.412308
792.823566	2558.385577
793.145836	2618.879423
793.468062	2437.397885
793.790241	2462.603654
794.112375	2475.206538
794.434464	2442.439038
794.756507	2528.138654
795.078505	2482.768269
795.400457	2485.288846
795.722364	2563.426731
796.044226	2500.412308
796.366042	2548.303269
796.687812	2434.877308
797.009538	2492.850577
797.331218	2560.906154
797.652852	2460.083077
797.974442	2548.303269
798.295986	2482.768269
798.617484	2525.618077
798.938938	2560.906154
799.260346	2434.877308
799.581709	2422.274423
799.903026	2465.124231
800.224299	2588.632500
800.545526	2389.506923
800.866708	2533.179808
801.187845	2465.124231
801.508936	2442.439038
801.829983	2482.768269
802.150984	2540.741538
802.471940	2560.906154
802.792851	2513.015192
803.113717	2545.782692
803.434538	2465.124231
803.755314	2439.918462
804.076045	2475.206538
804.396731	2450.000769
804.717372	2472.685962
805.037967	2492.850577
805.358518	2576.029615
805.679024	2502.932885
805.999485	2490.330000
806.319901	2470.165385
806.640272	2520.576923
806.960598	2563.426731
807.280879	2505.453462
807.601115	2555.865000
807.921306	2460.083077
808.241453	2545.782692
808.561554	2414.712692
808.881611	2548.303269
809.201623	2412.192115
809.521590	2404.630385
809.841513	2437.397885
810.161390	2543.262115
810.481223	2482.768269
810.801011	2475.206538
811.120755	2447.480192
811.440453	2543.262115
811.760107	2525.618077
812.079716	2460.083077
812.399281	2523.097500
812.718801	2487.809423
813.038276	2444.959615
813.357707	2432.356731
813.677093	2515.535769
813.996434	2505.453462
814.315731	2492.850577
814.634983	2482.768269
814.954191	2485.288846
815.273354	2487.809423
815.592473	2608.797115
815.911547	2490.330000
816.230577	2570.988462
816.549562	2467.644808
816.868502	2507.974038
817.187399	2467.644808
817.506250	2429.836154
817.825058	2495.371154
818.143821	2432.356731
818.462539	2477.727115
818.781213	2497.891731
819.099843	2450.000769
819.418429	2578.550192
819.736970	2485.288846
820.055466	2553.344423
820.373919	2578.550192
820.692327	2465.124231
821.010691	2407.150962
821.329011	2477.727115
821.647286	2490.330000
821.965517	2568.467885
822.283704	2452.521346
822.601847	2492.850577
822.919945	2513.015192
823.237999	2470.165385
823.556010	2386.986346
823.873976	2520.576923
824.191897	2540.741538
824.509775	2500.412308
824.827609	2444.959615
825.145398	2452.521346
825.463144	2399.589231
825.780845	2505.453462
826.098502	2485.288846
826.416116	2497.891731
826.733685	2485.288846
827.051210	2525.618077
827.368692	2538.220962
827.686129	2467.644808
828.003522	2523.097500
828.320872	2507.974038
828.638177	2583.591346
828.955439	2548.303269
829.272656	2492.850577
829.589830	2525.618077
829.906960	2513.015192
830.224046	2495.371154
830.541088	2402.109808
830.858086	2475.206538
831.175041	2507.974038
831.491952	2540.741538
831.808819	2553.344423
832.125642	2404.630385
832.442421	2427.315577
832.759157	2497.891731
833.075849	2460.083077
833.392497	2520.576923
833.709101	2507.974038
834.025662	2538.220962
834.342179	2447.480192
834.658653	2394.548077
834.975083	2450.000769
835.291469	2487.809423
835.607811	2523.097500
835.924110	2533.179808
836.240366	2502.932885
836.556578	2500.412308
836.872746	2472.685962
837.188871	2409.671538
837.504952	2520.576923
837.820990	2510.494615
838.136984	2495.371154
838.452935	2455.041923
838.768842	2470.165385
839.084706	2525.618077
839.400526	2540.741538
839.716303	2482.768269
840.032037	2502.932885
840.347727	2520.576923
840.663373	2588.632500
840.978977	2550.823846
841.294537	2550.823846
841.610054	2465.124231
841.925527	2510.494615
842.240957	2588.632500
842.556344	2500.412308
842.871687	2515.535769
843.186987	2593.673654
843.502244	2374.383462
843.817458	2507.974038
844.132629	2535.700385
844.447756	2518.056346
844.762840	2505.453462
845.077881	2492.850577
845.392879	2402.109808
845.707833	2477.727115
846.022745	2507.974038
846.337613	2523.097500
846.652438	2455.041923
846.967221	2520.576923
847.281960	2487.809423
847.596656	2472.685962
847.911309	2465.124231
848.225919	2417.233269
848.540485	2424.795000
848.855009	2528.138654
849.169490	2470.165385
849.483928	2492.850577
849.798323	2482.768269
850.112675	2543.262115
850.426984	2492.850577
850.741251	2455.041923
851.055474	2450.000769
851.369654	2505.453462
851.683792	2565.947308
851.997887	2510.494615
852.311938	2543.262115
852.625947	2535.700385
852.939914	2593.673654
853.253837	2477.727115
853.567718	2495.371154
853.881555	2419.753846
854.195350	2482.768269
854.509103	2470.165385
854.822812	2513.015192
855.136479	2457.562500
855.450103	2470.165385
855.763685	2576.029615
856.077224	2460.083077
856.390720	2510.494615
856.704173	2462.603654
857.017584	2505.453462
857.330953	2467.644808
857.644278	2530.659231
857.957561	2475.206538
858.270802	2500.412308
858.584000	2507.974038
858.897155	2447.480192
859.210268	2540.741538
859.523339	2588.632500
859.836367	2505.453462
860.149352	2482.768269
860.462295	2447.480192
860.775195	2424.795000
861.088054	2593.673654
861.400869	2412.192115
861.713642	2586.111923
862.026373	2462.603654
862.339062	2558.385577
862.651708	2429.836154
862.964312	2500.412308
863.276873	2467.644808
863.589392	2510.494615
863.901869	2583.591346
864.214303	2470.165385
864.526696	2505.453462
864.839045	2447.480192
865.151353	2510.494615
865.463619	2520.576923
865.775842	2596.194231
866.088023	2447.480192
866.400162	2497.891731
866.712258	2525.618077
867.024313	2525.618077
867.336325	2457.562500
867.648296	2477.727115
867.960224	2447.480192
868.272110	2523.097500
868.583954	2427.315577
868.895755	2507.974038
869.207515	2563.426731
869.519233	2442.439038
869.830909	2424.795000
870.142542	2568.467885
870.454134	2437.397885
870.765684	2505.453462
871.077191	2560.906154
871.388657	2482.768269
871.700081	2482.768269
872.011463	2598.714808
872.322803	2482.768269
872.634101	2384.465769
872.945357	2470.165385
873.256571	2510.494615
873.567744	2457.562500
873.878874	2465.124231
874.189963	2507.974038
874.501010	2525.618077
874.812015	2545.782692
875.122979	2472.685962
875.433900	2427.315577
875.744780	2437.397885
876.055618	2538.220962
876.366415	2462.603654
876.677169	2505.453462
876.987882	2482.768269
877.298554	2472.685962
877.609183	2497.891731
877.919771	2500.412308
878.230317	2452.521346
878.540822	2480.247692
878.851285	2530.659231
879.161707	2588.632500
879.472087	2409.671538
879.782425	2520.576923
880.092722	2505.453462
880.402977	2515.535769
880.713191	2462.603654
881.023363	2460.083077
881.333494	2565.947308
881.643583	2507.974038
881.953631	2422.274423
882.263637	2394.548077
882.573602	2545.782692
882.883526	2452.521346
883.193408	2553.344423
883.503248	2495.371154
883.813048	2462.603654
884.122806	2477.727115
884.432522	2485.288846
884.742197	2505.453462
885.051831	2467.644808
885.361424	2480.247692
885.670975	2477.727115
885.980485	2432.356731
886.289954	2507.974038
886.599382	2417.233269
886.908768	2444.959615
887.218113	2563.426731
887.527417	2485.288846
887.836680	2593.673654
888.145901	2487.809423
888.455082	2502.932885
888.764221	2485.288846
889.073319	2528.138654
889.382376	2455.041923
889.691392	2548.303269
890.000366	2500.412308
890.309300	2467.644808
890.618193	2467.644808
890.927044	2492.850577
891.235855	2417.233269
891.544625	2540.741538
891.853353	2528.138654
892.162041	2513.015192
892.470687	2505.453462
892.779293	2472.685962
893.087858	2520.576923
893.396381	2568.467885
893.704864	2581.070769
894.013306	2492.850577
894.321707	2404.630385
894.630068	2520.576923
894.938387	2472.685962
895.246665	2470.165385
895.554903	2490.330000
895.863100	2558.385577
896.171256	2470.165385
896.479371	2525.618077
896.787446	2500.412308
897.095480	2455.041923
897.403473	2457.562500
897.711425	2485.288846
898.019336	2457.562500
898.327207	2500.412308
898.635038	2513.015192
898.942827	2482.768269
899.250576	2492.850577
899.558284	2513.015192
899.865952	2475.206538
900.173579	2444.959615
900.481165	2465.124231
900.788711	2475.206538
901.096216	2495.371154
901.403681	2457.562500
901.711105	2538.220962
902.018489	2462.603654
902.325832	2578.550192
902.633135	2472.685962
902.940397	2548.303269
903.247619	2462.603654
903.554800	2520.576923
903.861941	2513.015192
904.169041	2545.782692
904.476101	2533.179808
904.783121	2565.947308
905.090100	2500.412308
905.397039	2540.741538
905.703938	2462.603654
906.010796	2596.194231
906.317614	2477.727115
906.624391	2450.000769
906.931129	2450.000769
907.237826	2510.494615
907.544483	2568.467885
907.851099	2487.809423
908.157675	2495.371154
908.464211	2455.041923
908.770707	2570.988462
909.077163	2447.480192
909.383578	2513.015192
909.689954	2502.932885
909.996289	2392.027500
910.302584	2475.206538
910.608839	2563.426731
910.915054	2490.330000
911.221229	2444.959615
911.527363	2530.659231
911.833458	2492.850577
912.139513	2485.288846
912.445527	2520.576923
912.751502	2543.262115
913.057436	2470.165385
913.363331	2545.782692
913.669186	2513.015192
913.975000	2460.083077
914.280775	2470.165385
914.586510	2510.494615
914.892205	2533.179808
915.197859	2414.712692
915.503475	2490.330000
915.809050	2485.288846
916.114585	2429.836154
916.420081	2535.700385
916.725536	2492.850577
917.030952	2510.494615
917.336328	2528.138654
917.641665	2495.371154
917.946961	2497.891731
918.252218	2485.288846
918.557435	2465.124231
918.862612	2467.644808
919.167750	2417.233269
919.472848	2528.138654
919.777906	2482.768269
920.082925	2523.097500
920.387904	2457.562500
920.692843	2518.056346
920.997743	2472.685962
921.302603	2485.288846
921.607423	2535.700385
921.912204	2472.685962
922.216946	2487.809423
922.521647	2470.165385
922.826310	2543.262115
923.130932	2563.426731
923.435516	2460.083077
923.740059	2487.809423
924.044564	2444.959615
924.349028	2480.247692
924.653454	2460.083077
924.957840	2505.453462
925.262186	2457.562500
925.566493	2548.303269
925.870761	2434.877308
926.174989	2535.700385
926.479178	2502.932885
926.783328	2472.685962
927.087438	2467.644808
927.391509	2563.426731
927.695541	2497.891731
927.999533	2444.959615
928.303486	2535.700385
928.607400	2457.562500
928.911275	2434.877308
929.215110	2442.439038
929.518906	2538.220962
929.822663	2523.097500
930.126381	2507.974038
930.430060	2472.685962
930.733699	2399.589231
931.037299	2467.644808
931.340861	2470.165385
931.644383	2507.974038
931.947866	2429.836154
932.251309	2439.918462
932.554714	2477.727115
932.858080	2495.371154
933.161407	2513.015192
933.464694	2419.753846
933.767943	2495.371154
934.071153	2477.727115
934.374323	2533.179808
934.677455	2525.618077
934.980548	2460.083077
935.283602	2518.056346
935.586617	2457.562500
935.889593	2520.576923
936.192530	2407.150962
936.495428	2550.823846
936.798287	2462.603654
937.101108	2442.439038
937.403890	2475.206538
937.706632	2457.562500
938.009336	2455.041923
938.312002	2480.247692
938.614628	2480.247692
938.917216	2437.397885
939.219765	2487.809423
939.522275	2533.179808
939.824747	2545.782692
940.127179	2581.070769
940.429573	2457.562500
940.731929	2492.850577
941.034246	2515.535769
941.336524	2497.891731
941.638763	2439.918462
941.940964	2452.521346
942.243126	2515.535769
942.545250	2507.974038
942.847335	2457.562500
943.149381	2460.083077
943.451389	2505.453462
943.753359	2432.356731
944.055290	2482.768269
944.357182	2422.274423
944.659036	2560.906154
944.960851	2553.344423
945.262628	2510.494615
945.564367	2384.465769
945.866067	2550.823846
946.167729	2414.712692
946.469352	2495.371154
946.770937	2439.918462
947.072484	2392.027500
947.373992	2480.247692
947.675462	2553.344423
947.976893	2477.727115
948.278286	2535.700385
948.579641	2450.000769
948.880958	2525.618077
949.182236	2490.330000
949.483476	2482.768269
949.784678	2442.439038
950.085841	2545.782692
950.386967	2422.274423
950.688054	2485.288846
950.989103	2560.906154
951.290114	2515.535769
951.591087	2487.809423
951.892021	2525.618077
952.192917	2492.850577
952.493776	2525.618077
952.794596	2573.509038
953.095378	2507.974038
953.396122	2477.727115
953.696828	2581.070769
953.997496	2462.603654
954.298126	2495.371154
954.598718	2553.344423
954.899272	2422.274423
955.199788	2525.618077
955.500266	2515.535769
955.800706	2492.850577
956.101108	2434.877308
956.401472	2540.741538
956.701798	2472.685962
957.002087	2518.056346
957.302337	2540.741538
957.602550	2533.179808
957.902724	2520.576923
958.202861	2424.795000
958.502960	2432.356731
958.803022	2470.165385
959.103045	2465.124231
959.403031	2520.576923
959.702979	2472.685962
960.002889	2535.700385
960.302762	2455.041923
960.602596	2533.179808
960.902393	2424.795000
961.202153	2485.288846
961.501875	2518.056346
961.801559	2487.809423
962.101205	2520.576923
962.400814	2518.056346
962.700385	2558.385577
962.999918	2523.097500
963.299414	2548.303269
963.598873	2535.700385
963.898293	2437.397885
964.197677	2548.303269
964.497022	2520.576923
964.796331	2492.850577
965.095601	2497.891731
965.394835	2477.727115
965.694030	2437.397885
965.993189	2545.782692
966.292309	2505.453462
966.591393	2518.056346
966.890439	2432.356731
967.189447	2518.056346
967.488419	2437.397885
967.787353	2447.480192
968.086249	2533.179808
968.385108	2515.535769
968.683930	2563.426731
968.982714	2487.809423
969.281462	2487.809423
969.580172	2434.877308
969.878844	2518.056346
970.177480	2495.371154
970.476078	2513.015192
970.774639	2497.891731
971.073162	2472.685962
971.371649	2492.850577
971.670098	2497.891731
971.968510	2470.165385
972.266885	2533.179808
972.565223	2495.371154
972.863524	2394.548077
973.161788	2386.986346
973.460014	2581.070769
973.758204	2404.630385
974.056356	2477.727115
974.354471	2432.356731
974.652550	2492.850577
974.950591	2545.782692
975.248595	2533.179808
975.546563	2472.685962
975.844493	2444.959615
976.142386	2540.741538
976.440243	2457.562500
976.738062	2495.371154
977.035845	2530.659231
977.333590	2538.220962
977.631299	2530.659231
977.928971	2528.138654
978.226606	2397.068654
978.524204	2384.465769
978.821765	2528.138654
979.119290	2414.712692
979.416777	2523.097500
979.714228	2492.850577
980.011642	2502.932885
980.309020	2457.562500
980.606360	2518.056346
980.903664	2475.206538
981.200931	2500.412308
981.498162	2455.041923
981.795356	2427.315577
982.092513	2477.727115
982.389633	2427.315577
982.686717	2535.700385
982.983764	2392.027500
983.280775	2457.562500
983.577749	2477.727115
983.874686	2518.056346
984.171587	2472.685962
984.468451	2520.576923
984.765279	2558.385577
985.062070	2513.015192
985.358824	2427.315577
985.655543	2475.206538
985.952224	2490.330000
986.248869	2523.097500
986.545478	2510.494615
986.842050	2472.685962
987.138586	2452.521346
987.435086	2480.247692
987.731549	2510.494615
988.027975	2525.618077
988.324366	2485.288846
988.620719	2480.247692
988.917037	2444.959615
989.213318	2475.206538
989.509563	2442.439038
989.805772	2427.315577
990.101944	2434.877308
990.398080	2533.179808
990.694180	2492.850577
990.990244	2510.494615
991.286271	2417.233269
991.582262	2507.974038
991.878217	2581.070769
992.174136	2465.124231
992.470019	2535.700385
992.765865	2563.426731
993.061676	2523.097500
993.357450	2525.618077
993.653188	2578.550192
993.948890	2548.303269
994.244556	2455.041923
994.540186	2520.576923
994.835780	2513.015192
995.131337	2477.727115
995.426859	2487.809423
995.722345	2507.974038
996.017795	2475.206538
996.313208	2545.782692
996.608586	2467.644808
996.903928	2497.891731
997.199234	2513.015192
997.494504	2533.179808
997.789738	2472.685962
998.084936	2482.768269
998.380099	2507.974038
998.675225	2505.453462
998.970316	2525.618077
999.265371	2424.795000
999.560390	2560.906154
999.855373	2538.220962
1000.150320	2502.932885
1000.445232	2432.356731
1000.740108	2548.303269
1001.034948	2460.083077
1001.329752	2482.768269
1001.624521	2525.618077
1001.919254	2439.918462
1002.213951	2563.426731
1002.508613	2414.712692
1002.803239	2485.288846
1003.097829	2447.480192
1003.392384	2535.700385
1003.686903	2439.918462
1003.981386	2482.768269
1004.275834	2482.768269
1004.570246	2457.562500
1004.864623	2523.097500
1005.158964	2470.165385
1005.453270	2460.083077
1005.747540	2374.383462
1006.041775	2462.603654
1006.335974	2434.877308
1006.630138	2520.576923
1006.924266	2424.795000
1007.218359	2528.138654
1007.512416	2394.548077
1007.806438	2568.467885
1008.100425	2424.795000
1008.394376	2528.138654
1008.688292	2437.397885
1008.982172	2558.385577
1009.276017	2432.356731
1009.569827	2533.179808
1009.863602	2457.562500
1010.157341	2472.685962
1010.451045	2513.015192
1010.744714	2510.494615
1011.038347	2450.000769
1011.331945	2518.056346
1011.625508	2485.288846
1011.919036	2520.576923
1012.212528	2540.741538
1012.505986	2495.371154
1012.799408	2462.603654
1013.092795	2553.344423
1013.386147	2460.083077
1013.679464	2465.124231
1013.972745	2472.685962
1014.265992	2545.782692
1014.559204	2465.124231
1014.852380	2535.700385
1015.145521	2548.303269
1015.438628	2576.029615
1015.731699	2472.685962
1016.024736	2442.439038
1016.317737	2457.562500
1016.610703	2528.138654
1016.903635	2497.891731
1017.196531	2490.330000
1017.489393	2535.700385
1017.782219	2402.109808
1018.075011	2472.685962
1018.367768	2507.974038
1018.660490	2450.000769
1018.953177	2450.000769
1019.245829	2450.000769
