Dividing Wavelength (nm)	Counts (n)	Blue Motor Position (mm): 0.000000	Red Motor Position (mm): 16.700000	
326.493990	2127.518158
326.888308	2127.518158
327.282561	2127.518158
327.676750	2095.249732
328.070874	2097.228385
328.464933	2096.567994
328.858929	2103.943202
329.252859	2116.765377
329.646726	2124.876593
330.040528	2139.722791
330.434265	2154.037148
330.827938	2172.797802
331.221547	2189.383198
331.615091	2209.610828
332.008571	2230.476163
332.401986	2248.362177
332.795338	2268.788933
333.188625	2287.509257
333.581847	2307.240333
333.975006	2323.992088
334.368100	2344.146621
334.761129	2360.800073
335.154095	2375.177443
335.546996	2395.236194
335.939833	2407.647515
336.332606	2425.692325
336.725315	2439.076589
337.117960	2446.852569
337.510540	2454.610904
337.903056	2467.092801
338.295508	2472.517083
338.687896	2482.130563
339.080220	2490.292191
339.472480	2498.536998
339.864676	2501.470950
340.256807	2505.408091
340.648875	2509.372959
341.040879	2511.142404
341.432818	2512.470748
341.824694	2514.852693
342.216506	2513.844462
342.608253	2516.803619
342.999937	2514.714061
343.391557	2513.375635
343.783113	2513.325223
344.174605	2509.887156
344.566033	2511.971673
344.957397	2511.313803
345.348697	2510.547548
345.739934	2506.088647
346.131106	2504.689727
346.522215	2503.631084
346.913260	2502.302740
347.304241	2498.148830
347.695159	2498.123624
348.086012	2497.430465
348.476802	2492.595999
348.867528	2494.935094
349.258191	2491.365957
349.648789	2490.912253
350.039324	2485.823208
350.429796	2490.067860
350.820203	2484.285657
351.210548	2486.274392
351.600828	2483.587457
351.991045	2482.173413
352.381198	2485.349340
352.771288	2482.191057
353.161314	2484.797334
353.551276	2480.051087
353.941175	2486.201295
354.331010	2481.634010
354.720782	2483.937817
355.110490	2486.372694
355.500135	2482.173413
355.889717	2485.049391
356.279235	2483.063177
356.668689	2486.052581
357.058080	2482.720378
357.447408	2483.426140
357.836672	2483.589977
358.225873	2482.627117
358.615010	2479.655357
359.004084	2485.074597
359.393095	2487.151553
359.782043	2488.421923
360.170927	2489.319249
360.559748	2488.071563
360.948505	2488.089207
361.337199	2490.274547
361.725830	2490.221615
362.114398	2491.343272
362.502903	2488.552993
362.891344	2493.563900
363.279722	2489.397387
363.668037	2492.104486
364.056289	2494.191524
364.444478	2496.422234
364.832603	2497.007008
365.220665	2497.516165
365.608665	2495.986175
365.996601	2501.123110
366.384474	2498.791577
366.772284	2500.354334
367.160031	2501.667555
367.547715	2504.412463
367.935336	2505.113184
368.322893	2508.392454
368.710388	2512.037208
369.097820	2516.107940
369.485189	2521.373425
369.872495	2527.682429
370.259738	2536.287679
370.646918	2541.364121
371.034035	2550.448280
371.421090	2557.079918
371.808081	2570.197000
372.195010	2578.668659
372.581875	2593.832450
372.968678	2604.126486
373.355418	2614.995214
373.742096	2634.302833
374.128710	2647.182981
374.515262	2661.444406
374.901751	2675.698268
375.288177	2688.832994
375.674540	2715.049515
376.060841	2729.598285
376.447079	2750.766090
376.833254	2770.149327
377.219367	2782.734567
377.605417	2821.775783
377.991404	2831.283399
378.377329	2851.143025
378.763191	2868.159440
379.148991	2907.891294
379.534727	2931.153698
379.920402	2961.735858
380.306013	2972.670121
380.691563	3021.783562
381.077049	3042.081768
381.462474	3061.757391
381.847835	3102.043772
382.233134	3122.616721
382.618371	3121.250568
383.003545	3190.001825
383.388657	3193.578523
383.773706	3227.190417
384.158693	3243.359917
384.543618	3270.715739
384.928480	3306.722180
385.313280	3354.252699
385.698017	3351.134746
386.082692	3406.322777
386.467305	3407.204979
386.851856	3440.985751
387.236344	3462.370326
387.620770	3497.842405
388.005133	3519.685724
388.389435	3547.351577
388.773674	3559.004204
389.157851	3599.313270
389.541965	3618.313379
389.926018	3579.657811
390.310008	3649.921413
390.693936	3670.965710
391.077802	3711.093295
391.461606	3699.092828
391.845348	3765.290740
392.229027	3761.467025
392.612645	3774.894138
392.996200	3853.445397
393.379694	3888.032754
393.763125	3954.046663
394.146494	3923.507353
394.529801	3982.519100
394.913047	4029.782438
395.296230	3998.665916
395.679351	4054.065676
396.062410	4077.000406
396.445408	4058.766552
396.828343	4086.820573
397.211217	4108.190024
397.594028	4031.146070
397.976778	4092.743929
398.359466	4120.492960
398.742092	4140.849140
399.124656	4065.340217
399.507158	4142.167401
399.889598	4158.326820
400.271977	4216.537023
400.654294	4181.196014
401.036549	4181.493443
401.418742	4142.774860
401.800874	4233.261051
402.182944	4238.708018
402.564952	4292.234990
402.946898	4266.419241
403.328783	4244.880911
403.710606	4152.297600
404.092367	4310.254594
404.474067	4259.525463
404.855705	4252.475409
405.237282	4165.084487
405.618797	4240.905961
406.000250	4244.263370
406.381642	4292.250113
406.762972	4232.711566
407.144240	4215.254050
407.525447	4193.040205
407.906593	4209.224830
408.287677	4215.503587
408.668700	4129.468735
409.049661	4134.698932
409.430560	4131.520484
409.811399	4040.449520
410.192176	4126.118888
410.572891	4045.735169
410.953545	4073.947987
411.334138	3957.726706
411.714669	3963.831543
412.095139	3859.638455
412.475547	3905.883479
412.855894	3852.233000
413.236180	3813.779078
413.616405	3748.370107
413.996568	3752.632402
414.376670	3680.052390
414.756711	3620.130715
415.136691	3593.674739
415.516609	3584.404057
415.896466	3566.379412
416.276262	3535.099052
416.655997	3485.688183
417.035670	3513.389323
417.415283	3506.548477
417.794834	3438.538271
418.174324	3384.996176
418.553753	3315.299703
418.933121	3331.426355
419.312428	3304.441058
419.691674	3245.860330
420.070859	3242.938981
420.449983	3179.470854
420.829045	3167.755213
421.208047	3114.991976
421.586988	3089.289653
421.965867	3059.085580
422.344686	3043.508414
422.723444	2990.195692
423.102141	2930.737803
423.480777	2948.384362
423.859352	2885.170813
424.237866	2890.464025
424.616319	2865.611136
424.994712	2852.274764
425.373044	2815.441573
425.751314	2805.515541
426.129524	2763.636156
426.507673	2761.932246
426.885762	2747.607807
427.263789	2724.806668
427.641756	2702.449151
428.019662	2692.926411
428.397508	2676.913186
428.775292	2661.598161
429.153016	2653.746564
429.530679	2640.437917
429.908282	2629.803603
430.285824	2616.023609
430.663305	2616.610904
431.040726	2600.670775
431.418086	2591.586616
431.795385	2590.933787
432.172624	2584.022365
432.549802	2580.591860
432.926920	2572.568863
433.303977	2568.293965
433.680974	2566.350600
434.057910	2562.605023
434.434786	2561.047306
434.811601	2560.318859
435.188355	2558.683005
435.565050	2555.922973
435.941683	2553.407437
436.318257	2547.652960
436.694770	2544.580377
437.071222	2544.837476
437.447614	2543.332692
437.823946	2542.558874
438.200218	2546.503577
438.576429	2545.364277
438.952580	2543.617517
439.328670	2542.384955
439.704700	2540.865047
440.080670	2539.816487
440.456580	2543.506611
440.832429	2543.569626
441.208218	2541.230530
441.583947	2541.351518
441.959616	2541.210366
442.335224	2542.377393
442.710773	2540.950746
443.086261	2541.767413
443.461689	2541.749769
443.837057	2541.056611
444.212365	2541.825387
444.587612	2541.215407
444.962800	2538.725077
445.337927	2541.785057
445.712995	2537.747093
446.088002	2542.440407
446.462949	2542.523586
446.837837	2538.291538
447.212664	2541.412012
447.587431	2541.880839
447.962139	2541.923689
448.336786	2546.821170
448.711374	2547.715975
449.085901	2543.365459
449.460369	2545.185316
449.834776	2543.158772
450.209124	2543.705737
450.583412	2544.398896
450.957640	2545.044163
451.331808	2544.020809
451.705917	2540.154244
452.079965	2543.297403
452.453954	2543.108360
452.827883	2542.349667
453.201752	2542.886549
453.575562	2541.351518
453.949311	2543.625078
454.323001	2542.269008
454.696632	2541.802701
455.070202	2545.087013
455.443713	2541.885880
455.817164	2542.342105
456.190556	2544.096426
456.563888	2544.053577
456.937160	2541.908566
457.310373	2545.863351
457.683526	2547.504246
458.056619	2543.403268
458.429653	2546.894267
458.802628	2546.417878
459.175542	2544.512322
459.548398	2546.909390
459.921194	2547.320244
460.293930	2547.418547
460.666607	2548.953578
461.039224	2550.987684
461.411782	2550.992725
461.784280	2552.389124
462.156719	2552.245452
462.529099	2552.389124
462.901419	2548.502395
463.273680	2549.301418
463.645882	2550.289484
464.018024	2550.551624
464.390106	2550.710420
464.762130	2552.946172
465.134094	2553.248641
465.505999	2558.993036
465.877845	2558.438509
466.249631	2565.233984
466.621358	2563.625856
466.993026	2563.151988
467.364634	2563.330949
467.736184	2560.039075
468.107674	2559.454302
468.479105	2557.662171
468.850477	2556.240566
469.221790	2559.925649
469.593043	2557.967161
469.964238	2556.452294
470.335373	2557.808365
470.706449	2558.935063
471.077467	2556.434650
471.448425	2563.673747
471.819324	2563.041082
472.190164	2567.295816
472.560945	2560.807851
472.931667	2561.279199
473.302330	2557.967161
473.672934	2559.555125
474.043479	2556.265772
474.413965	2561.422872
474.784393	2554.710576
475.154761	2558.617470
475.525070	2555.801986
475.895321	2557.899106
476.265513	2555.948179
476.635645	2561.765671
477.005719	2560.328942
477.375734	2563.832544
477.745691	2563.756926
478.115588	2565.533933
478.485427	2564.051834
478.855207	2566.259859
479.224928	2570.320509
479.594591	2573.682958
479.964194	2570.930488
480.333739	2570.880077
480.703226	2568.576269
481.072653	2570.779254
481.442022	2571.580797
481.811333	2570.411249
482.180584	2569.362689
482.549777	2571.026270
482.918912	2569.329922
483.287988	2569.957546
483.657005	2570.685992
484.025964	2567.063923
484.394864	2570.290262
484.763706	2567.333625
485.132489	2566.713563
485.501213	2569.123235
485.869879	2567.520148
486.238487	2565.531412
486.607036	2564.447564
486.975527	2564.311453
487.343959	2567.477298
487.712333	2565.289437
488.080648	2565.536454
488.448905	2568.518296
488.817104	2564.631567
489.185244	2565.307081
489.553326	2564.475291
489.921350	2568.362020
490.289315	2574.068607
490.657222	2575.722105
491.025070	2571.948801
491.392861	2572.273956
491.760593	2571.293451
492.128267	2567.754561
492.495883	2566.295147
492.863440	2568.966959
493.230939	2567.794891
493.598380	2565.995199
493.965763	2559.686195
494.333088	2559.335834
494.700354	2561.831206
495.067563	2564.850857
495.434713	2558.844322
495.801805	2565.357493
496.168839	2567.217678
496.535815	2563.918243
496.902733	2567.210117
497.269593	2565.365054
497.636395	2563.164591
498.003139	2566.980744
498.369825	2566.194324
498.736453	2566.406053
499.103023	2565.995199
499.469535	2565.654921
499.835989	2565.783470
500.202385	2565.690209
500.568723	2563.522513
500.935003	2565.833882
501.301226	2567.626012
501.667390	2566.247256
502.033497	2566.799263
502.399546	2566.012843
502.765537	2564.071998
503.131470	2566.090981
503.497345	2567.401681
503.863163	2566.741289
504.228923	2566.181721
504.594625	2567.134499
504.960269	2566.176680
505.325856	2569.423183
505.691385	2564.503017
506.056856	2566.927812
506.422270	2566.353121
506.787625	2566.073337
507.152924	2567.149623
507.518164	2566.058213
507.883347	2567.094170
508.248472	2567.315981
508.613540	2565.927143
508.978550	2566.557287
509.343503	2564.248439
509.708398	2570.113821
510.073236	2564.492935
510.438016	2567.464695
510.802738	2566.655590
511.167403	2570.219686
511.532010	2566.519479
511.896561	2568.293965
512.261053	2568.205745
512.625488	2566.995868
512.989866	2563.673747
513.354186	2565.549057
513.718449	2561.687533
514.082655	2567.414283
514.446803	2569.057700
514.810894	2567.870508
515.174927	2570.272618
515.538904	2567.588203
515.902822	2569.024932
516.266684	2567.399160
516.630488	2564.102245
516.994235	2569.544171
517.357925	2568.384706
517.721558	2568.319171
518.085133	2567.764644
518.448651	2568.261197
518.812112	2567.066444
519.175516	2569.697926
519.538863	2568.994685
519.902152	2568.538461
520.265385	2565.798594
520.628560	2571.207752
520.991678	2570.507031
521.354739	2568.901424
521.717743	2566.078378
522.080690	2571.190108
522.443580	2568.966959
522.806413	2572.145406
523.169189	2571.139696
523.531908	2569.050138
523.894569	2570.161712
524.257174	2568.210786
524.619722	2569.196331
524.982213	2568.568708
525.344647	2570.386044
525.707025	2568.218348
526.069345	2570.938050
526.431608	2569.705488
526.793815	2568.722463
527.155964	2568.213306
527.518057	2567.830179
527.880093	2571.618606
528.242072	2566.968141
528.603995	2568.387226
528.965860	2570.058369
529.327669	2570.350756
529.689421	2568.349417
530.051117	2570.572566
530.412755	2568.326732
530.774337	2569.090467
531.135862	2570.691033
531.497331	2568.258677
531.858743	2564.240877
532.220098	2564.848336
532.581396	2567.807493
532.942638	2566.380847
533.303824	2567.880590
533.664953	2569.551733
534.026025	2568.276321
534.387040	2569.007288
534.747999	2566.199365
535.108902	2568.989644
535.469748	2567.857905
535.830537	2567.734397
536.191270	2567.439489
536.551947	2568.677092
536.912567	2568.878739
537.273131	2567.600806
537.633638	2566.524520
537.994089	2567.187432
538.354483	2567.774726
538.714821	2567.636094
539.075103	2568.067113
539.435328	2566.700960
539.795497	2567.096691
540.155609	2568.286403
540.515665	2569.670200
540.875665	2568.067113
541.235609	2564.487894
541.595496	2567.232802
541.955328	2567.046279
542.315102	2569.241702
542.674821	2570.136507
543.034483	2567.941084
543.394090	2567.626012
543.753640	2567.129458
544.113134	2570.749007
544.472571	2568.883780
544.831953	2569.435786
545.191278	2569.360169
545.550548	2568.069633
545.909761	2570.693554
546.268918	2566.953018
546.628019	2567.699109
546.987064	2565.677606
547.346053	2567.923440
547.704986	2566.612740
548.063863	2567.492421
548.422684	2567.736917
548.781449	2566.645507
549.140158	2565.854046
549.498811	2567.326063
549.857408	2567.981413
550.215949	2565.060065
550.574434	2564.470250
550.932864	2564.281206
551.291237	2562.642831
551.649555	2567.512586
552.007817	2567.066444
552.366022	2567.976372
552.724173	2567.467216
553.082267	2568.344376
553.440305	2566.872359
553.798288	2566.096022
554.156215	2566.922771
554.514086	2568.349417
554.871902	2566.274983
555.229661	2566.877401
555.587365	2566.010322
555.945014	2567.802452
556.302606	2565.619633
556.660143	2568.747669
557.017625	2565.937225
557.375050	2566.902606
557.732421	2567.827658
558.089735	2567.537792
558.446994	2567.860426
558.804197	2569.108111
559.161345	2567.749520
559.518437	2567.537792
559.875474	2567.522668
560.232455	2567.681465
560.589381	2568.074675
560.946251	2568.626681
561.303065	2568.009140
561.659825	2567.232802
562.016528	2564.414797
562.373177	2569.415622
562.729770	2566.700960
563.086307	2567.706670
563.442789	2569.077864
563.799216	2564.762637
564.155587	2567.068964
564.511904	2568.845971
564.868164	2568.271280
565.224370	2568.757751
565.580520	2566.327915
565.936615	2569.352607
566.292654	2564.707184
566.648638	2563.749365
567.004567	2565.407904
567.360441	2567.389078
567.716260	2566.610219
568.072023	2567.689026
568.427732	2563.262893
568.783385	2564.626525
569.138982	2563.562842
569.494525	2565.952349
569.850013	2561.029662
570.205445	2567.444530
570.560823	2565.803635
570.916145	2565.014694
571.271412	2566.345559
571.626625	2566.579972
571.981782	2568.263718
572.336884	2566.562328
572.691931	2566.612740
573.046923	2567.404201
573.401860	2565.526371
573.756743	2566.685837
574.111570	2564.871021
574.466342	2564.301371
574.821059	2564.820610
575.175722	2563.744323
575.530330	2566.096022
575.884882	2565.354972
576.239380	2565.012174
576.593823	2567.149623
576.948211	2563.948490
577.302544	2566.514437
577.656823	2560.359189
578.011047	2565.670044
578.365216	2563.106618
578.719330	2565.475960
579.073389	2563.648542
579.427394	2563.547718
579.781344	2564.845816
580.135239	2564.198027
580.489080	2564.376988
580.842866	2566.448903
581.196597	2565.375137
581.550273	2562.577296
581.903895	2564.548387
582.257463	2563.114179
582.610975	2564.737431
582.964434	2566.181721
583.317837	2559.711400
583.671186	2565.624674
584.024481	2562.385733
584.377721	2566.214489
584.730906	2562.811710
585.084037	2565.785991
585.437113	2562.650393
585.790135	2564.261042
586.143103	2563.603171
586.496016	2562.100907
586.848874	2559.272820
587.201679	2560.313818
587.554428	2558.435988
587.907124	2560.860783
588.259765	2557.647048
588.612352	2565.362534
588.964884	2560.162584
589.317362	2563.114179
589.669786	2561.954714
590.022155	2564.709704
590.374470	2561.427913
590.726731	2559.746688
591.078937	2560.810372
591.431090	2562.166442
591.783188	2563.144426
592.135232	2559.938252
592.487222	2558.435988
592.839157	2563.323387
593.191038	2562.448747
593.542866	2563.519992
593.894639	2561.475804
594.246358	2563.300702
594.598022	2559.960937
594.949633	2561.548901
595.301190	2560.094528
595.652692	2560.845660
596.004141	2560.694425
596.355535	2561.153170
596.706876	2561.085115
597.058162	2557.899106
597.409395	2560.336503
597.760573	2561.490928
598.111698	2556.210319
598.462768	2561.803479
598.813785	2562.935218
599.164748	2554.980277
599.515657	2557.689898
599.866511	2560.034034
600.217312	2560.336503
600.568060	2559.855073
600.918753	2560.744837
601.269392	2559.199723
601.619978	2558.504044
601.970510	2559.908005
602.320988	2559.787018
602.671412	2559.608057
603.021783	2560.149981
603.372100	2560.202913
603.722363	2556.417006
604.072572	2560.326421
604.422728	2558.811554
604.772830	2556.371636
605.122878	2554.014897
605.472872	2557.248797
605.822813	2550.360060
606.172701	2556.243087
606.522534	2556.124619
606.872314	2557.352140
607.222041	2558.854404
607.571714	2560.843139
607.921333	2560.172666
608.270899	2557.415155
608.620411	2560.250804
608.969870	2558.846842
609.319276	2560.563355
609.668627	2565.246587
610.017926	2566.479149
610.367171	2568.911506
610.716362	2566.910168
611.065500	2562.047975
611.414585	2560.775084
611.763616	2559.908005
612.112594	2562.307595
612.461518	2561.763150
612.810389	2561.677450
613.159207	2559.151832
613.507971	2559.678633
613.856682	2561.410269
614.205340	2558.803993
614.553945	2560.492779
614.902496	2559.882800
615.250994	2560.623849
615.599439	2562.103428
615.947830	2558.186451
616.296169	2561.115362
616.644454	2559.398849
616.992686	2557.823488
617.340864	2560.976730
617.688990	2560.573438
618.037063	2560.306257
618.385082	2560.104610
618.733048	2559.182079
619.080961	2562.312636
619.428821	2558.556976
619.776628	2559.819785
620.124382	2561.843808
620.472083	2558.244425
620.819731	2560.649055
621.167326	2559.476987
621.514868	2558.345248
621.862357	2557.337017
622.209793	2560.243242
622.557176	2561.511092
622.904506	2555.930535
623.251783	2553.241079
623.599007	2553.125133
623.946179	2554.476162
624.293297	2555.635627
624.640363	2554.559341
624.987376	2560.177707
625.334336	2557.105124
625.681243	2556.442212
626.028097	2555.053374
626.374899	2556.943807
626.721647	2555.315514
627.068343	2556.404403
627.414987	2554.839125
627.761577	2556.868190
628.108115	2556.888354
628.454600	2557.394990
628.801032	2556.840463
629.147412	2555.038251
629.493739	2556.666543
629.840014	2557.452963
630.186236	2557.266441
630.532405	2556.313663
630.878521	2552.658826
631.224585	2553.462890
631.570597	2555.580175
631.916556	2554.887016
632.262462	2555.998591
632.608316	2556.343910
632.954117	2555.262582
633.299866	2554.214022
633.645562	2555.670916
633.991206	2556.212840
634.336797	2551.315359
634.682336	2554.987839
635.027823	2551.617828
635.373257	2552.991542
635.718639	2553.939279
636.063968	2551.459032
636.409245	2552.787376
636.754470	2552.260575
637.099642	2554.939948
637.444762	2551.058260
637.789829	2551.348126
638.134845	2554.675288
638.479808	2553.571275
638.824719	2552.938610
639.169577	2553.014227
639.514383	2550.596994
639.859137	2550.975081
640.203839	2553.936759
640.548489	2553.790565
640.893086	2551.660678
641.237632	2549.661860
641.582125	2549.868547
641.926566	2545.213042
642.270955	2553.104968
642.615292	2552.247972
642.959576	2551.688404
643.303809	2552.981460
643.647990	2553.866182
643.992118	2550.806202
644.336195	2552.457180
644.680219	2551.254865
645.024192	2551.312838
645.368112	2549.750080
645.711981	2552.172355
646.055797	2551.234700
646.399562	2553.246121
646.743274	2551.436346
647.086935	2552.124464
647.430544	2553.977088
647.774101	2552.830225
648.117606	2552.494989
648.461059	2554.085473
648.804460	2551.060780
649.147810	2553.021789
649.491108	2553.682180
649.834354	2549.921480
650.177548	2551.655637
650.520690	2552.721841
650.863781	2548.875440
651.206820	2554.992880
651.549807	2551.358208
651.892742	2551.892571
652.235626	2551.569937
652.578458	2550.518856
652.921238	2552.341233
653.263967	2552.628579
653.606644	2550.009700
653.949269	2550.907025
654.291843	2550.874258
654.634365	2550.518856
654.976836	2550.420554
655.319255	2552.313507
655.661622	2549.324103
656.003938	2550.841490
656.346203	2550.596994
656.688416	2549.924000
657.030577	2549.941644
657.372687	2551.141439
657.714746	2549.498023
658.056753	2549.530790
658.398708	2544.771941
658.740612	2547.582384
659.082465	2545.765048
659.424266	2546.228834
659.766016	2546.191026
660.107715	2549.082127
660.449362	2547.380738
660.790958	2552.250493
661.132503	2549.891233
661.473996	2550.775955
661.815438	2551.111192
662.156829	2549.598846
662.498168	2549.404761
662.839456	2547.811757
663.180693	2548.424257
663.521879	2547.625234
663.863013	2551.441387
664.204097	2551.857283
664.545129	2549.314021
664.886110	2549.795451
665.227040	2550.281922
665.567918	2552.000956
665.908746	2546.707744
666.249522	2550.531459
666.590248	2549.906356
666.930922	2552.764690
667.271545	2549.074566
667.612118	2550.743188
667.952639	2549.944165
668.293109	2547.955430
668.633528	2550.665050
668.973896	2550.019782
669.314213	2551.161603
669.654480	2548.872920
669.994695	2548.872920
670.334859	2549.424926
670.674973	2548.691438
671.015035	2548.378887
671.355047	2548.651109
671.695008	2544.880326
672.034918	2552.789896
672.374777	2549.445091
672.714585	2548.487271
673.054342	2550.259237
673.394049	2548.194884
673.733705	2551.491799
674.073310	2548.225131
674.412864	2551.874927
674.752368	2549.492982
675.091820	2549.356870
675.431223	2550.276881
675.770574	2549.498023
676.109875	2543.299924
676.449125	2547.345450
676.788324	2543.836807
677.127473	2548.008362
677.466571	2544.383772
677.805619	2547.317724
678.144616	2547.032898
678.483562	2549.014072
678.822458	2547.680687
679.161303	2549.417364
679.500098	2549.709751
679.838842	2550.286963
680.177535	2545.674308
680.516179	2548.706562
680.854771	2547.335368
681.193314	2548.857796
681.531805	2548.814946
681.870247	2549.528270
682.208638	2548.416695
682.546978	2549.530790
682.885268	2548.247817
683.223508	2550.657488
683.561697	2549.480379
683.899836	2551.874927
684.237925	2549.281253
684.575963	2546.070038
684.913951	2548.779658
685.251889	2550.544062
685.589776	2550.130687
685.927614	2550.367622
686.265401	2549.921480
686.603137	2550.274360
686.940824	2547.985677
687.278460	2552.245452
687.616046	2547.428629
687.953582	2549.225800
688.291068	2548.996428
688.628504	2549.112374
688.965889	2549.545914
689.303224	2549.946685
689.640510	2550.307128
689.977745	2546.811088
690.314930	2548.464586
690.652065	2548.083979
690.989150	2550.138249
691.326185	2550.034906
691.663170	2548.116747
692.000105	2546.974925
692.336990	2545.878474
692.673825	2548.048691
693.010610	2547.166489
693.347345	2543.287321
693.684030	2543.249512
694.020665	2546.647250
694.357251	2540.663401
694.693786	2542.258926
695.030272	2546.758156
695.366707	2543.801519
695.703093	2547.993238
696.039429	2546.080120
696.375716	2547.332847
696.711952	2543.859492
697.048139	2545.288659
697.384276	2545.875954
697.720363	2545.313865
698.056400	2544.461910
698.392388	2547.647919
698.728326	2547.539534
699.064214	2544.928217
699.400053	2545.119781
699.735842	2547.907539
700.071581	2543.935109
700.407270	2547.042981
700.742910	2545.197918
701.078501	2544.623227
701.414042	2546.649771
701.749533	2542.362269
702.084974	2546.153217
702.420366	2546.185985
702.755709	2546.783361
703.091002	2542.241282
703.426246	2546.314534
703.761440	2544.469472
704.096584	2542.642053
704.431679	2543.539379
704.766725	2542.299255
705.101721	2543.919986
705.436668	2542.904193
705.771565	2543.390665
706.106413	2541.621220
706.441212	2543.839328
706.775961	2545.311344
707.110661	2546.286808
707.445311	2545.651622
707.779913	2545.815460
708.114465	2545.523073
708.448967	2543.531817
708.783421	2541.412012
709.117825	2544.051056
709.452180	2545.008875
709.786485	2543.161292
710.120742	2545.399565
710.454949	2545.137425
710.789107	2544.449307
711.123216	2541.598535
711.457275	2544.978628
711.791286	2542.831097
712.125247	2544.429143
712.459159	2545.492826
712.793023	2548.404092
713.126837	2544.167002
713.460602	2545.404606
713.794318	2543.829245
714.127985	2548.101623
714.461602	2545.386962
714.795171	2547.922662
715.128691	2544.789585
715.462162	2546.611962
715.795584	2543.330171
716.128957	2546.248999
716.462281	2544.134235
716.795556	2546.695141
717.128782	2541.331353
717.461960	2543.451159
717.795088	2541.868236
718.128167	2541.943854
718.461198	2541.185160
718.794180	2543.385624
719.127113	2543.534338
719.459997	2544.182126
719.792833	2543.252033
720.125619	2542.851261
720.458357	2544.124153
720.791046	2543.345294
721.123686	2543.219266
721.456278	2541.449821
721.788821	2542.508463
722.121315	2544.214893
722.453761	2543.887218
722.786158	2543.136087
723.118506	2541.296065
723.450805	2542.463092
723.783056	2542.352187
724.115259	2543.304965
724.447412	2542.614327
724.779518	2540.456713
725.111574	2542.876467
725.443582	2538.868750
725.775542	2540.784388
726.107453	2541.250695
726.439315	2543.274718
726.771129	2547.468958
727.102895	2543.032743
727.434612	2543.940151
727.766281	2544.958464
728.097901	2540.481919
728.429473	2540.207176
728.760996	2540.139121
729.092471	2538.936805
729.423897	2545.553320
729.755276	2543.859492
730.086606	2542.810932
730.417887	2542.934440
730.749120	2545.397044
731.080305	2542.957126
731.411442	2544.655994
731.742530	2545.092054
732.073570	2546.095244
732.404562	2542.677342
732.735506	2546.896787
733.066401	2542.087527
733.397249	2544.731612
733.728048	2544.693803
734.058798	2543.977959
734.389501	2544.086344
734.720156	2542.163144
735.050762	2542.783206
735.381320	2542.037115
735.711831	2541.384286
736.042293	2540.600386
736.372707	2542.654656
736.703073	2542.079965
737.033391	2543.050387
737.363661	2539.413194
737.693883	2540.396219
738.024056	2543.942671
738.354182	2541.401930
738.684260	2542.815973
739.014290	2544.509801
739.344272	2541.389327
739.674207	2539.146013
740.004093	2542.122815
740.333931	2542.405119
740.663722	2544.550130
740.993464	2542.631971
741.323159	2542.274049
741.652806	2541.548123
741.982405	2545.384441
742.311956	2545.228165
742.641460	2540.849923
742.970915	2542.145500
743.300323	2541.734646
743.629683	2544.338402
743.958996	2540.217258
744.288260	2539.768596
744.617477	2541.472506
744.946647	2537.489994
745.275768	2537.328677
745.604842	2536.040662
745.933869	2537.696682
746.262847	2534.926567
746.591778	2541.999306
746.920662	2540.812115
747.249498	2539.181301
747.578286	2540.814635
747.907027	2542.238761
748.235720	2543.040305
748.564365	2539.521579
748.892963	2539.720705
749.221514	2541.996786
749.550017	2539.330015
749.878473	2541.676673
750.206881	2538.944367
750.535242	2539.798843
750.863555	2541.220448
751.191821	2540.562577
751.520039	2538.775488
751.848210	2540.658359
752.176334	2542.737835
752.504411	2540.837320
752.832440	2539.710623
753.160421	2537.318595
753.488356	2539.478729
753.816243	2543.574667
754.144082	2540.091230
754.471875	2541.830428
754.799620	2539.239275
755.127318	2538.498225
755.454969	2541.359080
755.782572	2541.313709
756.110129	2543.567105
756.437638	2542.001827
756.765100	2539.990407
757.092515	2541.159954
757.419882	2541.696837
757.747203	2540.207176
758.074477	2542.518545
758.401703	2540.192053
758.728882	2541.089378
759.056014	2539.912269
759.383099	2540.174409
759.710138	2540.993596
760.037129	2543.035263
760.364073	2540.151723
760.690970	2541.137269
761.017820	2542.715150
761.344623	2540.141641
761.671379	2539.962680
761.998088	2536.824562
762.324751	2538.835982
762.651366	2541.661549
762.977935	2546.294369
763.304456	2543.793957
763.630931	2545.795295
763.957359	2547.433670
764.283740	2544.887888
764.610074	2546.259081
764.936362	2542.142979
765.262602	2542.200952
765.588796	2538.122659
765.914943	2539.007382
766.241044	2540.575180
766.567097	2540.834800
766.893104	2540.202135
767.219064	2538.757844
767.544978	2540.224820
767.870845	2538.974614
768.196665	2540.204656
768.522438	2537.968904
768.848165	2538.447813
769.173846	2539.614841
769.499479	2535.886907
769.825066	2537.323636
770.150607	2538.394881
770.476101	2537.497556
770.801548	2537.454706
771.126949	2538.064686
771.452303	2540.827238
771.777611	2538.679707
772.102872	2540.300437
772.428087	2537.157278
772.753256	2541.250695
773.078378	2537.883204
773.403453	2538.606610
773.728482	2536.945550
774.053465	2537.812628
774.378401	2537.542926
774.703291	2537.590817
775.028135	2534.266176
775.352932	2533.991433
775.677683	2535.828934
776.002388	2539.140972
776.327046	2538.231044
776.651658	2538.835982
776.976224	2539.118287
777.300743	2538.442772
777.625216	2536.343132
777.949643	2539.178781
778.274024	2540.854964
778.598359	2536.388502
778.922647	2534.238450
779.246889	2538.505787
779.571086	2532.690816
779.895236	2534.581248
780.219339	2538.687268
780.543397	2536.494366
780.867409	2535.685261
781.191374	2537.555529
781.515294	2538.241126
781.839167	2540.439069
782.162995	2536.055786
782.486776	2537.926054
782.810511	2534.775333
783.134201	2535.881866
783.457844	2536.673327
783.781441	2534.568646
784.104993	2539.004861
784.428498	2534.818183
784.751958	2537.744573
785.075372	2539.289686
785.398739	2537.064017
785.722061	2536.895138
786.045337	2537.484953
786.368568	2537.041332
786.691752	2537.759696
787.014891	2537.595858
787.337983	2537.338760
787.661030	2536.353214
787.984031	2537.938657
788.306987	2538.173071
788.629897	2538.410005
788.952760	2538.795653
789.275579	2538.541075
789.598351	2539.413194
789.921078	2535.597041
790.243759	2537.099305
790.566395	2536.217103
790.888984	2537.258101
791.211529	2535.440765
791.534027	2539.571991
791.856480	2537.051414
792.178888	2536.181815
792.501249	2535.597041
792.823566	2537.810108
793.145836	2538.089892
793.468062	2536.731301
793.790241	2537.134593
794.112375	2536.809438
794.434464	2535.493697
794.756507	2538.044521
795.078505	2536.264994
795.400457	2536.378420
795.722364	2530.084539
796.044226	2536.249870
796.366042	2533.346166
796.687812	2533.956145
797.009538	2536.050745
797.331218	2539.592155
797.652852	2536.869932
797.974442	2537.134593
798.295986	2537.152237
798.617484	2537.406815
798.938938	2536.270035
799.260346	2539.440921
799.581709	2537.462268
799.903026	2537.074099
800.224299	2534.729963
800.545526	2535.891948
800.866708	2535.423121
801.187845	2536.774150
801.508936	2536.443955
801.829983	2536.504449
802.150984	2535.060158
802.471940	2534.573687
802.792851	2536.577545
803.113717	2536.149047
803.434538	2535.707946
803.755314	2537.515200
804.076045	2533.424304
804.396731	2538.614172
804.717372	2536.053265
805.037967	2537.353883
805.358518	2536.577545
805.679024	2537.482433
805.999485	2534.997144
806.319901	2536.028060
806.640272	2537.439583
806.960598	2537.053934
807.280879	2533.046217
807.601115	2536.262473
807.921306	2536.474202
808.241453	2536.973276
808.561554	2536.610313
808.881611	2534.351876
809.201623	2538.099974
809.521590	2537.348842
809.841513	2536.181815
810.161390	2535.841537
810.481223	2532.151412
810.801011	2537.308513
811.120755	2536.358255
811.440453	2535.057638
811.760107	2533.578059
812.079716	2532.274921
812.399281	2532.549663
812.718801	2533.620909
813.038276	2528.040351
813.357707	2534.742565
813.677093	2535.712987
813.996434	2536.844727
814.315731	2536.645601
814.634983	2534.790456
814.954191	2536.789274
815.273354	2535.045035
815.592473	2533.255425
815.911547	2535.528985
816.230577	2535.697864
816.549562	2537.699202
816.868502	2535.307175
817.187399	2537.621064
817.506250	2536.164171
817.825058	2537.684079
818.143821	2535.597041
818.462539	2536.786753
818.781213	2535.523944
819.099843	2538.649460
819.418429	2536.892617
819.736970	2540.134079
820.055466	2538.982176
820.373919	2544.502239
820.692327	2542.107691
821.010691	2546.899308
821.329011	2546.490974
821.647286	2564.949159
821.965517	2574.199677
822.283704	2582.943558
822.601847	2585.201995
822.919945	2577.723443
823.237999	2568.167936
823.556010	2564.311453
823.873976	2557.135371
824.191897	2551.476676
824.509775	2550.786038
824.827609	2544.640871
825.145398	2546.052394
825.463144	2544.388813
825.780845	2545.654143
826.098502	2548.325954
826.416116	2551.902653
826.733685	2555.519681
827.051210	2555.008004
827.368692	2554.077911
827.686129	2552.202602
828.003522	2544.182126
828.320872	2539.816487
828.638177	2539.869419
828.955439	2535.314736
829.272656	2535.312216
829.589830	2534.760209
829.906960	2538.185673
830.224046	2535.080323
830.541088	2537.585776
830.858086	2533.799870
831.175041	2537.636188
831.491952	2535.660055
831.808819	2537.245498
832.125642	2539.118287
832.442421	2538.105015
832.759157	2538.760365
833.075849	2540.862526
833.392497	2542.669780
833.709101	2545.470141
834.025662	2546.848896
834.342179	2545.210521
834.658653	2541.926210
834.975083	2539.640046
835.291469	2541.749769
835.607811	2540.643236
835.924110	2536.083512
836.240366	2536.685930
836.556578	2538.606610
836.872746	2537.951260
837.188871	2534.324150
837.504952	2534.094777
837.820990	2536.073430
838.136984	2533.996475
838.452935	2533.930940
838.768842	2535.304654
839.084706	2532.998326
839.400526	2537.177443
839.716303	2539.065355
840.032037	2539.410674
840.347727	2539.317412
840.663373	2537.101825
840.978977	2535.113090
841.294537	2538.084850
841.610054	2537.928575
841.925527	2536.506969
842.240957	2534.987061
842.556344	2532.476567
842.871687	2532.763913
843.186987	2534.971938
843.502244	2535.559232
843.817458	2532.068233
844.132629	2533.252904
844.447756	2532.595034
844.762840	2528.670496
845.077881	2534.480425
845.392879	2532.224509
845.707833	2530.797863
846.022745	2529.056144
846.337613	2534.409849
846.652438	2532.221988
846.967221	2534.450178
847.281960	2534.019160
847.596656	2533.373892
847.911309	2533.378933
848.225919	2533.096629
848.540485	2533.951104
848.855009	2537.064017
849.169490	2534.457740
849.483928	2531.362472
849.798323	2532.204344
850.112675	2531.395239
850.426984	2536.151568
850.741251	2534.233409
851.055474	2536.335570
851.369654	2534.233409
851.683792	2533.431865
851.997887	2532.653007
852.311938	2533.676361
852.625947	2536.406146
852.939914	2534.430014
853.253837	2535.960004
853.567718	2534.261135
853.881555	2535.428162
854.195350	2532.002698
854.509103	2534.815662
854.822812	2532.542102
855.136479	2532.978162
855.450103	2533.958666
855.763685	2533.603265
856.077224	2534.833306
856.390720	2532.295085
856.704173	2535.508821
857.017584	2535.768440
857.330953	2533.124355
857.644278	2530.702081
857.957561	2535.821372
858.270802	2536.600231
858.584000	2530.926412
858.897155	2532.400949
859.210268	2534.437576
859.523339	2530.684437
859.836367	2531.821217
860.149352	2531.692667
860.462295	2534.140148
860.775195	2530.971782
861.088054	2529.797193
861.400869	2529.812317
861.713642	2527.909281
862.026373	2531.770805
862.339062	2531.480939
862.651708	2533.706608
862.964312	2530.618902
863.276873	2534.445137
863.589392	2533.915816
863.901869	2532.143851
864.214303	2531.816176
864.526696	2534.729963
864.839045	2534.215765
865.151353	2533.394057
865.463619	2534.538399
865.775842	2535.355066
866.088023	2534.193080
866.400162	2535.942360
866.712258	2533.376413
867.024313	2533.983872
867.336325	2531.866587
867.648296	2532.642925
867.960224	2530.276103
868.272110	2533.883049
868.583954	2533.852802
868.895755	2530.868439
869.207515	2532.106042
869.519233	2535.821372
869.830909	2530.500434
870.142542	2532.055630
870.454134	2534.417411
870.765684	2537.341280
871.077191	2533.928419
871.388657	2536.827083
871.700081	2528.768798
872.011463	2533.769623
872.322803	2533.845240
872.634101	2533.769623
872.945357	2534.457740
873.256571	2534.452699
873.567744	2533.620909
873.878874	2535.592000
874.189963	2535.042514
874.501010	2533.782226
874.812015	2531.826258
875.122979	2532.978162
875.433900	2531.889272
875.744780	2534.674510
876.055618	2534.770292
876.366415	2533.273069
876.677169	2537.737011
876.987882	2531.919519
877.298554	2531.836340
877.609183	2532.650487
877.919771	2529.784591
878.230317	2531.612009
878.540822	2533.394057
878.851285	2537.023688
879.161707	2533.842719
879.472087	2537.863040
879.782425	2538.299099
880.092722	2539.524100
880.402977	2541.621220
880.713191	2548.913249
881.023363	2553.752757
881.333494	2559.620660
881.643583	2563.033521
881.953631	2562.708366
882.263637	2561.039744
882.573602	2557.100083
882.883526	2554.990360
883.193408	2549.253527
883.503248	2546.359904
883.813048	2545.392003
884.122806	2543.730943
884.432522	2542.314378
884.742197	2542.468134
885.051831	2540.920499
885.361424	2536.751465
885.670975	2540.181970
885.980485	2538.843544
886.289954	2535.657535
886.599382	2537.560570
886.908768	2540.847403
887.218113	2533.661238
887.527417	2535.546629
887.836680	2533.978831
888.145901	2534.311547
888.455082	2534.823224
888.764221	2536.040663
889.073319	2535.597041
889.382376	2530.820548
889.691392	2534.430014
890.000366	2535.166022
890.309300	2533.973789
890.618193	2533.078985
890.927044	2532.814324
891.235855	2535.183666
891.544625	2535.781043
891.853353	2533.736855
892.162041	2533.036135
892.470687	2536.242309
892.779293	2536.249870
893.087858	2531.501103
893.396381	2531.788449
893.704864	2533.857843
894.013306	2532.479087
894.321707	2540.295396
894.630068	2542.584080
894.938387	2541.285983
895.246665	2542.488298
895.554903	2539.113246
895.863100	2539.077958
896.171256	2538.790612
896.479371	2537.769778
896.787446	2539.090561
897.095480	2535.854140
897.403473	2536.209541
897.711425	2535.763399
898.019336	2535.014788
898.327207	2531.622091
898.635038	2533.704088
898.942827	2533.845240
899.250576	2535.415559
899.558284	2535.380271
899.865952	2533.812472
900.173579	2532.708460
900.481165	2536.227185
900.788711	2529.943387
901.096216	2532.491690
901.403681	2536.002854
901.711105	2532.806762
902.018489	2531.344828
902.325832	2533.842719
902.633135	2533.608306
902.940397	2533.348686
903.247619	2534.982020
903.554800	2537.159799
903.861941	2541.338915
904.169041	2546.007024
904.476101	2546.644730
904.783121	2548.063814
905.090100	2542.586601
905.397039	2543.919986
905.703938	2540.544933
906.010796	2539.448483
906.317614	2536.756506
906.624391	2534.004036
906.931129	2534.803059
907.237826	2534.132586
907.544483	2534.427493
907.851099	2532.136289
908.157675	2533.116793
908.464211	2533.376413
908.770707	2530.278624
909.077163	2530.545805
909.383578	2527.679909
909.689954	2530.797863
909.996289	2529.156967
910.302584	2532.572349
910.608839	2533.078985
910.915054	2529.328366
911.221229	2531.115455
911.527363	2534.112421
911.833458	2532.350538
912.139513	2529.779549
912.445527	2533.172246
912.751502	2528.897348
913.057436	2530.780218
913.363331	2535.647452
913.669186	2533.182328
913.975000	2530.818027
914.280775	2533.058820
914.586510	2536.023018
914.892205	2536.564942
915.197859	2535.123172
915.503475	2540.542413
915.809050	2543.685572
916.114585	2546.816129
916.420081	2545.611293
916.725536	2542.700027
917.030952	2545.457538
917.336328	2541.858154
917.641665	2541.588452
917.946961	2541.588452
918.252218	2536.209541
918.557435	2538.294058
918.862612	2536.693492
919.167750	2534.598893
919.472848	2534.979500
919.777906	2533.424304
920.082925	2532.363141
920.387904	2533.028573
920.692843	2533.353727
920.997743	2530.833151
921.302603	2531.362472
921.607423	2534.243491
921.912204	2534.150230
922.216946	2532.693336
922.521647	2535.193749
922.826310	2530.565969
923.130932	2532.572349
923.435516	2531.392719
923.740059	2532.229550
924.044564	2530.581093
924.349028	2532.592513
924.653454	2526.225536
924.957840	2529.739220
925.262186	2528.025228
925.566493	2531.138140
925.870761	2526.341483
926.174989	2531.296937
926.479178	2532.375744
926.783328	2533.152081
927.087438	2532.418593
927.391509	2532.227030
927.695541	2530.334076
927.999533	2530.631504
928.303486	2531.332225
928.607400	2531.924560
928.911275	2532.771474
929.215110	2530.671834
929.518906	2532.090918
929.822663	2531.097811
930.126381	2529.726617
930.430060	2531.223840
930.733699	2531.556556
931.037299	2529.948428
931.340861	2531.707791
931.644383	2528.733510
931.947866	2529.686288
932.251309	2531.523789
932.554714	2527.503468
932.858080	2531.264169
933.161407	2531.433048
933.464694	2530.891124
933.767943	2531.130579
934.071153	2528.509179
934.374323	2528.325177
934.677455	2530.802904
934.980548	2529.577903
935.283602	2529.794673
935.586617	2530.540764
935.889593	2529.409025
936.192530	2529.625794
936.495428	2531.163346
936.798287	2529.739220
937.101108	2528.446164
937.403890	2530.543284
937.706632	2531.662420
938.009336	2528.431041
938.312002	2529.837523
938.614628	2532.892462
938.917216	2530.792821
939.219765	2532.524458
939.522275	2533.068902
939.824747	2532.937832
940.127179	2528.138654
940.429573	2526.371729
940.731929	2529.998840
941.034246	2526.591020
941.336524	2530.003881
941.638763	2531.309540
941.940964	2529.653521
942.243126	2531.959848
942.545250	2530.979344
942.847335	2531.251566
943.149381	2530.797863
943.451389	2530.611340
943.753359	2527.826102
944.055290	2531.359951
944.357182	2529.204858
944.659036	2529.908099
944.960851	2532.549663
945.262628	2529.892975
945.564367	2530.036648
945.866067	2530.397091
946.167729	2529.620753
946.469352	2531.291896
946.770937	2532.816845
947.072484	2529.547656
947.373992	2532.060672
947.675462	2529.313243
947.976893	2529.542615
948.278286	2529.630835
948.579641	2530.515558
948.880958	2532.267359
949.182236	2531.009591
949.483476	2530.437420
949.784678	2530.308871
950.085841	2528.264683
950.386967	2529.114117
950.688054	2530.954138
950.989103	2529.509848
951.290114	2529.257790
951.591087	2528.481452
951.892021	2532.128727
952.192917	2534.155271
952.493776	2528.693181
952.794596	2529.686288
953.095378	2531.541433
953.396122	2529.373737
953.696828	2530.646628
953.997496	2530.742410
954.298126	2529.177132
954.598718	2532.065713
954.899272	2528.098325
955.199788	2531.957328
955.500266	2526.578417
955.800706	2525.237470
956.101108	2527.334590
956.401472	2526.180166
956.701798	2526.850639
957.002087	2525.610515
957.302337	2530.235774
957.602550	2529.963552
957.902724	2529.179652
958.202861	2527.808458
958.502960	2528.146216
958.803022	2531.307019
959.103045	2528.743592
959.403031	2530.505476
959.702979	2529.169570
960.002889	2529.802235
960.302762	2527.596730
960.602596	2531.070085
960.902393	2527.952131
961.202153	2527.949611
961.501875	2528.080681
961.801559	2529.098994
962.101205	2529.446833
962.400814	2531.775846
962.700385	2532.499252
962.999918	2530.664272
963.299414	2526.132275
963.598873	2529.030938
963.898293	2528.539426
964.197677	2528.993129
964.497022	2529.716535
964.796331	2529.421627
965.095601	2527.359796
965.394835	2532.136289
965.694030	2527.758047
965.993189	2531.954807
966.292309	2528.844415
966.591393	2527.856349
966.890439	2527.145547
967.189447	2528.441123
967.488419	2529.842564
967.787353	2526.318797
968.086249	2528.975485
968.385108	2528.559590
968.683930	2528.163860
968.982714	2526.374250
969.281462	2527.011956
969.580172	2527.122861
969.878844	2529.517409
970.177480	2528.063037
970.476078	2525.585309
970.774639	2531.710311
971.073162	2528.012625
971.371649	2524.509023
971.670098	2525.204702
971.968510	2524.781245
972.266885	2524.171266
972.565223	2527.289219
972.863524	2529.424148
973.161788	2526.391894
973.460014	2527.730320
973.758204	2529.580424
974.056356	2529.459436
974.354471	2529.514889
974.652550	2528.904909
974.950591	2528.211751
975.248595	2529.303160
975.546563	2526.712007
975.844493	2527.427851
976.142386	2529.255269
976.440243	2527.934487
976.738062	2530.933974
977.035845	2527.090094
977.333590	2531.007070
977.631299	2528.819210
977.928971	2530.288706
978.226606	2527.334590
978.524204	2529.323325
978.821765	2529.353572
979.119290	2528.423479
979.416777	2526.399456
979.714228	2528.604961
980.011642	2528.589837
980.309020	2532.095960
980.606360	2525.988602
980.903664	2529.414066
981.200931	2527.700073
981.498162	2530.903727
981.795356	2528.501617
982.092513	2530.356762
982.389633	2526.628828
982.686717	2528.635208
982.983764	2528.342821
983.280775	2531.649817
983.577749	2528.489014
983.874686	2529.048582
984.171587	2528.252080
984.468451	2530.379447
984.765279	2527.006915
985.062070	2528.294930
985.358824	2528.126051
985.655543	2528.995650
985.952224	2528.557070
986.248869	2528.524302
986.545478	2524.030113
986.842050	2526.706966
987.138586	2524.932480
987.435086	2526.709487
987.731549	2524.604805
988.027975	2530.190403
988.324366	2526.480114
988.620719	2527.266534
988.917037	2525.103879
989.213318	2526.628828
989.509563	2527.753006
989.805772	2529.419107
990.101944	2526.752337
990.398080	2527.110258
990.694180	2526.848118
990.990244	2530.286185
991.286271	2524.120854
991.582262	2528.413397
991.878217	2527.226205
992.174136	2526.775022
992.470019	2529.000691
992.765865	2526.056657
993.061676	2526.938859
993.357450	2526.676719
993.653188	2527.994981
993.948890	2529.073788
994.244556	2528.466329
994.540186	2530.281144
994.835780	2528.383150
995.131337	2527.105217
995.426859	2527.614374
995.722345	2527.536236
996.017795	2527.163191
996.313208	2529.434230
996.608586	2529.411545
996.903928	2524.476256
997.199234	2526.787625
997.494504	2529.736700
997.789738	2528.541946
998.084936	2528.494055
998.380099	2528.859539
998.675225	2526.931298
998.970316	2529.850126
999.265371	2527.851308
999.560390	2527.354754
999.855373	2531.571680
1000.150320	2525.539939
1000.445232	2527.561442
1000.740108	2526.449867
1001.034948	2529.890455
1001.329752	2526.913653
1001.624521	2530.145033
1001.919254	2523.142870
1002.213951	2523.894002
1002.508613	2522.666481
1002.803239	2523.606657
1003.097829	2522.502644
1003.392384	2530.024045
1003.686903	2527.594209
1003.981386	2529.063706
1004.275834	2526.991791
1004.570246	2528.630166
1004.864623	2525.880217
1005.158964	2528.554549
1005.453270	2526.959024
1005.747540	2527.871473
1006.041775	2526.081863
1006.335974	2527.667306
1006.630138	2526.205371
1006.924266	2527.442975
1007.218359	2527.785773
1007.512416	2529.872811
1007.806438	2526.810310
1008.100425	2529.666123
1008.394376	2524.425844
1008.688292	2526.001205
1008.982172	2526.759898
1009.276017	2527.085053
1009.569827	2526.933818
1009.863602	2529.406504
1010.157341	2529.777029
1010.451045	2527.601771
1010.744714	2530.384488
1011.038347	2527.006915
1011.331945	2528.887265
1011.625508	2529.353572
1011.919036	2529.986237
1012.212528	2527.064888
1012.505986	2526.921215
1012.799408	2528.877183
1013.092795	2524.561955
1013.386147	2525.794517
1013.679464	2526.608664
1013.972745	2527.011956
1014.265992	2527.944569
1014.559204	2528.965403
1014.852380	2527.032121
1015.145521	2527.959693
1015.438628	2526.517923
1015.731699	2530.006401
1016.024736	2526.747295
1016.317737	2527.644621
1016.610703	2526.923736
1016.903635	2521.890144
1017.196531	2523.556245
1017.489393	2523.402490
1017.782219	2524.569517
1018.075011	2524.703108
1018.367768	2527.493386
1018.660490	2525.978519
1018.953177	2525.978519
1019.245829	2525.978519
