Dividing Wavelength (nm)	Counts (n)	Blue Motor Position (mm): 0.000000	Red Motor Position (mm): 23.500000	
326.493990	2145.205046
326.888308	2145.205046
327.282561	2145.205046
327.676750	2118.749071
328.070874	2122.361057
328.464933	2125.284927
328.858929	2135.836062
329.252859	2145.300828
329.646726	2161.356903
330.040528	2176.503050
330.434265	2194.557942
330.827938	2211.637371
331.221547	2231.088663
331.615091	2252.770666
332.008571	2273.978800
332.401986	2294.957562
332.795338	2314.623103
333.188625	2332.584734
333.581847	2353.107272
333.975006	2370.542102
334.368100	2389.877448
334.761129	2407.811353
335.154095	2422.092942
335.546996	2441.398040
335.939833	2452.864145
336.332606	2469.832668
336.725315	2481.323979
337.117960	2488.532829
337.510540	2496.714621
337.903056	2504.800632
338.295508	2509.796416
338.687896	2518.595750
339.080220	2528.325177
339.472480	2533.507483
339.864676	2534.792977
340.256807	2542.205994
340.648875	2542.659698
341.040879	2544.373690
341.432818	2545.633978
341.824694	2544.726571
342.216506	2546.503577
342.608253	2545.865871
342.999937	2546.241437
343.391557	2548.119267
343.783113	2543.579708
344.174605	2542.818494
344.566033	2541.250695
344.957397	2539.098122
345.348697	2534.646783
345.739934	2536.645601
346.131106	2531.796011
346.522215	2533.507483
346.913260	2528.259642
347.304241	2528.514220
347.695159	2524.365350
348.086012	2525.751667
348.476802	2522.452232
348.867528	2521.915349
349.258191	2520.841584
349.648789	2521.622963
350.039324	2517.264885
350.429796	2520.153466
350.820203	2514.081396
351.210548	2514.698938
351.600828	2514.071314
351.991045	2515.351767
352.381198	2515.291273
352.771288	2512.662312
353.161314	2514.111643
353.551276	2512.919410
353.941175	2512.692558
354.331010	2514.545183
354.720782	2516.380162
355.110490	2513.186592
355.500135	2517.358146
355.889717	2516.412930
356.279235	2515.891171
356.668689	2516.213804
357.058080	2517.605163
357.447408	2514.648526
357.836672	2512.299348
358.225873	2514.368742
358.615010	2511.586025
359.004084	2517.332941
359.393095	2518.570544
359.782043	2517.058198
360.170927	2518.588188
360.559748	2520.632376
360.948505	2518.573064
361.337199	2521.139012
361.725830	2521.348220
362.114398	2525.761750
362.502903	2524.569517
362.891344	2524.720752
363.279722	2521.965761
363.668037	2523.722603
364.056289	2524.977850
364.444478	2524.808972
364.832603	2523.251255
365.220665	2529.025897
365.608665	2525.655886
365.996601	2528.297450
366.384474	2526.840557
366.772284	2527.306863
367.160031	2527.516071
367.547715	2528.146216
367.935336	2523.866276
368.322893	2528.494055
368.710388	2530.054292
369.097820	2530.462626
369.485189	2530.893644
369.872495	2531.964890
370.259738	2528.511699
370.646918	2530.941535
371.034035	2527.581606
371.421090	2532.458923
371.808081	2531.309540
372.195010	2531.642256
372.581875	2531.748120
372.968678	2533.633512
373.355418	2530.616381
373.742096	2533.789787
374.128710	2536.895138
374.515262	2538.326826
374.901751	2540.991076
375.288177	2539.463606
375.674540	2540.428987
376.060841	2542.006868
376.447079	2542.316899
376.833254	2545.409647
377.219367	2542.195911
377.605417	2548.502395
377.991404	2550.763352
378.377329	2551.136398
378.763191	2552.840308
379.148991	2558.715772
379.534727	2567.512586
379.920402	2566.083419
380.306013	2570.081054
380.691563	2575.008782
381.077049	2579.266036
381.462474	2583.258630
381.847835	2589.018148
382.233134	2595.639704
382.618371	2597.439396
383.003545	2604.721342
383.388657	2612.908176
383.773706	2619.789351
384.158693	2624.328910
384.543618	2628.959210
384.928480	2637.844244
385.313280	2645.068217
385.698017	2653.968374
386.082692	2661.598161
386.467305	2668.030673
386.851856	2677.142559
387.236344	2689.947089
387.620770	2692.089580
388.005133	2700.901517
388.389435	2716.818960
388.773674	2721.459342
389.157851	2728.474108
389.541965	2739.302506
389.926018	2742.251581
390.310008	2753.523601
390.693936	2763.610950
391.077802	2774.640995
391.461606	2782.036367
391.845348	2792.196813
392.229027	2800.585293
392.612645	2817.226142
392.996200	2823.721668
393.379694	2838.797239
393.763125	2851.306862
394.146494	2863.017463
394.529801	2871.804194
394.913047	2886.751215
395.296230	2892.457801
395.679351	2895.253121
396.062410	2915.286666
396.445408	2912.274577
396.828343	2924.970723
397.211217	2931.259562
397.594028	2924.033068
397.976778	2937.873556
398.359466	2952.505505
398.742092	2950.647840
399.124656	2964.425313
399.507158	2978.681697
399.889598	2983.914414
400.271977	3000.462002
400.654294	3004.903258
401.036549	3017.430526
401.418742	3021.655013
401.800874	3045.910524
402.182944	3054.876216
402.564952	3082.721030
402.946898	3073.029411
403.328783	3081.506112
403.710606	3096.508585
404.092367	3119.776031
404.474067	3145.914414
404.855705	3137.019298
405.237282	3135.658186
405.618797	3168.231602
406.000250	3191.194057
406.381642	3221.572051
406.762972	3224.127916
407.144240	3211.025957
407.525447	3235.896489
407.906593	3235.667117
408.287677	3260.845160
408.668700	3275.829989
409.049661	3272.880914
409.430560	3292.375056
409.811399	3294.056281
410.192176	3315.241730
410.572891	3323.264727
410.953545	3361.660675
411.334138	3330.496262
411.714669	3383.181361
412.095139	3328.870490
412.475547	3378.853530
412.855894	3370.931357
413.236180	3400.671644
413.616405	3379.536606
413.996568	3404.543250
414.376670	3406.456368
414.756711	3402.735996
415.136691	3430.500151
415.516609	3447.745938
415.896466	3455.012762
416.276262	3485.267247
416.655997	3514.614324
417.035670	3519.741177
417.415283	3586.039912
417.794834	3610.366000
418.174324	3592.893361
418.553753	3590.955037
418.933121	3639.060247
419.312428	3624.526601
419.691674	3624.156076
420.070859	3657.082373
420.449983	3640.280207
420.829045	3687.364584
421.208047	3674.018129
421.586988	3719.615365
421.965867	3747.450096
422.344686	3760.577261
422.723444	3793.758136
423.102141	3702.490566
423.480777	3801.367757
423.859352	3772.429014
424.237866	3866.595247
424.616319	3850.977752
424.994712	3912.668872
425.373044	3902.841143
425.751314	3961.242910
426.129524	3899.171183
426.507673	3998.451667
426.885762	3971.063078
427.263789	3994.665760
427.641756	4001.904857
428.019662	4029.711862
428.397508	4032.555073
428.775292	4068.070002
429.153016	4074.358841
429.530679	4090.551027
429.908282	4094.387345
430.285824	4072.975044
430.663305	4145.620592
431.040726	4106.042493
431.418086	4094.709979
431.795385	4173.271321
432.172624	4202.482287
432.549802	4167.526926
432.926920	4186.622817
433.303977	4178.173843
433.680974	4218.427456
434.057910	4241.556270
434.434786	4246.897373
434.811601	4238.995364
435.188355	4345.192311
435.565050	4316.467816
435.941683	4309.309378
436.318257	4395.901277
436.694770	4400.967637
437.071222	4455.165082
437.447614	4390.807191
437.823946	4390.529928
438.200218	4406.293616
438.576429	4383.558012
438.952580	4410.046755
439.328670	4412.577414
439.704700	4449.874391
440.080670	4413.242847
440.456580	4468.909788
440.832429	4500.260724
441.208218	4402.941249
441.583947	4447.114359
441.959616	4456.425370
442.335224	4479.095439
442.710773	4490.672449
443.086261	4537.855128
443.461689	4487.015092
443.837057	4488.615658
444.212365	4555.065628
444.587612	4552.197211
444.962800	4514.948125
445.337927	4544.685892
445.712995	4428.706586
446.088002	4599.798306
446.462949	4611.287096
446.837837	4618.861430
447.212664	4593.184312
447.587431	4783.644146
447.962139	5039.767529
448.336786	5333.152600
448.711374	5301.970543
449.085901	4970.920491
449.460369	4898.612701
449.834776	4826.670394
450.209124	5010.425493
450.583412	4998.674563
450.957640	5087.550106
451.331808	4949.868632
451.705917	4803.155932
452.079965	4777.607364
452.453954	4787.508190
452.827883	4739.965068
453.201752	4723.891349
453.575562	4731.062391
453.949311	4811.410821
454.323001	4791.962050
454.696632	4760.490126
455.070202	4855.420094
455.443713	4849.141337
455.817164	4888.285897
456.190556	4911.313888
456.563888	4860.330178
456.937160	4889.021905
457.310373	4746.558898
457.683526	4756.951236
458.056619	4720.042428
458.429653	4678.818393
458.802628	4678.387374
459.175542	4658.328623
459.548398	4717.317685
459.921194	4798.298780
460.293930	4797.043533
460.666607	4911.812962
461.039224	4999.705479
461.411782	5028.382083
461.784280	4939.962765
462.156719	4899.051281
462.529099	4838.207075
462.901419	4710.466757
463.273680	4599.236218
463.645882	4549.346439
464.018024	4509.274307
464.390106	4500.462370
464.762130	4581.095626
465.134094	4721.514445
465.505999	4962.058142
465.877845	5228.926745
466.249631	5333.480275
466.621358	5234.751798
466.993026	5092.308955
467.364634	4941.646510
467.736184	4759.272688
468.107674	4633.654696
468.479105	4551.982962
468.850477	4469.247545
469.221790	4359.678066
469.593043	4227.597315
469.964238	4138.424345
470.335373	4084.410902
470.706449	4085.061211
471.077467	4093.197633
471.448425	4237.919078
471.819324	4358.831153
472.190164	4322.633147
472.560945	4134.797234
472.931667	3958.258547
473.302330	3856.812888
473.672934	3781.422432
474.043479	3756.705655
474.413965	3690.225438
474.784393	3635.491111
475.154761	3623.054584
475.525070	3588.449583
475.895321	3539.270607
476.265513	3516.325795
476.635645	3513.848068
477.005719	3475.106801
477.375734	3449.691824
477.745691	3430.795059
478.115588	3425.537135
478.485427	3423.901281
478.855207	3457.482927
479.224928	3482.048470
479.594591	3497.199658
479.964194	3454.551496
480.333739	3418.383738
480.703226	3376.257336
481.072653	3349.360259
481.442022	3330.536591
481.811333	3309.295689
482.180584	3258.059922
482.549777	3221.229252
482.918912	3182.964374
483.287988	3151.568068
483.657005	3114.787809
484.025964	3080.250864
484.394864	3057.966444
484.763706	3028.289171
485.132489	2998.644666
485.501213	2974.376551
485.869879	2956.455249
486.238487	2932.212340
486.607036	2918.243303
486.975527	2897.186403
487.343959	2880.711913
487.712333	2868.466950
488.080648	2853.230062
488.448905	2843.674555
488.817104	2831.570745
489.185244	2821.077583
489.553326	2813.558702
489.921350	2817.263950
490.289315	2827.119406
490.657222	2822.098417
491.025070	2815.338230
491.392861	2801.961528
491.760593	2783.929321
492.128267	2767.457350
492.495883	2755.391349
492.863440	2738.760582
493.230939	2726.054354
493.598380	2715.939279
493.965763	2705.650284
494.333088	2701.367823
494.700354	2692.439940
495.067563	2688.926256
495.434713	2681.490554
495.801805	2681.989628
496.168839	2679.002744
496.535815	2673.172650
496.902733	2668.912875
497.269593	2667.829027
497.636395	2663.912050
498.003139	2661.431803
498.369825	2659.705207
498.736453	2658.240752
499.103023	2651.994763
499.469535	2652.587098
499.835989	2648.992756
500.202385	2645.935296
500.568723	2643.979328
500.935003	2646.691469
501.301226	2640.163175
501.667390	2640.783237
502.033497	2640.334574
502.399546	2638.297948
502.765537	2635.285858
503.131470	2635.936167
503.497345	2635.984058
503.863163	2635.399284
504.228923	2632.624129
504.594625	2632.460292
504.960269	2630.579941
505.325856	2630.098511
505.691385	2628.432410
506.056856	2628.185393
506.422270	2625.561472
506.787625	2625.614405
507.152924	2625.201030
507.518164	2624.218005
507.883347	2620.550566
508.248472	2621.919239
508.613540	2623.297994
508.978550	2620.238014
509.343503	2620.774897
509.708398	2621.258848
510.073236	2620.855555
510.438016	2622.977881
510.802738	2619.547376
511.167403	2619.381018
511.532010	2618.642489
511.896561	2622.733385
512.261053	2620.432098
512.625488	2615.229628
512.989866	2615.708537
513.354186	2614.498660
513.718449	2615.829525
514.082655	2617.049484
514.446803	2616.449587
514.810894	2620.618621
515.174927	2618.692900
515.538904	2617.929166
515.902822	2620.651389
516.266684	2616.348764
516.630488	2618.483693
516.994235	2617.019237
517.357925	2617.503188
517.721558	2620.298508
518.085133	2616.436984
518.448651	2619.373456
518.812112	2616.709206
519.175516	2616.643671
519.538863	2616.515122
519.902152	2618.551748
520.265385	2617.127622
520.628560	2619.171810
520.991678	2615.685852
521.354739	2617.674587
521.717743	2617.820781
522.080690	2616.056377
522.443580	2617.301542
522.806413	2617.321707
523.169189	2617.961933
523.531908	2618.569392
523.894569	2617.843466
524.257174	2617.125102
524.619722	2618.158538
524.982213	2615.569906
525.344647	2614.755759
525.707025	2617.508229
526.069345	2615.020420
526.431608	2615.269957
526.793815	2615.239710
527.155964	2614.710389
527.518057	2612.935903
527.880093	2616.341202
528.242072	2617.215842
528.603995	2617.553600
528.965860	2615.338012
529.327669	2616.018568
529.689421	2613.107302
530.051117	2614.440687
530.412755	2614.266767
530.774337	2614.160903
531.135862	2613.540841
531.497331	2613.528238
531.858743	2610.221241
532.220098	2609.013885
532.581396	2610.589246
532.942638	2610.374997
533.303824	2612.507405
533.664953	2612.305758
534.026025	2612.714092
534.387040	2609.013885
534.747999	2613.082096
535.108902	2615.927827
535.469748	2613.692076
535.830537	2611.642847
536.191270	2612.018413
536.551947	2613.732405
536.912567	2611.569750
537.273131	2611.340377
537.633638	2611.811725
537.994089	2612.824997
538.354483	2612.162086
538.714821	2612.063783
539.075103	2611.622682
539.435328	2609.298710
539.795497	2611.118567
540.155609	2613.152672
540.515665	2609.528083
540.875665	2608.643360
541.235609	2613.369442
541.595496	2611.733588
541.955328	2609.739811
542.315102	2608.529934
542.674821	2610.576643
543.034483	2610.927003
543.394090	2606.795777
543.753640	2610.740480
544.113134	2609.545727
544.472571	2610.017075
544.831953	2609.132352
545.191278	2610.558999
545.550548	2609.492795
545.909761	2610.778289
546.268918	2610.657301
546.628019	2611.317692
546.987064	2610.982456
547.346053	2610.254009
547.704986	2609.288628
548.063863	2609.661673
548.422684	2610.478340
548.781449	2607.037753
549.140158	2609.462548
549.498811	2605.815273
549.857408	2613.135028
550.215949	2605.883328
550.574434	2608.718977
550.932864	2604.378544
551.291237	2606.977259
551.649555	2610.770727
552.007817	2611.005141
552.366022	2608.217383
552.724173	2608.187136
553.082267	2608.358535
553.440305	2610.440532
553.798288	2609.762496
554.156215	2608.920624
554.514086	2609.815428
554.871902	2609.636467
555.229661	2610.374997
555.587365	2608.794595
555.945014	2609.568412
556.302606	2609.394492
556.660143	2607.332660
557.017625	2608.532455
557.375050	2610.440532
557.732421	2609.802826
558.089735	2608.696292
558.446994	2610.712754
558.804197	2609.810387
559.161345	2610.586725
559.518437	2610.591766
559.875474	2608.512290
560.232455	2612.940944
560.589381	2609.636467
560.946251	2611.322733
561.303065	2610.974894
561.659825	2611.814246
562.016528	2610.932044
562.373177	2610.995058
562.729770	2611.857096
563.086307	2609.449945
563.442789	2610.947167
563.799216	2606.354676
564.155587	2609.439862
564.511904	2611.368104
564.868164	2610.044801
565.224370	2612.232662
565.580520	2608.802157
565.936615	2610.700151
566.292654	2610.506067
566.648638	2608.199739
567.004567	2612.366252
567.360441	2611.242075
567.716260	2610.332147
568.072023	2610.632095
568.427732	2605.956425
568.783385	2609.112187
569.138982	2606.614296
569.494525	2606.452979
569.850013	2606.218565
570.205445	2608.555140
570.560823	2605.134717
570.916145	2607.239399
571.271412	2609.530603
571.626625	2609.293669
571.981782	2608.832403
572.336884	2608.310644
572.691931	2605.853082
573.046923	2608.797115
573.401860	2606.573967
573.756743	2609.472630
574.111570	2608.663525
574.466342	2607.398195
574.821059	2610.125459
575.175722	2608.343412
575.530330	2607.556992
575.884882	2609.492795
576.239380	2608.532455
576.593823	2607.924996
576.948211	2608.061107
577.302544	2607.181426
577.656823	2608.126642
578.011047	2607.990531
578.365216	2608.295521
578.719330	2608.930706
579.073389	2609.364245
579.427394	2605.696806
579.781344	2608.267794
580.135239	2607.612444
580.489080	2609.202928
580.842866	2607.551950
581.196597	2606.873915
581.550273	2606.644543
581.903895	2604.408791
582.257463	2606.601693
582.610975	2603.929881
582.964434	2608.199739
583.317837	2609.207969
583.671186	2605.926178
584.024481	2605.190170
584.377721	2610.838783
584.730906	2607.511621
585.084037	2607.012547
585.437113	2606.815942
585.790135	2607.244440
586.143103	2604.607917
586.496016	2604.832248
586.848874	2600.426279
587.201679	2603.405601
587.554428	2602.155395
587.907124	2606.384923
588.259765	2600.890066
588.612352	2608.212342
588.964884	2605.356528
589.317362	2602.518358
589.669786	2605.462392
590.022155	2606.402567
590.374470	2606.677310
590.726731	2604.557505
591.078937	2608.852568
591.431090	2605.868205
591.783188	2606.382403
592.135232	2607.010026
592.487222	2607.463730
592.839157	2607.524224
593.191038	2603.866867
593.542866	2604.799480
593.894639	2606.271497
594.246358	2600.184304
594.598022	2604.807042
594.949633	2604.328132
595.301190	2603.584562
595.652692	2603.216558
596.004141	2601.472319
596.355535	2603.738317
596.706876	2601.457195
597.058162	2603.791250
597.409395	2602.785539
597.760573	2602.992227
598.111698	2602.117587
598.462768	2601.515169
598.813785	2601.311002
599.164748	2600.824531
599.515657	2600.907710
599.866511	2602.231012
600.217312	2604.746548
600.568060	2603.360231
600.918753	2604.126486
601.269392	2602.936774
601.619978	2601.837802
601.970510	2601.792432
602.320988	2601.575662
602.671412	2602.649428
603.021783	2602.730087
603.372100	2603.037597
603.722363	2604.590273
604.072572	2600.814448
604.422728	2603.967690
604.772830	2598.845878
605.122878	2599.622215
605.472872	2599.443254
605.822813	2595.387646
606.172701	2598.699684
606.522534	2601.933584
606.872314	2600.527102
607.222041	2604.166816
607.571714	2601.822679
607.921333	2602.102463
608.270899	2601.157247
608.620411	2601.205138
608.969870	2602.379727
609.319276	2601.658842
609.668627	2602.702360
610.017926	2601.623553
610.367171	2601.109356
610.716362	2602.939295
611.065500	2601.421907
611.414585	2604.249995
611.763616	2604.875098
612.112594	2602.054572
612.461518	2603.526589
612.810389	2602.104984
613.159207	2601.978955
613.507971	2600.035590
613.856682	2602.213368
614.205340	2602.167998
614.553945	2601.273193
614.902496	2601.343769
615.250994	2602.420056
615.599439	2602.039449
615.947830	2603.130858
616.296169	2603.587083
616.644454	2603.493822
616.992686	2598.515682
617.340864	2603.322422
617.688990	2599.904520
618.037063	2601.043821
618.385082	2600.852257
618.733048	2604.436517
619.080961	2604.229830
619.428821	2604.108842
619.776628	2600.189345
620.124382	2605.664038
620.472083	2604.136569
620.819731	2602.732607
621.167326	2600.143975
621.514868	2602.447782
621.862357	2602.533482
622.209793	2603.945005
622.557176	2603.425766
622.904506	2597.812441
623.251783	2595.402770
623.599007	2598.545929
623.946179	2596.796649
624.293297	2596.312698
624.640363	2602.084819
624.987376	2599.125662
625.334336	2600.070878
625.681243	2599.392843
626.028097	2597.464602
626.374899	2599.904520
626.721647	2599.581886
627.068343	2600.484253
627.414987	2598.278748
627.761577	2599.009715
628.108115	2602.483070
628.454600	2598.787904
628.801032	2600.690940
629.147412	2599.823862
629.493739	2599.352514
629.840014	2601.623553
630.186236	2598.109869
630.532405	2596.685743
630.878521	2600.204469
631.224585	2600.685899
631.570597	2598.137596
631.916556	2597.275558
632.262462	2595.886720
632.608316	2599.380240
632.954117	2596.272369
633.299866	2598.644232
633.645562	2598.006526
633.991206	2601.467278
634.336797	2596.065681
634.682336	2597.963676
635.027823	2594.074426
635.373257	2598.465271
635.718639	2596.191710
636.063968	2596.773963
636.409245	2594.896134
636.754470	2596.232039
637.099642	2596.985692
637.444762	2596.295054
637.789829	2594.419745
638.134845	2594.540732
638.479808	2595.364961
638.824719	2593.285485
639.169577	2594.681885
639.514383	2594.202975
639.859137	2594.460074
640.203839	2594.351689
640.548489	2595.271700
640.893086	2592.388160
641.237632	2588.700556
641.582125	2590.343972
641.926566	2588.004876
642.270955	2593.262800
642.615292	2593.529981
642.959576	2593.794642
643.303809	2591.483272
643.647990	2594.417224
643.992118	2593.330855
644.336195	2593.008222
644.680219	2593.497213
645.024192	2591.866400
645.368112	2596.146340
645.711981	2594.500403
646.055797	2594.573500
646.399562	2592.700711
646.743274	2594.263469
647.086935	2595.203644
647.430544	2598.230857
647.774101	2593.686257
648.117606	2594.586103
648.461059	2596.269848
648.804460	2595.685074
649.147810	2595.112903
649.491108	2595.450661
649.834354	2592.564600
650.177548	2593.784559
650.520690	2590.989239
650.863781	2592.993098
651.206820	2595.019642
651.549807	2591.400093
651.892742	2593.156936
652.235626	2591.997470
652.578458	2590.021338
652.921238	2590.868252
653.263967	2594.772625
653.606644	2590.764908
653.949269	2590.747264
654.291843	2590.633838
654.634365	2593.552666
654.976836	2589.691142
655.319255	2590.681729
655.661622	2591.332038
656.003938	2591.148036
656.346203	2589.552511
656.688416	2588.977819
657.030577	2588.463621
657.372687	2588.793817
657.714746	2590.873293
658.056753	2590.583427
658.398708	2585.421285
658.740612	2588.209043
659.082465	2587.157963
659.424266	2586.714341
659.766016	2586.608477
660.107715	2589.965885
660.449362	2592.151225
660.790958	2591.624425
661.132503	2589.975967
661.473996	2592.181472
661.815438	2589.610484
662.156829	2589.035792
662.498168	2589.723910
662.839456	2591.745412
663.180693	2592.466298
663.521879	2591.465628
663.863013	2589.333220
664.204097	2590.926225
664.545129	2586.628641
664.886110	2591.347161
665.227040	2591.374888
665.567918	2592.965372
665.908746	2591.823550
666.249522	2593.136771
666.590248	2589.134095
666.930922	2590.641400
667.271545	2592.289857
667.612118	2590.225505
667.952639	2589.683581
668.293109	2591.390011
668.633528	2590.704414
668.973896	2589.444126
669.314213	2590.258272
669.654480	2591.185844
669.994695	2590.500248
670.334859	2588.146029
670.674973	2588.176276
671.015035	2590.596029
671.355047	2590.863211
671.695008	2589.129054
672.034918	2589.955803
672.374777	2591.105186
672.714585	2589.746595
673.054342	2592.110896
673.394049	2590.101996
673.733705	2590.268354
674.073310	2591.334558
674.412864	2589.330700
674.752368	2590.482603
675.091820	2588.231728
675.431223	2588.330031
675.770574	2590.722058
676.109875	2585.809454
676.449125	2586.492530
676.788324	2586.250555
677.127473	2586.099320
677.466571	2585.756522
677.805619	2588.773652
678.144616	2588.153590
678.483562	2587.886409
678.822458	2589.963365
679.161303	2586.777355
679.500098	2588.491348
679.838842	2588.859352
680.177535	2586.084197
680.516179	2588.826584
680.854771	2590.442274
681.193314	2589.386152
681.531805	2588.869434
681.870247	2589.086204
682.208638	2589.270206
682.546978	2590.011256
682.885268	2590.838005
683.223508	2588.927407
683.561697	2589.567634
683.899836	2591.982347
684.237925	2589.600402
684.575963	2588.090576
684.913951	2589.499578
685.251889	2592.496544
685.589776	2588.645103
685.927614	2588.831626
686.265401	2590.533015
686.603137	2588.909763
686.940824	2589.555031
687.278460	2588.249372
687.616046	2589.673498
687.953582	2588.816502
688.291068	2587.115113
688.628504	2589.968406
688.965889	2589.587799
689.303224	2590.215422
689.640510	2589.348344
689.977745	2589.955803
690.314930	2586.346337
690.652065	2587.835998
690.989150	2589.474373
691.326185	2588.753488
691.663170	2589.492017
692.000105	2587.987232
692.336990	2585.675863
692.673825	2587.137798
693.010610	2589.398755
693.347345	2583.039340
693.684030	2580.387693
694.020665	2582.580595
694.357251	2581.295101
694.693786	2584.024885
695.030272	2586.174937
695.366707	2583.588826
695.703093	2583.702252
696.039429	2582.913311
696.375716	2583.893815
696.711952	2583.782910
697.048139	2586.409351
697.384276	2584.241655
697.720363	2584.103023
698.056400	2583.767787
698.392388	2582.943558
698.728326	2583.513208
699.064214	2584.279464
699.400053	2585.159145
699.735842	2585.670822
700.071581	2584.690318
700.407270	2583.122519
700.742910	2583.384659
701.078501	2583.798033
701.414042	2582.857858
701.749533	2581.161510
702.084974	2583.185533
702.420366	2581.569843
702.755709	2578.348546
703.091002	2580.012127
703.426246	2582.356263
703.761440	2583.286356
704.096584	2582.578074
704.431679	2581.456417
704.766725	2583.631675
705.101721	2583.442632
705.436668	2582.719227
705.771565	2581.244689
706.106413	2581.196798
706.441212	2580.085224
706.775961	2583.951789
707.110661	2579.245872
707.445311	2581.385841
707.779913	2584.100503
708.114465	2584.168558
708.448967	2581.756366
708.783421	2581.562282
709.117825	2581.302662
709.452180	2584.612180
709.786485	2581.713516
710.120742	2582.315934
710.454949	2582.807447
710.789107	2580.712847
711.123216	2582.293249
711.457275	2580.264185
711.791286	2579.591191
712.125247	2581.400965
712.459159	2582.510019
712.793023	2584.203846
713.126837	2583.548496
713.460602	2584.460945
713.794318	2582.298290
714.127985	2582.628486
714.461602	2586.963878
714.795171	2584.841552
715.128691	2581.839545
715.462162	2585.670822
715.795584	2581.975656
716.128957	2581.098496
716.462281	2580.286870
716.795556	2580.911973
717.128782	2579.175295
717.461960	2581.302662
717.795088	2578.721592
718.128167	2583.498085
718.461198	2584.123188
718.794180	2580.967426
719.127113	2580.811150
719.459997	2577.420974
719.792833	2580.917014
720.125619	2581.978177
720.458357	2579.220666
720.791046	2581.620255
721.123686	2580.123032
721.456278	2579.727302
721.788821	2578.290573
722.121315	2580.125553
722.453761	2578.552713
722.786158	2579.399627
723.118506	2577.831828
723.450805	2576.347208
723.783056	2581.337950
724.115259	2580.274267
724.447412	2580.402816
724.779518	2580.357446
725.111574	2576.238823
725.443582	2578.532548
725.775542	2582.197467
726.107453	2578.799729
726.439315	2579.881057
726.771129	2582.474731
727.102895	2580.470872
727.434612	2582.625965
727.766281	2579.170254
728.097901	2576.788309
728.429473	2578.666139
728.760996	2576.006930
729.092471	2574.126580
729.423897	2581.748804
729.755276	2578.237641
730.086606	2580.803588
730.417887	2579.603793
730.749120	2580.211252
731.080305	2583.190574
731.411442	2581.879874
731.742530	2582.444484
732.073570	2581.521952
732.404562	2580.145717
732.735506	2583.379618
733.066401	2583.092272
733.397249	2582.134453
733.728048	2581.118660
734.058798	2583.767787
734.389501	2581.148907
734.720156	2579.823084
735.050762	2580.695203
735.381320	2582.464648
735.711831	2579.192939
736.042293	2580.690162
736.372707	2581.035481
736.703073	2578.300655
737.033391	2580.322158
737.363661	2578.356108
737.693883	2578.981211
738.024056	2581.864751
738.354182	2579.218145
738.684260	2579.460121
739.014290	2579.387024
739.344272	2579.749987
739.674207	2578.020871
740.004093	2580.725450
740.333931	2578.179667
740.663722	2579.097157
740.993464	2581.320306
741.323159	2579.865933
741.652806	2577.988104
741.982405	2579.785275
742.311956	2577.645305
742.641460	2578.434246
742.970915	2579.427353
743.300323	2580.077662
743.629683	2580.165882
743.958996	2576.589183
744.288260	2580.153279
744.617477	2577.010120
744.946647	2571.729511
745.275768	2575.097002
745.604842	2573.115828
745.933869	2575.545665
746.262847	2573.849316
746.591778	2575.074317
746.920662	2574.297979
747.249498	2577.347877
747.578286	2579.873495
747.907027	2576.062383
748.235720	2576.911817
748.564365	2578.416602
748.892963	2578.242682
749.221514	2577.690676
749.550017	2578.542631
749.878473	2576.697568
750.206881	2581.837025
750.535242	2576.309399
750.863555	2577.176478
751.191821	2576.962229
751.520039	2575.429718
751.848210	2577.617579
752.176334	2579.538258
752.504411	2578.167065
752.832440	2577.095819
753.160421	2580.859041
753.488356	2574.091292
753.816243	2577.801581
754.144082	2575.583473
754.471875	2577.325192
754.799620	2577.299986
755.127318	2573.846796
755.454969	2576.495922
755.782572	2577.859554
756.110129	2577.741087
756.437638	2576.042218
756.765100	2577.037846
757.092515	2576.430387
757.419882	2577.226889
757.747203	2577.244533
758.074477	2575.207907
758.401703	2576.543813
758.728882	2574.489543
759.056014	2576.364852
759.383099	2576.407702
759.710138	2578.933320
760.037129	2578.603124
760.364073	2575.833010
760.690970	2577.438618
761.017820	2576.165727
761.344623	2578.628330
761.671379	2578.461972
761.998088	2576.032136
762.324751	2575.507856
762.651366	2577.635223
762.977935	2582.628486
763.304456	2582.469689
763.630931	2587.745257
763.957359	2586.595874
764.283740	2586.868096
764.610074	2584.256778
764.936362	2582.008424
765.262602	2583.341809
765.588796	2581.068249
765.914943	2578.325861
766.241044	2577.786458
766.567097	2577.647826
766.893104	2577.771334
767.219064	2575.994327
767.544978	2576.760583
767.870845	2577.741087
768.196665	2573.567012
768.522438	2577.645305
768.848165	2573.297310
769.173846	2573.420818
769.499479	2574.673545
769.825066	2575.127249
770.150607	2574.706312
770.476101	2574.814697
770.801548	2575.860737
771.126949	2574.023236
771.452303	2575.447362
771.777611	2571.759758
772.102872	2575.036508
772.428087	2571.333781
772.753256	2574.277814
773.078378	2572.437793
773.403453	2572.394943
773.728482	2571.595921
774.053465	2574.481981
774.378401	2570.910324
774.703291	2573.181363
775.028135	2571.316137
775.352932	2572.387382
775.677683	2572.926785
776.002388	2571.106929
776.327046	2572.399985
776.651658	2575.054152
776.976224	2571.910993
777.300743	2575.883422
777.625216	2573.554409
777.949643	2569.549212
778.274024	2572.468040
778.598359	2565.763306
778.922647	2569.271949
779.246889	2569.476115
779.571086	2567.636094
779.895236	2569.715570
780.219339	2571.374110
780.543397	2570.824624
780.867409	2570.086095
781.191374	2575.170099
781.515294	2571.989131
781.839167	2570.880077
782.162995	2571.830334
782.486776	2573.796384
782.810511	2569.574418
783.134201	2573.682958
783.457844	2570.945612
783.781441	2572.309244
784.104993	2571.006106
784.428498	2572.253791
784.751958	2573.012485
785.075372	2571.490056
785.398739	2568.500652
785.722061	2569.211455
786.045337	2575.969122
786.368568	2569.967628
786.691752	2570.718760
787.014891	2571.099367
787.337983	2571.953843
787.661030	2573.435942
787.984031	2570.839748
788.306987	2573.372927
788.629897	2573.453586
788.952760	2573.163719
789.275579	2572.568863
789.598351	2571.812690
789.921078	2573.171281
790.243759	2573.350242
790.566395	2574.640777
790.888984	2572.684810
791.211529	2571.396795
791.534027	2570.743966
791.856480	2570.844789
792.178888	2572.702454
792.501249	2571.192628
792.823566	2569.990313
793.145836	2574.449214
793.468062	2574.431570
793.790241	2571.865622
794.112375	2570.897721
794.434464	2569.970148
794.756507	2572.712536
795.078505	2573.224213
795.400457	2568.813204
795.722364	2567.638615
796.044226	2570.575087
796.366042	2569.816393
796.687812	2568.747669
797.009538	2572.342011
797.331218	2571.311095
797.652852	2572.011816
797.974442	2571.379151
798.295986	2570.925447
798.617484	2573.035170
798.938938	2574.517269
799.260346	2571.593400
799.581709	2572.747824
799.903026	2571.142217
800.224299	2572.896538
800.545526	2569.110632
800.866708	2568.301527
801.187845	2572.079871
801.508936	2571.381672
801.829983	2572.132803
802.150984	2568.752710
802.471940	2571.570715
802.792851	2572.644481
803.113717	2568.838409
803.434538	2572.531055
803.755314	2570.383523
804.076045	2569.594582
804.396731	2570.743966
804.717372	2567.396639
805.037967	2570.126424
805.358518	2569.972669
805.679024	2570.035683
805.999485	2569.256825
806.319901	2572.427711
806.640272	2568.765313
806.960598	2569.992834
807.280879	2568.868656
807.601115	2570.648184
807.921306	2571.923596
808.241453	2570.126424
808.561554	2570.396126
808.881611	2571.699264
809.201623	2570.146589
809.521590	2571.757238
809.841513	2572.226065
810.161390	2571.885787
810.481223	2568.273800
810.801011	2568.641804
811.120755	2569.128276
811.440453	2569.544171
811.760107	2572.715057
812.079716	2571.177505
812.399281	2569.587021
812.718801	2565.334807
813.038276	2567.290775
813.357707	2571.416960
813.677093	2568.185580
813.996434	2569.355128
814.315731	2567.378995
814.634983	2568.752710
814.954191	2569.692885
815.273354	2569.871846
815.592473	2570.121383
815.911547	2573.244378
816.230577	2570.998544
816.549562	2571.492577
816.868502	2570.491908
817.187399	2569.466033
817.506250	2570.887638
817.825058	2571.432083
818.143821	2572.737742
818.462539	2571.154820
818.781213	2575.812846
819.099843	2572.407546
819.418429	2575.039029
819.736970	2575.051632
820.055466	2573.428380
820.373919	2577.264698
820.692327	2580.448187
821.010691	2580.775862
821.329011	2591.324476
821.647286	2604.812083
821.965517	2620.074177
822.283704	2632.916516
822.601847	2637.771147
822.919945	2632.654376
823.237999	2629.690178
823.556010	2621.868827
823.873976	2614.851541
824.191897	2609.129832
824.509775	2602.092381
824.827609	2598.021649
825.145398	2593.658530
825.463144	2591.238777
825.780845	2586.242993
826.098502	2588.801379
826.416116	2592.698191
826.733685	2596.743717
827.051210	2598.525764
827.368692	2599.705394
827.686129	2594.281113
828.003522	2592.380598
828.320872	2584.750812
828.638177	2581.448856
828.955439	2579.434915
829.272656	2579.056828
829.589830	2576.901735
829.906960	2575.270922
830.224046	2574.426528
830.541088	2575.059193
830.858086	2572.906621
831.175041	2574.005592
831.491952	2573.448545
831.808819	2574.030798
832.125642	2570.065930
832.442421	2575.288566
832.759157	2577.156313
833.075849	2579.621437
833.392497	2580.609504
833.709101	2585.023034
834.025662	2584.014803
834.342179	2581.867272
834.658653	2580.110429
834.975083	2581.201839
835.291469	2583.477920
835.607811	2579.485326
835.924110	2573.801425
836.240366	2576.773186
836.556578	2570.459140
836.872746	2571.427042
837.188871	2571.182546
837.504952	2572.074830
837.820990	2570.247412
838.136984	2567.986454
838.452935	2569.866805
838.768842	2568.362020
839.084706	2571.036352
839.400526	2573.166240
839.716303	2571.356466
840.032037	2574.832341
840.347727	2574.948288
840.663373	2571.762279
840.978977	2574.242526
841.294537	2571.323698
841.610054	2573.214131
841.925527	2568.422514
842.240957	2569.070302
842.556344	2569.082905
842.871687	2567.000909
843.186987	2567.096691
843.502244	2569.035014
843.817458	2567.454613
844.132629	2569.521486
844.447756	2567.608368
844.762840	2566.965621
845.077881	2566.093501
845.392879	2562.090825
845.707833	2565.523851
846.022745	2563.063768
846.337613	2566.958059
846.652438	2564.676937
846.967221	2565.912020
847.281960	2565.067626
847.596656	2569.095508
847.911309	2566.401012
848.225919	2567.308419
848.540485	2566.743810
848.855009	2567.497462
849.169490	2567.051320
849.483928	2567.779767
849.798323	2565.927143
850.112675	2567.053841
850.426984	2564.997050
850.741251	2566.486711
851.055474	2567.822617
851.369654	2565.387740
851.683792	2565.433110
851.997887	2568.518296
852.311938	2566.217009
852.625947	2564.818089
852.939914	2567.726835
853.253837	2567.774726
853.567718	2568.659448
853.881555	2565.917061
854.195350	2565.796073
854.509103	2567.925961
854.822812	2568.235992
855.136479	2566.761454
855.450103	2568.087277
855.763685	2566.287586
856.077224	2567.116855
856.390720	2565.712894
856.704173	2565.899417
857.017584	2567.300857
857.330953	2565.453275
857.644278	2564.818089
857.957561	2567.205076
858.270802	2566.756413
858.584000	2566.159036
858.897155	2566.521999
859.210268	2568.092319
859.523339	2567.091650
859.836367	2566.290106
860.149352	2567.646177
860.462295	2569.496280
860.775195	2563.739282
861.088054	2565.919581
861.400869	2564.926474
861.713642	2561.712738
862.026373	2564.059396
862.339062	2566.895045
862.651708	2567.855384
862.964312	2563.923284
863.276873	2566.320353
863.589392	2564.192986
863.901869	2564.376988
864.214303	2565.118038
864.526696	2567.426886
864.839045	2565.957390
865.151353	2567.477298
865.463619	2565.775908
865.775842	2565.551577
866.088023	2564.792883
866.400162	2567.005950
866.712258	2567.384037
867.024313	2567.754561
867.336325	2566.668193
867.648296	2569.027453
867.960224	2566.297668
868.272110	2564.734910
868.583954	2566.401012
868.895755	2570.388564
869.207515	2570.184398
869.519233	2567.295816
869.830909	2564.984447
870.142542	2565.947308
870.454134	2567.386557
870.765684	2568.886300
871.077191	2569.438307
871.388657	2569.377813
871.700081	2564.674416
872.011463	2568.684654
872.322803	2569.317319
872.634101	2568.435117
872.945357	2567.305899
873.256571	2569.859243
873.567744	2567.436969
873.878874	2568.606516
874.189963	2565.367575
874.501010	2568.578790
874.812015	2567.116855
875.122979	2567.724314
875.433900	2568.200703
875.744780	2568.172977
876.055618	2565.281875
876.366415	2566.837071
876.677169	2568.014181
876.987882	2565.233984
877.298554	2563.588048
877.609183	2561.178376
877.919771	2564.155177
878.230317	2566.466547
878.540822	2570.895200
878.851285	2569.876887
879.161707	2567.757082
879.472087	2570.600293
879.782425	2571.364028
880.092722	2572.382341
880.402977	2579.669328
880.713191	2588.551842
881.023363	2589.434043
881.333494	2597.855291
881.643583	2599.604571
881.953631	2601.489963
882.263637	2598.891248
882.573602	2597.910744
882.883526	2597.699015
883.193408	2594.089549
883.503248	2594.351689
883.813048	2587.873806
884.122806	2587.193251
884.432522	2585.194433
884.742197	2582.668815
885.051831	2580.763259
885.361424	2577.549523
885.670975	2576.876529
885.980485	2575.394430
886.289954	2573.995510
886.599382	2573.897207
886.908768	2571.550550
887.218113	2571.306054
887.527417	2570.779254
887.836680	2570.219686
888.145901	2569.680282
888.455082	2570.108780
888.764221	2569.125755
889.073319	2566.373285
889.382376	2570.010478
889.691392	2568.634243
890.000366	2571.479974
890.309300	2567.857905
890.618193	2570.171795
890.927044	2566.884962
891.235855	2567.794891
891.544625	2567.361351
891.853353	2567.507545
892.162041	2569.352607
892.470687	2567.021073
892.779293	2567.842782
893.087858	2564.626525
893.396381	2565.997719
893.704864	2568.510734
894.013306	2565.163408
894.321707	2574.565160
894.630068	2574.108936
894.938387	2578.154462
895.246665	2576.160685
895.554903	2578.368711
895.863100	2576.155644
896.171256	2576.001889
896.479371	2576.919379
896.787446	2574.315623
897.095480	2573.831672
897.403473	2574.628175
897.711425	2569.720611
898.019336	2571.419480
898.327207	2571.338822
898.635038	2571.217834
898.942827	2566.774057
899.250576	2567.598286
899.558284	2567.129458
899.865952	2567.482339
900.173579	2569.324881
900.481165	2567.754561
900.788711	2566.237174
901.096216	2570.199521
901.403681	2566.030487
901.711105	2565.886814
902.018489	2568.228430
902.325832	2569.148440
902.633135	2565.067626
902.940397	2567.648697
903.247619	2567.971331
903.554800	2570.282700
903.861941	2573.854357
904.169041	2577.917527
904.476101	2579.641602
904.783121	2577.131108
905.090100	2576.344687
905.397039	2578.519945
905.703938	2576.077506
906.010796	2575.792681
906.317614	2573.357804
906.624391	2577.181519
906.931129	2572.831003
907.237826	2572.193297
907.544483	2571.527865
907.851099	2571.227916
908.157675	2570.786815
908.464211	2568.551064
908.770707	2564.833213
909.077163	2564.644169
909.383578	2563.963614
909.689954	2563.381360
909.996289	2562.451268
910.302584	2565.299519
910.608839	2562.473953
910.915054	2565.871690
911.221229	2564.618964
911.527363	2564.833213
911.833458	2564.898748
912.139513	2565.309602
912.445527	2564.777760
912.751502	2567.971331
913.057436	2567.958728
913.363331	2565.256670
913.669186	2565.027297
913.975000	2566.491752
914.280775	2567.215158
914.586510	2565.927143
914.892205	2569.682803
915.197859	2571.651373
915.503475	2571.127093
915.809050	2577.226889
916.114585	2578.887950
916.420081	2577.330233
916.725536	2577.819225
917.030952	2577.375603
917.336328	2576.276632
917.641665	2576.758062
917.946961	2577.461303
918.252218	2576.589183
918.557435	2575.046590
918.862612	2573.645150
919.167750	2574.678586
919.472848	2574.247568
919.777906	2572.553740
920.082925	2570.197000
920.387904	2572.495767
920.692843	2568.629202
920.997743	2568.097360
921.302603	2570.260015
921.607423	2569.012329
921.912204	2567.545353
922.216946	2565.274314
922.521647	2568.389747
922.826310	2566.332956
923.130932	2566.862277
923.435516	2566.438820
923.740059	2565.791032
924.044564	2565.695250
924.349028	2565.914540
924.653454	2561.344734
924.957840	2562.484035
925.262186	2560.248283
925.566493	2565.029818
925.870761	2559.807182
926.174989	2565.430589
926.479178	2563.378840
926.783328	2565.362534
927.087438	2567.310940
927.391509	2564.613922
927.695541	2565.254149
927.999533	2566.151474
928.303486	2564.833213
928.607400	2564.341700
928.911275	2563.174673
929.215110	2560.565876
929.518906	2562.294992
929.822663	2563.194838
930.126381	2562.720969
930.430060	2562.673078
930.733699	2562.063099
931.037299	2565.261711
931.340861	2560.623849
931.644383	2565.594427
931.947866	2563.698953
932.251309	2564.429920
932.554714	2563.789694
932.858080	2561.995043
933.161407	2563.222564
933.464694	2564.560990
933.767943	2561.269117
934.071153	2561.506051
934.374323	2562.970506
934.677455	2565.110476
934.980548	2562.612584
935.283602	2563.885476
935.586617	2561.488407
935.889593	2564.089642
936.192530	2563.905640
936.495428	2562.816751
936.798287	2560.802810
937.101108	2560.754919
937.403890	2565.581824
937.706632	2561.576627
938.009336	2565.617112
938.312002	2563.625856
938.614628	2563.925805
938.917216	2566.774057
939.219765	2564.813048
939.522275	2566.562328
939.824747	2567.144582
940.127179	2560.533108
940.429573	2558.995557
940.731929	2560.898592
941.034246	2561.982440
941.336524	2563.335990
941.638763	2565.203737
941.940964	2565.284396
942.243126	2564.079560
942.545250	2563.779612
942.847335	2564.818089
943.149381	2563.272976
943.451389	2561.843808
943.753359	2563.991340
944.055290	2563.036041
944.357182	2565.536454
944.659036	2563.383881
944.960851	2565.100394
945.262628	2565.286917
945.564367	2564.573593
945.866067	2565.370096
946.167729	2564.782801
946.469352	2564.135013
946.770937	2561.828685
947.072484	2563.159550
947.373992	2561.677450
947.675462	2563.580486
947.976893	2565.700291
948.278286	2563.043603
948.579641	2562.453788
948.880958	2563.232646
949.182236	2563.761967
949.483476	2565.244067
949.784678	2563.880435
950.085841	2563.875393
950.386967	2564.414797
950.688054	2562.655434
950.989103	2566.569890
951.290114	2562.073181
951.591087	2560.303736
951.892021	2562.153839
952.192917	2563.078891
952.493776	2564.281206
952.794596	2567.247925
953.095378	2562.191648
953.396122	2566.327915
953.696828	2563.900599
953.997496	2561.695094
954.298126	2564.664334
954.598718	2562.569735
954.899272	2563.860270
955.199788	2564.376988
955.500266	2564.629046
955.800706	2561.412790
956.101108	2559.295505
956.401472	2560.197872
956.701798	2556.563200
957.002087	2559.890361
957.302337	2561.954714
957.602550	2562.678119
957.902724	2561.014539
958.202861	2562.794066
958.502960	2560.896072
958.803022	2563.600651
959.103045	2563.149467
959.403031	2564.135013
959.702979	2563.300702
960.002889	2563.517472
960.302762	2563.255332
960.602596	2562.809189
960.902393	2559.056050
961.202153	2559.635783
961.501875	2560.656617
961.801559	2563.255332
962.101205	2559.608057
962.400814	2561.170814
962.700385	2561.017059
962.999918	2563.184755
963.299414	2561.279199
963.598873	2562.736093
963.898293	2560.419682
964.197677	2564.853377
964.497022	2562.373130
964.796331	2562.577296
965.095601	2561.851370
965.394835	2561.828685
965.694030	2562.652914
965.993189	2559.582851
966.292309	2560.333983
966.591393	2560.013870
966.890439	2561.674930
967.189447	2562.103428
967.488419	2560.739796
967.787353	2562.262224
968.086249	2560.850701
968.385108	2559.837429
968.683930	2560.349106
968.982714	2563.769529
969.281462	2559.545042
969.580172	2560.394477
969.878844	2560.197872
970.177480	2561.294323
970.476078	2562.320197
970.774639	2562.952862
971.073162	2560.356668
971.371649	2559.061092
971.670098	2560.913716
971.968510	2555.290308
972.266885	2557.568910
972.565223	2559.540001
972.863524	2560.797769
973.161788	2563.706515
973.460014	2559.660989
973.758204	2561.848850
974.056356	2561.763150
974.354471	2563.121741
974.652550	2559.194682
974.950591	2561.228788
975.248595	2561.523695
975.546563	2563.250290
975.844493	2562.287430
976.142386	2562.927657
976.440243	2561.110321
976.738062	2558.627552
977.035845	2561.632080
977.333590	2563.545198
977.631299	2562.312636
977.928971	2563.424210
978.226606	2563.061247
978.524204	2560.734755
978.821765	2563.199879
979.119290	2559.270299
979.416777	2558.342727
979.714228	2562.577296
980.011642	2559.313149
980.309020	2565.052503
980.606360	2563.288099
980.903664	2561.921946
981.200931	2562.728531
981.498162	2559.328273
981.795356	2559.484548
982.092513	2561.674930
982.389633	2562.388253
982.686717	2563.363716
982.983764	2563.096535
983.280775	2564.046793
983.577749	2563.794735
983.874686	2562.927657
984.171587	2563.058727
984.468451	2560.928839
984.765279	2560.598643
985.062070	2563.749365
985.358824	2560.848181
985.655543	2560.714590
985.952224	2561.780794
986.248869	2561.261555
986.545478	2560.737275
986.842050	2560.039075
987.138586	2557.644527
987.435086	2554.839125
987.731549	2556.767367
988.027975	2560.021431
988.324366	2563.141906
988.620719	2562.181566
988.917037	2559.277861
989.213318	2561.337173
989.509563	2561.198541
989.805772	2559.413972
990.101944	2561.448078
990.398080	2560.802810
990.694180	2560.780125
990.990244	2558.493962
991.286271	2558.748540
991.582262	2561.173335
991.878217	2561.611915
992.174136	2562.731052
992.470019	2562.980589
992.765865	2559.902964
993.061676	2560.424724
993.357450	2560.923798
993.653188	2561.876576
993.948890	2561.480845
994.244556	2561.611915
994.540186	2561.024621
994.835780	2561.984961
995.131337	2561.632080
995.426859	2563.424210
995.722345	2558.748540
996.017795	2559.408931
996.313208	2561.223747
996.608586	2559.111503
996.903928	2561.730383
997.199234	2560.754919
997.494504	2562.055537
997.789738	2563.106618
998.084936	2561.092677
998.380099	2560.732234
998.675225	2562.766340
998.970316	2560.061761
999.265371	2559.071174
999.560390	2560.434806
999.855373	2561.425393
1000.150320	2561.150650
1000.445232	2557.929353
1000.740108	2559.325752
1001.034948	2559.660989
1001.329752	2561.611915
1001.624521	2561.374981
1001.919254	2557.780638
1002.213951	2557.548745
1002.508613	2555.441543
1002.803239	2557.808365
1003.097829	2554.730740
1003.392384	2558.367933
1003.686903	2561.223747
1003.981386	2560.074363
1004.275834	2558.904816
1004.570246	2559.897923
1004.864623	2558.589744
1005.158964	2561.387584
1005.453270	2559.260217
1005.747540	2560.147460
1006.041775	2560.943963
1006.335974	2560.339024
1006.630138	2558.342727
1006.924266	2562.040413
1007.218359	2560.389436
1007.512416	2561.901782
1007.806438	2558.171328
1008.100425	2563.146947
1008.394376	2559.666030
1008.688292	2559.318190
1008.982172	2562.731052
1009.276017	2560.475135
1009.569827	2560.250804
1009.863602	2559.658468
1010.157341	2560.490259
1010.451045	2559.655948
1010.744714	2561.140568
1011.038347	2559.479507
1011.331945	2560.661658
1011.625508	2561.105279
1011.919036	2559.431616
1012.212528	2560.412121
1012.505986	2561.556463
1012.799408	2560.039075
1013.092795	2558.294836
1013.386147	2558.443550
1013.679464	2560.911195
1013.972745	2560.795248
1014.265992	2559.572769
1014.559204	2561.012018
1014.852380	2559.436658
1015.145521	2560.127296
1015.438628	2561.044786
1015.731699	2559.023283
1016.024736	2558.194013
1016.317737	2559.149312
1016.610703	2561.889179
1016.903635	2555.759136
1017.196531	2557.498334
1017.489393	2557.732747
1017.782219	2556.215360
1018.075011	2558.229301
1018.367768	2555.575134
1018.660490	2561.916905
1018.953177	2561.916905
1019.245829	2561.916905
