Dividing Wavelength (nm)	Counts (n)	Blue Motor Position (mm): 0.000000	Red Motor Position (mm): 11.200000	
326.493990	2128.533950
326.888308	2128.533950
327.282561	2128.533950
327.676750	2096.721749
328.070874	2096.031111
328.464933	2097.558580
328.858929	2104.207862
329.252859	2113.980139
329.646726	2125.501696
330.040528	2140.373100
330.434265	2155.612508
330.827938	2170.418377
331.221547	2188.281706
331.615091	2208.453883
332.008571	2225.079608
332.401986	2248.384862
332.795338	2266.540578
333.188625	2286.092693
333.581847	2303.867802
333.975006	2322.784731
334.368100	2339.949860
334.761129	2359.577593
335.154095	2377.698020
335.546996	2393.882645
335.939833	2409.963925
336.332606	2422.428178
336.725315	2437.097936
337.117960	2447.054215
337.510540	2450.283074
337.903056	2465.156998
338.295508	2469.978862
338.687896	2479.995635
339.080220	2488.784886
339.472480	2497.468274
339.864676	2498.584889
340.256807	2503.497494
340.648875	2506.285252
341.040879	2510.991169
341.432818	2511.802795
341.824694	2513.347908
342.216506	2514.860255
342.608253	2514.774555
342.999937	2512.246416
343.391557	2511.548217
343.783113	2509.158710
344.174605	2511.091992
344.566033	2508.347084
344.957397	2508.135355
345.348697	2503.610920
345.739934	2504.543533
346.131106	2502.431290
346.522215	2501.002123
346.913260	2498.806700
347.304241	2496.011380
347.695159	2496.631442
348.086012	2494.993067
348.476802	2494.279744
348.867528	2492.994250
349.258191	2488.353868
349.648789	2487.794300
350.039324	2488.018631
350.429796	2486.559217
350.820203	2485.140132
351.210548	2485.614001
351.600828	2481.137456
351.991045	2481.976808
352.381198	2482.869092
352.771288	2479.738536
353.161314	2482.672487
353.551276	2480.524956
353.941175	2482.864051
354.331010	2480.320789
354.720782	2479.488999
355.110490	2482.417909
355.500135	2482.254072
355.889717	2482.896819
356.279235	2480.353557
356.668689	2483.496716
357.058080	2481.641571
357.447408	2479.236941
357.836672	2479.667960
358.225873	2480.502271
358.615010	2478.715182
359.004084	2485.419916
359.393095	2484.323465
359.782043	2484.915801
360.170927	2485.820688
360.559748	2487.751450
360.948505	2487.454022
361.337199	2487.418734
361.725830	2486.639875
362.114398	2489.654485
362.502903	2489.760350
362.891344	2491.486945
363.279722	2490.090545
363.668037	2492.565752
364.056289	2490.816471
364.444478	2490.834115
364.832603	2493.563900
365.220665	2492.021307
365.608665	2494.302429
365.996601	2491.875114
366.384474	2494.713283
366.772284	2494.226812
367.160031	2496.180259
367.547715	2499.877945
367.935336	2502.700992
368.322893	2504.364572
368.710388	2507.069151
369.097820	2515.167765
369.485189	2514.590553
369.872495	2521.907788
370.259738	2526.764939
370.646918	2535.244160
371.034035	2542.316899
371.421090	2552.288301
371.808081	2564.165260
372.195010	2570.728842
372.581875	2583.278795
372.968678	2598.203131
373.355418	2608.887856
373.742096	2627.212450
374.128710	2641.645274
374.515262	2656.098262
374.901751	2672.960922
375.288177	2683.421316
375.674540	2705.718339
376.060841	2725.532594
376.447079	2746.521438
376.833254	2766.164294
377.219367	2777.290121
377.605417	2815.867551
377.991404	2822.025320
378.377329	2845.748990
378.763191	2862.581403
379.148991	2898.381157
379.534727	2922.984508
379.920402	2951.787141
380.306013	2964.233750
380.691563	3014.090761
381.077049	3036.476005
381.462474	3050.155176
381.847835	3087.240424
382.233134	3107.755400
382.618371	3106.316150
383.003545	3169.196983
383.388657	3172.307375
383.773706	3198.425593
384.158693	3207.696275
384.543618	3229.032958
384.928480	3252.764190
385.313280	3287.797689
385.698017	3278.348046
386.082692	3314.815753
386.467305	3308.342911
386.851856	3326.213802
387.236344	3329.881241
387.620770	3346.169209
388.005133	3345.425639
388.389435	3354.386290
388.773674	3344.629137
389.157851	3358.520036
389.541965	3352.480734
389.926018	3307.218734
390.310008	3338.909948
390.693936	3328.091631
391.077802	3336.535564
391.461606	3302.669093
391.845348	3320.229952
392.229027	3291.286167
392.612645	3272.333949
392.996200	3289.294911
393.379694	3284.760393
393.763125	3288.468162
394.146494	3238.722056
394.529801	3237.807087
394.913047	3224.586661
395.296230	3181.285670
395.679351	3171.664627
396.062410	3146.211842
396.445408	3107.780605
396.828343	3086.068356
397.211217	3061.081877
397.594028	3001.460150
397.976778	2989.560507
398.359466	2968.095273
398.742092	2942.803805
399.124656	2899.288565
399.507158	2888.140053
399.889598	2869.747403
400.271977	2854.329034
400.654294	2824.845846
401.036549	2800.832309
401.418742	2771.785181
401.800874	2765.609767
402.182944	2745.041860
402.564952	2735.582135
402.946898	2710.467106
403.328783	2693.740558
403.710606	2669.232988
404.092367	2667.801301
404.474067	2649.106182
404.855705	2637.461116
405.237282	2621.256327
405.618797	2615.365739
406.000250	2607.458689
406.381642	2598.770260
406.762972	2587.440267
407.144240	2578.512384
407.525447	2571.578277
407.906593	2567.608368
408.287677	2560.911195
408.668700	2553.140256
409.049661	2551.083466
409.430560	2544.676159
409.811399	2539.975283
410.192176	2540.194573
410.572891	2538.871270
410.953545	2536.358255
411.334138	2531.266690
411.714669	2532.093439
412.095139	2528.569672
412.475547	2528.680578
412.855894	2528.461288
413.236180	2526.412059
413.616405	2529.046062
413.996568	2526.162522
414.376670	2527.027079
414.756711	2521.587674
415.136691	2523.442819
415.516609	2525.043385
415.896466	2524.811492
416.276262	2525.592871
416.655997	2520.140863
417.035670	2521.592716
417.415283	2525.275278
417.794834	2519.803106
418.174324	2521.612880
418.553753	2525.245032
418.933121	2525.837367
419.312428	2526.084384
419.691674	2523.561286
420.070859	2525.121523
420.449983	2526.056657
420.829045	2523.374763
421.208047	2526.049096
421.586988	2524.967768
421.965867	2525.580268
422.344686	2526.434744
422.723444	2523.737727
423.102141	2524.904754
423.480777	2525.338293
423.859352	2521.607839
424.237866	2525.252593
424.616319	2523.649506
424.994712	2526.759898
425.373044	2525.655886
425.751314	2527.458098
426.129524	2525.875176
426.507673	2527.009435
426.885762	2527.221164
427.263789	2525.633200
427.641756	2527.533715
428.019662	2526.767460
428.397508	2527.044723
428.775292	2525.106400
429.153016	2526.822913
429.530679	2527.281658
429.908282	2523.999867
430.285824	2527.616894
430.663305	2528.680578
431.040726	2527.765608
431.418086	2527.069929
431.795385	2527.188396
432.172624	2524.536749
432.549802	2525.986081
432.926920	2525.683612
433.303977	2527.569003
433.680974	2527.997502
434.057910	2526.996833
434.434786	2527.783253
434.811601	2528.075639
435.188355	2527.281658
435.565050	2530.709642
435.941683	2527.357275
436.318257	2528.466329
436.694770	2525.113962
437.071222	2527.994981
437.447614	2522.437109
437.823946	2528.118489
438.200218	2524.698066
438.576429	2529.255269
438.952580	2530.016484
439.328670	2530.094622
439.704700	2527.148067
440.080670	2527.750485
440.456580	2530.848274
440.832429	2529.832482
441.208218	2529.996319
441.583947	2530.172759
441.959616	2529.459436
442.335224	2529.285516
442.710773	2532.007739
443.086261	2532.416073
443.461689	2529.582944
443.837057	2532.496731
444.212365	2531.246525
444.587612	2530.049251
444.962800	2528.642769
445.337927	2531.402801
445.712995	2529.288037
446.088002	2533.265507
446.462949	2531.622091
446.837837	2533.237781
447.212664	2535.501259
447.587431	2534.019160
447.962139	2532.181659
448.336786	2537.270704
448.711374	2536.736342
449.085901	2534.568646
449.460369	2532.521937
449.834776	2531.198634
450.209124	2532.756351
450.583412	2530.119827
450.957640	2535.226516
451.331808	2534.765251
451.705917	2532.675692
452.079965	2533.235260
452.453954	2534.687113
452.827883	2532.794159
453.201752	2534.563604
453.575562	2533.608306
453.949311	2535.599562
454.323001	2533.683923
454.696632	2533.152081
455.070202	2534.175436
455.443713	2535.244160
455.817164	2533.762061
456.190556	2530.807945
456.563888	2534.263656
456.937160	2532.166536
457.310373	2536.146527
457.683526	2536.229706
458.056619	2536.927906
458.429653	2532.718542
458.802628	2533.288192
459.175542	2537.404295
459.548398	2534.336753
459.921194	2537.207690
460.293930	2537.162319
460.666607	2538.813297
461.039224	2539.670293
461.411782	2537.905889
461.784280	2538.140303
462.156719	2539.695499
462.529099	2537.991589
462.901419	2536.504449
463.273680	2539.095602
463.645882	2536.927906
464.018024	2537.520241
464.390106	2540.358411
464.762130	2540.365972
465.134094	2540.391178
465.505999	2543.841848
465.877845	2546.584236
466.249631	2545.442414
466.621358	2548.968702
466.993026	2547.539534
467.364634	2549.036757
467.736184	2544.204811
468.107674	2543.098278
468.479105	2543.584749
468.850477	2545.853268
469.221790	2542.145500
469.593043	2543.093237
469.964238	2540.149203
470.335373	2541.548123
470.706449	2541.507794
471.077467	2545.175233
471.448425	2544.638350
471.819324	2548.152035
472.190164	2545.880995
472.560945	2544.439225
472.931667	2542.369831
473.302330	2539.987886
473.672934	2542.097609
474.043479	2540.824717
474.413965	2541.457382
474.784393	2536.209541
475.154761	2540.834800
475.525070	2539.042670
475.895321	2539.536703
476.265513	2537.152237
476.635645	2541.626261
477.005719	2542.097609
477.375734	2544.451828
477.745691	2542.332022
478.115588	2544.459389
478.485427	2545.392003
478.855207	2542.241282
479.224928	2545.218083
479.594591	2546.589277
479.964194	2545.964174
480.333739	2548.963660
480.703226	2547.463917
481.072653	2546.604400
481.442022	2549.019113
481.811333	2543.128525
482.180584	2547.262271
482.549777	2544.207332
482.918912	2547.441232
483.287988	2546.180943
483.657005	2545.969215
484.025964	2547.587425
484.394864	2546.536345
484.763706	2544.787064
485.132489	2546.780841
485.501213	2546.730429
485.869879	2545.903680
486.238487	2542.750438
486.607036	2545.639019
486.975527	2546.417878
487.343959	2542.826056
487.712333	2547.141283
488.080648	2544.605583
488.448905	2546.982487
488.817104	2544.590459
489.185244	2544.537527
489.553326	2548.399051
489.921350	2547.063145
490.289315	2545.492826
490.657222	2550.065153
491.025070	2548.850234
491.392861	2552.424413
491.760593	2546.707744
492.128267	2550.178578
492.495883	2546.138094
492.863440	2548.169679
493.230939	2546.427960
493.598380	2547.484082
493.965763	2541.248174
494.333088	2545.265974
494.700354	2541.691796
495.067563	2546.034750
495.434713	2540.600386
495.801805	2543.161292
496.168839	2544.192208
496.535815	2547.211859
496.902733	2546.382590
497.269593	2547.373176
497.636395	2547.421067
498.003139	2547.080789
498.369825	2544.439225
498.736453	2545.936448
499.103023	2547.353012
499.469535	2548.620862
499.835989	2546.488454
500.202385	2545.770089
500.568723	2547.320244
500.935003	2546.674977
501.301226	2545.223124
501.667390	2547.300080
502.033497	2547.597508
502.399546	2546.233876
502.765537	2546.306972
503.131470	2546.722867
503.497345	2549.041798
503.863163	2550.670091
504.228923	2546.954761
504.594625	2546.606921
504.960269	2548.787220
505.325856	2546.760676
505.691385	2545.341591
506.056856	2548.255378
506.422270	2545.923845
506.787625	2546.526262
507.152924	2546.387631
507.518164	2547.741181
507.883347	2548.210008
508.248472	2548.237734
508.613540	2545.253371
508.978550	2545.520552
509.343503	2547.978115
509.708398	2548.494833
510.073236	2548.666232
510.438016	2547.736139
510.802738	2550.183620
511.167403	2546.773279
511.532010	2548.152035
511.896561	2548.825029
512.261053	2549.573640
512.625488	2545.878474
512.989866	2546.546427
513.354186	2546.506098
513.718449	2544.799667
514.082655	2547.675646
514.446803	2548.066335
514.810894	2548.782179
515.174927	2549.712272
515.538904	2552.928528
515.902822	2549.598846
516.266684	2547.552137
516.630488	2549.944165
516.994235	2549.994576
517.357925	2548.683876
517.721558	2549.860986
518.085133	2548.010882
518.448651	2550.213867
518.812112	2549.563558
519.175516	2549.167827
519.538863	2549.177909
519.902152	2552.424413
520.265385	2548.164637
520.628560	2548.641027
520.991678	2548.197405
521.354739	2547.594987
521.717743	2547.456355
522.080690	2550.198743
522.443580	2546.556509
522.806413	2549.397200
523.169189	2547.879812
523.531908	2547.796633
523.894569	2548.066335
524.257174	2549.061963
524.619722	2548.162117
524.982213	2552.671429
525.344647	2546.783361
525.707025	2550.740667
526.069345	2550.423074
526.431608	2549.737477
526.793815	2547.995759
527.155964	2551.491799
527.518057	2551.290153
527.880093	2550.634803
528.242072	2550.153373
528.603995	2552.258054
528.965860	2545.770089
529.327669	2549.659340
529.689421	2548.177240
530.051117	2550.349978
530.412755	2552.492468
530.774337	2553.183106
531.135862	2549.432488
531.497331	2548.555327
531.858743	2545.717157
532.220098	2548.885522
532.581396	2547.070707
532.942638	2543.672969
533.303824	2551.287632
533.664953	2548.366284
534.026025	2548.721685
534.387040	2550.677653
534.747999	2549.893753
535.108902	2545.223124
535.469748	2546.967363
535.830537	2553.180586
536.191270	2549.924000
536.551947	2548.792261
536.912567	2550.118085
537.273131	2548.509957
537.633638	2549.722354
537.994089	2549.445091
538.354483	2545.949050
538.714821	2549.427447
539.075103	2550.642365
539.435328	2547.864689
539.795497	2547.733619
540.155609	2551.063301
540.515665	2552.091696
540.875665	2549.228321
541.235609	2550.397869
541.595496	2548.635985
541.955328	2548.971222
542.315102	2550.360060
542.674821	2550.526418
543.034483	2551.005328
543.394090	2548.625903
543.753640	2550.702858
544.113134	2549.530790
544.472571	2551.212015
544.831953	2551.199412
545.191278	2550.065152
545.550548	2550.624721
545.909761	2549.924000
546.268918	2550.163455
546.628019	2551.219577
546.987064	2550.004659
547.346053	2552.310987
547.704986	2549.674463
548.063863	2548.376366
548.422684	2553.659495
548.781449	2550.327292
549.140158	2550.077755
549.498811	2553.936759
549.857408	2552.724361
550.215949	2549.545914
550.574434	2549.457693
550.932864	2550.775955
551.291237	2546.972405
551.649555	2550.370142
552.007817	2550.786037
552.366022	2550.864175
552.724173	2550.660009
553.082267	2548.560368
553.440305	2551.406099
553.798288	2552.336192
554.156215	2550.488609
554.514086	2552.169834
554.871902	2549.780327
555.229661	2552.336192
555.587365	2549.450132
555.945014	2549.815615
556.302606	2550.176058
556.660143	2552.293343
557.017625	2551.501881
557.375050	2549.608928
557.732421	2550.367622
558.089735	2549.979453
558.446994	2551.486758
558.804197	2549.586243
559.161345	2548.860317
559.518437	2552.069011
559.875474	2550.168496
560.232455	2551.862324
560.589381	2549.747560
560.946251	2552.978939
561.303065	2550.377704
561.659825	2551.532128
562.016528	2551.779145
562.373177	2550.589432
562.729770	2550.712941
563.086307	2552.142108
563.442789	2550.594474
563.799216	2550.188661
564.155587	2551.562375
564.511904	2554.750905
564.868164	2549.818136
565.224370	2551.970709
565.580520	2549.765204
565.936615	2549.936603
566.292654	2552.061449
566.648638	2554.614794
567.004567	2551.897612
567.360441	2551.940462
567.716260	2549.868548
568.072023	2551.839639
568.427732	2547.847045
568.783385	2549.485420
569.138982	2545.870913
569.494525	2548.267981
569.850013	2547.789072
570.205445	2551.590102
570.560823	2548.431819
570.916145	2550.198743
571.271412	2550.491130
571.626625	2554.045143
571.981782	2551.887530
572.336884	2551.103630
572.691931	2548.104144
573.046923	2548.509957
573.401860	2550.647406
573.756743	2549.687066
574.111570	2550.586912
574.466342	2551.121274
574.821059	2548.797302
575.175722	2550.425595
575.530330	2548.638506
575.884882	2548.457024
576.239380	2548.237734
576.593823	2551.499361
576.948211	2549.437529
577.302544	2551.083466
577.656823	2549.999617
578.011047	2551.733774
578.365216	2552.379042
578.719330	2551.146480
579.073389	2549.311500
579.427394	2549.939124
579.781344	2548.590615
580.135239	2551.007848
580.489080	2550.665050
580.842866	2547.763866
581.196597	2549.682025
581.550273	2548.152035
581.903895	2549.659340
582.257463	2552.189999
582.610975	2548.043650
582.964434	2548.852755
583.317837	2551.017931
583.671186	2548.517518
584.024481	2549.765204
584.377721	2551.285112
584.730906	2548.764535
585.084037	2550.846531
585.437113	2547.181613
585.790135	2549.077086
586.143103	2550.521377
586.496016	2551.113712
586.848874	2541.661549
587.201679	2548.615821
587.554428	2547.189174
587.907124	2546.818649
588.259765	2541.553164
588.612352	2549.412323
588.964884	2544.058618
589.317362	2551.567416
589.669786	2550.032385
590.022155	2550.594474
590.374470	2548.860317
590.726731	2547.068187
591.078937	2548.366284
591.431090	2549.613969
591.783188	2550.082797
592.135232	2550.143290
592.487222	2549.462735
592.839157	2547.640357
593.191038	2547.521890
593.542866	2548.812426
593.894639	2549.011551
594.246358	2552.134546
594.598022	2548.630944
594.949633	2548.762014
595.301190	2550.196223
595.652692	2548.091541
596.004141	2545.868392
596.355535	2549.251006
596.706876	2549.702189
597.058162	2546.289328
597.409395	2547.582384
597.760573	2548.819987
598.111698	2546.523742
598.462768	2548.066335
598.813785	2547.975594
599.164748	2547.625234
599.515657	2547.179092
599.866511	2549.233362
600.217312	2548.963660
600.568060	2545.386962
600.918753	2547.652960
601.269392	2548.454504
601.619978	2548.237734
601.970510	2547.048022
602.320988	2547.138763
602.671412	2547.811757
603.021783	2548.749411
603.372100	2548.076417
603.722363	2547.935265
604.072572	2549.626572
604.422728	2548.986346
604.772830	2548.089020
605.122878	2543.509132
605.472872	2546.075079
605.822813	2541.575849
606.172701	2547.476520
606.522534	2548.089020
606.872314	2550.493651
607.222041	2549.432488
607.571714	2546.445604
607.921333	2547.221942
608.270899	2548.784699
608.620411	2550.710420
608.969870	2548.918290
609.319276	2548.572971
609.668627	2551.655637
610.017926	2552.184958
610.367171	2554.546738
610.716362	2552.414330
611.065500	2553.465411
611.414585	2550.695297
611.763616	2549.190512
612.112594	2548.552806
612.461518	2547.070707
612.810389	2548.593136
613.159207	2547.393341
613.507971	2550.415513
613.856682	2549.956768
614.205340	2546.526263
614.553945	2548.368804
614.902496	2548.262940
615.250994	2550.223949
615.599439	2547.572302
615.947830	2548.946016
616.296169	2546.921993
616.644454	2548.769576
616.992686	2548.066335
617.340864	2548.532642
617.688990	2546.680018
618.037063	2549.220759
618.385082	2547.473999
618.733048	2548.908208
619.080961	2549.291335
619.428821	2549.193033
619.776628	2549.082128
620.124382	2549.941644
620.472083	2549.863506
620.819731	2549.145142
621.167326	2547.141283
621.514868	2547.489123
621.862357	2545.737322
622.209793	2547.809236
622.557176	2549.301418
622.904506	2545.316386
623.251783	2541.855633
623.599007	2543.829245
623.946179	2543.569626
624.293297	2543.582229
624.640363	2547.257230
624.987376	2547.695810
625.334336	2547.771427
625.681243	2547.753783
626.028097	2543.917465
626.374899	2546.921993
626.721647	2547.784030
627.068343	2549.003990
627.414987	2545.074410
627.761577	2547.985677
628.108115	2543.252033
628.454600	2546.606921
628.801032	2548.784699
629.147412	2548.404092
629.493739	2546.503577
629.840014	2549.389638
630.186236	2543.123484
630.532405	2546.697662
630.878521	2545.480223
631.224585	2546.475851
631.570597	2543.804039
631.916556	2545.220604
632.262462	2545.954092
632.608316	2545.699513
632.954117	2543.816642
633.299866	2546.773279
633.645562	2542.619368
633.991206	2545.366797
634.336797	2543.090716
634.682336	2543.821683
635.027823	2543.914945
635.373257	2543.806560
635.718639	2545.581046
636.063968	2547.526932
636.409245	2543.930068
636.754470	2543.005017
637.099642	2544.676159
637.444762	2545.994421
637.789829	2541.711961
638.134845	2546.869061
638.479808	2544.504760
638.824719	2543.352856
639.169577	2545.570964
639.514383	2543.259595
639.859137	2541.938812
640.203839	2543.267157
640.548489	2546.551468
640.893086	2544.298073
641.237632	2541.553164
641.582125	2539.014943
641.926566	2538.878832
642.270955	2541.369162
642.615292	2542.667259
642.959576	2544.401416
643.303809	2542.818494
643.647990	2546.274205
643.992118	2540.739018
644.336195	2541.835469
644.680219	2542.140459
645.024192	2543.773793
645.368112	2545.593649
645.711981	2544.366128
646.055797	2543.007537
646.399562	2544.419060
646.743274	2544.338402
647.086935	2543.897301
647.430544	2544.661036
647.774101	2544.547610
648.117606	2543.050387
648.461059	2543.463762
648.804460	2545.974256
649.147810	2546.795964
649.491108	2541.018802
649.834354	2543.708258
650.177548	2543.461241
650.520690	2541.268339
650.863781	2544.212373
651.206820	2545.392003
651.549807	2543.244471
651.892742	2543.115922
652.235626	2546.861499
652.578458	2540.882691
652.921238	2542.271529
653.263967	2543.456200
653.606644	2542.637012
653.949269	2544.678680
654.291843	2541.016281
654.634365	2544.126673
654.976836	2543.771272
655.319255	2545.729760
655.661622	2543.927548
656.003938	2542.573998
656.346203	2541.245654
656.688416	2541.462423
657.030577	2541.941333
657.372687	2541.787578
657.714746	2543.592311
658.056753	2540.739018
658.398708	2538.825900
658.740612	2541.084337
659.082465	2538.967052
659.424266	2540.900335
659.766016	2537.598379
660.107715	2542.004348
660.449362	2542.705068
660.790958	2543.405788
661.132503	2543.801519
661.473996	2543.632640
661.815438	2542.475695
662.156829	2543.854451
662.498168	2541.059131
662.839456	2541.371683
663.180693	2540.602907
663.521879	2541.187681
663.863013	2541.994265
664.204097	2543.488967
664.545129	2541.535520
664.886110	2541.051569
665.227040	2541.646426
665.567918	2540.562577
665.908746	2541.510314
666.249522	2541.933771
666.590248	2542.760521
666.930922	2542.689944
667.271545	2542.810932
667.612118	2543.667928
667.952639	2539.692978
668.293109	2544.124153
668.633528	2542.014430
668.973896	2541.049049
669.314213	2541.822866
669.654480	2542.165664
669.994695	2540.728936
670.334859	2542.863864
670.674973	2541.023843
671.015035	2542.155582
671.355047	2540.451672
671.695008	2544.792106
672.034918	2539.330015
672.374777	2544.260264
672.714585	2543.441076
673.054342	2540.605427
673.394049	2541.996786
673.733705	2544.320758
674.073310	2544.335881
674.412864	2542.475695
674.752368	2542.979811
675.091820	2542.642053
675.431223	2541.898483
675.770574	2544.771941
676.109875	2538.599048
676.449125	2539.793802
676.788324	2537.880684
677.127473	2539.410674
677.466571	2536.781712
677.805619	2541.843031
678.144616	2538.283976
678.483562	2541.487629
678.822458	2542.372352
679.161303	2543.330171
679.500098	2542.004347
679.838842	2539.030067
680.177535	2539.733308
680.516179	2540.802032
680.854771	2540.207176
681.193314	2541.717002
681.531805	2542.011909
681.870247	2543.146169
682.208638	2541.149872
682.546978	2541.376724
682.885268	2543.894780
683.223508	2541.444779
683.561697	2541.356559
683.899836	2541.323792
684.237925	2540.746580
684.575963	2539.466127
684.913951	2541.646426
685.251889	2540.529810
685.589776	2540.587783
685.927614	2542.034594
686.265401	2541.144831
686.603137	2540.781868
686.940824	2542.296734
687.278460	2540.988555
687.616046	2540.149203
687.953582	2541.953936
688.291068	2543.138607
688.628504	2541.933771
688.965889	2539.234233
689.303224	2540.580222
689.640510	2541.001158
689.977745	2542.505942
690.314930	2542.942002
690.652065	2542.054759
690.989150	2542.238761
691.326185	2541.825387
691.663170	2541.142310
692.000105	2540.983514
692.336990	2539.229192
692.673825	2544.507280
693.010610	2544.429143
693.347345	2536.194418
693.684030	2535.387833
694.020665	2536.343132
694.357251	2535.166022
694.693786	2540.665921
695.030272	2542.584080
695.366707	2540.973432
695.703093	2539.181301
696.039429	2541.038967
696.375716	2540.008051
696.711952	2538.682227
697.048139	2537.429500
697.384276	2539.183822
697.720363	2540.335726
698.056400	2540.055942
698.392388	2540.958308
698.728326	2541.197763
699.064214	2539.340098
699.400053	2540.474357
699.735842	2538.891435
700.071581	2537.734490
700.407270	2538.944367
700.742910	2539.088040
701.078501	2538.856147
701.414042	2540.857485
701.749533	2535.584438
702.084974	2539.224151
702.420366	2538.583925
702.755709	2540.660880
703.091002	2539.019984
703.426246	2539.251878
703.761440	2536.781712
704.096584	2537.283307
704.431679	2536.854809
704.766725	2539.912269
705.101721	2536.738862
705.436668	2538.362114
705.771565	2537.414377
706.106413	2541.885880
706.441212	2538.775488
706.775961	2540.136600
707.110661	2539.569470
707.445311	2536.912782
707.779913	2535.899510
708.114465	2536.804397
708.448967	2539.070396
708.783421	2537.739531
709.117825	2538.286497
709.452180	2537.626105
709.786485	2541.064172
710.120742	2539.617361
710.454949	2539.312371
710.789107	2535.077802
711.123216	2536.131403
711.457275	2538.132741
711.791286	2536.771630
712.125247	2537.318595
712.459159	2540.413863
712.793023	2538.901517
713.126837	2540.280273
713.460602	2540.776827
713.794318	2539.082999
714.127985	2543.246992
714.461602	2538.500746
714.795171	2539.272042
715.128691	2540.376055
715.462162	2539.211548
715.795584	2539.173740
716.128957	2540.071065
716.462281	2538.301620
716.795556	2539.065355
717.128782	2538.137782
717.461960	2537.938657
717.795088	2539.458565
718.128167	2537.613503
718.461198	2538.082330
718.794180	2539.647608
719.127113	2536.814480
719.459997	2540.406302
719.792833	2537.900848
720.125619	2540.043339
720.458357	2539.922351
720.791046	2538.523431
721.123686	2540.560057
721.456278	2538.188194
721.788821	2536.469161
722.121315	2538.137783
722.453761	2533.973789
722.786158	2537.137113
723.118506	2536.217103
723.450805	2537.921013
723.783056	2538.410005
724.115259	2535.178625
724.447412	2534.482946
724.779518	2538.014274
725.111574	2537.943698
725.443582	2533.865405
725.775542	2539.796322
726.107453	2538.344470
726.439315	2537.290869
726.771129	2540.212217
727.102895	2536.474202
727.434612	2536.025539
727.766281	2538.069727
728.097901	2533.026052
728.429473	2533.903213
728.760996	2534.858512
729.092471	2534.271217
729.423897	2539.206507
729.755276	2537.132072
730.086606	2538.621733
730.417887	2539.279604
730.749120	2535.866743
731.080305	2535.879346
731.411442	2541.401930
731.742530	2536.068389
732.073570	2538.394881
732.404562	2539.297248
732.735506	2537.643749
733.066401	2538.520910
733.397249	2537.326157
733.728048	2538.541075
734.058798	2538.137782
734.389501	2536.658204
734.720156	2536.512010
735.050762	2537.258101
735.381320	2536.446475
735.711831	2536.708615
736.042293	2535.770961
736.372707	2536.925385
736.703073	2537.076620
737.033391	2537.510159
737.363661	2537.545447
737.693883	2537.164840
738.024056	2537.701723
738.354182	2536.426311
738.684260	2535.130734
739.014290	2535.700385
739.344272	2537.610982
739.674207	2535.652494
740.004093	2535.087884
740.333931	2534.893800
740.663722	2535.660055
740.993464	2538.301620
741.323159	2537.747093
741.652806	2536.297761
741.982405	2539.675334
742.311956	2536.514531
742.641460	2536.940508
742.970915	2535.292051
743.300323	2539.521579
743.629683	2537.530323
743.958996	2535.317257
744.288260	2534.485467
744.617477	2537.217772
744.946647	2531.916999
745.275768	2532.090918
745.604842	2531.183511
745.933869	2532.627801
746.262847	2532.544622
746.591778	2535.034952
746.920662	2535.410518
747.249498	2536.363296
747.578286	2535.589479
747.907027	2534.437576
748.235720	2535.566794
748.564365	2536.436393
748.892963	2536.585107
749.221514	2535.148378
749.550017	2536.136444
749.878473	2537.018646
750.206881	2537.694161
750.535242	2535.995292
750.863555	2535.776002
751.191821	2536.522093
751.520039	2536.683410
751.848210	2537.182484
752.176334	2536.690971
752.504411	2538.750283
752.832440	2535.629808
753.160421	2535.705426
753.488356	2537.308513
753.816243	2537.248019
754.144082	2536.264994
754.471875	2536.418749
754.799620	2534.843388
755.127318	2535.685261
755.454969	2532.423635
755.782572	2538.518390
756.110129	2534.379602
756.437638	2536.083512
756.765100	2534.800539
757.092515	2536.627957
757.419882	2533.663758
757.747203	2536.416228
758.074477	2534.679551
758.401703	2538.006712
758.728882	2537.568132
759.056014	2536.965714
759.383099	2537.537885
759.710138	2537.212731
760.037129	2538.115097
760.364073	2537.658873
760.690970	2536.930426
761.017820	2538.689789
761.344623	2535.932278
761.671379	2536.726259
761.998088	2533.048738
762.324751	2531.586803
762.651366	2535.334901
762.977935	2537.535365
763.304456	2535.039993
763.630931	2540.686086
763.957359	2539.937474
764.283740	2542.647095
764.610074	2536.330529
764.936362	2538.253729
765.262602	2535.869263
765.588796	2537.744573
765.914943	2538.334387
766.241044	2536.282638
766.567097	2538.054603
766.893104	2535.047555
767.219064	2534.258615
767.544978	2535.609644
767.870845	2533.401618
768.196665	2534.142668
768.522438	2536.272556
768.848165	2536.539737
769.173846	2535.967566
769.499479	2536.355735
769.825066	2535.055117
770.150607	2535.438245
770.476101	2536.970755
770.801548	2537.714326
771.126949	2534.356917
771.452303	2535.075282
771.777611	2534.147709
772.102872	2537.948739
772.428087	2535.370189
772.753256	2536.509490
773.078378	2533.734335
773.403453	2533.653676
773.728482	2535.783564
774.053465	2535.685261
774.378401	2532.678213
774.703291	2533.537730
775.028135	2532.809283
775.352932	2534.238450
775.677683	2535.672658
776.002388	2535.042514
776.327046	2532.947915
776.651658	2533.963707
776.976224	2537.190046
777.300743	2535.972607
777.625216	2534.102339
777.949643	2536.650642
778.274024	2535.062679
778.598359	2532.232071
778.922647	2528.332738
779.246889	2531.216278
779.571086	2531.054961
779.895236	2533.767102
780.219339	2532.413552
780.543397	2534.130065
780.867409	2533.825075
781.191374	2534.803059
781.515294	2533.686444
781.839167	2532.905065
782.162995	2536.665766
782.486776	2533.172246
782.810511	2533.167205
783.134201	2535.518903
783.457844	2533.925898
783.781441	2534.258615
784.104993	2531.455733
784.428498	2532.821886
784.751958	2535.163502
785.075372	2534.097298
785.398739	2532.537061
785.722061	2535.428162
786.045337	2532.786598
786.368568	2532.655528
786.691752	2535.002185
787.014891	2534.939170
787.337983	2534.745086
787.661030	2534.077133
787.984031	2534.125024
788.306987	2535.483615
788.629897	2532.625281
788.952760	2535.269366
789.275579	2535.728111
789.598351	2534.767771
789.921078	2534.712318
790.243759	2531.856505
790.566395	2533.777184
790.888984	2533.731814
791.211529	2531.712832
791.534027	2536.118800
791.856480	2536.247350
792.178888	2533.492359
792.501249	2534.170394
792.823566	2536.968235
793.145836	2533.608306
793.468062	2533.005888
793.790241	2532.859694
794.112375	2534.838347
794.434464	2536.484284
794.756507	2534.760209
795.078505	2533.101670
795.400457	2534.160312
795.722364	2529.172090
796.044226	2531.727955
796.366042	2529.502286
796.687812	2532.095960
797.009538	2534.694674
797.331218	2537.671476
797.652852	2536.353214
797.974442	2533.898172
798.295986	2533.499921
798.617484	2535.420601
798.938938	2532.932791
799.260346	2534.863553
799.581709	2531.241484
799.903026	2535.544109
800.224299	2535.105528
800.545526	2534.934129
800.866708	2533.840199
801.187845	2535.589479
801.508936	2536.325488
801.829983	2531.682585
802.150984	2534.185518
802.471940	2534.248532
802.792851	2532.239632
803.113717	2534.820703
803.434538	2532.569828
803.755314	2534.404808
804.076045	2533.469674
804.396731	2532.350538
804.717372	2530.928932
805.037967	2533.497400
805.358518	2533.913296
805.679024	2535.256763
805.999485	2531.498583
806.319901	2533.973789
806.640272	2532.085877
806.960598	2533.416742
807.280879	2532.423635
807.601115	2534.366999
807.921306	2532.963038
808.241453	2531.783408
808.561554	2530.906247
808.881611	2530.568490
809.201623	2534.805580
809.521590	2533.497400
809.841513	2533.666279
810.161390	2535.377751
810.481223	2533.431865
810.801011	2531.508665
811.120755	2533.305837
811.440453	2532.869777
811.760107	2532.370703
812.079716	2531.291896
812.399281	2527.543798
812.718801	2532.360620
813.038276	2527.758047
813.357707	2532.716022
813.677093	2532.141330
813.996434	2534.790456
814.315731	2530.555887
814.634983	2531.266690
814.954191	2531.480939
815.273354	2533.104190
815.592473	2530.873480
815.911547	2534.591331
816.230577	2533.318439
816.549562	2530.583613
816.868502	2531.533871
817.187399	2535.662576
817.506250	2533.084026
817.825058	2532.842050
818.143821	2531.440610
818.462539	2534.553522
818.781213	2534.687113
819.099843	2533.494880
819.418429	2530.571011
819.736970	2537.449665
820.055466	2535.271887
820.373919	2533.326001
820.692327	2533.026052
821.010691	2536.300282
821.329011	2537.421939
821.647286	2545.306303
821.965517	2549.414844
822.283704	2552.983981
822.601847	2550.536500
822.919945	2550.435677
823.237999	2544.459389
823.556010	2544.429142
823.873976	2540.708771
824.191897	2540.549975
824.509775	2538.251208
824.827609	2538.354552
825.145398	2535.249201
825.463144	2535.153419
825.780845	2535.927237
826.098502	2536.811959
826.416116	2540.509645
826.733685	2540.277752
827.051210	2539.876981
827.368692	2537.870601
827.686129	2540.189532
828.003522	2536.058307
828.320872	2534.467822
828.638177	2533.603265
828.955439	2530.651669
829.272656	2531.707791
829.589830	2528.781401
829.906960	2533.968748
830.224046	2533.260466
830.541088	2533.247863
830.858086	2533.222657
831.175041	2533.963707
831.491952	2531.019673
831.808819	2534.213244
832.125642	2532.048069
832.442421	2535.445806
832.759157	2534.850950
833.075849	2535.312216
833.392497	2536.217103
833.709101	2534.671989
834.025662	2537.031249
834.342179	2532.375744
834.658653	2536.060827
834.975083	2534.261135
835.291469	2535.024870
835.607811	2535.758358
835.924110	2535.178625
836.240366	2533.888090
836.556578	2532.547143
836.872746	2533.623429
837.188871	2529.787111
837.504952	2531.339787
837.820990	2530.467667
838.136984	2532.264838
838.452935	2532.857174
838.768842	2534.422452
839.084706	2530.603778
839.400526	2533.719211
839.716303	2534.553522
840.032037	2534.714839
840.347727	2534.737524
840.663373	2531.790970
840.978977	2532.978162
841.294537	2530.366844
841.610054	2533.021011
841.925527	2534.140148
842.240957	2530.757533
842.556344	2529.877852
842.871687	2531.123017
843.186987	2531.594365
843.502244	2530.744930
843.817458	2530.843233
844.132629	2531.125538
844.447756	2531.589324
844.762840	2526.308715
845.077881	2529.653521
845.392879	2527.720238
845.707833	2528.993129
846.022745	2527.914322
846.337613	2532.559746
846.652438	2530.931453
846.967221	2532.905065
847.281960	2531.964890
847.596656	2533.119314
847.911309	2529.567821
848.225919	2530.190403
848.540485	2529.736700
848.855009	2531.846422
849.169490	2529.547656
849.483928	2533.348686
849.798323	2530.868439
850.112675	2531.501103
850.426984	2530.306350
850.741251	2530.727286
851.055474	2529.272913
851.369654	2533.741896
851.683792	2534.432534
851.997887	2531.637215
852.311938	2531.085208
852.625947	2531.130579
852.939914	2532.186700
853.253837	2532.887421
853.567718	2529.784591
853.881555	2533.119314
854.195350	2531.133099
854.509103	2532.857174
854.822812	2531.596885
855.136479	2534.414890
855.450103	2531.959848
855.763685	2530.276103
856.077224	2533.167205
856.390720	2529.724097
856.704173	2530.689478
857.017584	2531.841381
857.330953	2531.201155
857.644278	2529.797193
857.957561	2533.406660
858.270802	2533.832637
858.584000	2530.901206
858.897155	2530.124868
859.210268	2529.540095
859.523339	2529.716535
859.836367	2530.815507
860.149352	2531.251566
860.462295	2531.123017
860.775195	2529.756864
861.088054	2529.025897
861.400869	2527.858870
861.713642	2527.543798
862.026373	2531.425486
862.339062	2527.795855
862.651708	2529.716535
862.964312	2532.118645
863.276873	2531.216278
863.589392	2528.743592
863.901869	2530.755013
864.214303	2531.249046
864.526696	2528.829292
864.839045	2530.006401
865.151353	2531.480939
865.463619	2531.637215
865.775842	2530.931453
866.088023	2532.426155
866.400162	2529.746782
866.712258	2531.163346
867.024313	2531.987575
867.336325	2530.452543
867.648296	2531.561597
867.960224	2529.043541
868.272110	2530.757533
868.583954	2530.301309
868.895755	2531.072605
869.207515	2530.928933
869.519233	2534.777853
869.830909	2529.068747
870.142542	2529.507327
870.454134	2530.170239
870.765684	2531.533871
871.077191	2532.108563
871.388657	2527.523633
871.700081	2530.082019
872.011463	2531.985054
872.322803	2528.022707
872.634101	2529.794673
872.945357	2532.017822
873.256571	2532.257277
873.567744	2529.696370
873.878874	2529.530012
874.189963	2530.901206
874.501010	2530.916330
874.812015	2531.238963
875.122979	2530.364323
875.433900	2530.074457
875.744780	2535.279448
876.055618	2529.570342
876.366415	2531.536392
876.677169	2528.352903
876.987882	2530.613860
877.298554	2525.678571
877.609183	2529.489683
877.919771	2526.540608
878.230317	2530.870959
878.540822	2530.598737
878.851285	2529.572862
879.161707	2531.637215
879.472087	2531.228881
879.782425	2533.510003
880.092722	2535.791125
880.402977	2533.449509
880.713191	2535.687782
881.023363	2537.273225
881.333494	2540.549975
881.643583	2541.855633
881.953631	2537.633667
882.263637	2542.606765
882.573602	2543.632640
882.883526	2540.628113
883.193408	2537.172402
883.503248	2539.566950
883.813048	2532.655528
884.122806	2532.700898
884.432522	2534.230888
884.742197	2531.581762
885.051831	2531.279293
885.361424	2532.912627
885.670975	2531.594365
885.980485	2529.524971
886.289954	2530.417255
886.599382	2529.938346
886.908768	2531.521268
887.218113	2531.780888
887.527417	2530.850795
887.836680	2531.657379
888.145901	2531.574200
888.455082	2528.539426
888.764221	2528.282327
889.073319	2530.291227
889.382376	2529.850126
889.691392	2530.886083
890.000366	2531.339787
890.309300	2532.874818
890.618193	2530.540764
890.927044	2530.019004
891.235855	2532.693336
891.544625	2529.429189
891.853353	2533.648635
892.162041	2528.115969
892.470687	2530.414735
892.779293	2527.745444
893.087858	2530.860877
893.396381	2527.838705
893.704864	2531.511186
894.013306	2526.452388
894.321707	2533.351207
894.630068	2534.414890
894.938387	2533.825075
895.246665	2532.824406
895.554903	2534.871115
895.863100	2529.618233
896.171256	2535.055117
896.479371	2531.765764
896.787446	2534.424973
897.095480	2530.361803
897.403473	2530.807945
897.711425	2529.429189
898.019336	2529.126720
898.327207	2530.414735
898.635038	2528.834333
898.942827	2530.528161
899.250576	2529.940866
899.558284	2531.133099
899.865952	2532.249715
900.173579	2530.916330
900.481165	2528.400794
900.788711	2532.779036
901.096216	2530.485311
901.403681	2530.578572
901.711105	2533.943543
902.018489	2532.022863
902.325832	2534.498069
902.633135	2530.500434
902.940397	2530.626463
903.247619	2530.422297
903.554800	2531.861546
903.861941	2533.774664
904.169041	2535.080323
904.476101	2533.754499
904.783121	2535.453368
905.090100	2533.895652
905.397039	2533.073943
905.703938	2533.910775
906.010796	2532.579910
906.317614	2529.091432
906.624391	2531.957328
906.931129	2529.774508
907.237826	2529.933305
907.544483	2532.736186
907.851099	2529.179652
908.157675	2530.618902
908.464211	2532.342976
908.770707	2525.275278
909.077163	2526.906092
909.383578	2526.384332
909.689954	2525.401307
909.996289	2524.687984
910.302584	2527.095135
910.608839	2528.408356
910.915054	2529.484642
911.221229	2527.455578
911.527363	2532.010260
911.833458	2528.229395
912.139513	2528.214271
912.445527	2531.279293
912.751502	2529.560259
913.057436	2530.855836
913.363331	2527.526154
913.669186	2530.092101
913.975000	2530.407173
914.280775	2530.475229
914.586510	2529.782070
914.892205	2531.344828
915.197859	2534.692154
915.503475	2534.210724
915.809050	2534.724921
916.114585	2533.240302
916.420081	2535.423121
916.725536	2534.833306
917.030952	2532.695857
917.336328	2533.852802
917.641665	2534.195600
917.946961	2530.757533
918.252218	2531.407842
918.557435	2532.872297
918.862612	2532.476567
919.167750	2531.375075
919.472848	2529.106555
919.777906	2528.980527
920.082925	2529.835002
920.387904	2528.841895
920.692843	2531.859025
920.997743	2532.106042
921.302603	2529.598068
921.607423	2530.755013
921.912204	2532.905065
922.216946	2527.929446
922.521647	2529.582944
922.826310	2530.583613
923.130932	2529.456916
923.435516	2529.910619
923.740059	2527.427851
924.044564	2529.714014
924.349028	2528.776360
924.653454	2523.750329
924.957840	2526.429703
925.262186	2525.187058
925.566493	2528.143695
925.870761	2526.356606
926.174989	2528.199148
926.479178	2529.023376
926.783328	2528.736031
927.087438	2527.576565
927.391509	2529.797193
927.695541	2530.833151
927.999533	2526.545649
928.303486	2529.277955
928.607400	2530.006401
928.911275	2528.839374
929.215110	2528.635207
929.518906	2527.959693
929.822663	2528.809127
930.126381	2526.515402
930.430060	2526.964065
930.733699	2530.755013
931.037299	2528.481452
931.340861	2529.678726
931.644383	2532.355579
931.947866	2527.800897
932.251309	2529.078829
932.554714	2528.509179
932.858080	2528.620084
933.161407	2527.269055
933.464694	2529.136802
933.767943	2528.025228
934.071153	2528.403314
934.374323	2527.327028
934.677455	2528.539426
934.980548	2527.805938
935.283602	2525.925587
935.586617	2527.448016
935.889593	2527.954652
936.192530	2531.627132
936.495428	2530.351720
936.798287	2528.655372
937.101108	2528.342821
937.403890	2529.489683
937.706632	2527.629497
938.009336	2528.826771
938.312002	2528.186545
938.614628	2528.526823
938.917216	2530.129910
939.219765	2527.780732
939.522275	2529.275434
939.824747	2531.249046
940.127179	2524.793848
940.429573	2526.374250
940.731929	2528.153777
941.034246	2523.228570
941.336524	2528.743592
941.638763	2526.321318
941.940964	2529.182173
942.243126	2529.169570
942.545250	2527.989940
942.847335	2529.671165
943.149381	2526.666637
943.451389	2526.540608
943.753359	2530.439941
944.055290	2528.829292
944.357182	2529.219981
944.659036	2528.083201
944.960851	2530.253418
945.262628	2528.607481
945.564367	2527.904240
945.866067	2529.164529
946.167729	2529.255269
946.469352	2527.382481
946.770937	2526.896009
947.072484	2529.184693
947.373992	2526.923736
947.675462	2529.109076
947.976893	2526.056657
948.278286	2524.294774
948.579641	2527.609333
948.880958	2532.133768
949.182236	2528.985568
949.483476	2527.105217
949.784678	2527.778211
950.085841	2528.569673
950.386967	2527.742923
950.688054	2527.069929
950.989103	2528.010104
951.290114	2528.408356
951.591087	2527.546318
951.892021	2530.525640
952.192917	2528.534384
952.493776	2528.380629
952.794596	2529.618232
953.095378	2530.767616
953.396122	2528.017666
953.696828	2528.839374
953.997496	2528.063037
954.298126	2526.580937
954.598718	2528.766277
954.899272	2525.449198
955.199788	2529.139323
955.500266	2526.664116
955.800706	2527.087573
956.101108	2522.895854
956.401472	2525.068591
956.701798	2523.084897
957.002087	2524.476256
957.302337	2527.349713
957.602550	2528.022707
957.902724	2529.560259
958.202861	2528.564631
958.502960	2527.977337
958.803022	2528.143695
959.103045	2527.788294
959.403031	2529.172090
959.702979	2527.846267
960.002889	2529.192255
960.302762	2524.743437
960.602596	2527.904240
960.902393	2527.730320
961.202153	2526.018849
961.501875	2527.364837
961.801559	2526.608664
962.101205	2525.885258
962.400814	2527.246370
962.700385	2528.756195
962.999918	2528.060516
963.299414	2525.678571
963.598873	2526.583458
963.898293	2528.736031
964.197677	2527.339631
964.497022	2525.842408
964.796331	2527.402645
965.095601	2527.705115
965.394835	2527.770650
965.694030	2526.001205
965.993189	2527.639580
966.292309	2524.998015
966.591393	2527.052285
966.890439	2527.410207
967.189447	2526.286030
967.488419	2528.123530
967.787353	2527.387522
968.086249	2528.163860
968.385108	2526.961544
968.683930	2529.003212
968.982714	2525.746626
969.281462	2527.170752
969.580172	2527.460619
969.878844	2529.282996
970.177480	2531.193593
970.476078	2525.562624
970.774639	2528.206709
971.073162	2528.380629
971.371649	2524.541791
971.670098	2523.200844
971.968510	2524.783766
972.266885	2520.370236
972.565223	2527.180835
972.863524	2525.865093
973.161788	2526.936339
973.460014	2528.357944
973.758204	2529.154446
974.056356	2525.605474
974.354471	2529.088911
974.652550	2528.700742
974.950591	2527.576565
975.248595	2524.889630
975.546563	2526.265865
975.844493	2527.410207
976.142386	2528.723428
976.440243	2526.306194
976.738062	2525.471883
977.035845	2526.608664
977.333590	2528.060516
977.631299	2525.234949
977.928971	2528.241998
978.226606	2526.051616
978.524204	2527.571524
978.821765	2529.759385
979.119290	2526.220495
979.416777	2527.218643
979.714228	2527.657224
980.011642	2526.916174
980.309020	2530.460105
980.606360	2526.540608
980.903664	2528.017666
981.200931	2523.510875
981.498162	2526.762419
981.795356	2525.713859
982.092513	2527.120341
982.389633	2523.646986
982.686717	2526.643952
982.983764	2523.984743
983.280775	2528.841895
983.577749	2528.423479
983.874686	2531.551515
984.171587	2525.139167
984.468451	2526.994312
984.765279	2526.477594
985.062070	2526.507841
985.358824	2528.521782
985.655543	2527.022038
985.952224	2526.520443
986.248869	2524.065402
986.545478	2523.934332
986.842050	2520.309742
987.138586	2523.200844
987.435086	2525.126564
987.731549	2524.451050
988.027975	2528.673016
988.324366	2526.323838
988.620719	2526.817872
988.917037	2527.634538
989.213318	2525.237470
989.509563	2528.032790
989.805772	2525.353416
990.101944	2524.761081
990.398080	2527.669827
990.694180	2524.980371
990.990244	2527.082532
991.286271	2527.319466
991.582262	2528.015146
991.878217	2526.747295
992.174136	2526.102028
992.470019	2526.280989
992.765865	2526.767460
993.061676	2524.990453
993.357450	2525.411390
993.653188	2525.696215
993.948890	2525.333252
994.244556	2527.430372
994.540186	2525.464322
994.835780	2525.277799
995.131337	2526.966586
995.426859	2525.804600
995.722345	2527.062368
996.017795	2525.734023
996.313208	2528.000022
996.608586	2526.548170
996.903928	2527.674868
997.199234	2524.942562
997.494504	2525.887779
997.789738	2528.393232
998.084936	2526.142357
998.380099	2524.370391
998.675225	2525.000536
998.970316	2525.940711
999.265371	2527.508510
999.560390	2528.141174
999.855373	2528.252080
1000.150320	2526.432223
1000.445232	2529.469518
1000.740108	2525.887779
1001.034948	2527.937008
1001.329752	2526.817872
1001.624521	2525.658406
1001.919254	2522.222860
1002.213951	2525.794517
1002.508613	2522.671523
1002.803239	2525.171935
1003.097829	2526.636390
1003.392384	2527.805938
1003.686903	2526.729651
1003.981386	2527.518592
1004.275834	2526.704446
1004.570246	2525.653365
1004.864623	2522.603467
1005.158964	2525.360978
1005.453270	2525.013138
1005.747540	2525.963396
1006.041775	2527.483304
1006.335974	2525.232429
1006.630138	2525.378622
1006.924266	2527.702594
1007.218359	2527.720238
1007.512416	2526.170083
1007.806438	2523.989784
1008.100425	2528.549508
1008.394376	2526.084384
1008.688292	2525.406348
1008.982172	2527.369878
1009.276017	2525.940711
1009.569827	2523.682274
1009.863602	2527.561442
1010.157341	2525.557583
1010.451045	2525.003056
1010.744714	2528.070598
1011.038347	2524.325021
1011.331945	2523.959537
1011.625508	2527.561442
1011.919036	2526.943900
1012.212528	2527.143026
1012.505986	2526.041534
1012.799408	2525.358457
1013.092795	2527.513551
1013.386147	2527.047244
1013.679464	2525.161852
1013.972745	2525.890299
1014.265992	2526.659075
1014.559204	2524.924918
1014.852380	2524.287212
1015.145521	2528.451205
1015.438628	2527.458098
1015.731699	2524.758560
1016.024736	2526.878365
1016.317737	2525.119003
1016.610703	2525.839888
1016.903635	2521.892664
1017.196531	2522.331245
1017.489393	2524.844260
1017.782219	2521.665812
1018.075011	2524.151101
1018.367768	2527.102697
1018.660490	2524.985412
1018.953177	2524.985412
1019.245829	2524.985412
