Dividing Wavelength (nm)	Counts (n)	Blue Motor Position (mm): 0.000000	Red Motor Position (mm): 45.500000	
326.493990	2075.362380
326.888308	2075.362380
327.282561	2075.362380
327.676750	2054.635676
328.070874	2055.618701
328.464933	2060.811089
328.858929	2072.388099
329.252859	2084.335634
329.646726	2099.580083
330.040528	2112.863523
330.434265	2133.055865
330.827938	2152.592857
331.221547	2172.129849
331.615091	2193.209433
332.008571	2212.718699
332.401986	2234.277193
332.795338	2254.023393
333.188625	2276.080962
333.581847	2294.871863
333.975006	2312.951961
334.368100	2328.145998
334.761129	2347.534276
335.154095	2361.909126
335.546996	2403.549057
335.939833	2485.298928
336.332606	2496.659169
336.725315	2507.855571
337.117960	2515.248423
337.510540	2526.830474
337.903056	2535.309695
338.295508	2541.454862
338.687896	2549.029195
339.080220	2554.420709
339.472480	2557.115206
339.864676	2562.768860
340.256807	2565.571742
340.648875	2568.538461
341.040879	2571.346383
341.432818	2572.155489
341.824694	2571.946281
342.216506	2573.635067
342.608253	2571.212793
342.999937	2570.862433
343.391557	2570.401167
343.783113	2570.708677
344.174605	2568.394788
344.566033	2565.942267
344.957397	2564.616443
345.348697	2560.296174
345.739934	2559.464384
346.131106	2559.333314
346.522215	2560.689384
346.913260	2555.807027
347.304241	2556.245607
347.695159	2553.006666
348.086012	2552.031203
348.476802	2550.367622
348.867528	2547.431150
349.258191	2546.206149
349.648789	2549.954247
350.039324	2544.603062
350.429796	2549.382076
350.820203	2545.510470
351.210548	2544.240099
351.600828	2545.828063
351.991045	2541.979142
352.381198	2545.041643
352.771288	2544.792106
353.161314	2542.770603
353.551276	2544.015768
353.941175	2542.841179
354.331010	2542.889070
354.720782	2545.061807
355.110490	2546.327137
355.500135	2545.271015
355.889717	2545.054246
356.279235	2545.354194
356.668689	2545.671787
357.058080	2549.523228
357.447408	2544.603062
357.836672	2543.007537
358.225873	2546.750594
358.615010	2545.258412
359.004084	2549.160265
359.393095	2553.120092
359.782043	2550.612118
360.170927	2551.448949
360.559748	2554.022458
360.948505	2555.058415
361.337199	2556.916081
361.725830	2557.301729
362.114398	2559.688715
362.502903	2557.861297
362.891344	2559.819785
363.279722	2560.323901
363.668037	2560.515464
364.056289	2562.521844
364.444478	2564.084601
364.832603	2563.371278
365.220665	2562.889848
365.608665	2565.541495
365.996601	2566.340518
366.384474	2566.176680
366.772284	2567.394119
367.160031	2567.631053
367.547715	2569.917216
367.935336	2566.786660
368.322893	2573.277145
368.710388	2570.237330
369.097820	2575.404512
369.485189	2576.004410
369.872495	2576.011971
370.259738	2578.330902
370.646918	2581.088413
371.034035	2581.426171
371.421090	2585.741398
371.808081	2586.540421
372.195010	2592.723396
372.581875	2595.896803
372.968678	2602.243615
373.355418	2609.333998
373.742096	2619.570061
374.128710	2626.068108
374.515262	2637.042700
374.901751	2649.590132
375.288177	2665.114366
375.674540	2679.267405
376.060841	2700.929243
376.447079	2719.795761
376.833254	2745.659401
377.219367	2766.698657
377.605417	2798.871301
377.991404	2822.582368
378.377329	2859.274406
378.763191	2890.665671
379.148991	2935.229471
379.534727	2982.880978
379.920402	3025.095600
380.306013	3072.842889
380.691563	3133.303967
381.077049	3187.055270
381.462474	3238.603589
381.847835	3307.692602
382.233134	3373.535113
382.618371	3433.403856
383.003545	3514.836134
383.388657	3589.598967
383.773706	3674.277748
384.158693	3744.397678
384.543618	3834.362109
384.928480	3912.898245
385.313280	4008.987678
385.698017	4109.288996
386.082692	4223.085482
386.467305	4286.024288
386.851856	4407.959717
387.236344	4555.816760
387.620770	4613.716932
388.005133	4728.478799
388.389435	4868.980798
388.773674	4951.028098
389.157851	5079.799332
389.541965	5203.698290
389.926018	5231.893464
390.310008	5400.527622
390.693936	5523.105798
391.077802	5631.220904
391.461606	5759.883753
391.845348	5869.329723
392.229027	5988.111911
392.612645	6198.811977
392.996200	6318.935112
393.379694	6488.547253
393.763125	6702.163627
394.146494	6795.427494
394.529801	6927.306599
394.913047	7162.163874
395.296230	7164.636560
395.679351	7220.817699
396.062410	7468.930689
396.445408	7368.031994
396.828343	7526.288937
397.211217	7654.727455
397.594028	7541.230917
397.976778	7744.548213
398.359466	7911.579284
398.742092	7894.875421
399.124656	8036.335239
399.507158	8220.047488
399.889598	8250.889267
400.271977	8454.965258
400.654294	8481.300245
401.036549	8685.348509
401.418742	8715.751708
401.800874	9011.566615
402.182944	9093.931508
402.564952	9447.024005
402.946898	9286.327144
403.328783	9339.654990
403.710606	9536.970793
404.092367	9788.368094
404.474067	10147.008381
404.855705	9957.897057
405.237282	9903.414786
405.618797	10336.250776
406.000250	10571.420603
406.381642	10926.148955
406.762972	10884.345187
407.144240	10697.542711
407.525447	10952.753645
407.906593	10890.994469
408.287677	11158.581436
408.668700	11307.502161
409.049661	11298.123095
409.430560	11450.912906
409.811399	11425.545820
410.192176	11585.814183
410.572891	11676.252483
410.953545	12146.839153
411.334138	11626.823969
411.714669	12216.659134
412.095139	11562.781151
412.475547	12039.719675
412.855894	11903.517781
413.236180	12233.206722
413.616405	11926.923858
413.996568	12199.252030
414.376670	12175.777897
414.756711	12062.084754
415.136691	12345.095131
415.516609	12521.321267
415.896466	12599.353287
416.276262	12898.064338
416.655997	13351.450591
417.035670	13394.605389
417.415283	14013.439791
417.794834	14097.349797
418.174324	13848.745295
418.553753	13758.163322
418.933121	14252.506430
419.312428	14083.552158
419.691674	13984.629597
420.070859	14453.950937
420.449983	14109.130973
420.829045	14661.742258
421.208047	14420.175207
421.586988	14868.769843
421.965867	15117.341578
422.344686	15123.128822
422.723444	15709.223451
423.102141	14389.209919
423.480777	15590.652992
423.859352	15080.689869
424.237866	16190.817481
424.616319	15917.826397
424.994712	16554.854323
425.373044	16352.091554
425.751314	17047.740538
426.129524	16165.291598
426.507673	17253.260818
426.885762	16984.990775
427.263789	17162.472158
427.641756	17345.168615
428.019662	17405.549035
428.397508	17461.800750
428.775292	17752.987878
429.153016	17732.354436
429.530679	17811.016600
429.908282	17845.772836
430.285824	17566.011482
430.663305	18288.691133
431.040726	17905.087052
431.418086	17738.088748
431.795385	18376.923928
432.172624	18814.506164
432.549802	18382.199496
432.926920	18588.581814
433.303977	18472.607549
433.680974	18714.192244
434.057910	19032.765441
434.434786	19066.639474
434.811601	18994.233381
435.188355	20048.580626
435.565050	19702.311330
435.941683	19678.156641
436.318257	20569.697302
436.694770	20370.163392
437.071222	20976.377265
437.447614	20037.837927
437.823946	20080.972560
438.200218	20264.215982
438.576429	20026.749909
438.952580	20348.098261
439.328670	20305.046807
439.704700	20732.327446
440.080670	20305.003957
440.456580	20921.423647
440.832429	21082.662432
441.208218	20095.778429
441.583947	20536.771006
441.959616	20661.897485
442.335224	20914.005589
442.710773	21055.470448
443.086261	21616.220676
443.461689	20943.546751
443.837057	21099.247828
444.212365	21766.971340
444.587612	21768.571907
444.962800	21360.861028
445.337927	21805.074902
445.712995	20497.283647
446.088002	22409.622674
446.462949	22625.618472
446.837837	22805.103714
447.212664	22819.337412
447.587431	25786.628621
447.962139	28773.850032
448.336786	31114.089759
448.711374	29453.768095
449.085901	25696.485228
449.460369	25708.203391
449.834776	25687.852252
450.209124	28258.303831
450.583412	27746.462878
450.957640	28243.210617
451.331808	26895.334628
451.705917	25499.078685
452.079965	25539.246599
452.453954	25930.177997
452.827883	25842.618196
453.201752	25641.332485
453.575562	25804.938092
453.949311	26945.078213
454.323001	27024.002518
454.696632	26795.955841
455.070202	28407.098528
455.443713	28604.167314
455.817164	29182.327167
456.190556	29745.393804
456.563888	29154.890687
456.937160	29596.102554
457.310373	27891.970743
457.683526	28335.322580
458.056619	28325.888060
458.429653	28310.651173
458.802628	28931.902808
459.175542	29057.485512
459.548398	30446.202409
459.921194	32077.025761
460.293930	32824.454956
460.666607	34923.503197
461.039224	36737.489312
461.411782	37099.275280
461.784280	35789.396988
462.156719	35262.765290
462.529099	34701.848704
462.901419	33335.882534
463.273680	32284.935548
463.645882	32435.756789
464.018024	32423.259768
464.390106	33342.090715
464.762130	36281.932842
465.134094	40619.805397
465.505999	46129.715975
465.877845	50685.502488
466.249631	51701.675595
466.621358	49882.088758
466.993026	47658.690375
467.364634	45517.218303
467.736184	43522.431206
468.107674	42256.980603
468.479105	41460.957205
468.850477	40724.190050
469.221790	39275.183473
469.593043	37466.009140
469.964238	36578.219098
470.335373	36513.324324
470.706449	38382.130467
471.077467	41155.455720
471.448425	45860.510798
471.819324	48648.180655
472.190164	46669.532811
472.560945	43021.373281
472.931667	39830.758956
473.302330	38720.217970
473.672934	37857.742082
474.043479	38410.169364
474.413965	37600.381096
474.784393	37226.047696
475.154761	38171.957201
475.525070	38212.561175
475.895321	37730.546208
476.265513	38355.424954
476.635645	39372.986899
477.005719	39218.379752
477.375734	39730.084593
477.745691	40457.538217
478.115588	41832.296159
478.485427	43964.898320
478.855207	47444.423692
479.224928	50119.030551
479.594591	51658.906446
479.964194	50567.383212
480.333739	50719.938610
480.703226	50786.897736
481.072653	51426.322731
481.442022	51894.056108
481.811333	52121.439873
482.180584	50829.568582
482.549777	50326.635348
482.918912	49798.471139
483.287988	49474.980297
483.657005	48639.151948
484.025964	47965.696644
484.394864	47965.842838
484.763706	47519.990589
485.132489	46634.340516
485.501213	46464.488920
485.869879	46625.740308
486.238487	46205.353448
486.607036	46390.439411
486.975527	45834.163207
487.343959	46053.506332
487.712333	46120.682228
488.080648	46012.592327
488.448905	46483.922568
488.817104	46284.174408
489.185244	47302.575706
489.553326	49057.834899
489.921350	51816.883604
490.289315	54629.509693
490.657222	55169.591190
491.025070	55383.008438
491.392861	54484.387477
491.760593	53239.366150
492.128267	51533.026314
492.495883	49996.659062
492.863440	48584.664637
493.230939	47187.405505
493.598380	46076.476349
493.965763	45753.446773
494.333088	44935.902689
494.700354	44431.721769
495.067563	44126.847908
495.434713	43968.719515
495.801805	44061.902723
496.168839	43657.503882
496.535815	43328.432482
496.902733	43334.532279
497.269593	42899.939447
497.636395	42856.784649
498.003139	43227.558994
498.369825	42685.476159
498.736453	42997.112728
499.103023	42494.378620
499.469535	42384.743606
499.835989	42470.982625
500.202385	42119.886424
500.568723	42138.105154
500.935003	42338.526307
501.301226	42124.587300
501.667390	42753.824123
502.033497	42990.919671
502.399546	42426.610389
502.765537	41714.960782
503.131470	42080.013418
503.497345	42459.181284
503.863163	41078.371437
504.228923	41736.431057
504.594625	42136.549958
504.960269	41384.074567
505.325856	42090.756117
505.691385	41455.774899
506.056856	41599.384769
506.422270	42032.745039
506.787625	41584.379774
507.152924	41795.959522
507.518164	41895.358473
507.883347	41068.505898
508.248472	41323.376555
508.613540	41825.707371
508.978550	42115.765281
509.343503	41867.848896
509.708398	42079.375712
510.073236	42600.162192
510.438016	42606.629993
510.802738	42049.597616
511.167403	42692.417828
511.532010	42910.987135
511.896561	43207.888412
512.261053	44064.672837
512.625488	43600.780819
512.989866	43492.940456
513.354186	43318.370339
513.718449	43304.144203
514.082655	43988.158204
514.446803	43650.037933
514.810894	44191.788052
515.174927	44092.608391
515.538904	43996.186242
515.902822	44672.928378
516.266684	44101.052324
516.630488	44534.281524
516.994235	44382.217638
517.357925	44968.602133
517.721558	45118.006810
518.085133	45435.468432
518.448651	45552.738273
518.812112	45318.208673
519.175516	45423.041988
519.538863	45761.570592
519.902152	45718.289766
520.265385	46172.076791
520.628560	46203.825978
520.991678	45998.295615
521.354739	46225.475213
521.717743	46548.648463
522.080690	46432.107068
522.443580	46984.451172
522.806413	47008.676436
523.169189	46976.891961
523.531908	47144.701891
523.894569	46976.287023
524.257174	47169.673246
524.619722	47451.375444
524.982213	47428.735622
525.344647	47344.881069
525.707025	47383.660145
526.069345	47796.437383
526.431608	47707.138384
526.793815	48024.257208
527.155964	47545.657623
527.518057	47706.709886
527.880093	47496.425715
528.242072	48006.630813
528.603995	47707.211481
528.965860	47698.525573
529.327669	47802.617838
529.689421	47699.233855
530.051117	47651.300043
530.412755	47798.375707
530.774337	47863.338536
531.135862	47684.997636
531.497331	47842.553859
531.858743	47781.351730
532.220098	48097.651367
532.581396	47800.649267
532.942638	47448.252449
533.303824	47764.819266
533.664953	47738.428826
534.026025	47444.884958
534.387040	47915.154036
534.747999	47865.702837
535.108902	48034.939413
535.469748	47537.637148
535.830537	47638.256058
536.191270	47829.519955
536.551947	47474.221953
536.912567	47779.047923
537.273131	47919.754089
537.633638	47394.692710
537.994089	47733.440604
538.354483	47311.387642
538.714821	47902.646933
539.075103	48229.790091
539.435328	48009.063170
539.795497	47890.253256
540.155609	47867.938589
540.515665	48352.244759
540.875665	47763.989997
541.235609	48097.169937
541.595496	48070.277901
541.955328	48748.366026
542.315102	48103.262171
542.674821	47870.600318
543.034483	47897.527641
543.394090	47881.746309
543.753640	47825.986107
544.113134	48848.894195
544.472571	47822.086774
544.831953	49074.929451
545.191278	48276.380435
545.550548	47987.842433
545.909761	48461.690730
546.268918	48639.925765
546.628019	48950.690215
546.987064	48486.914143
547.346053	47744.032068
547.704986	48616.708731
548.063863	48184.873411
548.422684	48360.781953
548.781449	48187.807362
549.140158	48603.563923
549.498811	48440.527966
549.857408	47831.833845
550.215949	48685.636428
550.574434	48606.550806
550.932864	48361.036532
551.291237	49095.567935
551.649555	48693.039362
552.007817	48926.147357
552.366022	48553.774967
552.724173	48734.893542
553.082267	49116.511409
553.440305	49394.241177
553.798288	48684.860090
554.156215	48982.439402
554.514086	49195.120641
554.871902	48913.390717
555.229661	48938.447773
555.587365	48757.722407
555.945014	48839.711733
556.302606	48778.476838
556.660143	48973.156117
557.017625	49041.037774
557.375050	48850.610708
557.732421	49166.275159
558.089735	49134.697371
558.446994	49043.240758
558.804197	49509.708806
559.161345	49425.645045
559.518437	48676.577474
559.875474	48974.398761
560.232455	49162.552267
560.589381	49310.447118
560.946251	49005.026292
561.303065	49664.237815
561.659825	49448.335278
562.016528	49098.446434
562.373177	48821.921502
562.729770	49304.611982
563.086307	48806.533379
563.442789	49255.367471
563.799216	49271.569739
564.155587	49072.033308
564.511904	49091.386298
564.868164	49155.920629
565.224370	49393.699253
565.580520	49122.245721
565.936615	49314.764866
566.292654	49026.100835
566.648638	49269.460017
567.004567	49224.676926
567.360441	49273.034195
567.716260	49119.974682
568.072023	49404.850285
568.427732	49358.572493
568.783385	48893.952028
569.138982	49297.725766
569.494525	49238.651005
569.850013	48982.378908
570.205445	48956.626173
570.560823	48890.098066
570.916145	48755.922715
571.271412	48802.429880
571.626625	48533.943067
571.981782	48560.671265
572.336884	48238.032378
572.691931	48549.053926
573.046923	48157.588165
573.401860	47979.310280
573.756743	47951.024366
574.111570	48045.505671
574.466342	47887.354593
574.821059	47990.209255
575.175722	47507.009618
575.530330	47525.936630
575.884882	47210.579689
576.239380	47168.786003
576.593823	47141.525964
576.948211	47049.935760
577.302544	46585.027949
577.656823	46570.345589
578.011047	46814.927250
578.365216	46529.716409
578.719330	46295.796789
579.073389	46141.971020
579.427394	46199.546038
579.781344	46170.191399
580.135239	45803.873435
580.489080	45896.537404
580.842866	45359.115116
581.196597	45804.266645
581.550273	45734.857518
581.903895	45604.301716
582.257463	45989.599625
582.610975	45362.354057
582.964434	45654.020095
583.317837	45277.529082
583.671186	45106.802845
584.024481	45324.613459
584.377721	44824.530997
584.730906	45111.009688
585.084037	45148.904042
585.437113	44839.321743
585.790135	44872.908430
586.143103	44437.095639
586.496016	44544.494901
586.848874	44566.388632
587.201679	44592.050626
587.554428	44043.542841
587.907124	44233.627108
588.259765	43972.104650
588.612352	44236.019136
588.964884	43588.729941
589.317362	43884.645672
589.669786	43812.476513
590.022155	43582.357922
590.374470	43993.224564
590.726731	43499.796425
591.078937	42994.798839
591.431090	43098.210548
591.783188	42732.084147
592.135232	42405.898808
592.487222	42663.862212
592.839157	42745.949841
593.191038	42403.297573
593.542866	42150.919767
593.894639	41550.483056
594.246358	41805.668784
594.598022	41788.173460
594.949633	41383.704043
595.301190	41335.482886
595.652692	41164.217245
596.004141	41494.317040
596.355535	40490.482157
596.706876	40431.014186
597.058162	40256.325602
597.409395	40717.082023
597.760573	40787.315378
598.111698	40390.417774
598.462768	40383.803780
598.813785	40413.047514
599.164748	39863.208864
599.515657	40232.415410
599.866511	39730.974357
600.217312	40353.415705
600.568060	39308.752517
600.918753	40074.027397
601.269392	39994.483030
601.619978	39649.378241
601.970510	39857.978667
602.320988	40029.882013
602.671412	40342.733500
603.021783	40085.967370
603.372100	39721.053366
603.722363	39821.344602
604.072572	39887.441690
604.422728	39901.703114
604.772830	39713.146317
605.122878	39820.013737
605.472872	39745.558415
605.822813	40013.646977
606.172701	39834.973361
606.522534	40076.011091
606.872314	40331.761428
607.222041	40096.962126
607.571714	40477.133182
607.921333	39899.820243
608.270899	40209.959590
608.620411	40552.037166
608.969870	40348.682061
609.319276	40347.661228
609.668627	40393.762580
610.017926	40885.098639
610.367171	41029.497450
610.716362	41109.437547
611.065500	41048.142157
611.414585	41239.156518
611.763616	41527.881043
612.112594	41463.944088
612.461518	41680.411235
612.810389	41979.006339
613.159207	41849.733510
613.507971	41913.819178
613.856682	42377.237328
614.205340	42271.078190
614.553945	42944.407465
614.902496	42412.240580
615.250994	42887.578537
615.599439	42942.872433
615.947830	43136.649346
616.296169	43224.756113
616.644454	43321.037110
616.992686	43495.178728
617.340864	44002.596069
617.688990	43712.356677
618.037063	44328.408362
618.385082	44287.290191
618.733048	44571.369293
619.080961	44581.673411
619.428821	44607.741218
619.776628	44681.316858
620.124382	44526.906316
620.472083	44649.179502
620.819731	44775.997289
621.167326	44445.617710
621.514868	44401.051389
621.862357	43976.278725
622.209793	44005.235113
622.557176	43668.912013
622.904506	43397.607196
623.251783	43054.168508
623.599007	42819.086901
623.946179	42607.408851
624.293297	42568.730598
624.640363	41960.222999
624.987376	41942.465535
625.334336	41717.695608
625.681243	41346.281037
626.028097	41302.238997
626.374899	41183.514782
626.721647	41156.431183
627.068343	41036.665971
627.414987	40795.245113
627.761577	40577.522720
628.108115	40902.470455
628.454600	40352.473009
628.801032	40555.039173
629.147412	40496.065235
629.493739	40487.593576
629.840014	40147.676134
630.186236	40476.510599
630.532405	40071.625287
630.878521	40287.714347
631.224585	40139.484259
631.570597	39843.331594
631.916556	40011.834682
632.262462	39950.244385
632.608316	39960.646806
632.954117	39861.459583
633.299866	39828.200571
633.645562	39764.818143
633.991206	39258.686297
634.336797	38811.057042
634.682336	38807.190477
635.027823	38567.685257
635.373257	38388.217660
635.718639	38136.873291
636.063968	38006.919906
636.409245	37432.548481
636.754470	37473.510377
637.099642	37213.472538
637.444762	36748.501713
637.789829	36888.118989
638.134845	36547.611732
638.479808	36486.278534
638.824719	36389.478298
639.169577	35992.583214
639.514383	36072.145225
639.859137	35761.723574
640.203839	35988.946022
640.548489	35620.195700
640.893086	35674.428433
641.237632	35438.434378
641.582125	35536.063884
641.926566	35463.418336
642.270955	35435.686949
642.615292	35447.256397
642.959576	35413.770532
643.303809	35415.179535
643.647990	35567.349284
643.992118	35510.666551
644.336195	35496.122822
644.680219	35589.679075
645.024192	35876.079628
645.368112	36398.847282
645.711981	36381.477987
646.055797	37250.328414
646.399562	37164.843047
646.743274	38109.623334
647.086935	38527.766881
647.430544	38408.984693
647.774101	38497.600616
648.117606	38740.768233
648.461059	39020.912714
648.804460	38612.110426
649.147810	37992.726538
649.491108	37735.700788
649.834354	37389.290340
650.177548	36544.632410
650.520690	36102.684535
650.863781	36112.502182
651.206820	35952.826154
651.549807	35525.011154
651.892742	35029.175864
652.235626	34844.094942
652.578458	34717.504007
652.921238	34093.706589
653.263967	34413.724077
653.606644	34083.110084
653.949269	34029.721744
654.291843	33601.642083
654.634365	33998.665716
654.976836	33596.028758
655.319255	33598.806434
655.661622	33587.093313
656.003938	33364.380177
656.346203	33212.180181
656.688416	33438.759882
657.030577	33232.753130
657.372687	33059.128229
657.714746	33309.144254
658.056753	33423.979218
658.398708	32869.427090
658.740612	32916.889553
659.082465	33180.161292
659.424266	33014.771117
659.766016	33134.642193
660.107715	32989.956037
660.449362	33098.277830
660.790958	33060.701069
661.132503	33054.210584
661.473996	33090.272478
661.815438	33196.933211
662.156829	33374.273442
662.498168	33139.484222
662.839456	33147.348422
663.180693	33292.326965
663.521879	33451.587097
663.863013	33407.711415
664.204097	33368.655076
664.545129	33813.234433
664.886110	33758.149745
665.227040	33825.237421
665.567918	33940.576500
665.908746	33961.565344
666.249522	34121.521156
666.590248	34100.635655
666.930922	34198.025706
667.271545	34164.731406
667.612118	34223.155858
667.952639	33998.716127
668.293109	34037.757343
668.633528	33924.122174
668.973896	33843.892210
669.314213	33867.121847
669.654480	33600.722072
669.994695	33611.237919
670.334859	33509.552805
670.674973	33391.476379
671.015035	33519.211656
671.355047	33463.438850
671.695008	33402.408121
672.034918	33290.217242
672.374777	33360.916904
672.714585	33187.574309
673.054342	33394.364960
673.394049	33142.939933
673.733705	33403.018101
674.073310	33055.246541
674.412864	33119.962353
674.752368	32732.017839
675.091820	33009.586290
675.431223	32596.859463
675.770574	32297.188072
676.109875	32144.506646
676.449125	31876.118136
676.788324	31787.366102
677.127473	31270.337802
677.466571	31193.702181
677.805619	30827.260708
678.144616	30820.079584
678.483562	30718.059233
678.822458	30411.836863
679.161303	30337.918424
679.500098	30250.159498
679.838842	30117.259559
680.177535	30240.903939
680.516179	30534.321778
680.854771	30747.078635
681.193314	31572.116394
681.531805	32639.202635
681.870247	33354.673435
682.208638	34018.147255
682.546978	34208.334866
682.885268	34285.383861
683.223508	33756.781072
683.561697	33427.742440
683.899836	33231.762543
684.237925	32729.575400
684.575963	32548.696279
684.913951	32096.224995
685.251889	32221.837946
685.589776	32198.638556
685.927614	32183.149611
686.265401	32297.500624
686.603137	32359.136292
686.940824	32829.430575
687.278460	33164.594209
687.616046	33251.362549
687.953582	33807.905934
688.291068	33636.194151
688.628504	33891.768048
688.965889	33806.786797
689.303224	33434.734520
689.640510	33089.360029
689.977745	32361.951776
690.314930	31573.167475
690.652065	31091.802817
690.989150	30399.236499
691.326185	29509.230870
691.663170	28853.190232
692.000105	28118.063972
692.336990	27473.877607
692.673825	27031.622222
693.010610	26536.543105
693.347345	25993.666289
693.684030	25358.672468
694.020665	25097.351656
694.357251	24426.638739
694.693786	24381.500248
695.030272	24147.356296
695.366707	23613.800572
695.703093	23337.850332
696.039429	23331.753056
696.375716	23050.514645
696.711952	23016.542309
697.048139	22846.698274
697.384276	22662.144152
697.720363	22770.644907
698.056400	22569.543197
698.392388	22352.554292
698.728326	22310.435451
699.064214	22101.988781
699.400053	22040.529554
699.735842	21697.350485
700.071581	21432.599168
700.407270	21142.377420
700.742910	20954.183585
701.078501	20705.730318
701.414042	20439.214596
701.749533	20150.031327
702.084974	19803.109201
702.420366	19990.635083
702.755709	19573.653522
703.091002	19291.598444
703.426246	19296.468198
703.761440	19186.815541
704.096584	18927.193597
704.431679	18870.072283
704.766725	18780.838818
705.101721	18722.784891
705.436668	18792.955232
705.771565	18477.368919
706.106413	18797.280542
706.441212	18772.851110
706.775961	18884.754643
707.110661	18930.193083
707.445311	19257.782384
707.779913	19090.698381
708.114465	19309.328182
708.448967	19560.972500
708.783421	20175.128711
709.117825	20413.388765
709.452180	20599.356931
709.786485	20944.428953
710.120742	21661.180206
710.454949	21656.575112
710.789107	22063.340775
711.123216	22692.234800
711.457275	22761.222990
711.791286	23250.593000
712.125247	23292.381644
712.459159	22988.558864
712.793023	23581.320418
713.126837	22540.261655
713.460602	22770.919649
713.794318	22419.326895
714.127985	22071.305798
714.461602	21232.152808
714.795171	21183.702279
715.128691	20258.700959
715.462162	19753.201778
715.795584	19375.135404
716.128957	19121.300705
716.462281	18763.162012
716.795556	18534.046611
717.128782	18070.010920
717.461960	17548.473308
717.795088	17464.217983
718.128167	17086.832165
718.461198	16667.635017
718.794180	16542.006943
719.127113	16217.956532
719.459997	16029.278747
719.792833	15709.223451
720.125619	15670.479663
720.458357	15370.205855
720.791046	15213.015116
721.123686	15061.064657
721.456278	14836.612323
721.788821	14797.535819
722.121315	14549.080031
722.453761	14608.369041
722.786158	14533.039079
723.118506	14533.276014
723.450805	14413.662036
723.783056	14541.457806
724.115259	14446.154793
724.447412	14369.045304
724.779518	14571.130038
725.111574	14579.248816
725.443582	14754.128964
725.775542	14731.660541
726.107453	15128.691736
726.439315	15013.592111
726.771129	15355.722620
727.102895	15656.377035
727.434612	15834.609550
727.766281	15919.618527
728.097901	16129.421268
728.429473	16158.239024
728.760996	16144.529606
729.092471	16196.130857
729.423897	16085.303610
729.755276	15960.701410
730.086606	16058.477110
730.417887	16495.552710
730.749120	16927.713185
731.080305	17065.984473
731.411442	17348.334459
731.742530	17387.879791
732.073570	17464.880895
732.404562	17716.910861
732.735506	17542.393677
733.066401	17262.115605
733.397249	16785.083819
733.728048	16241.166005
734.058798	15519.159348
734.389501	14920.355971
734.720156	14518.996945
735.050762	14056.332448
735.381320	13740.262184
735.711831	13528.019525
736.042293	13216.866907
736.372707	13209.889950
736.703073	13024.889686
737.033391	13177.750074
737.363661	13140.982418
737.693883	13225.996437
738.024056	13358.157846
738.354182	13510.491433
738.684260	13740.461310
739.014290	13924.680195
739.344272	14066.719746
739.674207	14294.037976
740.004093	14380.231624
740.333931	14362.489283
740.663722	14389.504827
740.993464	14368.730232
741.323159	14204.890211
741.652806	13953.233290
741.982405	13765.541050
742.311956	13470.986431
742.641460	13353.890510
742.970915	13087.760436
743.300323	12784.318263
743.629683	12585.691760
743.958996	12339.058349
744.288260	12092.737490
744.617477	11836.306597
744.946647	11778.681167
745.275768	11536.695700
745.604842	11386.612989
745.933869	11234.518857
746.262847	11187.028667
746.591778	11122.022988
746.920662	11023.286949
747.249498	11021.739314
747.578286	11110.415731
747.907027	11221.918492
748.235720	11396.831408
748.564365	11407.891699
748.892963	11313.957359
749.221514	11363.164062
749.550017	11230.997611
749.878473	11190.449090
750.206881	10998.313073
750.535242	10918.315002
750.863555	10838.896664
751.191821	10748.828889
751.520039	10753.421380
751.848210	10670.113793
752.176334	10697.527587
752.504411	10607.472415
752.832440	10469.536363
753.160421	10507.866777
753.488356	10408.004039
753.816243	10328.260547
754.144082	10200.056443
754.471875	10139.519747
754.799620	10089.065359
755.127318	10060.171986
755.454969	10023.900884
755.782572	9975.841044
756.110129	9981.411519
756.437638	9904.080219
756.765100	9890.637982
757.092515	9884.860820
757.419882	9903.409745
757.747203	9904.274303
758.074477	9956.972005
758.401703	9912.377958
758.728882	10049.436849
759.056014	10070.889479
759.383099	10156.374845
759.710138	10233.963244
760.037129	10294.399117
760.364073	10307.367485
760.690970	10288.581625
761.017820	10280.977045
761.344623	10427.876268
761.671379	10687.223469
761.998088	11181.049858
762.324751	12469.593987
762.651366	14817.100537
762.977935	17716.883135
763.304456	19477.120467
763.630931	19779.267064
763.957359	18796.897414
764.283740	17217.634984
764.610074	15696.817171
764.936362	14025.437737
765.262602	12784.131740
765.588796	11591.684607
765.914943	10780.913313
766.241044	10099.107338
766.567097	9583.167927
766.893104	9138.064289
767.219064	8843.136624
767.544978	8543.742497
767.870845	8280.788351
768.196665	8123.358157
768.522438	7960.269269
768.848165	7819.855490
769.173846	7683.535128
769.499479	7573.859785
769.825066	7443.845907
770.150607	7293.916951
770.476101	7236.057107
770.801548	7144.713920
771.126949	7027.804521
771.452303	6953.122348
771.777611	6823.073181
772.102872	6801.618031
772.428087	6707.850048
772.753256	6609.431602
773.078378	6533.327823
773.403453	6420.080822
773.728482	6327.842830
774.053465	6279.228463
774.378401	6203.470003
774.703291	6125.637108
775.028135	6045.933946
775.352932	6016.428072
775.677683	5948.329645
776.002388	5874.002873
776.327046	5870.476586
776.651658	5800.104599
776.976224	5732.951388
777.300743	5720.623247
777.625216	5667.673487
777.949643	5630.288290
778.274024	5637.693745
778.598359	5575.188479
778.922647	5572.970371
779.246889	5543.283016
779.571086	5546.312750
779.895236	5551.300971
780.219339	5548.384664
780.543397	5544.538263
780.867409	5577.598150
781.191374	5577.421710
781.515294	5544.076998
781.839167	5574.759981
782.162995	5555.976642
782.486776	5510.984343
782.810511	5477.576617
783.134201	5418.174181
783.457844	5403.985853
783.781441	5369.000245
784.104993	5327.425850
784.428498	5303.092200
784.751958	5288.185508
785.075372	5271.222025
785.398739	5234.262806
785.722061	5249.529940
786.045337	5246.399384
786.368568	5330.576571
786.691752	5340.164845
787.014891	5536.449732
787.337983	5754.159523
787.661030	6088.544298
787.984031	6408.040026
788.306987	6591.908551
788.629897	6636.580736
788.952760	6562.735394
789.275579	6421.502428
789.598351	6194.290062
789.921078	5988.159802
790.243759	5768.352891
790.566395	5616.813286
790.888984	5469.173013
791.211529	5360.770562
791.534027	5239.024176
791.856480	5135.322600
792.178888	5091.837607
792.501249	5033.307290
792.823566	4955.872647
793.145836	4952.621102
793.468062	4938.573927
793.790241	4904.256272
794.112375	4933.159728
794.434464	5002.825953
794.756507	5020.641391
795.078505	5115.339466
795.400457	5277.019352
795.722364	5454.888904
796.044226	5595.305203
796.366042	5709.978850
796.687812	5660.469678
797.009538	5673.748078
797.331218	5599.973312
797.652852	5547.041196
797.974442	5454.634326
798.295986	5394.090068
798.617484	5304.700328
798.938938	5214.297316
799.260346	5164.256303
799.581709	5059.727978
799.903026	5019.486967
800.224299	4963.177278
800.545526	4881.818097
800.866708	4831.598122
801.187845	4793.892812
801.508936	4737.981374
801.829983	4715.893559
802.150984	4635.933297
802.471940	4616.683651
802.792851	4600.620014
803.113717	4586.061162
803.434538	4565.717586
803.755314	4544.058268
804.076045	4532.715672
804.396731	4505.679964
804.717372	4515.212786
805.037967	4520.009444
805.358518	4536.667937
805.679024	4584.241306
805.999485	4585.025205
806.319901	4599.485755
806.640272	4610.535964
806.960598	4643.346314
807.280879	4629.924242
807.601115	4658.295856
807.921306	4626.539107
808.241453	4620.280514
808.561554	4627.317965
808.881611	4595.742698
809.201623	4589.567285
809.521590	4556.837593
809.841513	4543.604564
810.161390	4552.262746
810.481223	4483.965194
810.801011	4469.597905
811.120755	4449.408084
811.440453	4409.822424
811.760107	4386.252509
812.079716	4366.796176
812.399281	4325.249506
812.718801	4322.199608
813.038276	4290.032005
813.357707	4265.189199
813.677093	4279.364924
813.996434	4238.642483
814.315731	4242.846805
814.634983	4242.645159
814.954191	4248.220675
815.273354	4286.840955
815.592473	4315.252898
815.911547	4363.093448
816.230577	4403.405035
816.549562	4459.399651
816.868502	4493.666894
817.187399	4531.709962
817.506250	4577.345007
817.825058	4595.382256
818.143821	4694.317420
818.462539	4810.397549
818.781213	4972.205985
819.099843	5228.052104
819.418429	5665.226007
819.736970	6090.792653
820.055466	6561.391926
820.373919	7179.576020
820.692327	8197.712656
821.010691	10129.145053
821.329011	14737.858640
821.647286	22024.725537
821.965517	29905.147970
822.283704	33864.676888
822.601847	34567.338117
822.919945	30679.691011
823.237999	26642.697203
823.556010	22766.617025
823.873976	19391.340193
824.191897	16403.261786
824.509775	14247.261109
824.827609	12320.519506
825.145398	11229.996942
825.463144	10710.783301
825.780845	10929.123236
826.098502	11827.088847
826.416116	13531.041697
826.733685	15039.092788
827.051210	15309.303675
827.368692	14256.572120
827.686129	12497.106084
828.003522	10816.957563
828.320872	9343.370320
828.638177	8236.232113
828.955439	7389.358596
829.272656	6678.591192
829.589830	6109.258400
829.906960	5618.360920
830.224046	5254.024129
830.541088	4978.018435
830.858086	4804.010407
831.175041	4662.759797
831.491952	4621.132469
831.808819	4644.346983
832.125642	4802.634172
832.442421	5176.960010
832.759157	5936.798006
833.075849	7138.140256
833.392497	8385.258703
833.709101	9088.603008
834.025662	8861.620015
834.342179	8119.279864
834.658653	7247.213181
834.975083	6520.871132
835.291469	5935.139466
835.607811	5456.277742
835.924110	5111.505669
836.240366	4791.919200
836.556578	4492.177233
836.872746	4259.795165
837.188871	4079.137855
837.504952	3939.717183
837.820990	3826.999504
838.136984	3754.764811
838.452935	3723.323134
838.768842	3743.812904
839.084706	3943.908903
839.400526	4450.562508
839.716303	5041.426068
840.032037	5383.790991
840.347727	5259.912197
840.663373	4852.982697
840.978977	4479.680213
841.294537	4196.969785
841.610054	3987.973629
841.925527	3835.950073
842.240957	3704.209599
842.556344	3579.894745
842.871687	3480.881443
843.186987	3380.902759
843.502244	3304.098260
843.817458	3248.930392
844.132629	3205.304247
844.447756	3172.690502
844.762840	3141.573980
845.077881	3114.944085
845.392879	3093.693101
845.707833	3077.823549
846.022745	3058.261351
846.337613	3051.644837
846.652438	3036.745707
846.967221	3032.664892
847.281960	3017.390196
847.596656	3014.055473
847.911309	3005.389730
848.225919	2992.847339
848.540485	2986.780310
848.855009	2986.056905
849.169490	2973.547281
849.483928	2970.673824
849.798323	2967.697022
850.112675	2960.772998
850.426984	2963.412042
850.741251	2957.138326
851.055474	2954.766463
851.369654	2955.149590
851.683792	2953.748150
851.997887	2955.585650
852.311938	2955.842749
852.625947	2953.874178
852.939914	2948.621296
853.253837	2953.475927
853.567718	2948.896039
853.881555	2948.215483
854.195350	2952.331585
854.509103	2945.389917
854.822812	2944.273301
855.136479	2943.164247
855.450103	2942.634926
855.763685	2940.636108
856.077224	2940.472271
856.390720	2944.084258
856.704173	2951.837552
857.017584	2955.079014
857.330953	2958.554890
857.644278	2960.384829
857.957561	2960.571351
858.270802	2961.088070
858.584000	2959.447174
858.897155	2956.956844
859.210268	2950.594908
859.523339	2943.726336
859.836367	2938.909513
860.149352	2936.706529
860.462295	2935.733586
860.775195	2925.560538
861.088054	2923.027358
861.400869	2925.258069
861.713642	2921.252872
862.026373	2927.592123
862.339062	2931.478853
862.651708	2935.032866
862.964312	2945.253805
863.276873	2952.092131
863.589392	2967.833133
863.901869	2987.919611
864.214303	3000.562825
864.526696	3011.487005
864.839045	3020.147707
865.151353	3028.032072
865.463619	3028.200951
865.775842	3027.732123
866.088023	3028.984850
866.400162	3022.320445
866.712258	3023.976464
867.024313	3023.981505
867.336325	3022.093593
867.648296	3022.665764
867.960224	3018.847090
868.272110	3019.872965
868.583954	3021.317255
868.895755	3024.730116
869.207515	3021.612163
869.519233	3033.985675
869.830909	3035.281251
870.142542	3047.644681
870.454134	3048.841955
870.765684	3055.894529
871.077191	3067.693350
871.388657	3072.101839
871.700081	3084.803026
872.011463	3096.498503
872.322803	3108.977879
872.634101	3121.031278
872.945357	3132.704070
873.256571	3149.170999
873.567744	3158.393790
873.878874	3162.146929
874.189963	3169.867456
874.501010	3172.201510
874.812015	3167.465346
875.122979	3179.286852
875.433900	3172.410718
875.744780	3176.199145
876.055618	3178.074455
876.366415	3175.896676
876.677169	3178.170237
876.987882	3185.812626
877.298554	3195.814275
877.609183	3219.326217
877.919771	3244.915113
878.230317	3285.224180
878.540822	3344.999661
878.851285	3434.543157
879.161707	3569.404104
879.472087	3794.181593
879.782425	4184.450079
880.092722	4954.325012
880.402977	6275.009017
880.713191	7993.518199
881.023363	9678.549078
881.333494	10575.745913
881.643583	10777.069433
881.953631	10367.074911
882.263637	9709.869767
882.573602	8993.466352
882.883526	8333.231474
883.193408	7695.298661
883.503248	7093.296672
883.813048	6560.179529
884.122806	6071.570733
884.432522	5581.162246
884.742197	5152.638963
885.051831	4789.015495
885.361424	4478.130058
885.670975	4230.390114
885.980485	4027.851676
886.289954	3864.155328
886.599382	3734.592633
886.908768	3620.859162
887.218113	3520.792258
887.527417	3441.638581
887.836680	3368.773743
888.145901	3307.669917
888.455082	3262.662496
888.764221	3219.427040
889.073319	3187.680373
889.382376	3169.350738
889.691392	3151.316010
890.000366	3148.513128
890.309300	3145.848879
890.618193	3147.330978
890.927044	3146.847027
891.235855	3149.843993
891.544625	3160.198523
891.853353	3177.151923
892.162041	3213.052501
892.470687	3265.886313
892.779293	3339.966069
893.087858	3444.517079
893.396381	3615.283645
893.704864	3868.636914
894.013306	4219.012230
894.321707	4562.806319
894.630068	4764.270992
894.938387	4767.885499
895.246665	4646.033249
895.554903	4450.786840
895.863100	4246.526848
896.171256	4088.597580
896.479371	3945.161630
896.787446	3815.067093
897.095480	3701.678940
897.403473	3613.990589
897.711425	3525.145294
898.019336	3458.269347
898.327207	3383.861916
898.635038	3322.460663
898.942827	3260.192330
899.250576	3210.912531
899.558284	3161.529388
899.865952	3127.108389
900.173579	3094.149325
900.481165	3066.211251
900.788711	3040.513969
901.096216	3021.191226
901.403681	3008.598424
901.711105	3003.058196
902.018489	2994.755416
902.325832	3018.108561
902.633135	3053.414282
902.940397	3157.178872
903.247619	3415.364087
903.554800	3891.062487
903.861941	4488.028364
904.169041	4901.617228
904.476101	4999.599615
904.783121	4810.175739
905.090100	4552.071182
905.397039	4305.089932
905.703938	4091.037498
906.010796	3906.281731
906.317614	3757.058536
906.624391	3617.287504
906.931129	3501.530009
907.237826	3391.854666
907.544483	3292.138122
907.851099	3187.120805
908.157675	3093.229315
908.464211	3009.578928
908.770707	2948.913683
909.077163	2900.541291
909.383578	2864.585262
909.689954	2839.664317
909.996289	2823.441884
910.302584	2813.311686
910.608839	2807.055614
910.915054	2802.029583
911.221229	2798.195786
911.527363	2797.802576
911.833458	2800.928091
912.139513	2811.970739
912.445527	2815.431491
912.751502	2839.311437
913.057436	2861.467308
913.363331	2892.782956
913.669186	2945.437808
913.975000	3012.626306
914.280775	3125.510343
914.586510	3284.536062
914.892205	3514.407636
915.197859	3818.671518
915.503475	4169.742513
915.809050	4466.109427
916.114585	4625.354436
916.420081	4652.548940
916.725536	4602.573462
917.030952	4456.148107
917.336328	4327.727233
917.641665	4200.725444
917.946961	4067.739806
918.252218	3947.563739
918.557435	3817.738904
918.862612	3699.624670
919.167750	3599.998867
919.472848	3493.156652
919.777906	3390.647309
920.082925	3292.886733
920.387904	3206.990513
920.692843	3145.659835
920.997743	3085.289497
921.302603	3030.913092
921.607423	2994.213492
921.912204	2955.615897
922.216946	2929.101948
922.521647	2899.810324
922.826310	2876.772251
923.130932	2854.392048
923.435516	2831.848008
923.740059	2818.660350
924.044564	2799.529171
924.349028	2782.976542
924.653454	2766.905344
924.957840	2749.949423
925.262186	2740.724112
925.566493	2730.309088
925.870761	2714.537838
926.174989	2712.228989
926.479178	2704.392516
926.783328	2692.878520
927.087438	2686.093127
927.391509	2679.476613
927.695541	2674.410253
927.999533	2669.588390
928.303486	2664.627894
928.607400	2659.657317
928.911275	2656.935093
929.215110	2653.252531
929.518906	2652.145997
929.822663	2651.777993
930.126381	2649.612817
930.430060	2655.551297
930.733699	2653.623055
931.037299	2657.592964
931.340861	2654.492654
931.644383	2654.979126
931.947866	2656.569610
932.251309	2656.131029
932.554714	2654.830412
932.858080	2653.363436
933.161407	2648.899494
933.464694	2646.598207
933.767943	2646.078969
934.071153	2644.894297
934.374323	2642.847589
934.677455	2642.053607
934.980548	2638.633184
935.283602	2635.699233
935.586617	2635.928605
935.889593	2639.480098
936.192530	2638.444141
936.495428	2644.982518
936.798287	2646.202477
937.101108	2652.007366
937.403890	2667.324912
937.706632	2681.324196
938.009336	2699.714325
938.312002	2715.326778
938.614628	2728.272462
938.917216	2739.262177
939.219765	2739.113463
939.522275	2747.585122
939.824747	2750.692993
940.127179	2742.317116
940.429573	2737.855695
940.731929	2739.078175
941.034246	2732.103738
941.336524	2733.633729
941.638763	2728.201885
941.940964	2726.432440
942.243126	2717.141594
942.545250	2713.562375
942.847335	2701.496373
943.149381	2699.603420
943.451389	2688.560772
943.753359	2684.411902
944.055290	2678.697755
944.357182	2671.993020
944.659036	2670.619306
944.960851	2669.689213
945.262628	2662.797955
945.564367	2666.568738
945.866067	2667.055210
946.167729	2667.733245
946.469352	2666.283913
946.770937	2661.938439
947.072484	2659.949703
947.373992	2657.817295
947.675462	2659.284271
947.976893	2653.297901
948.278286	2654.033909
948.579641	2648.965029
948.880958	2648.483599
949.182236	2650.941162
949.483476	2647.188022
949.784678	2645.940337
950.085841	2646.880512
950.386967	2647.487971
950.688054	2652.650113
950.989103	2655.389980
951.290114	2660.509272
951.591087	2666.568738
951.892021	2672.224913
952.192917	2681.462828
952.493776	2683.257478
952.794596	2687.630679
953.095378	2687.693694
953.396122	2686.808971
953.696828	2683.411233
953.997496	2686.090607
954.298126	2677.838238
954.598718	2675.660459
954.899272	2670.392454
955.199788	2662.903820
955.500266	2655.054743
955.800706	2645.030409
956.101108	2635.956332
956.401472	2632.326701
956.701798	2619.542335
957.002087	2615.317848
957.302337	2611.751232
957.602550	2605.928699
957.902724	2598.750096
958.202861	2594.187852
958.502960	2590.273396
958.803022	2584.763414
959.103045	2581.431212
959.403031	2579.099678
959.702979	2575.349060
960.002889	2570.996023
960.302762	2568.750189
960.602596	2570.161712
960.902393	2566.448903
961.202153	2562.915054
961.501875	2561.783315
961.801559	2562.461350
962.101205	2558.877089
962.400814	2560.180228
962.700385	2558.897254
962.999918	2557.959599
963.299414	2557.210988
963.598873	2554.191337
963.898293	2554.370298
964.197677	2554.501368
964.497022	2554.340051
964.796331	2553.944320
965.095601	2552.459701
965.394835	2552.081614
965.694030	2551.365770
965.993189	2553.614125
966.292309	2549.354350
966.591393	2551.479196
966.890439	2552.104299
967.189447	2549.261088
967.488419	2550.193702
967.787353	2551.436346
968.086249	2546.700182
968.385108	2550.415513
968.683930	2548.993907
968.982714	2550.496171
969.281462	2549.175389
969.580172	2552.139587
969.878844	2554.362736
970.177480	2556.250648
970.476078	2552.880637
970.774639	2559.134188
971.073162	2557.762994
971.371649	2557.324414
971.670098	2557.710062
971.968510	2561.001936
972.266885	2559.683674
972.565223	2563.497307
972.863524	2562.620146
973.161788	2564.528223
973.460014	2566.156516
973.758204	2566.181721
974.056356	2564.903789
974.354471	2564.447564
974.652550	2567.147102
974.950591	2565.322205
975.248595	2568.510734
975.546563	2566.784139
975.844493	2563.986299
976.142386	2564.944118
976.440243	2559.877758
976.738062	2559.628221
977.035845	2556.923642
977.333590	2559.693756
977.631299	2554.866852
977.928971	2553.079762
978.226606	2555.610422
978.524204	2553.225956
978.821765	2554.004814
979.119290	2553.046995
979.416777	2552.764690
979.714228	2553.092365
980.011642	2552.086655
980.309020	2555.887685
980.606360	2558.257027
980.903664	2560.810372
981.200931	2571.918554
981.498162	2580.647312
981.795356	2597.202462
982.092513	2624.601133
982.389633	2648.536531
982.686717	2671.032680
982.983764	2689.858869
983.280775	2700.064685
983.577749	2699.058975
983.874686	2694.589992
984.171587	2683.444001
984.468451	2674.017043
984.765279	2664.058244
985.062070	2652.541728
985.358824	2644.339771
985.655543	2630.511886
985.952224	2616.487396
986.248869	2603.786208
986.545478	2585.328024
986.842050	2572.412587
987.138586	2561.679971
987.435086	2556.054043
987.731549	2546.493495
988.027975	2550.004659
988.324366	2542.868905
988.620719	2542.654656
988.917037	2538.120138
989.213318	2540.567619
989.509563	2536.224665
989.805772	2537.794984
990.101944	2532.834489
990.398080	2532.577390
990.694180	2533.401618
990.990244	2533.938501
991.286271	2532.587472
991.582262	2536.078471
991.878217	2534.843388
992.174136	2533.867925
992.470019	2534.777853
992.765865	2535.395395
993.061676	2537.469830
993.357450	2539.496373
993.653188	2539.846734
993.948890	2543.297403
994.244556	2546.485933
994.540186	2552.815102
994.835780	2559.971020
995.131337	2566.040569
995.426859	2577.499112
995.722345	2582.983887
996.017795	2599.256732
996.313208	2605.417022
996.608586	2609.689400
996.903928	2613.457662
997.199234	2609.560850
997.494504	2609.633947
997.789738	2601.326125
998.084936	2600.358224
998.380099	2591.216091
998.675225	2586.797520
998.970316	2581.141345
999.265371	2573.758576
999.560390	2564.402194
999.855373	2559.096380
1000.150320	2552.139587
1000.445232	2545.863351
1000.740108	2540.814635
1001.034948	2538.152906
1001.329752	2537.457227
1001.624521	2537.116949
1001.919254	2528.267203
1002.213951	2527.327028
1002.508613	2526.979188
1002.803239	2528.642769
1003.097829	2523.553724
1003.392384	2525.088756
1003.686903	2527.054806
1003.981386	2526.127233
1004.275834	2523.760412
1004.570246	2523.180679
1004.864623	2522.752181
1005.158964	2521.882582
1005.453270	2524.398118
1005.747540	2522.835360
1006.041775	2523.160514
1006.335974	2522.820237
1006.630138	2522.122037
1006.924266	2518.804957
1007.218359	2521.633045
1007.512416	2522.474917
1007.806438	2520.735719
1008.100425	2519.868641
1008.394376	2520.919722
1008.688292	2519.611542
1008.982172	2520.955010
1009.276017	2519.767818
1009.569827	2518.941069
1009.863602	2520.133302
1010.157341	2522.754702
1010.451045	2518.699093
1010.744714	2518.477283
1011.038347	2518.784793
1011.331945	2515.855883
1011.625508	2519.656912
1011.919036	2517.832015
1012.212528	2516.758249
1012.505986	2516.778414
1012.799408	2516.443177
1013.092795	2513.330264
1013.386147	2518.222704
1013.679464	2517.922756
1013.972745	2517.103568
1014.265992	2514.890502
1014.559204	2518.651202
1014.852380	2515.850841
1015.145521	2516.105420
1015.438628	2516.188599
1015.731699	2517.403517
1016.024736	2514.824967
1016.317737	2514.633403
1016.610703	2516.274298
1016.903635	2516.705317
1017.196531	2513.531911
1017.489393	2513.965450
1017.782219	2511.981756
1018.075011	2517.874865
1018.367768	2514.754390
1018.660490	2518.358815
1018.953177	2518.358815
1019.245829	2518.358815
