Dividing Wavelength (nm)	Counts (n)	Blue Motor Position (mm): 0.000000	Red Motor Position (mm): 44.000000	
326.493990	2127.613940
326.888308	2127.613940
327.282561	2127.613940
327.676750	2095.965576
328.070874	2094.818713
328.464933	2095.322829
328.858929	2102.214086
329.252859	2115.321086
329.646726	2124.995060
330.040528	2136.902266
330.434265	2155.274751
330.827938	2170.685558
331.221547	2190.724145
331.615091	2207.765765
332.008571	2228.313508
332.401986	2248.253792
332.795338	2267.142996
333.188625	2286.748043
333.581847	2306.131280
333.975006	2323.949238
334.368100	2340.617813
334.761129	2360.989116
335.154095	2374.401106
335.546996	2396.239384
335.939833	2418.917015
336.332606	2436.954263
336.725315	2450.071345
337.117960	2456.985288
337.510540	2466.422328
337.903056	2475.907259
338.295508	2484.573002
338.687896	2491.464260
339.080220	2501.387771
339.472480	2506.252484
339.864676	2510.340860
340.256807	2516.632220
340.648875	2519.979546
341.040879	2522.709331
341.432818	2521.975843
341.824694	2527.072450
342.216506	2524.675381
342.608253	2527.949611
342.999937	2525.970958
343.391557	2524.942562
343.783113	2524.957686
344.174605	2525.575227
344.566033	2520.481141
344.957397	2520.634896
345.348697	2518.280677
345.739934	2517.741274
346.131106	2516.995183
346.522215	2515.157683
346.913260	2513.748680
347.304241	2509.710716
347.695159	2508.470592
348.086012	2509.599811
348.476802	2503.187463
348.867528	2502.645539
349.258191	2501.561691
349.648789	2502.048162
350.039324	2497.311998
350.429796	2497.004488
350.820203	2498.718480
351.210548	2495.759323
351.600828	2495.706391
351.991045	2495.411483
352.381198	2493.276554
352.771288	2495.459374
353.161314	2492.971565
353.551276	2493.412666
353.941175	2493.405104
354.331010	2493.059785
354.720782	2494.221771
355.110490	2494.138592
355.500135	2495.653458
355.889717	2497.569097
356.279235	2495.363592
356.668689	2498.259735
357.058080	2495.406442
357.447408	2496.109683
357.836672	2492.177583
358.225873	2492.875783
358.615010	2495.018273
359.004084	2497.100270
359.393095	2496.961638
359.782043	2498.330311
360.170927	2501.438182
360.559748	2500.220744
360.948505	2499.769561
361.337199	2505.529079
361.725830	2499.202431
362.114398	2506.199552
362.502903	2505.208966
362.891344	2504.236023
363.279722	2505.455982
363.668037	2504.558657
364.056289	2505.007319
364.444478	2507.540499
364.832603	2505.856754
365.220665	2507.727022
365.608665	2511.165089
365.996601	2507.338853
366.384474	2510.723988
366.772284	2508.442866
367.160031	2513.930162
367.547715	2513.894874
367.935336	2517.131294
368.322893	2521.055833
368.710388	2521.809485
369.097820	2530.460105
369.485189	2532.098480
369.872495	2536.101156
370.259738	2547.158927
370.646918	2551.859803
371.034035	2560.979251
371.421090	2572.014336
371.808081	2582.721747
372.195010	2589.660895
372.581875	2603.912237
372.968678	2614.662498
373.355418	2624.593571
373.742096	2645.292549
374.128710	2660.237049
374.515262	2675.562157
374.901751	2687.547500
375.288177	2700.581403
375.674540	2724.534446
376.060841	2744.585635
376.447079	2761.869231
376.833254	2784.004938
377.219367	2792.849642
377.605417	2834.015705
377.991404	2841.196828
378.377329	2865.049048
378.763191	2880.785009
379.148991	2918.389497
379.534727	2944.563167
379.920402	2973.764051
380.306013	2983.521204
380.691563	3035.084646
381.077049	3054.906463
381.462474	3072.840368
381.847835	3112.214300
382.233134	3136.673979
382.618371	3131.955459
383.003545	3203.141592
383.388657	3207.983620
383.773706	3241.386306
384.158693	3260.812392
384.543618	3287.192750
384.928480	3318.705003
385.313280	3367.914226
385.698017	3365.554966
386.082692	3416.634458
386.467305	3424.692742
386.851856	3456.709110
387.236344	3478.565032
387.620770	3511.261956
388.005133	3535.038558
388.389435	3562.306160
388.773674	3573.593303
389.157851	3615.669294
389.541965	3631.375008
389.926018	3595.497117
390.310008	3668.235925
390.693936	3687.926672
391.077802	3727.557703
391.461606	3717.140159
391.845348	3781.528296
392.229027	3778.957308
392.612645	3791.860141
392.996200	3872.087584
393.379694	3909.427411
393.763125	3977.170436
394.146494	3941.191721
394.529801	4006.547760
394.913047	4053.077610
395.296230	4015.757948
395.679351	4071.412287
396.062410	4096.897840
396.445408	4077.330601
396.828343	4110.307309
397.211217	4134.237666
397.594028	4055.525090
397.976778	4121.889360
398.359466	4149.348525
398.742092	4178.937578
399.124656	4099.859518
399.507158	4178.861960
399.889598	4201.166545
400.271977	4265.695835
400.654294	4238.345055
401.036549	4247.923247
401.418742	4215.609451
401.800874	4316.750121
402.182944	4338.716949
402.564952	4402.732041
402.946898	4387.480030
403.328783	4385.513980
403.710606	4302.113131
404.092367	4490.417871
404.474067	4454.209783
404.855705	4465.605312
405.237282	4394.215011
405.618797	4508.545860
406.000250	4535.896640
406.381642	4619.610041
406.762972	4578.449020
407.144240	4591.190536
407.525447	4589.093416
407.906593	4651.702026
408.287677	4691.849776
408.668700	4617.200369
409.049661	4673.489893
409.430560	4713.055389
409.811399	4639.552846
410.192176	4799.375067
410.572891	4741.298454
410.953545	4842.567673
411.334138	4723.840938
411.714669	4792.141011
412.095139	4686.425494
412.475547	4826.609900
412.855894	4805.933608
413.236180	4820.500022
413.616405	4774.272641
413.996568	4857.376062
414.376670	4799.559069
414.756711	4756.177419
415.136691	4786.245381
415.516609	4864.549624
415.896466	4899.504985
416.276262	4932.834573
416.655997	4915.656842
417.035670	5100.576447
417.415283	5191.017268
417.794834	5135.309997
418.174324	5086.645218
418.553753	4999.128267
418.933121	5177.509496
419.312428	5244.148509
419.691674	5183.145506
420.070859	5312.360361
420.449983	5221.780909
420.829045	5341.057130
421.208047	5248.415845
421.586988	5317.514941
421.965867	5327.682948
422.344686	5460.570284
422.723444	5316.163912
423.102141	5134.982322
423.480777	5434.016007
423.859352	5205.142581
424.237866	5463.448783
424.616319	5455.272032
424.994712	5562.782199
425.373044	5441.875165
425.751314	5584.106280
426.129524	5386.619078
426.507673	5581.043779
426.885762	5662.226521
427.263789	5596.094144
427.641756	5473.899095
428.019662	5598.503815
428.397508	5607.487152
428.775292	5548.228388
429.153016	5654.402650
429.530679	5577.575465
429.908282	5663.360780
430.285824	5533.321696
430.663305	5806.837060
431.040726	5541.967275
431.418086	5542.917532
431.795385	5649.956352
432.172624	5664.311038
432.549802	5653.870808
432.926920	5669.873951
433.303977	5676.414848
433.680974	5714.286516
434.057910	5729.268826
434.434786	5738.153859
434.811601	5705.892995
435.188355	5944.687412
435.565050	5812.707483
435.941683	5796.500174
436.318257	6010.671074
436.694770	5993.614330
437.071222	6030.477768
437.447614	5961.000586
437.823946	5871.308376
438.200218	6030.603797
438.576429	5896.493981
438.952580	5985.190562
439.328670	6034.646802
439.704700	5943.492658
440.080670	5927.368528
440.456580	6199.157296
440.832429	6081.035500
441.208218	5931.527480
441.583947	6081.607671
441.959616	6083.919040
442.335224	6016.823803
442.710773	6151.382281
443.086261	6178.917063
443.461689	5972.476772
443.837057	6121.362210
444.212365	6279.435151
444.587612	6168.880126
444.962800	6326.552295
445.337927	6307.610159
445.712995	5916.887969
446.088002	6491.617316
446.462949	6327.308468
446.837837	6253.803404
447.212664	6424.101142
447.587431	6568.522638
447.962139	7109.372911
448.336786	8037.398923
448.711374	7780.428626
449.085901	6850.358427
449.460369	6770.551920
449.834776	6707.386262
450.209124	7097.027125
450.583412	7248.937255
450.957640	7394.223309
451.331808	7162.342835
451.705917	6713.889351
452.079965	6634.143338
452.453954	6845.103024
452.827883	6724.359827
453.201752	6818.861297
453.575562	6615.279340
453.949311	6821.790208
454.323001	6710.741150
454.696632	6788.379961
455.070202	6923.132523
455.443713	7077.114568
455.817164	7179.928900
456.190556	7257.940756
456.563888	7338.611821
456.937160	7378.532718
457.310373	7037.430605
457.683526	7059.712505
458.056619	6951.027748
458.429653	6936.960408
458.802628	6871.959771
459.175542	6980.087480
459.548398	7336.620565
459.921194	7496.054617
460.293930	7497.541757
460.666607	8033.497070
461.039224	8341.839245
461.411782	8461.107903
461.784280	8483.417530
462.156719	8379.249647
462.529099	8253.480421
462.901419	7841.149324
463.273680	7735.050680
463.645882	7741.400013
464.018024	7607.325485
464.390106	7779.730426
464.762130	8171.002102
465.134094	8637.076940
465.505999	9659.012086
465.877845	10885.325691
466.249631	11529.975842
466.621358	11150.311423
466.993026	10524.295897
467.364634	10261.951730
467.736184	9899.326411
468.107674	9560.528105
468.479105	9593.744267
468.850477	9364.696922
469.221790	9134.192683
469.593043	8803.402250
469.964238	8664.601640
470.335373	8681.401285
470.706449	8739.820697
471.077467	8717.022078
471.448425	10029.047902
471.819324	11104.406676
472.190164	11132.440532
472.560945	9878.332525
472.931667	9085.490095
473.302330	8954.344478
473.672934	8599.104449
474.043479	8957.394376
474.413965	8893.429696
474.784393	8777.873847
475.154761	8937.938043
475.525070	9029.828195
475.895321	8852.193057
476.265513	9023.342751
476.635645	9191.659316
477.005719	9194.242907
477.375734	9310.159199
477.745691	9545.495384
478.115588	9683.270118
478.485427	9925.996635
478.855207	10457.729981
479.224928	11272.914805
479.594591	11908.677402
479.964194	11712.296733
480.333739	11650.842547
480.703226	11571.303222
481.072653	11662.573312
481.442022	11896.765155
481.811333	12094.257398
482.180584	11899.830177
482.549777	11606.956782
482.918912	11422.639595
483.287988	11451.522886
483.657005	11461.441356
484.025964	11142.238015
484.394864	11270.948755
484.763706	11245.548901
485.132489	10999.800213
485.501213	10964.585233
485.869879	11033.974195
486.238487	10881.113807
486.607036	10995.240489
486.975527	10771.919894
487.343959	10960.327978
487.712333	11007.959320
488.080648	10936.984915
488.448905	10981.752882
488.817104	10920.691906
489.185244	11190.255005
489.553326	11344.985661
489.921350	11878.586754
490.289315	12940.601594
490.657222	13284.955251
491.025070	13201.113301
491.392861	13067.989031
491.760593	12694.535313
492.128267	12334.027278
492.495883	12013.992147
492.863440	11676.270127
493.230939	11336.375370
493.598380	11274.023859
493.965763	11144.461164
494.333088	11045.034486
494.700354	10955.879160
495.067563	11027.584532
495.434713	10851.262615
495.801805	10983.071144
496.168839	10901.684236
496.535815	10836.978505
496.902733	10840.613177
497.269593	10769.963927
497.636395	10865.226611
498.003139	10856.286125
498.369825	10729.871630
498.736453	10885.033304
499.103023	10812.891872
499.469535	10841.195431
499.835989	10830.793010
500.202385	10784.764754
500.568723	10639.609771
500.935003	10860.901301
501.301226	10666.988277
501.667390	10922.186608
502.033497	11019.627071
502.399546	10888.758717
502.765537	10791.524942
503.131470	10865.448422
503.497345	11041.044413
503.863163	10648.504887
504.228923	10962.016765
504.594625	11031.483865
504.960269	10778.964907
505.325856	10994.746456
505.691385	10788.812801
506.056856	10943.382140
506.422270	10968.552621
506.787625	10855.913079
507.152924	10978.871863
507.518164	10953.106525
507.883347	10872.647189
508.248472	10802.751591
508.613540	11033.200378
508.978550	10913.611606
509.343503	10883.674713
509.708398	11005.327838
510.073236	11116.853285
510.438016	11124.092382
510.802738	11064.763042
511.167403	11126.229831
511.532010	11027.849193
511.896561	11249.428069
512.261053	11320.883904
512.625488	11192.326919
512.989866	11174.312356
513.354186	11159.161168
513.718449	11065.282281
514.082655	11253.619788
514.446803	11152.670683
514.810894	11274.643921
515.174927	11139.135185
515.538904	11170.360092
515.902822	11322.272742
516.266684	11202.943589
516.630488	11149.116669
516.994235	11210.775022
517.357925	11272.042685
517.721558	11355.889677
518.085133	11368.817716
518.448651	11379.199972
518.812112	11262.048598
519.175516	11277.837492
519.538863	11408.047975
519.902152	11322.161837
520.265385	11475.864097
520.628560	11385.193904
520.991678	11364.008455
521.354739	11427.844586
521.717743	11366.050122
522.080690	11341.023314
522.443580	11474.424848
522.806413	11435.365988
523.169189	11455.669235
523.531908	11513.934891
523.894569	11336.264465
524.257174	11343.284271
524.619722	11461.637961
524.982213	11404.519167
525.344647	11463.210801
525.707025	11406.250803
526.069345	11508.704694
526.431608	11420.454254
526.793815	11526.300841
527.155964	11318.320477
527.518057	11371.383663
527.880093	11319.016157
528.242072	11392.619523
528.603995	11297.626541
528.965860	11212.549508
529.327669	11269.854824
529.689421	11216.821886
530.051117	11195.326406
530.412755	11294.720316
530.774337	11188.089830
531.135862	11166.387662
531.497331	11188.505725
531.858743	11033.152487
532.220098	11207.919208
532.581396	11071.205637
532.942638	11064.629451
533.303824	11027.839111
533.664953	11031.632579
534.026025	10952.199118
534.387040	11053.362472
534.747999	11053.082688
535.108902	11105.157808
535.469748	10864.987156
535.830537	10966.563886
536.191270	10951.989910
536.551947	10969.117230
536.912567	10971.408434
537.273131	10895.367670
537.633638	10873.980575
537.994089	10860.230828
538.354483	10811.180401
538.714821	10956.290014
539.075103	10960.494336
539.435328	10925.715416
539.795497	10755.611762
540.155609	10914.650083
540.515665	11006.867911
540.875665	10735.192568
541.235609	10803.540532
541.595496	10801.942486
541.955328	10958.316558
542.315102	10834.689822
542.674821	10789.027050
543.034483	10784.953798
543.394090	10792.891094
543.753640	10720.681607
544.113134	10941.489186
544.472571	10801.382918
544.831953	10940.241501
545.191278	10747.261090
545.550548	10780.099167
545.909761	10908.683878
546.268918	10885.610517
546.628019	10971.589916
546.987064	10835.970275
547.346053	10758.996897
547.704986	10854.017605
548.063863	10850.125835
548.422684	10835.960192
548.781449	10747.833261
549.140158	10850.319919
549.498811	10726.993131
549.857408	10590.115722
550.215949	10811.697119
550.574434	10668.472897
550.932864	10765.749522
551.291237	10819.221041
551.649555	10772.146746
552.007817	10777.586151
552.366022	10748.816286
552.724173	10733.622249
553.082267	10720.041380
553.440305	10859.386434
553.798288	10662.836887
554.156215	10814.973869
554.514086	10791.711464
554.871902	10643.675461
555.229661	10678.499752
555.587365	10652.137038
555.945014	10548.654752
556.302606	10673.519092
556.660143	10572.330531
557.017625	10720.968952
557.375050	10624.037646
557.732421	10751.969528
558.089735	10671.893320
558.446994	10674.071098
558.804197	10707.128465
559.161345	10709.530574
559.518437	10561.234952
559.875474	10643.534309
560.232455	10674.134113
560.589381	10620.218972
560.946251	10617.431214
561.303065	10729.639737
561.659825	10666.141363
562.016528	10598.962947
562.373177	10469.833791
562.729770	10584.210010
563.086307	10504.660603
563.442789	10597.836249
563.799216	10470.305139
564.155587	10521.245999
564.511904	10478.678496
564.868164	10463.643254
565.224370	10482.406429
565.580520	10408.109904
565.936615	10409.312219
566.292654	10279.668865
566.648638	10409.120655
567.004567	10366.038954
567.360441	10350.124032
567.716260	10269.253842
568.072023	10355.676863
568.427732	10312.252363
568.783385	10215.832734
569.138982	10290.988776
569.494525	10304.932608
569.850013	10176.751189
570.205445	10260.159600
570.560823	10159.233179
570.916145	10075.398791
571.271412	10150.063321
571.626625	10093.277243
571.981782	10073.410056
572.336884	10044.282269
572.691931	10046.749914
573.046923	9997.754939
573.401860	9952.702147
573.756743	9887.454493
574.111570	9935.103479
574.466342	9915.271580
574.821059	9947.502197
575.175722	9837.700825
575.530330	9846.976548
575.884882	9841.106125
576.239380	9764.364640
576.593823	9741.878573
576.948211	9757.551520
577.302544	9632.908992
577.656823	9653.217280
578.011047	9657.124174
578.365216	9630.867324
578.719330	9551.595180
579.073389	9566.776615
579.427394	9513.784006
579.781344	9491.179472
580.135239	9437.763406
580.489080	9448.526269
580.842866	9347.007513
581.196597	9349.215538
581.550273	9390.994101
581.903895	9358.297177
582.257463	9428.328886
582.610975	9302.670565
582.964434	9327.417589
583.317837	9255.581147
583.671186	9236.273528
584.024481	9232.840502
584.377721	9148.575095
584.730906	9125.781517
585.084037	9162.733175
585.437113	9093.886137
585.790135	9112.573694
586.143103	9016.229683
586.496016	8990.522319
586.848874	9046.829487
587.201679	9034.077888
587.554428	8922.058408
587.907124	8969.614133
588.259765	8939.150440
588.612352	8939.306716
588.964884	8826.994850
589.317362	8831.554573
589.669786	8834.856529
590.022155	8876.118373
590.374470	8897.578565
590.726731	8835.426179
591.078937	8685.769445
591.431090	8796.853791
591.783188	8672.579266
592.135232	8662.010487
592.487222	8667.371754
592.839157	8708.487405
593.191038	8642.652456
593.542866	8593.433151
593.894639	8497.043769
594.246358	8542.114205
594.598022	8559.629694
594.949633	8455.923077
595.301190	8430.331659
595.652692	8459.978685
596.004141	8571.693175
596.355535	8345.032816
596.706876	8327.930701
597.058162	8262.841843
597.409395	8335.157195
597.760573	8401.700426
598.111698	8305.578225
598.462768	8294.603633
598.813785	8261.947038
599.164748	8226.449754
599.515657	8219.412303
599.866511	8125.351934
600.217312	8256.744568
600.568060	8111.776107
600.918753	8217.811737
601.269392	8186.546500
601.619978	8095.974610
601.970510	8165.361051
602.320988	8163.147985
602.671412	8215.543217
603.021783	8150.870255
603.372100	8127.043241
603.722363	8130.388047
604.072572	8106.288811
604.422728	8114.402548
604.772830	8042.621558
605.122878	8049.250675
605.472872	8042.387144
605.822813	8077.836538
606.172701	8018.794544
606.522534	8093.428827
606.872314	8096.524096
607.222041	8060.429434
607.571714	8117.870862
607.921333	8075.936023
608.270899	8081.400634
608.620411	8173.888163
608.969870	8076.069614
609.319276	8074.070796
609.668627	8082.257630
610.017926	8123.852191
610.367171	8172.489243
610.716362	8138.516907
611.065500	8133.059858
611.414585	8157.010380
611.763616	8150.172055
612.112594	8130.072974
612.461518	8147.023854
612.810389	8208.130201
613.159207	8140.745097
613.507971	8094.230371
613.856682	8211.144811
614.205340	8167.763161
614.553945	8246.803412
614.902496	8143.358935
615.250994	8197.629477
615.599439	8176.852362
615.947830	8189.339300
616.296169	8164.496493
616.644454	8176.532248
616.992686	8174.679624
617.340864	8236.053152
617.688990	8137.554047
618.037063	8227.425217
618.385082	8175.849172
618.733048	8259.872604
619.080961	8196.878345
619.428821	8214.968526
619.776628	8225.834733
620.124382	8172.965632
620.472083	8157.716142
620.819731	8185.800410
621.167326	8072.069458
621.514868	8085.148732
621.862357	7970.712019
622.209793	7986.112744
622.557176	7925.472704
622.904506	7891.097076
623.251783	7827.893610
623.599007	7781.716641
623.946179	7782.258565
624.293297	7738.556802
624.640363	7655.032445
624.987376	7637.622820
625.334336	7590.127589
625.681243	7532.860081
626.028097	7523.168463
626.374899	7506.797316
626.721647	7499.570822
627.068343	7427.328567
627.414987	7392.206848
627.761577	7352.943821
628.108115	7386.646455
628.454600	7280.482276
628.801032	7327.657393
629.147412	7293.879142
629.493739	7280.537728
629.840014	7215.958027
630.186236	7279.574868
630.532405	7149.651730
630.878521	7203.145934
631.224585	7158.209089
631.570597	7085.220743
631.916556	7116.710311
632.262462	7112.085052
632.608316	7069.164668
632.954117	7048.392594
633.299866	7034.254678
633.645562	7028.255705
633.991206	6945.938703
634.336797	6887.166411
634.682336	6847.023703
635.027823	6816.013045
635.373257	6801.872609
635.718639	6737.814667
636.063968	6747.244145
636.409245	6645.435523
636.754470	6634.511342
637.099642	6600.418019
637.444762	6533.973091
637.789829	6545.824843
638.134845	6491.012377
638.479808	6473.983360
638.824719	6477.998639
639.169577	6405.143883
639.514383	6428.242450
639.859137	6353.061202
640.203839	6360.882553
640.548489	6350.896027
640.893086	6323.734290
641.237632	6291.647346
641.582125	6315.151726
641.926566	6285.434124
642.270955	6294.603982
642.615292	6285.799607
642.959576	6303.667977
643.303809	6295.229086
643.647990	6296.479292
643.992118	6287.745493
644.336195	6234.011834
644.680219	6256.593682
645.024192	6244.504996
645.368112	6336.465724
645.711981	6355.077664
646.055797	6428.106339
646.399562	6383.126644
646.743274	6507.582650
647.086935	6557.152316
647.430544	6547.992539
647.774101	6567.574902
648.117606	6571.259985
648.461059	6561.144910
648.804460	6525.249374
649.147810	6435.161434
649.491108	6401.138687
649.834354	6377.914091
650.177548	6290.651718
650.520690	6204.536207
650.863781	6176.885478
651.206820	6200.445311
651.549807	6125.281707
651.892742	6056.701850
652.235626	6066.479168
652.578458	6046.352361
652.921238	5954.810049
653.263967	5995.575339
653.606644	5931.353560
653.949269	5930.615031
654.291843	5875.313573
654.634365	5917.747486
654.976836	5868.245875
655.319255	5863.792016
655.661622	5842.059602
656.003938	5837.656154
656.346203	5798.098220
656.688416	5825.877498
657.030577	5780.146671
657.372687	5748.500828
657.714746	5730.864351
658.056753	5774.644251
658.398708	5715.919850
658.740612	5706.011462
659.082465	5741.060084
659.424266	5736.689404
659.766016	5733.165637
660.107715	5704.937697
660.449362	5714.147885
660.790958	5707.584302
661.132503	5693.474113
661.473996	5722.261622
661.815438	5706.243355
662.156829	5697.738929
662.498168	5690.666190
662.839456	5668.275905
663.180693	5693.292631
663.521879	5700.572057
663.863013	5683.646383
664.204097	5692.486047
664.545129	5728.127004
664.886110	5722.165840
665.227040	5752.276652
665.567918	5715.289706
665.908746	5738.168983
666.249522	5735.280402
666.590248	5721.099636
666.930922	5744.178038
667.271545	5748.611733
667.612118	5748.969655
667.952639	5721.626436
668.293109	5737.838787
668.633528	5691.296334
668.973896	5693.547209
669.314213	5681.476167
669.654480	5654.561446
669.994695	5654.170757
670.334859	5640.428571
670.674973	5629.295183
671.015035	5632.163600
671.355047	5625.201766
671.695008	5603.660916
672.034918	5577.643521
672.374777	5580.169139
672.714585	5564.065173
673.054342	5563.727416
673.394049	5557.189039
673.733705	5579.380198
674.073310	5560.334719
674.412864	5530.448238
674.752368	5506.399414
675.091820	5509.237584
675.431223	5452.176763
675.770574	5445.298109
676.109875	5400.278084
676.449125	5401.848404
676.788324	5365.287436
677.127473	5310.764836
677.466571	5299.104647
677.805619	5290.491836
678.144616	5269.548362
678.483562	5247.823510
678.822458	5213.210947
679.161303	5206.518816
679.500098	5194.838462
679.838842	5175.394732
680.177535	5175.805586
680.516179	5187.622051
680.854771	5193.222772
681.193314	5262.505870
681.531805	5350.902503
681.870247	5470.274506
682.208638	5556.087547
682.546978	5564.420574
682.885268	5539.247572
683.223508	5453.411846
683.561697	5401.409823
683.899836	5376.201534
684.237925	5328.789482
684.575963	5296.687414
684.913951	5257.273153
685.251889	5295.384276
685.589776	5269.220687
685.927614	5249.209827
686.265401	5293.750942
686.603137	5278.824085
686.940824	5328.703782
687.278460	5348.046689
687.616046	5348.762533
687.953582	5398.801026
688.291068	5380.693202
688.628504	5419.540333
688.965889	5388.421291
689.303224	5344.157439
689.640510	5290.882525
689.977745	5223.305858
690.314930	5139.451305
690.652065	5091.920786
690.989150	5013.619064
691.326185	4941.066778
691.663170	4886.501328
692.000105	4824.084282
692.336990	4759.476854
692.673825	4728.030137
693.010610	4667.329603
693.347345	4621.117346
693.684030	4587.606276
694.020665	4552.398857
694.357251	4478.792970
694.693786	4484.209690
695.030272	4449.551757
695.366707	4412.461468
695.703093	4389.877098
696.039429	4398.270620
696.375716	4373.095097
696.711952	4355.751008
697.048139	4348.814380
697.384276	4324.001821
697.720363	4324.750432
698.056400	4324.949557
698.392388	4283.412970
698.728326	4268.309673
699.064214	4247.920727
699.400053	4239.809510
699.735842	4203.044375
700.071581	4183.625851
700.407270	4158.498219
700.742910	4141.297802
701.078501	4099.186524
701.414042	4089.215121
701.749533	4060.551121
702.084974	4018.714585
702.420366	4051.260274
702.755709	4003.119775
703.091002	3962.843477
703.426246	3982.892146
703.761440	3959.488589
704.096584	3931.729475
704.431679	3935.858180
704.766725	3921.954678
705.101721	3909.321546
705.436668	3922.909977
705.771565	3889.282960
706.106413	3907.993202
706.441212	3917.263884
706.775961	3921.596756
707.110661	3918.365376
707.445311	3940.417904
707.779913	3937.909930
708.114465	3949.101291
708.448967	3969.152481
708.783421	4006.363758
709.117825	4031.468704
709.452180	4037.964231
709.786485	4069.904982
710.120742	4129.756081
710.454949	4120.881129
710.789107	4163.962830
711.123216	4204.418090
711.457275	4201.398438
711.791286	4250.942898
712.125247	4252.719905
712.459159	4194.849980
712.793023	4256.415071
713.126837	4196.019527
713.460602	4186.867313
713.794318	4147.982372
714.127985	4140.597082
714.461602	4062.330648
714.795171	4052.346643
715.128691	3998.890247
715.462162	3948.922330
715.795584	3907.731062
716.128957	3893.147004
716.462281	3863.555431
716.795556	3832.194413
717.128782	3797.508754
717.461960	3750.563009
717.795088	3750.270622
718.128167	3717.583780
718.461198	3683.331661
718.794180	3674.819672
719.127113	3648.247750
719.459997	3634.694608
719.792833	3601.188579
720.125619	3600.177828
720.458357	3565.580389
720.791046	3563.216088
721.123686	3546.691186
721.456278	3518.548944
721.788821	3524.003473
722.121315	3502.744927
722.453761	3486.582988
722.786158	3487.906291
723.118506	3498.318794
723.450805	3473.198724
723.783056	3491.392248
724.115259	3481.128459
724.447412	3481.393120
724.779518	3485.776403
725.111574	3486.356136
725.443582	3500.988085
725.775542	3487.291270
726.107453	3520.545241
726.439315	3515.126001
726.771129	3532.346582
727.102895	3552.798543
727.434612	3577.023808
727.766281	3585.737443
728.097901	3589.535952
728.429473	3586.619645
728.760996	3586.329778
729.092471	3584.842638
729.423897	3569.361254
729.755276	3564.806572
730.086606	3566.069381
730.417887	3595.038372
730.749120	3632.852067
731.080305	3657.026920
731.411442	3678.192204
731.742530	3663.671161
732.073570	3661.117816
732.404562	3685.758976
732.735506	3680.985003
733.066401	3656.916014
733.397249	3616.140642
733.728048	3562.737178
734.058798	3493.950634
734.389501	3447.186370
734.720156	3415.379210
735.050762	3383.425857
735.381320	3365.885162
735.711831	3340.497911
736.042293	3322.581650
736.372707	3326.284378
736.703073	3308.960453
737.033391	3308.521872
737.363661	3315.657625
737.693883	3323.121054
738.024056	3330.276972
738.354182	3333.629339
738.684260	3363.644369
739.014290	3378.603993
739.344272	3379.975187
739.674207	3400.288516
740.004093	3407.046183
740.333931	3399.691139
740.663722	3391.093452
740.993464	3389.603791
741.323159	3378.813201
741.652806	3350.723892
741.982405	3333.583968
742.311956	3308.799136
742.641460	3306.656645
742.970915	3283.762245
743.300323	3259.274840
743.629683	3240.385637
743.958996	3230.663772
744.288260	3208.896069
744.617477	3191.781352
744.946647	3178.013961
745.275768	3158.048471
745.604842	3150.504384
745.933869	3129.646610
746.262847	3122.765435
746.591778	3133.956797
746.920662	3118.235958
747.249498	3107.180708
747.578286	3122.445322
747.907027	3135.491828
748.235720	3148.014054
748.564365	3151.802481
748.892963	3138.894607
749.221514	3136.124493
749.550017	3124.933131
749.878473	3119.765949
750.206881	3101.111159
750.535242	3094.945828
750.863555	3090.892740
751.191821	3088.563727
751.520039	3082.602562
751.848210	3074.158630
752.176334	3078.441090
752.504411	3077.400092
752.832440	3065.152608
753.160421	3057.926114
753.488356	3055.362688
753.816243	3051.498643
754.144082	3036.566746
754.471875	3030.860159
754.799620	3033.037938
755.127318	3030.736651
755.454969	3032.722866
755.782572	3029.856970
756.110129	3023.522760
756.437638	3015.545134
756.765100	3015.542613
757.092515	3020.354395
757.419882	3021.776000
757.747203	3011.960874
758.074477	3015.298118
758.401703	3019.318438
758.728882	3024.987215
759.056014	3026.549973
759.383099	3030.151877
759.710138	3031.765047
760.037129	3044.284752
760.364073	3049.371276
760.690970	3038.013557
761.017820	3033.587424
761.344623	3040.153527
761.671379	3057.381670
761.998088	3075.875143
762.324751	3142.496511
762.651366	3277.664969
762.977935	3543.427038
763.304456	3761.744288
763.630931	3786.025006
763.957359	3602.617746
764.283740	3423.152669
764.610074	3308.347952
764.936362	3201.815769
765.262602	3126.967237
765.588796	3068.930953
765.914943	3025.387987
766.241044	2982.699496
766.567097	2968.281796
766.893104	2942.050152
767.219064	2923.652461
767.544978	2908.657549
767.870845	2890.872358
768.196665	2878.766027
768.522438	2874.786036
768.848165	2868.265304
769.173846	2854.097141
769.499479	2848.274608
769.825066	2839.581138
770.150607	2828.077225
770.476101	2828.997236
770.801548	2825.859118
771.126949	2807.844554
771.452303	2802.662248
771.777611	2800.741569
772.102872	2800.164357
772.428087	2791.818726
772.753256	2783.495781
773.078378	2779.115019
773.403453	2764.901485
773.728482	2758.400917
774.053465	2763.431989
774.378401	2759.215064
774.703291	2747.028074
775.028135	2745.543455
775.352932	2745.553537
775.677683	2736.897876
776.002388	2736.431569
776.327046	2734.707494
776.651658	2729.542832
776.976224	2723.543859
777.300743	2723.647203
777.625216	2719.394990
777.949643	2719.984805
778.274024	2718.006152
778.598359	2711.566078
778.922647	2709.511807
779.246889	2711.891232
779.571086	2703.772454
779.895236	2705.557022
780.219339	2711.462734
780.543397	2711.195553
780.867409	2713.859803
781.191374	2712.881819
781.515294	2709.700851
781.839167	2708.385110
782.162995	2709.279914
782.486776	2706.595500
782.810511	2703.215406
783.134201	2701.128369
783.457844	2699.343800
783.781441	2691.638397
784.104993	2689.750484
784.428498	2689.828622
784.751958	2688.795186
785.075372	2688.780062
785.398739	2684.182530
785.722061	2687.106399
786.045337	2692.412214
786.368568	2689.873993
786.691752	2685.901563
787.014891	2700.150385
787.337983	2714.585729
787.661030	2735.236816
787.984031	2762.743872
788.306987	2773.786519
788.629897	2772.022115
788.952760	2761.473501
789.275579	2748.792478
789.598351	2727.092832
789.921078	2710.172199
790.243759	2703.152392
790.566395	2693.380115
790.888984	2684.220339
791.211529	2679.156500
791.534027	2673.240706
791.856480	2667.597134
792.178888	2662.523212
792.501249	2659.596823
792.823566	2660.549601
793.145836	2658.142450
793.468062	2653.688590
793.790241	2652.720689
794.112375	2655.115237
794.434464	2658.674292
794.756507	2664.821979
795.078505	2666.455312
795.400457	2672.519821
795.722364	2682.352591
796.044226	2696.004036
796.366042	2699.230374
796.687812	2694.146371
797.009538	2697.287009
797.331218	2690.173941
797.652852	2684.507684
797.974442	2678.551561
798.295986	2673.782630
798.617484	2671.856909
798.938938	2665.300888
799.260346	2659.654796
799.581709	2658.092038
799.903026	2656.274702
800.224299	2651.566265
800.545526	2649.741367
800.866708	2645.375728
801.187845	2644.576705
801.508936	2641.347846
801.829983	2640.654687
802.150984	2637.761065
802.471940	2637.090591
802.792851	2635.295941
803.113717	2631.953656
803.434538	2634.091105
803.755314	2632.987092
804.076045	2629.266721
804.396731	2627.527522
804.717372	2630.857205
805.037967	2630.577421
805.358518	2632.266207
805.679024	2636.021867
805.999485	2634.877525
806.319901	2636.495735
806.640272	2634.212092
806.960598	2636.389871
807.280879	2636.914151
807.601115	2640.548823
807.921306	2634.648152
808.241453	2635.139665
808.561554	2635.273255
808.881611	2634.922895
809.201623	2632.001547
809.521590	2631.908285
809.841513	2631.250415
810.161390	2630.529530
810.481223	2626.909981
810.801011	2624.656585
811.120755	2622.967799
811.440453	2623.991153
811.760107	2619.915380
812.079716	2617.609052
812.399281	2613.636623
812.718801	2612.182250
813.038276	2610.591766
813.357707	2612.270470
813.677093	2609.669235
813.996434	2610.763165
814.315731	2611.645367
814.634983	2611.983125
814.954191	2610.866509
815.273354	2613.944133
815.592473	2612.777106
815.911547	2614.728033
816.230577	2618.171141
816.549562	2621.639455
816.868502	2622.239352
817.187399	2621.571399
817.506250	2622.738426
817.825058	2624.747326
818.143821	2626.078191
818.462539	2633.176135
818.781213	2639.676703
819.099843	2647.296407
819.418429	2665.051351
819.736970	2687.958354
820.055466	2706.691282
820.373919	2727.571741
820.692327	2761.894437
821.010691	2815.670946
821.329011	2975.168012
821.647286	3353.940148
821.965517	3917.755397
822.283704	4222.364597
822.601847	4180.243236
822.919945	3868.379815
823.237999	3598.010132
823.556010	3362.152187
823.873976	3175.226203
824.191897	3039.989689
824.509775	2943.494443
824.827609	2866.321939
825.145398	2833.814058
825.463144	2824.646720
825.780845	2850.059177
826.098502	2888.213150
826.416116	2986.006493
826.733685	3089.352668
827.051210	3113.371245
827.368692	3056.517112
827.686129	2955.202523
828.003522	2864.297916
828.320872	2784.708179
828.638177	2736.315623
828.955439	2701.904706
829.272656	2674.347239
829.589830	2656.025165
829.906960	2643.931437
830.224046	2634.363327
830.541088	2627.114148
830.858086	2622.861935
831.175041	2617.664505
831.491952	2614.463372
831.808819	2617.288939
832.125642	2619.965792
832.442421	2636.586476
832.759157	2659.228818
833.075849	2709.388299
833.392497	2781.701131
833.709101	2837.065603
834.025662	2823.056236
834.342179	2777.141407
834.658653	2725.353633
834.975083	2685.659588
835.291469	2663.523882
835.607811	2638.469347
835.924110	2623.983591
836.240366	2611.322733
836.556578	2602.591455
836.872746	2598.432503
837.188871	2592.541915
837.504952	2585.239803
837.820990	2583.155286
838.136984	2580.372569
838.452935	2579.525656
838.768842	2580.866602
839.084706	2582.303331
839.400526	2605.376692
839.716303	2640.755510
840.032037	2667.347597
840.347727	2659.112872
840.663373	2641.473875
840.978977	2618.314814
841.294537	2599.070209
841.610054	2590.341451
841.925527	2583.298959
842.240957	2576.881570
842.556344	2572.415108
842.871687	2572.024419
843.186987	2566.728687
843.502244	2562.786504
843.817458	2563.313305
844.132629	2560.495300
844.447756	2557.831050
844.762840	2554.335010
845.077881	2554.806358
845.392879	2556.890875
845.707833	2554.337530
846.022745	2554.206460
846.337613	2555.411296
846.652438	2553.354505
846.967221	2554.650082
847.281960	2554.743343
847.596656	2554.884496
847.911309	2555.071018
848.225919	2554.516491
848.540485	2551.600184
848.855009	2553.707386
849.169490	2552.444577
849.483928	2553.036913
849.798323	2553.840977
850.112675	2552.174875
850.426984	2551.383414
850.741251	2552.497509
851.055474	2551.627910
851.369654	2551.438867
851.683792	2550.657488
851.997887	2552.505071
852.311938	2552.565565
852.625947	2550.145811
852.939914	2550.985163
853.253837	2550.654967
853.567718	2554.075390
853.881555	2549.513146
854.195350	2553.140256
854.509103	2551.985832
854.822812	2551.088507
855.136479	2551.610266
855.450103	2550.730585
855.763685	2552.399207
856.077224	2551.554813
856.390720	2550.455842
856.704173	2552.258054
857.017584	2554.496327
857.330953	2549.941644
857.644278	2551.935421
857.957561	2554.531615
858.270802	2553.808209
858.584000	2552.442057
858.897155	2553.576316
859.210268	2554.476162
859.523339	2552.772252
859.836367	2551.426264
860.149352	2550.712941
860.462295	2554.541697
860.775195	2547.143804
861.088054	2548.726726
861.400869	2548.436860
861.713642	2545.875954
862.026373	2546.390151
862.339062	2552.396686
862.651708	2551.151521
862.964312	2553.198230
863.276873	2551.663198
863.589392	2552.094217
863.901869	2553.523384
864.214303	2554.781152
864.526696	2554.997922
864.839045	2551.801830
865.151353	2554.287119
865.463619	2555.968344
865.775842	2553.180586
866.088023	2555.494475
866.400162	2556.719476
866.712258	2554.551779
867.024313	2555.761656
867.336325	2553.793086
867.648296	2556.608570
867.960224	2553.107489
868.272110	2555.527243
868.583954	2554.128323
868.895755	2552.999104
869.207515	2555.938097
869.519233	2556.759805
869.830909	2557.132850
870.142542	2555.489434
870.454134	2553.853580
870.765684	2551.925338
871.077191	2556.941286
871.388657	2556.888354
871.700081	2559.905485
872.011463	2555.552448
872.322803	2558.231822
872.634101	2559.729044
872.945357	2561.196020
873.256571	2563.527554
873.567744	2561.012018
873.878874	2561.995043
874.189963	2563.978737
874.501010	2558.637635
874.812015	2562.305074
875.122979	2562.509241
875.433900	2562.055537
875.744780	2561.261555
876.055618	2560.742316
876.366415	2563.265414
876.677169	2558.269630
876.987882	2558.647717
877.298554	2556.754764
877.609183	2560.306257
877.919771	2559.519837
878.230317	2561.763150
878.540822	2565.886814
878.851285	2570.290262
879.161707	2576.803432
879.472087	2583.646799
879.782425	2595.511154
880.092722	2615.549741
880.402977	2659.100269
880.713191	2737.767475
881.023363	2843.435101
881.333494	2910.631161
881.643583	2940.996551
881.953631	2920.922676
882.263637	2865.785056
882.573602	2811.799340
882.883526	2767.767381
883.193408	2731.947463
883.503248	2701.415714
883.813048	2676.235151
884.122806	2654.568272
884.432522	2633.922226
884.742197	2618.944958
885.051831	2609.152517
885.361424	2599.496187
885.670975	2592.607450
885.980485	2583.931624
886.289954	2583.072107
886.599382	2578.499781
886.908768	2576.150603
887.218113	2573.345201
887.527417	2566.829510
887.836680	2568.251115
888.145901	2564.099725
888.455082	2563.613253
888.764221	2561.198541
889.073319	2559.686195
889.382376	2558.625032
889.691392	2558.617470
890.000366	2561.657286
890.309300	2555.998591
890.618193	2558.587223
890.927044	2561.690053
891.235855	2560.792728
891.544625	2559.124106
891.853353	2559.792059
892.162041	2561.289282
892.470687	2567.205076
892.779293	2567.918399
893.087858	2571.190108
893.396381	2578.749318
893.704864	2585.539752
894.013306	2600.456526
894.321707	2621.717593
894.630068	2633.276958
894.938387	2640.863895
895.246665	2635.671507
895.554903	2624.863273
895.863100	2613.049329
896.171256	2602.059613
896.479371	2589.111410
896.787446	2583.727457
897.095480	2577.340315
897.403473	2575.747311
897.711425	2572.790674
898.019336	2568.533420
898.327207	2566.408573
898.635038	2564.210630
898.942827	2562.889848
899.250576	2561.173335
899.558284	2561.924467
899.865952	2561.122923
900.173579	2558.037737
900.481165	2557.636966
900.788711	2556.341389
901.096216	2555.514640
901.403681	2554.788714
901.711105	2556.139743
902.018489	2555.381049
902.325832	2559.338355
902.633135	2555.741492
902.940397	2559.189641
903.247619	2569.682803
903.554800	2585.030596
903.861941	2614.813732
904.169041	2645.516880
904.476101	2663.037410
904.783121	2658.845691
905.090100	2645.847076
905.397039	2625.952162
905.703938	2608.179574
906.010796	2593.540063
906.317614	2582.918352
906.624391	2574.257650
906.931129	2568.513255
907.237826	2564.109807
907.544483	2559.224929
907.851099	2556.800134
908.157675	2552.074052
908.464211	2550.884340
908.770707	2546.354863
909.077163	2547.237065
909.383578	2547.254709
909.689954	2546.037271
909.996289	2542.878988
910.302584	2551.690925
910.608839	2546.669935
910.915054	2549.639175
911.221229	2545.893598
911.527363	2551.038095
911.833458	2547.010213
912.139513	2547.443753
912.445527	2549.016592
912.751502	2548.106664
913.057436	2549.944165
913.363331	2552.754608
913.669186	2554.148487
913.975000	2558.315001
914.280775	2560.931360
914.586510	2569.796229
914.892205	2575.487691
915.197859	2589.381111
915.503475	2606.886518
915.809050	2626.332769
916.114585	2633.413070
916.420081	2638.686117
916.725536	2637.438431
917.030952	2623.643313
917.336328	2613.916407
917.641665	2605.394337
917.946961	2596.204313
918.252218	2586.482448
918.557435	2581.582446
918.862612	2578.900553
919.167750	2573.922413
919.472848	2565.123079
919.777906	2562.620146
920.082925	2563.136864
920.387904	2558.257027
920.692843	2559.169476
920.997743	2553.954403
921.302603	2553.586398
921.607423	2553.064639
921.912204	2551.305276
922.216946	2550.760832
922.521647	2548.706562
922.826310	2548.709082
923.130932	2549.114895
923.435516	2545.192877
923.740059	2544.199770
924.044564	2546.037271
924.349028	2544.444266
924.653454	2540.852444
924.957840	2542.324461
925.262186	2540.023174
925.566493	2542.942002
925.870761	2535.728111
926.174989	2540.560057
926.479178	2540.764224
926.783328	2540.507125
927.087438	2540.585263
927.391509	2544.232538
927.695541	2540.023174
927.999533	2541.631302
928.303486	2539.980324
928.607400	2539.302289
928.911275	2538.984696
929.215110	2537.739531
929.518906	2539.425797
929.822663	2539.256919
930.126381	2539.672814
930.430060	2540.925541
930.733699	2538.203317
931.037299	2541.172557
931.340861	2540.892773
931.644383	2539.448482
931.947866	2539.819007
932.251309	2540.497042
932.554714	2540.123997
932.858080	2541.389327
933.161407	2539.657690
933.464694	2539.687937
933.767943	2538.377237
934.071153	2537.641229
934.374323	2538.830941
934.677455	2537.845396
934.980548	2535.506300
935.283602	2536.885056
935.586617	2538.972093
935.889593	2540.360931
936.192530	2538.490663
936.495428	2540.323123
936.798287	2537.356404
937.101108	2539.962680
937.403890	2539.420756
937.706632	2540.713812
938.009336	2541.036446
938.312002	2541.800181
938.614628	2542.150541
938.917216	2545.805378
939.219765	2543.902342
939.522275	2544.726571
939.824747	2543.572146
940.127179	2541.117104
940.429573	2536.897659
940.731929	2541.124666
941.034246	2537.182484
941.336524	2538.036959
941.638763	2540.265149
941.940964	2543.559543
942.243126	2542.800850
942.545250	2542.021992
942.847335	2543.310006
943.149381	2537.847916
943.451389	2539.738349
943.753359	2538.563760
944.055290	2539.198945
944.357182	2540.020653
944.659036	2541.901004
944.960851	2539.733308
945.262628	2538.528472
945.564367	2537.086702
945.866067	2541.709440
946.167729	2539.340098
946.469352	2541.195242
946.770937	2538.722556
947.072484	2538.094933
947.373992	2539.952598
947.675462	2537.437062
947.976893	2540.625592
948.278286	2537.679038
948.579641	2537.767258
948.880958	2539.133410
949.182236	2535.743234
949.483476	2540.073586
949.784678	2538.662063
950.085841	2539.950077
950.386967	2537.250539
950.688054	2539.894625
950.989103	2540.277752
951.290114	2540.555016
951.591087	2538.397402
951.892021	2540.923020
952.192917	2538.019315
952.493776	2538.528472
952.794596	2541.361600
953.095378	2540.227341
953.396122	2541.374203
953.696828	2537.812628
953.997496	2539.957639
954.298126	2536.602751
954.598718	2539.854295
954.899272	2536.345652
955.199788	2537.663914
955.500266	2536.839685
955.800706	2536.325488
956.101108	2532.491690
956.401472	2534.689633
956.701798	2532.043027
957.002087	2533.638553
957.302337	2536.675848
957.602550	2535.836496
957.902724	2533.812472
958.202861	2534.016639
958.502960	2534.742565
958.803022	2534.712318
959.103045	2533.517565
959.403031	2535.095446
959.702979	2533.583100
960.002889	2536.786753
960.302762	2536.138965
960.602596	2533.227699
960.902393	2531.528830
961.202153	2534.707277
961.501875	2531.342307
961.801559	2533.000847
962.101205	2532.025383
962.400814	2532.831968
962.700385	2533.245343
962.999918	2533.273069
963.299414	2532.315250
963.598873	2534.074613
963.898293	2532.020342
964.197677	2532.653007
964.497022	2532.360620
964.796331	2532.607637
965.095601	2532.035466
965.394835	2529.724097
965.694030	2531.985054
965.993189	2530.881042
966.292309	2532.897503
966.591393	2533.242822
966.890439	2533.522606
967.189447	2529.784591
967.488419	2532.035466
967.787353	2534.601413
968.086249	2532.106042
968.385108	2531.813655
968.683930	2534.843388
968.982714	2534.593851
969.281462	2531.412883
969.580172	2531.589324
969.878844	2533.021011
970.177480	2533.681402
970.476078	2534.971938
970.774639	2532.227030
971.073162	2532.791639
971.371649	2531.115455
971.670098	2525.176976
971.968510	2532.398429
972.266885	2528.972965
972.565223	2535.004705
972.863524	2534.684592
973.161788	2530.434899
973.460014	2534.006557
973.758204	2532.254756
974.056356	2531.866587
974.354471	2533.421783
974.652550	2534.619057
974.950591	2533.139478
975.248595	2532.206865
975.546563	2531.906916
975.844493	2532.421114
976.142386	2534.462781
976.440243	2528.733510
976.738062	2533.981351
977.035845	2531.259128
977.333590	2533.444468
977.631299	2528.947759
977.928971	2529.005732
978.226606	2533.293234
978.524204	2532.010260
978.821765	2532.549663
979.119290	2531.740558
979.416777	2530.898686
979.714228	2532.035466
980.011642	2530.568490
980.309020	2531.324663
980.606360	2532.292565
980.903664	2531.949766
981.200931	2532.156453
981.498162	2531.417924
981.795356	2533.038655
982.092513	2533.320960
982.389633	2535.415559
982.686717	2534.452699
982.983764	2533.429345
983.280775	2535.334901
983.577749	2537.719367
983.874686	2534.498069
984.171587	2534.866074
984.468451	2533.628470
984.765279	2537.197607
985.062070	2533.026052
985.358824	2532.690816
985.655543	2532.685775
985.952224	2531.201155
986.248869	2532.433717
986.545478	2526.563293
986.842050	2530.167718
987.138586	2526.288550
987.435086	2527.473222
987.731549	2524.766122
988.027975	2530.132430
988.324366	2530.946577
988.620719	2531.465815
988.917037	2528.194107
989.213318	2530.475229
989.509563	2531.352389
989.805772	2529.237625
990.101944	2528.582275
990.398080	2530.881042
990.694180	2533.320960
990.990244	2529.487162
991.286271	2528.357944
991.582262	2530.462626
991.878217	2530.734848
992.174136	2528.536905
992.470019	2530.608819
992.765865	2530.361803
993.061676	2530.823068
993.357450	2529.358613
993.653188	2531.133099
993.948890	2529.088911
994.244556	2530.374406
994.540186	2531.977493
994.835780	2530.336597
995.131337	2529.615712
995.426859	2531.382636
995.722345	2532.678213
996.017795	2533.378933
996.313208	2530.518078
996.608586	2531.221319
996.903928	2529.996319
997.199234	2531.491021
997.494504	2530.334076
997.789738	2530.293747
998.084936	2528.874662
998.380099	2529.441792
998.675225	2528.615043
998.970316	2530.865918
999.265371	2532.186700
999.560390	2530.283665
999.855373	2529.928263
1000.150320	2531.415404
1000.445232	2530.175280
1000.740108	2528.776360
1001.034948	2532.184180
1001.329752	2528.317615
1001.624521	2531.574200
1001.919254	2524.549352
1002.213951	2527.596730
1002.508613	2524.360309
1002.803239	2530.364323
1003.097829	2524.337624
1003.392384	2531.233922
1003.686903	2527.821061
1003.981386	2527.523633
1004.275834	2526.253262
1004.570246	2528.305012
1004.864623	2528.582275
1005.158964	2528.657893
1005.453270	2529.237625
1005.747540	2529.225022
1006.041775	2526.722090
1006.335974	2527.967255
1006.630138	2529.731658
1006.924266	2530.112266
1007.218359	2528.473891
1007.512416	2530.167718
1007.806438	2527.541277
1008.100425	2527.669827
1008.394376	2527.022038
1008.688292	2529.872811
1008.982172	2528.930115
1009.276017	2529.371216
1009.569827	2526.684281
1009.863602	2531.246525
1010.157341	2528.216792
1010.451045	2527.493386
1010.744714	2530.906247
1011.038347	2527.826102
1011.331945	2525.673530
1011.625508	2530.790301
1011.919036	2526.792666
1012.212528	2528.413397
1012.505986	2527.543798
1012.799408	2530.271062
1013.092795	2526.149919
1013.386147	2528.912471
1013.679464	2527.309384
1013.972745	2526.326359
1014.265992	2526.001205
1014.559204	2529.920702
1014.852380	2526.394415
1015.145521	2526.689322
1015.438628	2529.867770
1015.731699	2529.812317
1016.024736	2527.400125
1016.317737	2529.477080
1016.610703	2530.785260
1016.903635	2524.693025
1017.196531	2525.469363
1017.489393	2525.691174
1017.782219	2522.795031
1018.075011	2527.523633
1018.367768	2526.525485
1018.660490	2527.450536
1018.953177	2527.450536
1019.245829	2527.450536
