Dividing Wavelength (nm)	Counts (n)	Blue Motor Position (mm): 0.000000	Red Motor Position (mm): 6.000000	
326.493990	2085.666498
326.888308	2085.666498
327.282561	2085.666498
327.676750	2064.927192
328.070874	2065.012891
328.464933	2069.867522
328.858929	2082.465366
329.252859	2093.213106
329.646726	2108.190374
330.040528	2123.210492
330.434265	2142.392082
330.827938	2164.994095
331.221547	2183.197702
331.615091	2203.132945
332.008571	2225.351830
332.401986	2243.855386
332.795338	2265.514703
333.188625	2285.540687
333.581847	2304.981897
333.975006	2323.457725
334.368100	2339.007164
334.761129	2356.416789
335.154095	2373.912114
335.546996	2388.760832
335.939833	2400.093346
336.332606	2417.112282
336.725315	2426.844229
337.117960	2435.051227
337.510540	2442.181940
337.903056	2451.311469
338.295508	2457.990998
338.687896	2465.192286
339.080220	2471.090436
339.472480	2475.110757
339.864676	2481.334061
340.256807	2482.168372
340.648875	2485.626603
341.040879	2487.131388
341.432818	2486.576861
341.824694	2489.495689
342.216506	2484.968733
342.608253	2486.891933
342.999937	2487.023003
343.391557	2484.653661
343.783113	2483.194247
344.174605	2482.932107
344.566033	2482.627117
344.957397	2478.909266
345.348697	2476.010602
345.739934	2476.600417
346.131106	2474.460448
346.522215	2473.212762
346.913260	2470.177987
347.304241	2467.677575
347.695159	2467.102884
348.086012	2463.949642
348.476802	2465.880404
348.867528	2463.594241
349.258191	2461.348407
349.648789	2462.104580
350.039324	2461.154322
350.429796	2462.258335
350.820203	2458.999229
351.210548	2458.890844
351.600828	2455.543518
351.991045	2457.217181
352.381198	2458.366564
352.771288	2458.043930
353.161314	2458.641307
353.551276	2456.619804
353.941175	2458.318673
354.331010	2457.504527
354.720782	2463.256483
355.110490	2459.372274
355.500135	2456.912191
355.889717	2461.270269
356.279235	2457.567541
356.668689	2458.936214
357.058080	2462.001236
357.447408	2457.466718
357.836672	2457.577623
358.225873	2459.266410
358.615010	2456.297170
359.004084	2462.611216
359.393095	2462.971658
359.782043	2464.962914
360.170927	2464.136165
360.559748	2465.373768
360.948505	2468.511886
361.337199	2467.700260
361.725830	2466.019036
362.114398	2465.756896
362.502903	2467.934674
362.891344	2463.115331
363.279722	2469.618419
363.668037	2469.187401
364.056289	2470.591362
364.444478	2469.580611
364.832603	2468.446351
365.220665	2471.413070
365.608665	2468.133800
365.996601	2472.423822
366.384474	2471.947432
366.772284	2470.601444
367.160031	2471.763430
367.547715	2472.164202
367.935336	2470.301496
368.322893	2474.581435
368.710388	2476.776858
369.097820	2477.820377
369.485189	2476.078658
369.872495	2474.107567
370.259738	2477.560757
370.646918	2474.740232
371.034035	2479.373052
371.421090	2483.791623
371.808081	2482.743063
372.195010	2488.522746
372.581875	2490.340082
372.968678	2495.751761
373.355418	2500.155209
373.742096	2510.116529
374.128710	2518.363857
374.515262	2528.163860
374.901751	2541.795140
375.288177	2554.067829
375.674540	2571.013667
376.060841	2589.902871
376.447079	2611.017744
376.833254	2632.364510
377.219367	2652.766059
377.605417	2683.494412
377.991404	2704.342104
378.377329	2738.074985
378.763191	2768.790736
379.148991	2807.768937
379.534727	2846.454752
379.920402	2887.976215
380.306013	2924.446443
380.691563	2975.581387
381.077049	3015.391379
381.462474	3055.647513
381.847835	3110.732201
382.233134	3156.059736
382.618371	3197.283771
383.003545	3254.629417
383.388657	3303.992395
383.773706	3358.273019
384.158693	3395.701066
384.543618	3448.890280
384.928480	3482.177019
385.313280	3537.594423
385.698017	3583.231989
386.082692	3642.430259
386.467305	3654.705468
386.851856	3704.857388
387.236344	3776.701392
387.620770	3777.863378
388.005133	3818.719409
388.389435	3864.742623
388.773674	3876.329715
389.157851	3910.380189
389.541965	3941.562246
389.926018	3912.000920
390.310008	3958.649237
390.693936	3973.916371
391.077802	3980.006085
391.461606	3993.786079
391.845348	3992.941686
392.229027	3997.080473
392.612645	4036.129251
392.996200	4029.394269
393.379694	4042.549160
393.763125	4067.959096
394.146494	4040.898182
394.529801	4024.630379
394.913047	4047.345818
395.296230	3980.633709
395.679351	3934.993622
396.062410	3947.805715
396.445408	3851.302907
396.828343	3831.113086
397.211217	3794.685708
397.594028	3703.092984
397.976778	3685.791744
398.359466	3659.892816
398.742092	3597.952158
399.124656	3561.060995
399.507158	3533.863970
399.889598	3479.248109
400.271977	3450.684931
400.654294	3398.105697
401.036549	3369.177035
401.418742	3315.052687
401.800874	3294.961168
402.182944	3252.164293
402.564952	3233.159143
402.946898	3163.533246
403.328783	3123.892133
403.710606	3089.584561
404.092367	3061.316290
404.474067	3041.466747
404.855705	2983.833756
405.237282	2940.799946
405.618797	2921.953592
406.000250	2901.985582
406.381642	2878.871892
406.762972	2839.805470
407.144240	2803.206693
407.525447	2783.289094
407.906593	2753.498395
408.287677	2733.525344
408.668700	2715.064638
409.049661	2692.697039
409.430560	2678.186077
409.811399	2660.489107
410.192176	2644.163330
410.572891	2634.262504
410.953545	2623.648355
411.334138	2605.167485
411.714669	2601.356372
412.095139	2586.794999
412.475547	2583.427509
412.855894	2570.895200
413.236180	2567.189952
413.616405	2561.659806
413.996568	2554.082952
414.376670	2549.442570
414.756711	2543.415871
415.136691	2545.215562
415.516609	2539.932433
415.896466	2541.923689
416.276262	2541.066693
416.655997	2535.662576
417.035670	2532.708460
417.415283	2533.946063
417.794834	2529.819879
418.174324	2531.017153
418.553753	2529.875331
418.933121	2532.902544
419.312428	2529.081350
419.691674	2526.069260
420.070859	2530.298788
420.449983	2529.648479
420.829045	2526.427182
421.208047	2528.141174
421.586988	2528.859539
421.965867	2525.255114
422.344686	2527.170752
422.723444	2527.173273
423.102141	2524.075484
423.480777	2524.418282
423.859352	2521.471728
424.237866	2523.833508
424.616319	2524.851822
424.994712	2527.160670
425.373044	2525.960875
425.751314	2526.921215
426.129524	2523.475587
426.507673	2525.015659
426.885762	2525.262676
427.263789	2527.803417
427.641756	2527.800897
428.019662	2527.246370
428.397508	2525.212264
428.775292	2528.373068
429.153016	2527.276617
429.530679	2526.989271
429.908282	2528.610002
430.285824	2523.689836
430.663305	2528.857018
431.040726	2527.828623
431.418086	2528.274765
431.795385	2529.782070
432.172624	2528.814168
432.549802	2529.293078
432.926920	2529.197296
433.303977	2531.740558
433.680974	2532.156453
434.057910	2530.470188
434.434786	2532.625281
434.811601	2531.065044
435.188355	2532.413552
435.565050	2530.989426
435.941683	2531.337266
436.318257	2533.615868
436.694770	2529.933305
437.071222	2531.493542
437.447614	2529.338448
437.823946	2529.295599
438.200218	2531.969931
438.576429	2534.130065
438.952580	2533.751979
439.328670	2533.830117
439.704700	2533.273069
440.080670	2533.308357
440.456580	2533.328522
440.832429	2534.349355
441.208218	2534.586290
441.583947	2535.193749
441.959616	2533.724252
442.335224	2536.191897
442.710773	2535.163502
443.086261	2537.195087
443.461689	2533.787267
443.837057	2534.563604
444.212365	2537.263142
444.587612	2537.477391
444.962800	2537.618544
445.337927	2539.198945
445.712995	2533.913296
446.088002	2537.946219
446.462949	2540.058462
446.837837	2540.552495
447.212664	2537.721887
447.587431	2544.895449
447.962139	2548.237734
448.336786	2553.097407
448.711374	2549.959288
449.085901	2543.299924
449.460369	2546.642209
449.834776	2544.250182
450.209124	2550.632282
450.583412	2544.857641
450.957640	2548.565409
451.331808	2545.210521
451.705917	2544.814791
452.079965	2541.628782
452.453954	2546.143135
452.827883	2544.940820
453.201752	2543.050387
453.575562	2543.791437
453.949311	2544.532486
454.323001	2546.664894
454.696632	2544.197249
455.070202	2547.295038
455.443713	2546.072559
455.817164	2544.323278
456.190556	2544.136756
456.563888	2543.494008
456.937160	2542.226158
457.310373	2544.610624
457.683526	2545.200439
458.056619	2546.233876
458.429653	2542.755479
458.802628	2545.167672
459.175542	2544.063659
459.548398	2546.450645
459.921194	2549.369473
460.293930	2551.746377
460.666607	2551.590102
461.039224	2557.558828
461.411782	2553.591440
461.784280	2554.975236
462.156719	2553.193188
462.529099	2552.305945
462.901419	2551.239741
463.273680	2549.109854
463.645882	2548.643547
464.018024	2549.886192
464.390106	2550.493651
464.762130	2555.801986
465.134094	2558.476318
465.505999	2569.708008
465.877845	2574.600448
466.249631	2577.955336
466.621358	2575.701940
466.993026	2577.357959
467.364634	2572.896538
467.736184	2565.730538
468.107674	2563.454457
468.479105	2561.647203
468.850477	2561.679971
469.221790	2559.492110
469.593043	2556.066646
469.964238	2558.685526
470.335373	2555.648230
470.706449	2558.118396
471.077467	2561.223747
471.448425	2566.658110
471.819324	2570.053327
472.190164	2569.292113
472.560945	2561.508572
472.931667	2557.624363
473.302330	2554.700493
473.672934	2554.582026
474.043479	2552.426933
474.413965	2551.398538
474.784393	2545.959133
475.154761	2548.943496
475.525070	2548.638506
475.895321	2546.261602
476.265513	2544.814791
476.635645	2549.702189
477.005719	2550.307128
477.375734	2550.102961
477.745691	2549.251006
478.115588	2554.357695
478.485427	2554.592109
478.855207	2557.548745
479.224928	2560.394477
479.594591	2560.381874
479.964194	2563.197358
480.333739	2560.565876
480.703226	2559.330793
481.072653	2558.403221
481.442022	2560.913716
481.811333	2561.455640
482.180584	2560.190310
482.549777	2559.146791
482.918912	2556.648899
483.287988	2557.886503
483.657005	2555.378529
484.025964	2554.161090
484.394864	2553.294012
484.763706	2555.698642
485.132489	2552.883158
485.501213	2553.480534
485.869879	2554.632438
486.238487	2553.024310
486.607036	2551.017931
486.975527	2553.021789
487.343959	2552.121943
487.712333	2552.752087
488.080648	2549.187992
488.448905	2551.055739
488.817104	2549.974412
489.185244	2554.271995
489.553326	2551.685883
489.921350	2556.054043
490.289315	2556.986657
490.657222	2561.095197
491.025070	2560.969168
491.392861	2561.606874
491.760593	2556.618652
492.128267	2554.682849
492.495883	2552.492468
492.863440	2554.420709
493.230939	2550.876778
493.598380	2550.173537
493.965763	2547.766386
494.333088	2548.157076
494.700354	2544.136756
495.067563	2546.496016
495.434713	2543.892260
495.801805	2549.341747
496.168839	2545.008875
496.535815	2544.666077
496.902733	2547.158927
497.269593	2546.763197
497.636395	2546.881664
498.003139	2546.811088
498.369825	2545.971736
498.736453	2547.887374
499.103023	2545.853268
499.469535	2544.903011
499.835989	2547.642878
500.202385	2544.567774
500.568723	2545.989380
500.935003	2543.735984
501.301226	2543.005017
501.667390	2547.022816
502.033497	2544.466951
502.399546	2546.042312
502.765537	2542.337064
503.131470	2542.732794
503.497345	2544.648433
503.863163	2541.868236
504.228923	2541.603576
504.594625	2542.054759
504.960269	2540.580222
505.325856	2542.223638
505.691385	2541.505273
506.056856	2543.887218
506.422270	2542.586601
506.787625	2541.596014
507.152924	2541.205325
507.518164	2544.023330
507.883347	2541.525438
508.248472	2540.307999
508.613540	2541.641384
508.978550	2541.346477
509.343503	2542.899152
509.708398	2544.184647
510.073236	2540.066024
510.438016	2541.162475
510.802738	2540.799512
511.167403	2538.962011
511.532010	2542.367311
511.896561	2542.732794
512.261053	2544.078782
512.625488	2536.625436
512.989866	2539.156096
513.354186	2537.767258
513.718449	2534.843388
514.082655	2541.689275
514.446803	2541.442259
514.810894	2540.403781
515.174927	2542.001827
515.538904	2542.662218
515.902822	2542.899152
516.266684	2542.153062
516.630488	2540.698689
516.994235	2541.449821
517.357925	2538.604089
517.721558	2543.199101
518.085133	2541.250695
518.448651	2539.937474
518.812112	2540.028215
519.175516	2538.750283
519.538863	2538.841023
519.902152	2539.710622
520.265385	2540.907897
520.628560	2540.771785
520.991678	2540.668442
521.354739	2540.892773
521.717743	2541.837989
522.080690	2538.737680
522.443580	2541.472506
522.806413	2540.307999
523.169189	2540.333205
523.531908	2539.914789
523.894569	2539.677855
524.257174	2538.578883
524.619722	2539.438400
524.982213	2537.285828
525.344647	2536.476722
525.707025	2539.541744
526.069345	2536.040662
526.431608	2537.638708
526.793815	2536.940508
527.155964	2537.414377
527.518057	2539.841693
527.880093	2538.861188
528.242072	2538.044521
528.603995	2537.323636
528.965860	2537.308513
529.327669	2538.185673
529.689421	2537.442103
530.051117	2535.665097
530.412755	2536.980838
530.774337	2533.943543
531.135862	2537.810108
531.497331	2534.293903
531.858743	2533.275590
532.220098	2533.935981
532.581396	2532.784077
532.942638	2531.922040
533.303824	2534.762730
533.664953	2537.205169
534.026025	2536.169212
534.387040	2535.344983
534.747999	2534.349355
535.108902	2533.590662
535.469748	2533.356248
535.830537	2535.478574
536.191270	2536.733821
536.551947	2535.496218
536.912567	2534.616537
537.273131	2537.671476
537.633638	2536.302802
537.994089	2536.723739
538.354483	2535.135775
538.714821	2537.071578
539.075103	2536.181815
539.435328	2534.828265
539.795497	2534.997144
540.155609	2537.275745
540.515665	2534.936650
540.875665	2533.368851
541.235609	2536.093595
541.595496	2537.242978
541.955328	2536.000333
542.315102	2536.398584
542.674821	2534.140147
543.034483	2535.410518
543.394090	2531.821217
543.753640	2534.913965
544.113134	2533.202493
544.472571	2533.015970
544.831953	2532.484128
545.191278	2532.050589
545.550548	2532.070754
545.909761	2535.090405
546.268918	2530.921371
546.628019	2534.785415
546.987064	2532.794159
547.346053	2532.292565
547.704986	2533.736855
548.063863	2533.028573
548.422684	2531.216278
548.781449	2534.742565
549.140158	2531.932122
549.498811	2532.219468
549.857408	2533.895652
550.215949	2529.204858
550.574434	2527.914323
550.932864	2529.101514
551.291237	2529.071267
551.649555	2531.246525
552.007817	2533.073943
552.366022	2532.479087
552.724173	2533.915816
553.082267	2531.488501
553.440305	2532.602596
553.798288	2532.776515
554.156215	2531.717873
554.514086	2536.096115
554.871902	2531.493542
555.229661	2532.166536
555.587365	2534.077133
555.945014	2535.728111
556.302606	2536.101156
556.660143	2532.844571
557.017625	2533.741896
557.375050	2531.470857
557.732421	2528.849457
558.089735	2530.835671
558.446994	2531.642256
558.804197	2533.199972
559.161345	2534.094777
559.518437	2530.709642
559.875474	2531.405322
560.232455	2534.152750
560.589381	2531.806093
560.946251	2533.444468
561.303065	2532.158974
561.659825	2531.909437
562.016528	2533.565456
562.373177	2529.933305
562.729770	2533.469674
563.086307	2532.902544
563.442789	2534.266176
563.799216	2532.519417
564.155587	2531.700229
564.511904	2530.802904
564.868164	2532.413552
565.224370	2531.513706
565.580520	2530.727286
565.936615	2531.261649
566.292654	2529.570342
566.648638	2532.842050
567.004567	2532.169056
567.360441	2530.397091
567.716260	2530.901206
568.072023	2531.493542
568.427732	2528.327697
568.783385	2531.236443
569.138982	2527.742923
569.494525	2530.167718
569.850013	2527.024559
570.205445	2530.959179
570.560823	2530.939015
570.916145	2528.604961
571.271412	2529.235105
571.626625	2530.772657
571.981782	2529.633356
572.336884	2531.581762
572.691931	2530.054292
573.046923	2530.044210
573.401860	2528.657893
573.756743	2531.881711
574.111570	2529.260311
574.466342	2531.191073
574.821059	2529.061185
575.175722	2531.722914
575.530330	2531.667462
575.884882	2531.531350
576.239380	2529.714014
576.593823	2532.128727
576.948211	2531.475898
577.302544	2534.480425
577.656823	2529.441792
578.011047	2530.684437
578.365216	2531.102852
578.719330	2528.191586
579.073389	2530.976823
579.427394	2528.007584
579.781344	2529.091432
580.135239	2529.033459
580.489080	2528.569673
580.842866	2532.854653
581.196597	2534.450178
581.550273	2528.292409
581.903895	2530.812986
582.257463	2531.070085
582.610975	2530.823068
582.964434	2527.526154
583.317837	2528.226874
583.671186	2529.802235
584.024481	2530.707122
584.377721	2529.194776
584.730906	2528.592358
585.084037	2530.853315
585.437113	2527.967255
585.790135	2530.059333
586.143103	2528.042872
586.496016	2530.911288
586.848874	2526.475073
587.201679	2528.113448
587.554428	2526.296112
587.907124	2528.035310
588.259765	2522.147243
588.612352	2528.005063
588.964884	2528.216792
589.317362	2527.090094
589.669786	2529.424148
590.022155	2528.257121
590.374470	2528.431041
590.726731	2530.422297
591.078937	2526.611184
591.431090	2527.848788
591.783188	2527.120341
592.135232	2530.044210
592.487222	2527.992460
592.839157	2527.538757
593.191038	2526.391894
593.542866	2528.920033
593.894639	2525.010618
594.246358	2524.952645
594.598022	2525.875176
594.949633	2528.405835
595.301190	2528.020187
595.652692	2525.429034
596.004141	2525.197141
596.355535	2530.351720
596.706876	2528.914992
597.058162	2528.045393
597.409395	2527.440454
597.760573	2526.737213
598.111698	2528.501617
598.462768	2527.821061
598.813785	2525.192099
599.164748	2529.104035
599.515657	2526.903571
599.866511	2527.367357
600.217312	2528.670496
600.568060	2527.347193
600.918753	2527.505989
601.269392	2527.105217
601.619978	2527.868952
601.970510	2527.803417
602.320988	2526.086904
602.671412	2527.314425
603.021783	2526.714528
603.372100	2529.225023
603.722363	2528.080681
604.072572	2524.647655
604.422728	2528.100845
604.772830	2524.115813
605.122878	2523.321831
605.472872	2523.455422
605.822813	2521.678415
606.172701	2525.756709
606.522534	2529.290558
606.872314	2526.578417
607.222041	2525.340813
607.571714	2527.606812
607.921333	2526.706966
608.270899	2524.650175
608.620411	2527.022038
608.969870	2526.462470
609.319276	2527.919364
609.668627	2527.705115
610.017926	2527.805938
610.367171	2528.320135
610.716362	2527.483304
611.065500	2526.517923
611.414585	2524.534229
611.763616	2527.473222
612.112594	2527.569003
612.461518	2524.511544
612.810389	2524.720752
613.159207	2528.277286
613.507971	2524.924918
613.856682	2526.011287
614.205340	2527.566483
614.553945	2528.536905
614.902496	2527.702594
615.250994	2527.206040
615.599439	2527.707635
615.947830	2528.678057
616.296169	2527.256452
616.644454	2523.402490
616.992686	2526.966586
617.340864	2527.127903
617.688990	2525.701256
618.037063	2528.030269
618.385082	2526.253262
618.733048	2526.578417
619.080961	2526.142357
619.428821	2529.661082
619.776628	2526.870804
620.124382	2530.238294
620.472083	2529.333407
620.819731	2525.565145
621.167326	2525.401307
621.514868	2525.451719
621.862357	2525.759229
622.209793	2528.166380
622.557176	2525.368540
622.904506	2524.572038
623.251783	2521.537263
623.599007	2522.898374
623.946179	2523.551204
624.293297	2522.396780
624.640363	2527.566483
624.987376	2524.067922
625.334336	2526.827954
625.681243	2523.072294
626.028097	2526.235618
626.374899	2525.350896
626.721647	2523.387366
627.068343	2527.387522
627.414987	2522.588343
627.761577	2526.553211
628.108115	2526.122192
628.454600	2526.878365
628.801032	2524.345186
629.147412	2525.613036
629.493739	2525.560104
629.840014	2526.890968
630.186236	2524.511544
630.532405	2525.494569
630.878521	2524.372912
631.224585	2525.587830
631.570597	2523.624301
631.916556	2523.841070
632.262462	2523.939373
632.608316	2525.045906
632.954117	2523.813344
633.299866	2524.350227
633.645562	2524.584640
633.991206	2525.633200
634.336797	2522.616070
634.682336	2526.084384
635.027823	2525.406348
635.373257	2524.877027
635.718639	2523.626821
636.063968	2522.764784
636.409245	2523.692356
636.754470	2523.899043
637.099642	2523.750329
637.444762	2524.166225
637.789829	2520.977695
638.134845	2524.529188
638.479808	2521.592716
638.824719	2524.335103
639.169577	2523.717562
639.514383	2526.069260
639.859137	2521.207067
640.203839	2525.497089
640.548489	2523.296626
640.893086	2520.055164
641.237632	2518.326048
641.582125	2517.950482
641.926566	2517.960564
642.270955	2523.437778
642.615292	2522.114475
642.959576	2523.457942
643.303809	2523.639424
643.647990	2522.905936
643.992118	2522.573220
644.336195	2522.053981
644.680219	2520.493744
645.024192	2522.180010
645.368112	2520.115657
645.711981	2522.979033
646.055797	2523.715041
646.399562	2524.942562
646.743274	2520.934845
647.086935	2521.822088
647.430544	2524.057840
647.774101	2523.843591
648.117606	2521.776718
648.461059	2525.116482
648.804460	2524.163704
649.147810	2524.027593
649.491108	2524.854342
649.834354	2522.028775
650.177548	2521.978364
650.520690	2522.404341
650.863781	2523.662109
651.206820	2523.561286
651.549807	2519.687159
651.892742	2523.039527
652.235626	2522.323683
652.578458	2519.432581
652.921238	2519.878723
653.263967	2522.699249
653.606644	2522.116996
653.949269	2521.567510
654.291843	2519.178003
654.634365	2521.249917
654.976836	2523.704959
655.319255	2521.610360
655.661622	2521.781759
656.003938	2521.383508
656.346203	2519.460307
656.688416	2520.352592
657.030577	2522.835360
657.372687	2519.954341
657.714746	2520.917201
658.056753	2519.629186
658.398708	2517.708507
658.740612	2519.966943
659.082465	2515.334123
659.424266	2517.771521
659.766016	2516.339833
660.107715	2522.061543
660.449362	2520.057684
660.790958	2524.113292
661.132503	2519.914011
661.473996	2521.101203
661.815438	2521.527181
662.156829	2522.497603
662.498168	2522.290915
662.839456	2522.893333
663.180693	2521.920391
663.521879	2520.357633
663.863013	2521.244876
664.204097	2520.201357
664.545129	2521.065915
664.886110	2522.391738
665.227040	2522.916018
665.567918	2522.628673
665.908746	2521.996008
666.249522	2521.743950
666.590248	2520.556758
666.930922	2520.675226
667.271545	2520.791172
667.612118	2522.545494
667.952639	2520.105575
668.293109	2519.089783
668.633528	2519.719927
668.973896	2520.440812
669.314213	2520.445853
669.654480	2523.336955
669.994695	2520.687828
670.334859	2521.242355
670.674973	2518.976357
671.015035	2520.776049
671.355047	2520.440812
671.695008	2520.017355
672.034918	2520.009793
672.374777	2518.905781
672.714585	2522.026255
673.054342	2520.077849
673.394049	2520.221522
673.733705	2518.689011
674.073310	2521.857376
674.412864	2520.108096
674.752368	2517.557272
675.091820	2521.063394
675.431223	2518.994001
675.770574	2520.231604
676.109875	2513.693228
676.449125	2519.198168
676.788324	2516.927128
677.127473	2519.036851
677.466571	2515.651716
677.805619	2520.783610
678.144616	2517.955523
678.483562	2520.004752
678.822458	2519.765297
679.161303	2518.809999
679.500098	2521.207067
679.838842	2520.508867
680.177535	2520.871831
680.516179	2518.154649
680.854771	2521.403672
681.193314	2521.822088
681.531805	2519.140194
681.870247	2521.577592
682.208638	2518.472241
682.546978	2520.075328
682.885268	2520.002232
683.223508	2520.463497
683.561697	2519.054495
683.899836	2516.995183
684.237925	2520.725637
684.575963	2520.713034
684.913951	2519.737571
685.251889	2520.506347
685.589776	2520.256810
685.927614	2521.875020
686.265401	2522.311080
686.603137	2518.305883
686.940824	2517.055677
687.278460	2519.843435
687.616046	2522.613549
687.953582	2519.772859
688.291068	2517.877385
688.628504	2519.616583
688.965889	2521.426358
689.303224	2520.599608
689.640510	2518.492406
689.977745	2522.006090
690.314930	2518.376459
690.652065	2519.362005
690.989150	2515.618948
691.326185	2519.656912
691.663170	2519.422499
692.000105	2522.850483
692.336990	2517.557272
692.673825	2516.042405
693.010610	2520.468538
693.347345	2514.038547
693.684030	2515.450070
694.020665	2514.184740
694.357251	2514.088958
694.693786	2516.536438
695.030272	2517.166583
695.366707	2517.834535
695.703093	2516.730523
696.039429	2518.986439
696.375716	2519.936697
696.711952	2518.550379
697.048139	2516.891840
697.384276	2518.167252
697.720363	2518.520132
698.056400	2516.975019
698.392388	2517.325379
698.728326	2516.322189
699.064214	2517.577437
699.400053	2520.554238
699.735842	2516.259175
700.071581	2521.340658
700.407270	2516.354957
700.742910	2516.513753
701.078501	2516.349916
701.414042	2517.655574
701.749533	2514.905625
702.084974	2516.128105
702.420366	2516.052488
702.755709	2519.462828
703.091002	2517.277488
703.426246	2517.234638
703.761440	2515.555934
704.096584	2516.972498
704.431679	2519.288908
704.766725	2518.726820
705.101721	2515.061901
705.436668	2513.950326
705.771565	2517.441325
706.106413	2516.387724
706.441212	2516.788496
706.775961	2518.043743
707.110661	2516.032323
707.445311	2515.714730
707.779913	2516.750687
708.114465	2518.346212
708.448967	2516.740605
708.783421	2517.935358
709.117825	2517.280008
709.452180	2514.653567
709.786485	2515.525687
710.120742	2515.974350
710.454949	2518.308404
710.789107	2516.354957
711.123216	2513.302538
711.457275	2512.352281
711.791286	2512.624503
712.125247	2514.618279
712.459159	2519.382170
712.793023	2518.036182
713.126837	2515.142559
713.460602	2515.697086
713.794318	2514.391427
714.127985	2516.677591
714.461602	2518.114319
714.795171	2516.579288
715.128691	2518.724299
715.462162	2514.814884
715.795584	2514.857734
716.128957	2517.335461
716.462281	2516.990142
716.795556	2514.814884
717.128782	2517.138856
717.461960	2515.974350
717.795088	2515.208094
718.128167	2514.207425
718.461198	2517.451408
718.794180	2514.656088
719.127113	2515.717251
719.459997	2515.707168
719.792833	2515.039216
720.125619	2514.787158
720.458357	2512.974863
720.791046	2516.362518
721.123686	2516.150790
721.456278	2515.311438
721.788821	2516.607014
722.121315	2516.276819
722.453761	2513.579802
722.786158	2515.739936
723.118506	2514.993845
723.450805	2515.422343
723.783056	2516.400327
724.115259	2513.718433
724.447412	2513.988135
724.779518	2516.430574
725.111574	2515.707168
725.443582	2514.106602
725.775542	2518.414268
726.107453	2517.438805
726.439315	2513.728516
726.771129	2515.641633
727.102895	2514.809843
727.434612	2515.795389
727.766281	2515.243382
728.097901	2514.278001
728.429473	2512.831190
728.760996	2511.817918
729.092471	2510.744152
729.423897	2513.867147
729.755276	2516.496109
730.086606	2515.707168
730.417887	2513.678104
730.749120	2515.124915
731.080305	2515.147600
731.411442	2517.118692
731.742530	2514.610717
732.073570	2515.434946
732.404562	2516.057529
732.735506	2513.521828
733.066401	2515.593743
733.397249	2514.015861
733.728048	2514.104082
734.058798	2515.828156
734.389501	2516.733043
734.720156	2514.184740
735.050762	2514.809843
735.381320	2516.823784
735.711831	2515.308917
736.042293	2516.077693
736.372707	2514.199863
736.703073	2514.454442
737.033391	2515.208094
737.363661	2513.809174
737.693883	2516.677591
738.024056	2518.610873
738.354182	2512.107785
738.684260	2513.032836
739.014290	2512.889163
739.344272	2514.139370
739.674207	2513.370594
740.004093	2518.580626
740.333931	2514.041067
740.663722	2514.638444
740.993464	2515.629031
741.323159	2515.069463
741.652806	2512.032167
741.982405	2516.342354
742.311956	2512.606859
742.641460	2516.357477
742.970915	2514.376304
743.300323	2516.375121
743.629683	2513.536952
743.958996	2515.356808
744.288260	2513.219359
744.617477	2513.647857
744.946647	2509.814060
745.275768	2512.737929
745.604842	2512.069976
745.933869	2511.523011
746.262847	2505.685355
746.591778	2513.448732
746.920662	2514.083917
747.249498	2514.104082
747.578286	2513.249606
747.907027	2515.553413
748.235720	2514.157014
748.564365	2515.051818
748.892963	2511.613752
749.221514	2512.211128
749.550017	2514.590553
749.878473	2513.610048
750.206881	2513.922600
750.535242	2515.674401
750.863555	2513.920079
751.191821	2516.596932
751.520039	2514.265398
751.848210	2514.719102
752.176334	2514.005779
752.504411	2513.678104
752.832440	2515.354288
753.160421	2512.077538
753.488356	2513.307579
753.816243	2513.698269
754.144082	2514.482168
754.471875	2513.862106
754.799620	2515.644154
755.127318	2513.491581
755.454969	2510.895387
755.782572	2514.882940
756.110129	2513.728516
756.437638	2512.183402
756.765100	2513.889833
757.092515	2513.821777
757.419882	2515.160203
757.747203	2512.485871
758.074477	2515.931500
758.401703	2512.075017
758.728882	2515.129956
759.056014	2512.987466
759.383099	2513.408402
759.710138	2514.222549
760.037129	2516.175996
760.364073	2514.025944
760.690970	2512.937054
761.017820	2510.361025
761.344623	2511.200377
761.671379	2510.146776
761.998088	2507.974038
762.324751	2514.877899
762.651366	2513.078207
762.977935	2514.446880
763.304456	2511.875892
763.630931	2517.000224
763.957359	2513.136180
764.283740	2515.008969
764.610074	2515.119874
764.936362	2514.025944
765.262602	2511.263391
765.588796	2514.582991
765.914943	2512.775737
766.241044	2512.470748
766.567097	2511.056704
766.893104	2512.521159
767.219064	2509.932527
767.544978	2516.107940
767.870845	2512.022085
768.196665	2514.570388
768.522438	2512.080058
768.848165	2510.905469
769.173846	2511.288597
769.499479	2512.437980
769.825066	2509.378000
770.150607	2511.805315
770.476101	2510.814729
770.801548	2514.245234
771.126949	2512.984945
771.452303	2513.118536
771.777611	2510.897908
772.102872	2512.402692
772.428087	2509.425891
772.753256	2510.865140
773.078378	2510.509739
773.403453	2512.196005
773.728482	2510.320696
774.053465	2511.459996
774.378401	2511.122239
774.703291	2513.887312
775.028135	2509.919924
775.352932	2512.591735
775.677683	2512.687517
776.002388	2512.715244
776.327046	2510.358504
776.651658	2510.832373
776.976224	2510.923113
777.300743	2515.422343
777.625216	2510.595438
777.949643	2510.774399
778.274024	2510.242558
778.598359	2509.032681
778.922647	2507.641322
779.246889	2512.362363
779.571086	2507.724501
779.895236	2509.665346
780.219339	2509.226765
780.543397	2513.547034
780.867409	2511.623834
781.191374	2510.935716
781.515294	2513.297497
781.839167	2510.441683
782.162995	2511.026457
782.486776	2513.294976
782.810511	2510.933196
783.134201	2512.397651
783.457844	2511.311282
783.781441	2511.996879
784.104993	2511.631396
784.428498	2509.786333
784.751958	2511.795233
785.075372	2512.821108
785.398739	2510.502177
785.722061	2510.721467
786.045337	2510.048473
786.368568	2511.293638
786.691752	2511.616272
787.014891	2511.878412
787.337983	2512.642147
787.661030	2512.495953
787.984031	2513.214318
788.306987	2513.912518
788.629897	2512.886643
788.952760	2512.937054
789.275579	2512.581653
789.598351	2511.938906
789.921078	2511.152486
790.243759	2510.933196
790.566395	2512.871519
790.888984	2512.253978
791.211529	2513.831859
791.534027	2512.029647
791.856480	2510.887825
792.178888	2511.296159
792.501249	2512.274143
792.823566	2512.712723
793.145836	2511.255830
793.468062	2511.744822
793.790241	2511.127280
794.112375	2513.151303
794.434464	2510.971004
794.756507	2511.454955
795.078505	2508.669718
795.400457	2511.255830
795.722364	2507.290962
796.044226	2509.607372
796.366042	2507.565705
796.687812	2509.854389
797.009538	2511.134842
797.331218	2512.017044
797.652852	2512.556447
797.974442	2510.749194
798.295986	2510.988648
798.617484	2510.797085
798.938938	2510.096364
799.260346	2509.677948
799.581709	2512.327075
799.903026	2510.792043
800.224299	2511.245747
800.545526	2509.355315
800.866708	2507.215345
801.187845	2510.388751
801.508936	2510.850017
801.829983	2507.394306
802.150984	2510.741632
802.471940	2507.996724
802.792851	2509.486385
803.113717	2510.187105
803.434538	2512.203567
803.755314	2511.404544
804.076045	2507.404388
804.396731	2510.832373
804.717372	2511.039060
805.037967	2510.381189
805.358518	2508.432783
805.679024	2510.479492
805.999485	2510.466889
806.319901	2512.868999
806.640272	2508.107629
806.960598	2510.434122
807.280879	2509.738442
807.601115	2510.492095
807.921306	2508.082423
808.241453	2509.844307
808.561554	2510.159379
808.881611	2509.130983
809.201623	2511.275994
809.521590	2513.065604
809.841513	2511.235665
810.161390	2509.960253
810.481223	2510.799605
810.801011	2510.028309
811.120755	2509.627537
811.440453	2510.565192
811.760107	2509.917403
812.079716	2509.776251
812.399281	2506.597803
812.718801	2511.215500
813.038276	2504.041938
813.357707	2510.923113
813.677093	2509.478823
813.996434	2511.591066
814.315731	2507.963956
814.634983	2508.825993
814.954191	2508.813391
815.273354	2510.671056
815.592473	2508.402537
815.911547	2512.586694
816.230577	2509.758607
816.549562	2508.526045
816.868502	2508.944461
817.187399	2510.539986
817.506250	2509.272136
817.825058	2513.945285
818.143821	2511.250788
818.462539	2510.194667
818.781213	2510.227434
819.099843	2513.194153
819.418429	2509.183915
819.736970	2510.305572
820.055466	2512.690038
820.373919	2511.588546
820.692327	2510.688700
821.010691	2517.443846
821.329011	2515.908815
821.647286	2520.544156
821.965517	2525.547501
822.283704	2528.975485
822.601847	2526.485155
822.919945	2527.868952
823.237999	2522.623632
823.556010	2524.325021
823.873976	2520.332427
824.191897	2518.081552
824.509775	2516.186078
824.827609	2516.175996
825.145398	2513.136180
825.463144	2515.671880
825.780845	2513.728516
826.098502	2515.709689
826.416116	2515.039216
826.733685	2518.008455
827.051210	2514.467045
827.368692	2516.478465
827.686129	2514.124246
828.003522	2511.951509
828.320872	2506.078565
828.638177	2512.586694
828.955439	2508.828514
829.272656	2510.408916
829.589830	2504.851044
829.906960	2512.392610
830.224046	2510.837414
830.541088	2512.367404
830.858086	2508.765500
831.175041	2510.776920
831.491952	2509.347753
831.808819	2508.621827
832.125642	2511.230624
832.442421	2509.572084
832.759157	2509.816580
833.075849	2511.081910
833.392497	2511.908659
833.709101	2515.591222
834.025662	2515.855883
834.342179	2509.685510
834.658653	2513.042919
834.975083	2509.834224
835.291469	2517.884947
835.607811	2509.385562
835.924110	2509.257012
836.240366	2509.587208
836.556578	2510.250119
836.872746	2510.595438
837.188871	2508.079903
837.504952	2506.628050
837.820990	2506.217196
838.136984	2506.970849
838.452935	2508.079903
838.768842	2507.664008
839.084706	2508.538648
839.400526	2508.152999
839.716303	2509.395644
840.032037	2509.151148
840.347727	2510.376148
840.663373	2509.035201
840.978977	2509.763648
841.294537	2508.342043
841.610054	2508.596621
841.925527	2506.373472
842.240957	2507.285921
842.556344	2507.820283
842.871687	2509.453617
843.186987	2509.425891
843.502244	2507.805160
843.817458	2509.095695
844.132629	2507.671569
844.447756	2507.855571
844.762840	2506.207114
845.077881	2506.350787
845.392879	2506.814573
845.707833	2505.942453
846.022745	2506.093688
846.337613	2509.378000
846.652438	2510.507218
846.967221	2507.084275
847.281960	2510.469410
847.596656	2509.987979
847.911309	2505.960097
848.225919	2506.832217
848.540485	2507.787516
848.855009	2507.326250
849.169490	2508.304234
849.483928	2507.021260
849.798323	2507.359018
850.112675	2507.396826
850.426984	2505.423215
850.741251	2508.765500
851.055474	2508.412619
851.369654	2507.888339
851.683792	2505.766013
851.997887	2508.790705
852.311938	2507.028822
852.625947	2510.416478
852.939914	2506.799450
853.253837	2507.709378
853.567718	2506.015550
853.881555	2509.791374
854.195350	2507.537979
854.509103	2509.441014
854.822812	2506.728873
855.136479	2508.909173
855.450103	2508.127794
855.763685	2510.020747
856.077224	2505.695437
856.390720	2508.256343
856.704173	2509.710716
857.017584	2506.774244
857.330953	2508.241220
857.644278	2506.628050
857.957561	2511.480161
858.270802	2507.807680
858.584000	2507.480005
858.897155	2507.454800
859.210268	2507.628719
859.523339	2504.871208
859.836367	2508.100067
860.149352	2508.478154
860.462295	2510.459327
860.775195	2504.674603
861.088054	2503.880622
861.400869	2505.506394
861.713642	2502.426249
862.026373	2506.638133
862.339062	2506.862464
862.651708	2508.725170
862.964312	2507.094357
863.276873	2505.753410
863.589392	2508.556292
863.901869	2506.527227
864.214303	2507.474964
864.526696	2509.433452
864.839045	2507.553102
865.151353	2508.649553
865.463619	2507.873215
865.775842	2508.021929
866.088023	2505.491270
866.400162	2508.369769
866.712258	2507.696775
867.024313	2508.505880
867.336325	2506.882629
867.648296	2509.599811
867.960224	2509.924965
868.272110	2508.072341
868.583954	2506.880108
868.895755	2508.442866
869.207515	2506.481857
869.519233	2509.877074
869.830909	2507.628719
870.142542	2507.238030
870.454134	2508.682321
870.765684	2509.509070
871.077191	2505.269459
871.388657	2509.909842
871.700081	2508.188288
872.011463	2505.710560
872.322803	2508.616786
872.634101	2508.442866
872.945357	2505.869357
873.256571	2508.944461
873.567744	2508.737773
873.878874	2508.437825
874.189963	2509.002434
874.501010	2508.773061
874.812015	2506.716271
875.122979	2507.641322
875.433900	2504.069665
875.744780	2504.813235
876.055618	2506.746518
876.366415	2509.751045
876.677169	2507.860612
876.987882	2505.982783
877.298554	2506.018071
877.609183	2508.276508
877.919771	2503.293327
878.230317	2503.782319
878.540822	2511.613752
878.851285	2504.488081
879.161707	2507.356497
879.472087	2507.936230
879.782425	2510.189626
880.092722	2508.755417
880.402977	2512.105264
880.713191	2513.017713
881.023363	2513.254647
881.333494	2516.428053
881.643583	2513.915038
881.953631	2515.414782
882.263637	2515.631551
882.573602	2515.971829
882.883526	2512.453104
883.193408	2511.477640
883.503248	2509.534276
883.813048	2511.313803
884.122806	2510.053514
884.432522	2509.267094
884.742197	2507.396826
885.051831	2510.199708
885.361424	2510.045953
885.670975	2510.388751
885.980485	2506.255005
886.289954	2508.631909
886.599382	2507.394306
886.908768	2509.025119
887.218113	2507.268277
887.527417	2511.326406
887.836680	2506.539830
888.145901	2507.860613
888.455082	2506.577639
888.764221	2508.122752
889.073319	2507.953874
889.382376	2506.401198
889.691392	2508.158041
890.000366	2508.276508
890.309300	2507.127125
890.618193	2506.955725
890.927044	2508.001765
891.235855	2508.261384
891.544625	2506.285252
891.853353	2508.054697
892.162041	2507.931189
892.470687	2511.056704
892.779293	2505.582011
893.087858	2504.180570
893.396381	2505.367762
893.704864	2506.716271
894.013306	2504.190652
894.321707	2507.580828
894.630068	2512.606859
894.938387	2505.304747
895.246665	2506.718791
895.554903	2510.000582
895.863100	2507.623678
896.171256	2508.074862
896.479371	2510.686179
896.787446	2509.365397
897.095480	2505.619820
897.403473	2508.016888
897.711425	2505.955056
898.019336	2508.437825
898.327207	2507.999244
898.635038	2509.125942
898.942827	2506.696106
899.250576	2504.659480
899.558284	2507.880777
899.865952	2508.316837
900.173579	2507.336332
900.481165	2506.083606
900.788711	2505.836589
901.096216	2508.372290
901.403681	2506.776764
901.711105	2505.221568
902.018489	2503.522700
902.325832	2507.051507
902.633135	2504.803153
902.940397	2507.918586
903.247619	2506.628050
903.554800	2506.171826
903.861941	2508.437825
904.169041	2508.163082
904.476101	2509.977897
904.783121	2508.347084
905.090100	2509.514111
905.397039	2510.701303
905.703938	2506.791888
906.010796	2508.843637
906.317614	2508.049656
906.624391	2509.801457
906.931129	2506.002947
907.237826	2508.097547
907.544483	2505.650067
907.851099	2504.130159
908.157675	2503.479850
908.464211	2505.211486
908.770707	2502.242247
909.077163	2507.154851
909.383578	2502.373317
909.689954	2505.171157
909.996289	2503.114366
910.302584	2506.439007
910.608839	2505.831548
910.915054	2505.501353
911.221229	2505.156033
911.527363	2507.001096
911.833458	2506.678462
912.139513	2506.222238
912.445527	2508.173164
912.751502	2505.836589
913.057436	2505.458503
913.363331	2508.825993
913.669186	2507.628719
913.975000	2504.679644
914.280775	2507.200221
914.586510	2504.644356
914.892205	2505.246774
915.197859	2509.062928
915.503475	2507.346415
915.809050	2511.840603
916.114585	2507.101919
916.420081	2508.200890
916.725536	2508.757938
917.030952	2512.190964
917.336328	2508.478154
917.641665	2509.206601
917.946961	2507.190139
918.252218	2506.522186
918.557435	2510.456807
918.862612	2506.721312
919.167750	2504.019253
919.472848	2508.382372
919.777906	2505.627381
920.082925	2502.879952
920.387904	2505.798781
920.692843	2507.643843
920.997743	2507.800119
921.302603	2507.540499
921.607423	2506.897752
921.912204	2508.566374
922.216946	2504.414984
922.521647	2505.564367
922.826310	2507.172495
923.130932	2505.314830
923.435516	2505.486229
923.740059	2503.862977
924.044564	2505.014881
924.349028	2505.261898
924.653454	2502.484222
924.957840	2504.067144
925.262186	2500.860970
925.566493	2505.282062
925.870761	2500.898779
926.174989	2504.578821
926.479178	2507.364059
926.783328	2505.332474
927.087438	2505.062772
927.391509	2507.893380
927.695541	2505.584532
927.999533	2506.807011
928.303486	2503.079078
928.607400	2505.962618
928.911275	2503.920951
929.215110	2504.024294
929.518906	2503.973883
929.822663	2505.541682
930.126381	2505.839110
930.430060	2506.358349
930.733699	2504.210817
931.037299	2504.568739
931.340861	2503.182422
931.644383	2505.387927
931.947866	2506.249964
932.251309	2504.102432
932.554714	2503.525220
932.858080	2508.727691
933.161407	2504.288955
933.464694	2505.939933
933.767943	2507.898421
934.071153	2504.435148
934.374323	2506.063441
934.677455	2505.090498
934.980548	2507.711898
935.283602	2506.759120
935.586617	2505.592093
935.889593	2505.360200
936.192530	2505.108142
936.495428	2506.055879
936.798287	2504.011692
937.101108	2504.702330
937.403890	2503.255518
937.706632	2507.641322
938.009336	2504.762823
938.312002	2502.038080
938.614628	2504.765344
938.917216	2504.639315
939.219765	2503.893224
939.522275	2504.946826
939.824747	2505.075375
940.127179	2503.179901
940.429573	2499.598161
940.731929	2501.738131
941.034246	2498.378202
941.336524	2504.813235
941.638763	2505.251815
941.940964	2508.382372
942.243126	2502.940446
942.545250	2503.822648
942.847335	2506.958246
943.149381	2504.788029
943.451389	2504.840961
943.753359	2504.190652
944.055290	2506.539830
944.357182	2504.052021
944.659036	2504.551095
944.960851	2503.399191
945.262628	2503.570591
945.564367	2505.314830
945.866067	2505.806342
946.167729	2506.925478
946.469352	2506.696106
946.770937	2505.279542
947.072484	2507.666528
947.373992	2507.117042
947.675462	2504.296517
947.976893	2504.982114
948.278286	2504.112515
948.579641	2505.541682
948.880958	2504.351969
949.182236	2505.445900
949.483476	2503.565549
949.784678	2504.719974
950.085841	2504.374655
950.386967	2506.134017
950.688054	2504.296517
950.989103	2504.906496
951.290114	2505.329953
951.591087	2503.789881
951.892021	2504.276352
952.192917	2506.071003
952.493776	2503.958759
952.794596	2507.830366
953.095378	2506.572598
953.396122	2504.286434
953.696828	2503.472288
953.997496	2504.956908
954.298126	2503.915910
954.598718	2506.534789
954.899272	2505.559326
955.199788	2508.392454
955.500266	2503.633605
955.800706	2502.637977
956.101108	2498.789056
956.401472	2499.635970
956.701798	2497.213696
957.002087	2502.612771
957.302337	2503.830210
957.602550	2504.755262
957.902724	2504.961949
958.202861	2502.764006
958.502960	2504.828358
958.803022	2506.154182
959.103045	2502.738800
959.403031	2505.503873
959.702979	2501.312154
960.002889	2503.129490
960.302762	2503.847854
960.602596	2505.249295
960.902393	2507.185098
961.202153	2505.965139
961.501875	2501.564211
961.801559	2504.309120
962.101205	2502.774088
962.400814	2502.557319
962.700385	2505.050169
962.999918	2504.178050
963.299414	2502.675786
963.598873	2504.372134
963.898293	2504.480519
964.197677	2506.834738
964.497022	2502.353152
964.796331	2504.099912
965.095601	2503.207628
965.394835	2502.451454
965.694030	2502.378358
965.993189	2505.710560
966.292309	2503.827689
966.591393	2502.128821
966.890439	2505.975221
967.189447	2504.238543
967.488419	2505.561846
967.787353	2504.062103
968.086249	2504.631753
968.385108	2503.379027
968.683930	2501.904489
968.982714	2504.677124
969.281462	2503.784840
969.580172	2504.568739
969.878844	2502.854747
970.177480	2502.154026
970.476078	2503.971362
970.774639	2504.394819
971.073162	2504.427587
971.371649	2500.187976
971.670098	2500.676968
971.968510	2501.211331
972.266885	2497.647235
972.565223	2505.748369
972.863524	2501.864160
973.161788	2508.026971
973.460014	2505.047649
973.758204	2504.972031
974.056356	2504.984634
974.354471	2505.702999
974.652550	2504.586383
974.950591	2504.752741
975.248595	2504.677124
975.546563	2504.364572
975.844493	2500.505569
976.142386	2503.263080
976.440243	2502.527072
976.738062	2504.054541
977.035845	2504.689727
977.333590	2503.414315
977.631299	2503.552947
977.928971	2506.318019
978.226606	2504.417504
978.524204	2502.569922
978.821765	2503.205107
979.119290	2503.638646
979.416777	2503.918430
979.714228	2505.508914
980.011642	2504.102432
980.309020	2505.299706
980.606360	2505.072854
980.903664	2504.853564
981.200931	2506.282731
981.498162	2503.653770
981.795356	2500.626557
982.092513	2503.502535
982.389633	2505.440859
982.686717	2504.442710
982.983764	2502.970693
983.280775	2504.752741
983.577749	2503.789881
983.874686	2504.173008
984.171587	2502.058244
984.468451	2505.755931
984.765279	2503.996568
985.062070	2502.948008
985.358824	2507.154851
985.655543	2502.698471
985.952224	2502.925323
986.248869	2501.395333
986.545478	2502.519510
986.842050	2503.547905
987.138586	2500.102277
987.435086	2500.402225
987.731549	2498.889879
988.027975	2505.163595
988.324366	2504.840961
988.620719	2505.899604
988.917037	2503.222751
989.213318	2504.793070
989.509563	2502.043121
989.805772	2504.306599
990.101944	2503.086640
990.398080	2501.211331
990.694180	2501.337359
990.990244	2503.941115
991.286271	2503.366424
991.582262	2502.103615
991.878217	2503.247957
992.174136	2504.452792
992.470019	2504.896414
992.765865	2503.091681
993.061676	2501.307113
993.357450	2501.186125
993.653188	2505.037566
993.948890	2501.163440
994.244556	2505.645025
994.540186	2502.867350
994.835780	2503.817607
995.131337	2504.296517
995.426859	2502.791732
995.722345	2501.065137
996.017795	2503.991527
996.313208	2505.014881
996.608586	2501.251660
996.903928	2502.509428
997.199234	2504.984634
997.494504	2502.406084
997.789738	2504.115035
998.084936	2504.838441
998.380099	2504.135200
998.675225	2503.162257
998.970316	2504.258708
999.265371	2502.257370
999.560390	2501.526403
999.855373	2503.013543
1000.150320	2502.025477
1000.445232	2504.099912
1000.740108	2502.567401
1001.034948	2503.565549
1001.329752	2502.204438
1001.624521	2503.903307
1001.919254	2496.213027
1002.213951	2502.438852
1002.508613	2499.280569
1002.803239	2499.489777
1003.097829	2498.022801
1003.392384	2500.800477
1003.686903	2501.591938
1003.981386	2504.102432
1004.275834	2503.434479
1004.570246	2505.947495
1004.864623	2504.329284
1005.158964	2505.342556
1005.453270	2503.321053
1005.747540	2504.190652
1006.041775	2504.009171
1006.335974	2501.213851
1006.630138	2502.368275
1006.924266	2504.422546
1007.218359	2503.651249
1007.512416	2502.748883
1007.806438	2502.811897
1008.100425	2501.027328
1008.394376	2503.126969
1008.688292	2503.711743
1008.982172	2503.321053
1009.276017	2505.564367
1009.569827	2504.611589
1009.863602	2504.331805
1010.157341	2499.368789
1010.451045	2505.347597
1010.744714	2501.901969
1011.038347	2502.998420
1011.331945	2501.909530
1011.625508	2503.106804
1011.919036	2504.455313
1012.212528	2501.972545
1012.505986	2504.578821
1012.799408	2504.132679
1013.092795	2503.671414
1013.386147	2503.865498
1013.679464	2501.992709
1013.972745	2502.007833
1014.265992	2502.264932
1014.559204	2502.854747
1014.852380	2504.167967
1015.145521	2503.575632
1015.438628	2502.741321
1015.731699	2502.360714
1016.024736	2502.229644
1016.317737	2502.133862
1016.610703	2505.695437
1016.903635	2496.727224
1017.196531	2498.829385
1017.489393	2500.956752
1017.782219	2497.891731
1018.075011	2501.717967
1018.367768	2504.485560
1018.660490	2500.515651
1018.953177	2500.515651
1019.245829	2500.515651
