Dividing Wavelength (nm)	Counts (n)	Blue Motor Position (mm): 0.000000	Red Motor Position (mm): 3.000000	
326.493990	2087.861921
326.888308	2087.861921
327.282561	2087.861921
327.676750	2064.113045
328.070874	2067.939281
328.464933	2075.619479
328.858929	2084.514595
329.252859	2096.822572
329.646726	2111.552823
330.040528	2124.483383
330.434265	2147.410551
330.827938	2165.054589
331.221547	2183.971519
331.615091	2206.092102
332.008571	2226.657489
332.401986	2245.753380
332.795338	2266.646442
333.188625	2288.230142
333.581847	2304.581125
333.975006	2321.562252
334.368100	2341.137052
334.761129	2356.681450
335.154095	2376.082330
335.546996	2389.411141
335.939833	2403.145765
336.332606	2418.251582
336.725315	2426.083015
337.117960	2435.651125
337.510540	2443.285952
337.903056	2452.397838
338.295508	2458.711883
338.687896	2467.375106
339.080220	2476.955819
339.472480	2475.302320
339.864676	2480.003196
340.256807	2485.155256
340.648875	2483.862200
341.040879	2487.418734
341.432818	2489.709938
341.824694	2487.098620
342.216506	2491.164311
342.608253	2492.288488
342.999937	2486.775987
343.391557	2489.427633
343.783113	2486.665081
344.174605	2483.655512
344.566033	2483.146356
344.957397	2480.136787
345.348697	2480.124184
345.739934	2476.139152
346.131106	2475.952629
346.522215	2475.135962
346.913260	2472.779223
347.304241	2469.633543
347.695159	2469.825107
348.086012	2467.226392
348.476802	2466.288737
348.867528	2465.494756
349.258191	2462.931329
349.648789	2464.569704
350.039324	2459.969651
350.429796	2463.868983
350.820203	2460.214147
351.210548	2458.487552
351.600828	2457.864969
351.991045	2458.633745
352.381198	2458.260700
352.771288	2459.412603
353.161314	2457.562500
353.551276	2458.127109
353.941175	2458.815227
354.331010	2458.525360
354.720782	2458.459825
355.110490	2460.524178
355.500135	2460.529219
355.889717	2459.707511
356.279235	2458.744651
356.668689	2460.977882
357.058080	2459.465536
357.447408	2458.474949
357.836672	2457.895216
358.225873	2461.343365
358.615010	2459.215998
359.004084	2463.042234
359.393095	2461.000567
359.782043	2461.660958
360.170927	2464.892338
360.559748	2464.461319
360.948505	2465.577935
361.337199	2465.784622
361.725830	2466.790332
362.114398	2464.234467
362.502903	2467.919551
362.891344	2469.615899
363.279722	2469.368882
363.668037	2470.165385
364.056289	2467.037349
364.444478	2468.584983
364.832603	2471.319809
365.220665	2469.066413
365.608665	2468.058182
365.996601	2472.673359
366.384474	2469.467185
366.772284	2470.687144
367.160031	2473.976497
367.547715	2471.198821
367.935336	2472.489357
368.322893	2472.035653
368.710388	2473.018678
369.097820	2473.918524
369.485189	2472.811990
369.872495	2475.509008
370.259738	2475.014975
370.646918	2475.960191
371.034035	2476.066055
371.421090	2479.241982
371.808081	2480.633341
372.195010	2480.824904
372.581875	2485.109885
372.968678	2488.361429
373.355418	2493.778149
373.742096	2501.907010
374.128710	2505.854233
374.515262	2508.082423
374.901751	2515.881088
375.288177	2524.899713
375.674540	2534.745086
376.060841	2544.449307
376.447079	2552.207643
376.833254	2566.985785
377.219367	2571.603482
377.605417	2586.825246
377.991404	2597.842688
378.377329	2609.185284
378.763191	2616.361367
379.148991	2636.626805
379.534727	2647.102323
379.920402	2656.957779
380.306013	2668.565035
380.691563	2682.140863
381.077049	2694.007739
381.462474	2703.575849
381.847835	2716.090513
382.233134	2731.725652
382.618371	2734.644480
383.003545	2752.926224
383.388657	2760.550970
383.773706	2772.226282
384.158693	2778.169802
384.543618	2787.989970
384.928480	2793.177317
385.313280	2801.472536
385.698017	2810.874288
386.082692	2821.710248
386.467305	2818.544403
386.851856	2827.270641
387.236344	2838.910665
387.620770	2834.971003
388.005133	2840.939729
388.389435	2846.230420
388.773674	2841.322857
389.157851	2841.862261
389.541965	2845.214628
389.926018	2830.144098
390.310008	2836.538802
390.693936	2835.089470
391.077802	2828.137719
391.461606	2825.954900
391.845348	2813.825883
392.229027	2813.699855
392.612645	2814.332519
392.996200	2806.037301
393.379694	2799.680406
393.763125	2798.931794
394.146494	2787.619445
394.529801	2776.546551
394.913047	2773.181581
395.296230	2755.174579
395.679351	2738.027094
396.062410	2733.008626
396.445408	2710.676314
396.828343	2700.465457
397.211217	2684.358970
397.594028	2662.762667
397.976778	2653.353354
398.359466	2643.255922
398.742092	2628.976854
399.124656	2620.807664
399.507158	2612.502363
399.889598	2599.932246
400.271977	2590.033941
400.654294	2581.494226
401.036549	2573.259501
401.418742	2562.418500
401.800874	2561.843808
402.182944	2551.801830
402.564952	2548.482230
402.946898	2541.366642
403.328783	2532.625281
403.710606	2528.320135
404.092367	2524.962727
404.474067	2521.746471
404.855705	2518.681449
405.237282	2513.121057
405.618797	2513.652898
406.000250	2513.158865
406.381642	2511.031498
406.762972	2510.658453
407.144240	2509.879595
407.525447	2509.672907
407.906593	2507.175016
408.287677	2505.476147
408.668700	2504.220899
409.049661	2504.173008
409.430560	2503.290807
409.811399	2504.546054
410.192176	2508.891528
410.572891	2505.481188
410.953545	2501.463388
411.334138	2504.384737
411.714669	2501.879283
412.095139	2503.903307
412.475547	2499.983810
412.855894	2503.623523
413.236180	2501.869201
413.616405	2502.055724
413.996568	2500.747544
414.376670	2501.443224
414.756711	2502.572442
415.136691	2502.106135
415.516609	2503.474809
415.896466	2500.455158
416.276262	2501.380209
416.655997	2500.712256
417.035670	2498.378202
417.415283	2500.152688
417.794834	2496.976761
418.174324	2503.590755
418.553753	2499.242760
418.933121	2503.570591
419.312428	2501.624705
419.691674	2505.745848
420.070859	2502.617813
420.449983	2501.672596
420.829045	2502.227123
421.208047	2502.580004
421.586988	2505.521517
421.965867	2506.315499
422.344686	2505.556805
422.723444	2506.197032
423.102141	2501.685199
423.480777	2502.789212
423.859352	2504.273832
424.237866	2504.263749
424.616319	2506.204593
424.994712	2505.367762
425.373044	2506.219717
425.751314	2509.110819
426.129524	2500.760147
426.507673	2509.022598
426.885762	2507.028822
427.263789	2508.306755
427.641756	2504.283914
428.019662	2504.283914
428.397508	2506.789367
428.775292	2507.754748
429.153016	2507.031343
429.530679	2507.578308
429.908282	2507.744666
430.285824	2505.488750
430.663305	2506.686024
431.040726	2505.287103
431.418086	2506.580159
431.795385	2510.958402
432.172624	2511.490243
432.549802	2506.917917
432.926920	2509.463699
433.303977	2507.434635
433.680974	2506.945643
434.057910	2510.340860
434.434786	2510.177023
434.811601	2510.378669
435.188355	2510.222393
435.565050	2510.529903
435.941683	2512.203567
436.318257	2508.561333
436.694770	2506.461692
437.071222	2508.324399
437.447614	2505.534120
437.823946	2510.149296
438.200218	2510.847496
438.576429	2513.872188
438.952580	2510.978566
439.328670	2511.061745
439.704700	2510.804646
440.080670	2510.673576
440.456580	2508.672238
440.832429	2512.944616
441.208218	2513.965450
441.583947	2513.582322
441.959616	2510.527383
442.335224	2515.051818
442.710773	2514.497292
443.086261	2512.682476
443.461689	2513.567199
443.837057	2513.040398
444.212365	2514.043588
444.587612	2515.084586
444.962800	2513.267250
445.337927	2510.023267
445.712995	2512.372445
446.088002	2514.686335
446.462949	2513.567199
446.837837	2514.275481
447.212664	2513.688186
447.587431	2517.620286
447.962139	2517.993332
448.336786	2516.738084
448.711374	2519.412417
449.085901	2515.503002
449.460369	2515.535769
449.834776	2517.128774
450.209124	2515.618948
450.583412	2513.819256
450.957640	2516.440656
451.331808	2515.966788
451.705917	2515.760101
452.079965	2517.673218
452.453954	2512.037208
452.827883	2516.498630
453.201752	2515.082065
453.575562	2515.543331
453.949311	2514.184740
454.323001	2513.889832
454.696632	2515.500481
455.070202	2518.835204
455.443713	2517.925276
455.817164	2515.455111
456.190556	2512.044770
456.563888	2514.462003
456.937160	2512.846314
457.310373	2516.473424
457.683526	2513.698269
458.056619	2518.066428
458.429653	2515.238341
458.802628	2515.316479
459.175542	2515.266068
459.548398	2518.691532
459.921194	2518.928466
460.293930	2519.309073
460.666607	2518.794875
461.039224	2520.478621
461.411782	2517.960564
461.784280	2519.969464
462.156719	2519.614063
462.529099	2519.888806
462.901419	2518.704134
463.273680	2517.131294
463.645882	2519.036851
464.018024	2520.314783
464.390106	2517.123733
464.762130	2521.529701
465.134094	2520.413086
465.505999	2522.222860
465.877845	2526.059178
466.249631	2525.797038
466.621358	2526.369209
466.993026	2528.496576
467.364634	2527.385001
467.736184	2522.285874
468.107674	2525.570186
468.479105	2521.151615
468.850477	2523.513395
469.221790	2522.177489
469.593043	2520.150946
469.964238	2521.136491
470.335373	2518.910822
470.706449	2521.950637
471.077467	2519.614063
471.448425	2521.396111
471.819324	2523.566327
472.190164	2523.508354
472.560945	2521.018024
472.931667	2519.878723
473.302330	2519.677077
473.672934	2518.910822
474.043479	2519.556089
474.413965	2517.612725
474.784393	2516.198681
475.154761	2519.858559
475.525070	2515.913856
475.895321	2516.458300
476.265513	2515.054339
476.635645	2520.392921
477.005719	2519.379649
477.375734	2518.888137
477.745691	2521.073477
478.115588	2519.389731
478.485427	2518.842766
478.855207	2522.200175
479.224928	2522.482479
479.594591	2521.650689
479.964194	2524.693025
480.333739	2521.300329
480.703226	2520.627335
481.072653	2524.143539
481.442022	2523.652027
481.811333	2523.389887
482.180584	2522.759743
482.549777	2522.797551
482.918912	2522.381656
483.287988	2524.509023
483.657005	2520.960051
484.025964	2523.427696
484.394864	2521.186903
484.763706	2521.628004
485.132489	2520.307221
485.501213	2526.785104
485.869879	2523.127747
486.238487	2520.188754
486.607036	2519.891326
486.975527	2520.957530
487.343959	2521.194464
487.712333	2524.241842
488.080648	2520.266892
488.448905	2521.290246
488.817104	2520.244207
489.185244	2519.997190
489.553326	2523.311749
489.921350	2522.603467
490.289315	2523.503313
490.657222	2523.205885
491.025070	2523.737727
491.392861	2527.765608
491.760593	2526.669158
492.128267	2523.452901
492.495883	2521.837212
492.863440	2526.860721
493.230939	2522.910977
493.598380	2521.320493
493.965763	2517.953002
494.333088	2518.890657
494.700354	2517.509381
495.067563	2521.592716
495.434713	2517.872344
495.801805	2521.721265
496.168839	2523.767973
496.535815	2520.637417
496.902733	2523.233611
497.269593	2521.945596
497.636395	2521.328055
498.003139	2522.885772
498.369825	2521.023065
498.736453	2520.103055
499.103023	2523.062212
499.469535	2521.774197
499.835989	2519.558610
500.202385	2523.851153
500.568723	2520.425688
500.935003	2521.373425
501.301226	2519.414937
501.667390	2522.681605
502.033497	2522.401821
502.399546	2519.404855
502.765537	2520.697911
503.131470	2517.683301
503.497345	2519.629186
503.863163	2521.300329
504.228923	2521.960720
504.594625	2518.804957
504.960269	2519.886285
505.325856	2521.159176
505.691385	2521.907788
506.056856	2520.672705
506.422270	2520.526512
506.787625	2521.711183
507.152924	2519.367046
507.518164	2520.098013
507.883347	2520.027437
508.248472	2519.939217
508.613540	2520.327386
508.978550	2517.451408
509.343503	2523.596574
509.708398	2520.866789
510.073236	2522.059022
510.438016	2520.496265
510.802738	2523.568848
511.167403	2519.311593
511.532010	2518.547859
511.896561	2520.927283
512.261053	2523.594054
512.625488	2519.409896
512.989866	2517.343023
513.354186	2519.220853
513.718449	2516.339833
514.082655	2517.506860
514.446803	2521.658251
514.810894	2521.232273
515.174927	2521.852335
515.538904	2522.396780
515.902822	2521.791841
516.266684	2521.033147
516.630488	2519.006604
516.994235	2521.983405
517.357925	2520.453415
517.721558	2523.838550
518.085133	2520.592047
518.448651	2521.257479
518.812112	2520.909639
519.175516	2522.331245
519.538863	2520.876872
519.902152	2518.187416
520.265385	2518.457118
520.628560	2520.723117
520.991678	2520.944927
521.354739	2519.167921
521.717743	2520.818898
522.080690	2520.851666
522.443580	2515.946623
522.806413	2520.781090
523.169189	2521.408713
523.531908	2519.959382
523.894569	2517.542148
524.257174	2523.135309
524.619722	2520.836543
524.982213	2522.472397
525.344647	2520.208919
525.707025	2521.118847
526.069345	2523.102541
526.431608	2518.976357
526.793815	2520.415606
527.155964	2520.672705
527.518057	2519.520801
527.880093	2521.746471
528.242072	2521.088600
528.603995	2521.612880
528.965860	2520.405524
529.327669	2520.410565
529.689421	2521.272602
530.051117	2522.006090
530.412755	2520.934845
530.774337	2522.943745
531.135862	2519.868641
531.497331	2522.361492
531.858743	2517.922756
532.220098	2520.105575
532.581396	2517.295132
532.942638	2517.758918
533.303824	2521.859897
533.664953	2519.472910
534.026025	2519.709845
534.387040	2523.402490
534.747999	2520.085411
535.108902	2521.519619
535.469748	2523.712521
535.830537	2521.272602
536.191270	2519.636748
536.551947	2520.072808
536.912567	2520.496265
537.273131	2519.354443
537.633638	2517.927797
537.994089	2519.551048
538.354483	2521.348220
538.714821	2519.188085
539.075103	2521.060874
539.435328	2522.260668
539.795497	2520.556758
540.155609	2518.666326
540.515665	2520.082890
540.875665	2518.830163
541.235609	2520.012314
541.595496	2522.386697
541.955328	2519.654392
542.315102	2521.035668
542.674821	2517.282529
543.034483	2522.916018
543.394090	2519.828312
543.753640	2520.423168
544.113134	2521.300329
544.472571	2519.946779
544.831953	2520.496265
545.191278	2520.168590
545.550548	2520.171110
545.909761	2518.699093
546.268918	2522.429547
546.628019	2519.896367
546.987064	2520.060205
547.346053	2520.249248
547.704986	2520.665143
548.063863	2522.457273
548.422684	2520.516429
548.781449	2522.485000
549.140158	2518.464680
549.498811	2520.561800
549.857408	2519.041892
550.215949	2519.392252
550.574434	2517.786644
550.932864	2517.315297
551.291237	2515.145080
551.649555	2522.870648
552.007817	2520.413086
552.366022	2520.140863
552.724173	2519.863600
553.082267	2520.796213
553.440305	2522.116996
553.798288	2519.571213
554.156215	2519.298991
554.514086	2522.348889
554.871902	2519.906450
555.229661	2520.695390
555.587365	2519.107427
555.945014	2518.396624
556.302606	2517.506860
556.660143	2518.636079
557.017625	2519.346882
557.375050	2520.662623
557.732421	2517.038033
558.089735	2518.928466
558.446994	2517.544669
558.804197	2521.940555
559.161345	2518.487365
559.518437	2520.902078
559.875474	2519.470390
560.232455	2521.317973
560.589381	2519.576254
560.946251	2521.297808
561.303065	2520.672705
561.659825	2516.160872
562.016528	2520.662623
562.373177	2516.100378
562.729770	2521.023065
563.086307	2519.987108
563.442789	2519.437622
563.799216	2520.075328
564.155587	2520.408044
564.511904	2521.864938
564.868164	2519.878723
565.224370	2518.701614
565.580520	2521.131450
565.936615	2521.075997
566.292654	2521.738909
566.648638	2521.542304
567.004567	2519.571213
567.360441	2519.362005
567.716260	2517.779083
568.072023	2520.513909
568.427732	2517.370749
568.783385	2516.939731
569.138982	2514.658608
569.494525	2516.334792
569.850013	2516.286901
570.205445	2521.519619
570.560823	2519.228414
570.916145	2521.801923
571.271412	2519.377128
571.626625	2520.269413
571.981782	2522.726975
572.336884	2520.569361
572.691931	2521.509537
573.046923	2520.922242
573.401860	2518.215142
573.756743	2522.953827
574.111570	2520.181192
574.466342	2523.427696
574.821059	2520.549197
575.175722	2518.794875
575.530330	2521.063394
575.884882	2520.939886
576.239380	2520.859228
576.593823	2522.847963
576.948211	2520.866789
577.302544	2518.225225
577.656823	2518.351254
578.011047	2522.653878
578.365216	2516.533918
578.719330	2520.375277
579.073389	2518.414268
579.427394	2517.393434
579.781344	2520.518950
580.135239	2520.342509
580.489080	2519.437622
580.842866	2521.872500
581.196597	2524.151101
581.550273	2520.604649
581.903895	2521.408713
582.257463	2520.440812
582.610975	2517.632889
582.964434	2520.385359
583.317837	2518.963754
583.671186	2520.166069
584.024481	2521.965761
584.377721	2517.723630
584.730906	2519.954341
585.084037	2518.331089
585.437113	2518.676408
585.790135	2522.283354
586.143103	2520.155987
586.496016	2518.588188
586.848874	2516.564165
587.201679	2516.667508
587.554428	2515.598784
587.907124	2516.879237
588.259765	2516.576768
588.612352	2520.302180
588.964884	2516.879237
589.317362	2521.234794
589.669786	2519.014165
590.022155	2520.834022
590.374470	2516.939731
590.726731	2517.763959
591.078937	2520.637417
591.431090	2520.569361
591.783188	2520.231604
592.135232	2521.736388
592.487222	2520.143384
592.839157	2518.278157
593.191038	2521.786800
593.542866	2521.207067
593.894639	2518.812519
594.246358	2521.572551
594.598022	2518.683970
594.949633	2519.906450
595.301190	2519.493075
595.652692	2520.987777
596.004141	2519.699762
596.355535	2521.650689
596.706876	2520.828981
597.058162	2516.362518
597.409395	2518.240348
597.760573	2520.287057
598.111698	2516.725482
598.462768	2517.990811
598.813785	2519.472910
599.164748	2518.525173
599.515657	2519.853518
599.866511	2520.173631
600.217312	2518.013496
600.568060	2519.702283
600.918753	2518.772190
601.269392	2518.449556
601.619978	2520.622293
601.970510	2517.917714
602.320988	2520.725637
602.671412	2518.384021
603.021783	2520.040040
603.372100	2520.460977
603.722363	2519.553569
604.072572	2520.365195
604.422728	2519.737571
604.772830	2516.216325
605.122878	2516.818743
605.472872	2516.375121
605.822813	2514.119205
606.172701	2518.336130
606.522534	2518.331089
606.872314	2516.826305
607.222041	2517.826974
607.571714	2515.994514
607.921333	2516.995183
608.270899	2519.785462
608.620411	2518.540297
608.969870	2519.016686
609.319276	2519.752694
609.668627	2520.488703
610.017926	2518.875534
610.367171	2518.862931
610.716362	2517.668177
611.065500	2519.369567
611.414585	2520.919722
611.763616	2519.399814
612.112594	2520.095493
612.461518	2521.282685
612.810389	2521.633045
613.159207	2518.283198
613.507971	2519.795544
613.856682	2521.857376
614.205340	2520.511388
614.553945	2519.351923
614.902496	2518.131963
615.250994	2517.579957
615.599439	2520.060205
615.947830	2518.315966
616.296169	2518.036182
616.644454	2521.741430
616.992686	2518.915863
617.340864	2518.396624
617.688990	2520.269413
618.037063	2519.803106
618.385082	2516.551562
618.733048	2520.365195
619.080961	2515.913856
619.428821	2517.796727
619.776628	2519.472910
620.124382	2518.963754
620.472083	2520.723117
620.819731	2522.399300
621.167326	2518.323527
621.514868	2518.840246
621.862357	2515.984432
622.209793	2518.363857
622.557176	2518.610873
622.904506	2514.393948
623.251783	2515.336644
623.599007	2519.127591
623.946179	2512.881602
624.293297	2516.889319
624.640363	2519.699762
624.987376	2517.872344
625.334336	2522.149763
625.681243	2518.399145
626.028097	2520.486182
626.374899	2516.806140
626.721647	2518.517612
627.068343	2515.646675
627.414987	2516.115502
627.761577	2517.189268
628.108115	2518.336130
628.454600	2519.924094
628.801032	2517.239679
629.147412	2519.873682
629.493739	2519.379649
629.840014	2519.770338
630.186236	2516.995183
630.532405	2518.235307
630.878521	2518.593229
631.224585	2518.633558
631.570597	2517.340502
631.916556	2517.592560
632.262462	2520.241686
632.608316	2520.208919
632.954117	2518.215143
633.299866	2516.533918
633.645562	2517.877385
633.991206	2515.868485
634.336797	2517.983249
634.682336	2519.230935
635.027823	2517.632889
635.373257	2518.194978
635.718639	2516.430574
636.063968	2518.789834
636.409245	2518.862931
636.754470	2518.777231
637.099642	2516.322189
637.444762	2517.935358
637.789829	2520.208919
638.134845	2516.750687
638.479808	2518.396624
638.824719	2515.293794
639.169577	2518.507529
639.514383	2517.534587
639.859137	2514.835049
640.203839	2517.859741
640.548489	2517.796727
640.893086	2514.877899
641.237632	2513.355470
641.582125	2514.454442
641.926566	2511.424708
642.270955	2517.927797
642.615292	2516.604494
642.959576	2516.856552
643.303809	2517.327899
643.647990	2518.164731
643.992118	2517.862262
644.336195	2519.334279
644.680219	2516.682632
645.024192	2515.732374
645.368112	2521.171779
645.711981	2516.816222
646.055797	2519.062056
646.399562	2517.496778
646.743274	2519.142715
647.086935	2520.440812
647.430544	2517.834535
647.774101	2519.203209
648.117606	2517.032992
648.461059	2520.327386
648.804460	2518.850328
649.147810	2516.664988
649.491108	2520.032478
649.834354	2516.382683
650.177548	2516.627179
650.520690	2518.220184
650.863781	2515.011489
651.206820	2518.562982
651.549807	2515.336644
651.892742	2519.251100
652.235626	2515.858403
652.578458	2515.729854
652.921238	2517.282529
653.263967	2519.409896
653.606644	2517.201871
653.949269	2517.446367
654.291843	2516.748167
654.634365	2516.405368
654.976836	2517.592560
655.319255	2518.484844
655.661622	2514.754390
656.003938	2518.351254
656.346203	2521.015503
656.688416	2517.390914
657.030577	2517.085924
657.372687	2521.915349
657.714746	2515.291273
658.056753	2517.232117
658.398708	2513.998217
658.740612	2514.456962
659.082465	2512.319513
659.424266	2513.892353
659.766016	2514.756911
660.107715	2519.195647
660.449362	2517.670698
660.790958	2516.627179
661.132503	2519.387211
661.473996	2516.607014
661.815438	2518.016017
662.156829	2516.080214
662.498168	2515.485358
662.839456	2519.309073
663.180693	2517.584998
663.521879	2517.877385
663.863013	2516.821263
664.204097	2515.863444
664.545129	2515.223218
664.886110	2517.847138
665.227040	2514.580471
665.567918	2516.160872
665.908746	2515.250944
666.249522	2518.230266
666.590248	2518.139525
666.930922	2516.740605
667.271545	2515.281191
667.612118	2515.641633
667.952639	2515.366891
668.293109	2518.111799
668.633528	2515.036695
668.973896	2517.829494
669.314213	2516.788496
669.654480	2518.943589
669.994695	2517.670698
670.334859	2517.695904
670.674973	2514.066273
671.015035	2517.025430
671.355047	2517.262364
671.695008	2515.044257
672.034918	2515.956706
672.374777	2518.129443
672.714585	2516.223887
673.054342	2517.950482
673.394049	2516.065090
673.733705	2519.109947
674.073310	2514.736746
674.412864	2519.838394
674.752368	2513.630213
675.091820	2518.890657
675.431223	2514.519977
675.770574	2516.506191
676.109875	2514.341016
676.449125	2514.862775
676.788324	2513.683145
677.127473	2515.273629
677.466571	2515.397138
677.805619	2518.837725
678.144616	2516.985101
678.483562	2515.394617
678.822458	2517.128774
679.161303	2516.866634
679.500098	2516.796058
679.838842	2515.964267
680.177535	2518.736902
680.516179	2516.647344
680.854771	2514.000738
681.193314	2519.324196
681.531805	2515.487878
681.870247	2517.554751
682.208638	2514.668691
682.546978	2513.983094
682.885268	2515.283712
683.223508	2515.024092
683.561697	2514.943434
683.899836	2515.954185
684.237925	2516.720440
684.575963	2516.493588
684.913951	2514.885460
685.251889	2517.408558
685.589776	2514.943434
685.927614	2515.664319
686.265401	2515.782786
686.603137	2517.322858
686.940824	2514.225069
687.278460	2514.915707
687.616046	2517.048115
687.953582	2515.961747
688.291068	2514.792199
688.628504	2514.948475
688.965889	2518.313445
689.303224	2516.599453
689.640510	2518.532735
689.977745	2515.150121
690.314930	2517.852179
690.652065	2514.842611
690.989150	2516.007117
691.326185	2516.942251
691.663170	2516.712879
692.000105	2517.635410
692.336990	2514.396468
692.673825	2515.145080
693.010610	2515.760101
693.347345	2512.049811
693.684030	2512.932013
694.020665	2515.172806
694.357251	2510.466889
694.693786	2512.712723
695.030272	2513.552075
695.366707	2515.951664
695.703093	2514.741788
696.039429	2516.753208
696.375716	2516.334792
696.711952	2516.591891
697.048139	2517.164062
697.384276	2515.729854
697.720363	2515.145080
698.056400	2517.204391
698.392388	2513.242044
698.728326	2515.593743
699.064214	2515.061901
699.400053	2515.868485
699.735842	2514.169617
700.071581	2516.468383
700.407270	2517.108609
700.742910	2515.034174
701.078501	2516.755728
701.414042	2515.855883
701.749533	2513.917559
702.084974	2513.909997
702.420366	2516.385204
702.755709	2514.250275
703.091002	2514.177178
703.426246	2515.671880
703.761440	2513.947806
704.096584	2515.848321
704.431679	2512.513597
704.766725	2515.732374
705.101721	2514.588032
705.436668	2513.594925
705.771565	2512.483351
706.106413	2513.337826
706.441212	2514.668691
706.775961	2513.700789
707.110661	2514.081396
707.445311	2516.478465
707.779913	2514.401510
708.114465	2515.613907
708.448967	2514.436798
708.783421	2516.163393
709.117825	2516.143228
709.452180	2517.383352
709.786485	2515.016530
710.120742	2513.040398
710.454949	2513.796571
710.789107	2512.932013
711.123216	2510.237517
711.457275	2509.181395
711.791286	2512.155676
712.125247	2512.057373
712.459159	2511.583505
712.793023	2512.765655
713.126837	2514.484689
713.460602	2515.601304
713.794318	2513.826818
714.127985	2514.857734
714.461602	2511.434791
714.795171	2514.038547
715.128691	2512.364883
715.462162	2518.671367
715.795584	2514.799761
716.128957	2517.756397
716.462281	2514.164575
716.795556	2514.943434
717.128782	2515.845800
717.461960	2514.489730
717.795088	2513.022754
718.128167	2513.668022
718.461198	2515.036695
718.794180	2516.475944
719.127113	2513.685666
719.459997	2516.302025
719.792833	2515.513084
720.125619	2517.642972
720.458357	2513.073166
720.791046	2514.477127
721.123686	2512.574091
721.456278	2513.463855
721.788821	2513.058042
722.121315	2515.722292
722.453761	2515.397137
722.786158	2515.780265
723.118506	2511.543175
723.450805	2512.357322
723.783056	2514.754390
724.115259	2513.552075
724.447412	2513.625172
724.779518	2514.232631
725.111574	2515.203053
725.443582	2515.006448
725.775542	2513.199194
726.107453	2512.632065
726.439315	2515.583660
726.771129	2519.704803
727.102895	2511.926303
727.434612	2513.443690
727.766281	2516.954854
728.097901	2512.745491
728.429473	2513.063083
728.760996	2509.917403
729.092471	2513.410923
729.423897	2513.370594
729.755276	2511.747342
730.086606	2513.040398
730.417887	2511.356653
730.749120	2513.231962
731.080305	2514.676252
731.411442	2515.069463
731.742530	2515.301356
732.073570	2516.707838
732.404562	2513.980573
732.735506	2512.773217
733.066401	2514.451921
733.397249	2514.260357
733.728048	2514.887981
734.058798	2516.889319
734.389501	2513.352950
734.720156	2511.898577
735.050762	2512.533762
735.381320	2512.564009
735.711831	2512.523680
736.042293	2511.764986
736.372707	2516.972498
736.703073	2514.325892
737.033391	2512.092661
737.363661	2511.621313
737.693883	2515.205574
738.024056	2515.467714
738.354182	2513.320182
738.684260	2514.666170
739.014290	2515.245903
739.344272	2512.516118
739.674207	2514.633403
740.004093	2516.506191
740.333931	2513.390758
740.663722	2514.061232
740.993464	2514.983763
741.323159	2516.758249
741.652806	2511.437311
741.982405	2514.613238
742.311956	2513.171468
742.641460	2515.170286
742.970915	2511.170130
743.300323	2512.800943
743.629683	2514.449401
743.958996	2513.340347
744.288260	2514.093999
744.617477	2511.187774
744.946647	2511.742301
745.275768	2512.659791
745.604842	2508.639471
745.933869	2510.519821
746.262847	2508.508401
746.591778	2514.177178
746.920662	2515.785306
747.249498	2512.642147
747.578286	2515.029133
747.907027	2513.360511
748.235720	2514.542662
748.564365	2516.271778
748.892963	2511.555778
749.221514	2514.267919
749.550017	2515.876047
749.878473	2511.873371
750.206881	2514.003258
750.535242	2511.979235
750.863555	2511.971673
751.191821	2512.896725
751.520039	2513.970491
751.848210	2513.605007
752.176334	2514.235152
752.504411	2512.150634
752.832440	2512.362363
753.160421	2512.942096
753.488356	2514.409071
753.816243	2513.804133
754.144082	2513.935203
754.471875	2514.053670
754.799620	2514.421674
755.127318	2514.860255
755.454969	2512.742970
755.782572	2511.258350
756.110129	2512.037208
756.437638	2515.513084
756.765100	2514.615759
757.092515	2513.292456
757.419882	2512.816067
757.747203	2514.895543
758.074477	2511.132321
758.401703	2514.928310
758.728882	2510.736591
759.056014	2514.028464
759.383099	2515.634072
759.710138	2512.652229
760.037129	2513.894874
760.364073	2510.572753
760.690970	2511.160048
761.017820	2514.280522
761.344623	2512.813546
761.671379	2515.528208
761.998088	2512.236334
762.324751	2507.411950
762.651366	2510.071158
762.977935	2514.988804
763.304456	2509.420850
763.630931	2514.923269
763.957359	2516.972498
764.283740	2511.260871
764.610074	2510.837414
764.936362	2516.092817
765.262602	2513.068124
765.588796	2513.277332
765.914943	2509.501508
766.241044	2513.390758
766.567097	2513.126098
766.893104	2511.250788
767.219064	2511.465038
767.544978	2514.477127
767.870845	2513.045439
768.196665	2511.268433
768.522438	2512.069976
768.848165	2511.379338
769.173846	2511.883453
769.499479	2513.557116
769.825066	2513.436129
770.150607	2514.522497
770.476101	2511.510408
770.801548	2514.928310
771.126949	2514.393948
771.452303	2511.961591
771.777611	2512.412774
772.102872	2511.908659
772.428087	2511.354132
772.753256	2512.359842
773.078378	2512.800943
773.403453	2511.921262
773.728482	2511.492764
774.053465	2512.773217
774.378401	2510.363545
774.703291	2513.655419
775.028135	2511.709533
775.352932	2513.423526
775.677683	2513.975532
776.002388	2514.867816
776.327046	2513.806653
776.651658	2513.010151
776.976224	2510.061076
777.300743	2512.412774
777.625216	2511.593587
777.949643	2515.792868
778.274024	2512.821108
778.598359	2510.325737
778.922647	2507.933709
779.246889	2510.650891
779.571086	2508.939419
779.895236	2512.427898
780.219339	2512.475789
780.543397	2511.238186
780.867409	2509.178874
781.191374	2510.870181
781.515294	2513.191633
781.839167	2509.239368
782.162995	2512.269102
782.486776	2514.456962
782.810511	2511.192815
783.134201	2510.114008
783.457844	2513.257168
783.781441	2514.449401
784.104993	2510.613082
784.428498	2512.427898
784.751958	2511.331447
785.075372	2511.896056
785.398739	2512.012003
785.722061	2512.316992
786.045337	2513.065604
786.368568	2513.365552
786.691752	2512.012003
787.014891	2512.987466
787.337983	2511.533093
787.661030	2510.741632
787.984031	2511.349091
788.306987	2511.384379
788.629897	2513.058042
788.952760	2509.652743
789.275579	2512.367404
789.598351	2511.386900
789.921078	2508.838596
790.243759	2510.799605
790.566395	2510.524862
790.888984	2511.830521
791.211529	2510.424039
791.534027	2513.113495
791.856480	2513.073166
792.178888	2512.246416
792.501249	2511.570902
792.823566	2512.301869
793.145836	2514.381345
793.468062	2514.766993
793.790241	2510.305572
794.112375	2512.574091
794.434464	2511.112157
794.756507	2511.270953
795.078505	2512.168278
795.400457	2509.075531
795.722364	2506.741476
796.044226	2509.015037
796.366042	2506.628050
796.687812	2510.734070
797.009538	2511.394461
797.331218	2508.589059
797.652852	2510.015706
797.974442	2511.137362
798.295986	2511.132321
798.617484	2509.856909
798.938938	2509.468741
799.260346	2511.898577
799.581709	2510.368587
799.903026	2513.060563
800.224299	2509.751045
800.545526	2511.447393
800.866708	2510.691220
801.187845	2513.531911
801.508936	2511.255830
801.829983	2513.592404
802.150984	2513.637775
802.471940	2512.677435
802.792851	2511.656601
803.113717	2511.379338
803.434538	2509.055366
803.755314	2511.296159
804.076045	2511.371776
804.396731	2511.084430
804.717372	2507.986641
805.037967	2512.858917
805.358518	2511.218021
805.679024	2514.545183
805.999485	2513.736077
806.319901	2510.812208
806.640272	2509.534276
806.960598	2509.267094
807.280879	2511.412105
807.601115	2510.847496
807.921306	2510.595438
808.241453	2512.168278
808.561554	2513.171468
808.881611	2511.732219
809.201623	2513.973012
809.521590	2507.328771
809.841513	2512.188443
810.161390	2510.968484
810.481223	2511.777589
810.801011	2509.327588
811.120755	2514.378824
811.440453	2511.268433
811.760107	2510.371107
812.079716	2508.659635
812.399281	2508.571415
812.718801	2507.873215
813.038276	2504.465395
813.357707	2509.937568
813.677093	2510.817249
813.996434	2508.803308
814.315731	2510.923113
814.634983	2510.905469
814.954191	2512.327075
815.273354	2512.798423
815.592473	2511.240706
815.911547	2511.016375
816.230577	2512.173320
816.549562	2512.995028
816.868502	2509.937568
817.187399	2509.778772
817.506250	2511.742301
817.825058	2512.705161
818.143821	2507.966477
818.462539	2509.173833
818.781213	2510.620644
819.099843	2514.353619
819.418429	2510.439163
819.736970	2512.069976
820.055466	2510.877743
820.373919	2507.011178
820.692327	2511.976715
821.010691	2512.735408
821.329011	2512.327075
821.647286	2517.201871
821.965517	2512.929493
822.283704	2516.196160
822.601847	2513.421005
822.919945	2514.411592
823.237999	2512.143073
823.556010	2514.230110
823.873976	2513.373114
824.191897	2512.122908
824.509775	2513.516787
824.827609	2514.295645
825.145398	2513.153824
825.463144	2512.957219
825.780845	2509.383041
826.098502	2513.065604
826.416116	2511.281035
826.733685	2510.744153
827.051210	2512.241375
827.368692	2512.758093
827.686129	2511.288597
828.003522	2512.095182
828.320872	2505.370283
828.638177	2508.843637
828.955439	2508.032012
829.272656	2508.294152
829.589830	2504.984634
829.906960	2512.344719
830.224046	2508.997393
830.541088	2509.705675
830.858086	2508.347084
831.175041	2511.205418
831.491952	2510.577794
831.808819	2512.440501
832.125642	2512.916890
832.442421	2510.484533
832.759157	2512.412774
833.075849	2508.571415
833.392497	2513.904956
833.709101	2511.074348
834.025662	2513.189112
834.342179	2513.151303
834.658653	2509.551920
834.975083	2510.303052
835.291469	2515.104751
835.607811	2512.894205
835.924110	2511.437311
836.240366	2513.050480
836.556578	2509.821621
836.872746	2510.053514
837.188871	2509.393123
837.504952	2512.725326
837.820990	2508.705006
838.136984	2510.953360
838.452935	2508.679800
838.768842	2510.197187
839.084706	2507.618637
839.400526	2509.907321
839.716303	2511.223062
840.032037	2509.521673
840.347727	2511.414626
840.663373	2512.417816
840.978977	2510.207270
841.294537	2509.236847
841.610054	2509.682990
841.925527	2513.521828
842.240957	2510.592918
842.556344	2510.671056
842.871687	2511.049142
843.186987	2506.464213
843.502244	2508.889008
843.817458	2510.149296
844.132629	2509.635099
844.447756	2510.913031
844.762840	2506.186949
845.077881	2511.117198
845.392879	2505.486229
845.707833	2508.659635
846.022745	2504.619151
846.337613	2508.773061
846.652438	2509.640140
846.967221	2509.231806
847.281960	2510.403875
847.596656	2510.635768
847.911309	2512.072497
848.225919	2510.983607
848.540485	2510.416478
848.855009	2508.178205
849.169490	2508.715088
849.483928	2508.972187
849.798323	2506.771723
850.112675	2511.099554
850.426984	2508.621827
850.741251	2511.550737
851.055474	2510.403875
851.369654	2512.069976
851.683792	2507.359018
851.997887	2510.766838
852.311938	2510.824811
852.625947	2508.455469
852.939914	2509.314985
853.253837	2509.930006
853.567718	2510.038391
853.881555	2508.876405
854.195350	2510.114008
854.509103	2511.233144
854.822812	2509.952691
855.136479	2508.533607
855.450103	2507.316168
855.763685	2510.809687
856.077224	2509.788854
856.390720	2510.713906
856.704173	2508.069820
857.017584	2508.503360
857.330953	2511.187774
857.644278	2509.577125
857.957561	2515.379493
858.270802	2511.039060
858.584000	2512.896725
858.897155	2511.361694
859.210268	2508.236178
859.523339	2510.623165
859.836367	2510.479492
860.149352	2508.954543
860.462295	2511.906138
860.775195	2506.754079
861.088054	2505.309789
861.400869	2507.868174
861.713642	2505.113184
862.026373	2508.107629
862.339062	2510.610562
862.651708	2508.694923
862.964312	2508.316837
863.276873	2511.114677
863.589392	2508.485716
863.901869	2508.528565
864.214303	2507.908503
864.526696	2510.842455
864.839045	2507.832886
865.151353	2509.554440
865.463619	2509.236847
865.775842	2509.809018
866.088023	2509.017557
866.400162	2508.089985
866.712258	2508.447907
867.024313	2509.897239
867.336325	2511.006293
867.648296	2508.720129
867.960224	2511.775068
868.272110	2506.915396
868.583954	2509.090654
868.895755	2507.419512
869.207515	2509.824142
869.519233	2510.320696
869.830909	2509.942609
870.142542	2509.536796
870.454134	2508.566374
870.765684	2510.787002
871.077191	2507.696775
871.388657	2511.086951
871.700081	2508.518483
872.011463	2508.122753
872.322803	2508.853720
872.634101	2509.415808
872.945357	2507.578308
873.256571	2509.302382
873.567744	2511.275994
873.878874	2510.789523
874.189963	2508.364728
874.501010	2511.114677
874.812015	2507.074193
875.122979	2509.514111
875.433900	2509.962774
875.744780	2510.756755
876.055618	2509.017557
876.366415	2509.007475
876.677169	2511.223062
876.987882	2507.807680
877.298554	2505.277021
877.609183	2505.299706
877.919771	2503.951198
878.230317	2507.908503
878.540822	2510.499657
878.851285	2510.355984
879.161707	2509.088133
879.472087	2508.140397
879.782425	2509.158710
880.092722	2509.491426
880.402977	2508.720129
880.713191	2510.010665
881.023363	2509.133504
881.333494	2512.228772
881.643583	2508.115191
881.953631	2510.373628
882.263637	2510.482012
882.573602	2510.426560
882.883526	2510.850017
883.193408	2511.948988
883.503248	2508.747856
883.813048	2508.805829
884.122806	2507.948833
884.432522	2511.734739
884.742197	2507.737104
885.051831	2511.724657
885.361424	2507.422032
885.670975	2510.305572
885.980485	2505.861795
886.289954	2509.955212
886.599382	2510.466889
886.908768	2513.035357
887.218113	2507.500170
887.527417	2511.467558
887.836680	2509.768689
888.145901	2508.079903
888.455082	2507.716940
888.764221	2506.350787
889.073319	2507.966477
889.382376	2508.354646
889.691392	2508.853720
890.000366	2506.607886
890.309300	2505.972700
890.618193	2509.171313
890.927044	2508.334481
891.235855	2509.504029
891.544625	2508.755417
891.853353	2508.861282
892.162041	2511.732219
892.470687	2509.125942
892.779293	2509.430932
893.087858	2507.245592
893.396381	2500.886176
893.704864	2505.725684
894.013306	2503.079078
894.321707	2508.652074
894.630068	2508.367248
894.938387	2509.990500
895.246665	2509.768689
895.554903	2507.056548
895.863100	2506.292814
896.171256	2508.127794
896.479371	2507.190139
896.787446	2507.779954
897.095480	2508.883967
897.403473	2508.936899
897.711425	2509.065448
898.019336	2507.729542
898.327207	2507.255674
898.635038	2509.609893
898.942827	2508.377331
899.250576	2509.483864
899.558284	2508.755417
899.865952	2507.898421
900.173579	2508.707526
900.481165	2508.538648
900.788711	2510.527383
901.096216	2509.342712
901.403681	2509.496467
901.711105	2509.627537
902.018489	2505.536641
902.325832	2511.724657
902.633135	2507.043946
902.940397	2509.156189
903.247619	2510.759276
903.554800	2507.081754
903.861941	2508.901611
904.169041	2507.089316
904.476101	2508.846158
904.783121	2507.656446
905.090100	2507.946312
905.397039	2509.294821
905.703938	2508.405057
906.010796	2509.309944
906.317614	2508.813391
906.624391	2507.369100
906.931129	2508.266425
907.237826	2509.062928
907.544483	2509.337671
907.851099	2507.928668
908.157675	2507.132166
908.464211	2506.227279
908.770707	2504.863647
909.077163	2505.196363
909.383578	2505.098060
909.689954	2503.452123
909.996289	2503.530261
910.302584	2508.657115
910.608839	2505.718122
910.915054	2510.262722
911.221229	2506.562515
911.527363	2505.518997
911.833458	2507.474964
912.139513	2509.597290
912.445527	2506.494460
912.751502	2504.961949
913.057436	2509.751045
913.363331	2507.396826
913.669186	2505.776095
913.975000	2508.475633
914.280775	2507.986641
914.586510	2505.453462
914.892205	2507.227948
915.197859	2506.456651
915.503475	2509.325068
915.809050	2508.463030
916.114585	2507.268277
916.420081	2507.671569
916.725536	2508.037053
917.030952	2510.056035
917.336328	2506.469254
917.641665	2508.026971
917.946961	2507.865654
918.252218	2505.153513
918.557435	2506.330622
918.862612	2507.127125
919.167750	2508.052176
919.472848	2507.487567
919.777906	2505.839110
920.082925	2508.699965
920.387904	2508.465551
920.692843	2506.320540
920.997743	2507.353977
921.302603	2508.009327
921.607423	2506.751559
921.912204	2509.100736
922.216946	2506.446569
922.521647	2509.955212
922.826310	2507.757269
923.130932	2508.694923
923.435516	2505.627381
923.740059	2509.955212
924.044564	2505.879439
924.349028	2510.146776
924.653454	2506.786847
924.957840	2506.310458
925.262186	2506.494460
925.566493	2505.985303
925.870761	2502.070847
926.174989	2508.536127
926.479178	2506.191991
926.783328	2507.023781
927.087438	2509.476302
927.391509	2507.905983
927.695541	2507.984121
927.999533	2506.746518
928.303486	2506.635612
928.607400	2508.808349
928.911275	2508.750376
929.215110	2506.943123
929.518906	2508.838596
929.822663	2508.301713
930.126381	2510.063597
930.430060	2508.160561
930.733699	2506.428925
931.037299	2506.933040
931.340861	2508.344563
931.644383	2508.672238
931.947866	2505.380365
932.251309	2505.181239
932.554714	2506.381034
932.858080	2507.359018
933.161407	2508.861282
933.464694	2508.223576
933.767943	2509.529234
934.071153	2507.782475
934.374323	2507.442197
934.677455	2506.907834
934.980548	2507.066631
935.283602	2507.744666
935.586617	2507.396826
935.889593	2509.526714
936.192530	2505.801301
936.495428	2506.905314
936.798287	2506.975890
937.101108	2505.239212
937.403890	2506.101250
937.706632	2505.851713
938.009336	2506.625530
938.312002	2509.385562
938.614628	2508.347084
938.917216	2507.452279
939.219765	2506.126456
939.522275	2509.746004
939.824747	2506.764162
940.127179	2506.847341
940.429573	2504.740138
940.731929	2505.090498
941.034246	2503.426918
941.336524	2504.470437
941.638763	2508.100067
941.940964	2509.829183
942.243126	2505.932371
942.545250	2508.831035
942.847335	2506.227279
943.149381	2507.255674
943.451389	2504.329284
943.753359	2508.556292
944.055290	2506.065962
944.357182	2507.797598
944.659036	2507.908503
944.960851	2504.956908
945.262628	2505.841630
945.564367	2508.306755
945.866067	2505.279542
946.167729	2507.462361
946.469352	2506.191991
946.770937	2508.498318
947.072484	2505.035046
947.373992	2507.439676
947.675462	2507.679131
947.976893	2509.766169
948.278286	2505.977742
948.579641	2505.866836
948.880958	2505.851713
949.182236	2508.331960
949.483476	2505.385406
949.784678	2506.927999
950.085841	2505.725684
950.386967	2507.641322
950.688054	2506.199552
950.989103	2508.226096
951.290114	2506.655777
951.591087	2505.226610
951.892021	2508.503360
952.192917	2507.797598
952.493776	2504.561177
952.794596	2506.575118
953.095378	2505.380365
953.396122	2506.630571
953.696828	2505.647546
953.997496	2504.417504
954.298126	2508.662156
954.598718	2507.492608
954.899272	2506.638133
955.199788	2508.465551
955.500266	2506.257526
955.800706	2505.650067
956.101108	2501.513800
956.401472	2503.550426
956.701798	2504.228461
957.002087	2503.812566
957.302337	2502.965652
957.602550	2506.900273
957.902724	2505.360200
958.202861	2505.156033
958.502960	2506.421363
958.803022	2505.314830
959.103045	2508.049656
959.403031	2504.241064
959.702979	2506.524707
960.002889	2507.240551
960.302762	2505.887001
960.602596	2507.399347
960.902393	2506.038235
961.202153	2509.027640
961.501875	2506.529748
961.801559	2506.350787
962.101205	2504.611589
962.400814	2506.270128
962.700385	2507.288442
962.999918	2504.238543
963.299414	2506.663338
963.598873	2507.671569
963.898293	2504.420025
964.197677	2506.184429
964.497022	2506.174347
964.796331	2506.791888
965.095601	2503.043790
965.394835	2509.022598
965.694030	2504.863647
965.993189	2506.267608
966.292309	2504.682165
966.591393	2506.963287
966.890439	2505.753410
967.189447	2506.091168
967.488419	2507.033863
967.787353	2506.123935
968.086249	2506.207114
968.385108	2504.813235
968.683930	2506.441528
968.982714	2510.723988
969.281462	2506.809532
969.580172	2506.774244
969.878844	2503.532782
970.177480	2506.754079
970.476078	2507.076713
970.774639	2506.007988
971.073162	2506.436487
971.371649	2504.346928
971.670098	2502.887514
971.968510	2503.225272
972.266885	2500.097236
972.565223	2507.568226
972.863524	2502.837103
973.161788	2506.605365
973.460014	2505.453462
973.758204	2507.583349
974.056356	2506.759120
974.354471	2504.689727
974.652550	2505.972700
974.950591	2505.062772
975.248595	2506.214676
975.546563	2504.525889
975.844493	2506.053359
976.142386	2508.155520
976.440243	2504.825838
976.738062	2501.728049
977.035845	2507.268277
977.333590	2506.980931
977.631299	2506.260046
977.928971	2506.348266
978.226606	2505.428256
978.524204	2508.266425
978.821765	2504.329284
979.119290	2506.892711
979.416777	2504.218379
979.714228	2505.912207
980.011642	2505.380365
980.309020	2505.783657
980.606360	2504.866167
980.903664	2503.530261
981.200931	2505.400529
981.498162	2506.988493
981.795356	2506.373472
982.092513	2502.746362
982.389633	2504.296517
982.686717	2502.212000
982.983764	2506.403719
983.280775	2505.589573
983.577749	2506.239882
983.874686	2506.272649
984.171587	2504.752741
984.468451	2506.252484
984.765279	2505.332474
985.062070	2505.408091
985.358824	2506.323061
985.655543	2504.936743
985.952224	2504.157885
986.248869	2504.052021
986.545478	2501.107987
986.842050	2505.576970
987.138586	2502.637977
987.435086	2503.240395
987.731549	2502.141423
988.027975	2505.473626
988.324366	2506.718791
988.620719	2508.258864
988.917037	2503.280724
989.213318	2506.045797
989.509563	2505.163595
989.805772	2506.202073
990.101944	2504.858605
990.398080	2503.754593
990.694180	2503.336177
990.990244	2502.612771
991.286271	2505.440859
991.582262	2505.322392
991.878217	2507.359018
992.174136	2504.684686
992.470019	2504.278873
992.765865	2504.639315
993.061676	2505.758451
993.357450	2506.499501
993.653188	2503.333656
993.948890	2507.409429
994.244556	2505.556805
994.540186	2508.823473
994.835780	2503.875580
995.131337	2506.091168
995.426859	2505.463544
995.722345	2505.208966
996.017795	2503.966321
996.313208	2506.106291
996.608586	2505.748369
996.903928	2505.309789
997.199234	2505.602176
997.494504	2503.666372
997.789738	2506.368431
998.084936	2505.145951
998.380099	2504.775426
998.675225	2505.211486
998.970316	2504.430107
999.265371	2507.154851
999.560390	2504.788029
999.855373	2503.580673
1000.150320	2506.416322
1000.445232	2505.637464
1000.740108	2504.616630
1001.034948	2503.941115
1001.329752	2508.770541
1001.624521	2504.823317
1001.919254	2502.900117
1002.213951	2501.251660
1002.508613	2501.206289
1002.803239	2503.928513
1003.097829	2504.788029
1003.392384	2506.035715
1003.686903	2507.721981
1003.981386	2501.289468
1004.275834	2504.500683
1004.570246	2503.666373
1004.864623	2505.246774
1005.158964	2506.242402
1005.453270	2503.099243
1005.747540	2505.115704
1006.041775	2505.040087
1006.335974	2507.527896
1006.630138	2503.560508
1006.924266	2503.797443
1007.218359	2504.049500
1007.512416	2506.305417
1007.806438	2506.837258
1008.100425	2506.693585
1008.394376	2502.416166
1008.688292	2504.130159
1008.982172	2505.113184
1009.276017	2504.339367
1009.569827	2503.716784
1009.863602	2506.915396
1010.157341	2504.886332
1010.451045	2506.083606
1010.744714	2502.799294
1011.038347	2504.851044
1011.331945	2505.503873
1011.625508	2504.750221
1011.919036	2504.659480
1012.212528	2507.968997
1012.505986	2506.388596
1012.799408	2506.489419
1013.092795	2506.282731
1013.386147	2504.225941
1013.679464	2507.389265
1013.972745	2504.533451
1014.265992	2508.437825
1014.559204	2507.240551
1014.852380	2502.280055
1015.145521	2504.641836
1015.438628	2505.471106
1015.731699	2505.612258
1016.024736	2504.566218
1016.317737	2505.879439
1016.610703	2504.805673
1016.903635	2498.927688
1017.196531	2499.825013
1017.489393	2504.742659
1017.782219	2500.220744
1018.075011	2504.117556
1018.367768	2505.241733
1018.660490	2505.609737
1018.953177	2505.609737
1019.245829	2505.609737
