Dividing Wavelength (nm)	Counts (n)	Blue Motor Position (mm): 0.000000	Red Motor Position (mm): 7.700000	
326.493990	2122.325769
326.888308	2122.325769
327.282561	2122.325769
327.676750	2044.187885
328.070874	1991.255769
328.464933	2013.940962
328.858929	2114.764038
329.252859	2029.064423
329.646726	2084.517115
330.040528	2034.105577
330.434265	2089.558269
330.827938	2139.969808
331.221547	2213.066538
331.615091	2099.640577
332.008571	2225.669423
332.401986	2157.613846
332.795338	2147.531538
333.188625	2215.587115
333.581847	2344.136538
333.975006	2306.327885
334.368100	2308.848462
334.761129	2329.013077
335.154095	2311.369038
335.546996	2326.492500
335.939833	2331.533654
336.332606	2384.465769
336.725315	2344.136538
337.117960	2344.136538
337.510540	2356.739423
337.903056	2349.177692
338.295508	2477.727115
338.687896	2386.986346
339.080220	2437.397885
339.472480	2553.344423
339.864676	2455.041923
340.256807	2518.056346
340.648875	2412.192115
341.040879	2452.521346
341.432818	2414.712692
341.824694	2528.138654
342.216506	2502.932885
342.608253	2480.247692
342.999937	2419.753846
343.391557	2492.850577
343.783113	2462.603654
344.174605	2439.918462
344.566033	2414.712692
344.957397	2429.836154
345.348697	2455.041923
345.739934	2460.083077
346.131106	2444.959615
346.522215	2472.685962
346.913260	2424.795000
347.304241	2477.727115
347.695159	2439.918462
348.086012	2482.768269
348.476802	2404.630385
348.867528	2447.480192
349.258191	2447.480192
349.648789	2520.576923
350.039324	2455.041923
350.429796	2412.192115
350.820203	2528.138654
351.210548	2402.109808
351.600828	2470.165385
351.991045	2487.809423
352.381198	2465.124231
352.771288	2457.562500
353.161314	2389.506923
353.551276	2525.618077
353.941175	2462.603654
354.331010	2472.685962
354.720782	2432.356731
355.110490	2450.000769
355.500135	2472.685962
355.889717	2465.124231
356.279235	2444.959615
356.668689	2450.000769
357.058080	2465.124231
357.447408	2429.836154
357.836672	2432.356731
358.225873	2502.932885
358.615010	2465.124231
359.004084	2351.698269
359.393095	2520.576923
359.782043	2429.836154
360.170927	2475.206538
360.559748	2407.150962
360.948505	2450.000769
361.337199	2500.412308
361.725830	2470.165385
362.114398	2417.233269
362.502903	2412.192115
362.891344	2455.041923
363.279722	2460.083077
363.668037	2545.782692
364.056289	2407.150962
364.444478	2510.494615
364.832603	2422.274423
365.220665	2364.301154
365.608665	2397.068654
365.996601	2513.015192
366.384474	2424.795000
366.772284	2540.741538
367.160031	2492.850577
367.547715	2397.068654
367.935336	2525.618077
368.322893	2392.027500
368.710388	2439.918462
369.097820	2359.260000
369.485189	2376.904038
369.872495	2381.945192
370.259738	2510.494615
370.646918	2409.671538
371.034035	2485.288846
371.421090	2381.945192
371.808081	2500.412308
372.195010	2470.165385
372.581875	2475.206538
372.968678	2366.821731
373.355418	2470.165385
373.742096	2424.795000
374.128710	2470.165385
374.515262	2518.056346
374.901751	2457.562500
375.288177	2470.165385
375.674540	2437.397885
376.060841	2404.630385
376.447079	2492.850577
376.833254	2467.644808
377.219367	2399.589231
377.605417	2452.521346
377.991404	2462.603654
378.377329	2434.877308
378.763191	2487.809423
379.148991	2510.494615
379.534727	2460.083077
379.920402	2465.124231
380.306013	2437.397885
380.691563	2482.768269
381.077049	2379.424615
381.462474	2510.494615
381.847835	2467.644808
382.233134	2467.644808
382.618371	2490.330000
383.003545	2450.000769
383.388657	2434.877308
383.773706	2467.644808
384.158693	2407.150962
384.543618	2424.795000
384.928480	2455.041923
385.313280	2497.891731
385.698017	2492.850577
386.082692	2507.974038
386.467305	2462.603654
386.851856	2422.274423
387.236344	2412.192115
387.620770	2455.041923
388.005133	2381.945192
388.389435	2495.371154
388.773674	2480.247692
389.157851	2525.618077
389.541965	2452.521346
389.926018	2429.836154
390.310008	2482.768269
390.693936	2510.494615
391.077802	2548.303269
391.461606	2500.412308
391.845348	2505.453462
392.229027	2470.165385
392.612645	2439.918462
392.996200	2487.809423
393.379694	2394.548077
393.763125	2467.644808
394.146494	2439.918462
394.529801	2455.041923
394.913047	2462.603654
395.296230	2568.467885
395.679351	2492.850577
396.062410	2510.494615
396.445408	2487.809423
396.828343	2510.494615
397.211217	2392.027500
397.594028	2480.247692
397.976778	2439.918462
398.359466	2528.138654
398.742092	2399.589231
399.124656	2465.124231
399.507158	2379.424615
399.889598	2485.288846
400.271977	2472.685962
400.654294	2480.247692
401.036549	2518.056346
401.418742	2424.795000
401.800874	2462.603654
402.182944	2429.836154
402.564952	2520.576923
402.946898	2447.480192
403.328783	2482.768269
403.710606	2490.330000
404.092367	2409.671538
404.474067	2565.947308
404.855705	2487.809423
405.237282	2545.782692
405.618797	2485.288846
406.000250	2470.165385
406.381642	2487.809423
406.762972	2543.262115
407.144240	2497.891731
407.525447	2442.439038
407.906593	2490.330000
408.287677	2442.439038
408.668700	2419.753846
409.049661	2528.138654
409.430560	2384.465769
409.811399	2500.412308
410.192176	2545.782692
410.572891	2500.412308
410.953545	2422.274423
411.334138	2482.768269
411.714669	2455.041923
412.095139	2427.315577
412.475547	2470.165385
412.855894	2510.494615
413.236180	2439.918462
413.616405	2573.509038
413.996568	2507.974038
414.376670	2550.823846
414.756711	2485.288846
415.136691	2490.330000
415.516609	2450.000769
415.896466	2432.356731
416.276262	2505.453462
416.655997	2513.015192
417.035670	2525.618077
417.415283	2520.576923
417.794834	2510.494615
418.174324	2407.150962
418.553753	2545.782692
418.933121	2523.097500
419.312428	2495.371154
419.691674	2530.659231
420.070859	2553.344423
420.449983	2462.603654
420.829045	2465.124231
421.208047	2502.932885
421.586988	2399.589231
421.965867	2495.371154
422.344686	2429.836154
422.723444	2437.397885
423.102141	2460.083077
423.480777	2570.988462
423.859352	2437.397885
424.237866	2480.247692
424.616319	2472.685962
424.994712	2485.288846
425.373044	2520.576923
425.751314	2452.521346
426.129524	2505.453462
426.507673	2495.371154
426.885762	2392.027500
427.263789	2424.795000
427.641756	2485.288846
428.019662	2472.685962
428.397508	2437.397885
428.775292	2520.576923
429.153016	2502.932885
429.530679	2487.809423
429.908282	2505.453462
430.285824	2487.809423
430.663305	2495.371154
431.040726	2480.247692
431.418086	2523.097500
431.795385	2457.562500
432.172624	2558.385577
432.549802	2507.974038
432.926920	2485.288846
433.303977	2475.206538
433.680974	2538.220962
434.057910	2437.397885
434.434786	2477.727115
434.811601	2462.603654
435.188355	2518.056346
435.565050	2487.809423
435.941683	2568.467885
436.318257	2447.480192
436.694770	2535.700385
437.071222	2513.015192
437.447614	2447.480192
437.823946	2467.644808
438.200218	2452.521346
438.576429	2543.262115
438.952580	2475.206538
439.328670	2533.179808
439.704700	2462.603654
440.080670	2475.206538
440.456580	2490.330000
440.832429	2603.755962
441.208218	2535.700385
441.583947	2485.288846
441.959616	2477.727115
442.335224	2465.124231
442.710773	2485.288846
443.086261	2442.439038
443.461689	2518.056346
443.837057	2447.480192
444.212365	2533.179808
444.587612	2538.220962
444.962800	2485.288846
445.337927	2462.603654
445.712995	2457.562500
446.088002	2455.041923
446.462949	2467.644808
446.837837	2422.274423
447.212664	2485.288846
447.587431	2518.056346
447.962139	2487.809423
448.336786	2528.138654
448.711374	2465.124231
449.085901	2538.220962
449.460369	2588.632500
449.834776	2482.768269
450.209124	2482.768269
450.583412	2497.891731
450.957640	2528.138654
451.331808	2472.685962
451.705917	2515.535769
452.079965	2475.206538
452.453954	2487.809423
452.827883	2407.150962
453.201752	2545.782692
453.575562	2548.303269
453.949311	2528.138654
454.323001	2407.150962
454.696632	2482.768269
455.070202	2442.439038
455.443713	2568.467885
455.817164	2467.644808
456.190556	2513.015192
456.563888	2495.371154
456.937160	2515.535769
457.310373	2477.727115
457.683526	2487.809423
458.056619	2470.165385
458.429653	2492.850577
458.802628	2447.480192
459.175542	2472.685962
459.548398	2437.397885
459.921194	2505.453462
460.293930	2555.865000
460.666607	2472.685962
461.039224	2434.877308
461.411782	2437.397885
461.784280	2447.480192
462.156719	2437.397885
462.529099	2505.453462
462.901419	2462.603654
463.273680	2543.262115
463.645882	2447.480192
464.018024	2472.685962
464.390106	2427.315577
464.762130	2535.700385
465.134094	2465.124231
465.505999	2472.685962
465.877845	2565.947308
466.249631	2452.521346
466.621358	2482.768269
466.993026	2447.480192
467.364634	2505.453462
467.736184	2533.179808
468.107674	2364.301154
468.479105	2470.165385
468.850477	2573.509038
469.221790	2568.467885
469.593043	2495.371154
469.964238	2452.521346
470.335373	2424.795000
470.706449	2515.535769
471.077467	2533.179808
471.448425	2513.015192
471.819324	2465.124231
472.190164	2417.233269
472.560945	2482.768269
472.931667	2485.288846
473.302330	2480.247692
473.672934	2472.685962
474.043479	2518.056346
474.413965	2530.659231
474.784393	2538.220962
475.154761	2495.371154
475.525070	2450.000769
475.895321	2457.562500
476.265513	2495.371154
476.635645	2472.685962
477.005719	2447.480192
477.375734	2505.453462
477.745691	2432.356731
478.115588	2538.220962
478.485427	2505.453462
478.855207	2447.480192
479.224928	2528.138654
479.594591	2550.823846
479.964194	2447.480192
480.333739	2523.097500
480.703226	2518.056346
481.072653	2538.220962
481.442022	2480.247692
481.811333	2417.233269
482.180584	2475.206538
482.549777	2457.562500
482.918912	2452.521346
483.287988	2374.383462
483.657005	2427.315577
484.025964	2497.891731
484.394864	2447.480192
484.763706	2485.288846
485.132489	2477.727115
485.501213	2497.891731
485.869879	2457.562500
486.238487	2427.315577
486.607036	2457.562500
486.975527	2603.755962
487.343959	2558.385577
487.712333	2543.262115
488.080648	2477.727115
488.448905	2543.262115
488.817104	2439.918462
489.185244	2507.974038
489.553326	2444.959615
489.921350	2477.727115
490.289315	2434.877308
490.657222	2530.659231
491.025070	2472.685962
491.392861	2548.303269
491.760593	2507.974038
492.128267	2543.262115
492.495883	2444.959615
492.863440	2505.453462
493.230939	2568.467885
493.598380	2518.056346
493.965763	2535.700385
494.333088	2467.644808
494.700354	2578.550192
495.067563	2492.850577
495.434713	2467.644808
495.801805	2482.768269
496.168839	2563.426731
496.535815	2442.439038
496.902733	2485.288846
497.269593	2497.891731
497.636395	2520.576923
498.003139	2520.576923
498.369825	2505.453462
498.736453	2462.603654
499.103023	2502.932885
499.469535	2455.041923
499.835989	2500.412308
500.202385	2578.550192
500.568723	2444.959615
500.935003	2455.041923
501.301226	2462.603654
501.667390	2475.206538
502.033497	2487.809423
502.399546	2608.797115
502.765537	2487.809423
503.131470	2560.906154
503.497345	2447.480192
503.863163	2492.850577
504.228923	2487.809423
504.594625	2553.344423
504.960269	2439.918462
505.325856	2533.179808
505.691385	2545.782692
506.056856	2492.850577
506.422270	2495.371154
506.787625	2586.111923
507.152924	2444.959615
507.518164	2568.467885
507.883347	2404.630385
508.248472	2543.262115
508.613540	2437.397885
508.978550	2472.685962
509.343503	2472.685962
509.708398	2507.974038
510.073236	2455.041923
510.438016	2502.932885
510.802738	2465.124231
511.167403	2520.576923
511.532010	2518.056346
511.896561	2452.521346
512.261053	2429.836154
512.625488	2492.850577
512.989866	2424.795000
513.354186	2442.439038
513.718449	2500.412308
514.082655	2545.782692
514.446803	2490.330000
514.810894	2568.467885
515.174927	2560.906154
515.538904	2475.206538
515.902822	2467.644808
516.266684	2460.083077
516.630488	2427.315577
516.994235	2450.000769
517.357925	2467.644808
517.721558	2518.056346
518.085133	2510.494615
518.448651	2417.233269
518.812112	2545.782692
519.175516	2452.521346
519.538863	2563.426731
519.902152	2470.165385
520.265385	2528.138654
520.628560	2462.603654
520.991678	2490.330000
521.354739	2424.795000
521.717743	2485.288846
522.080690	2467.644808
522.443580	2444.959615
522.806413	2570.988462
523.169189	2492.850577
523.531908	2402.109808
523.894569	2467.644808
524.257174	2487.809423
524.619722	2525.618077
524.982213	2550.823846
525.344647	2540.741538
525.707025	2497.891731
526.069345	2507.974038
526.431608	2427.315577
526.793815	2535.700385
527.155964	2444.959615
527.518057	2482.768269
527.880093	2543.262115
528.242072	2442.439038
528.603995	2447.480192
528.965860	2558.385577
529.327669	2545.782692
529.689421	2520.576923
530.051117	2450.000769
530.412755	2467.644808
530.774337	2553.344423
531.135862	2502.932885
531.497331	2540.741538
531.858743	2480.247692
532.220098	2533.179808
532.581396	2439.918462
532.942638	2480.247692
533.303824	2439.918462
533.664953	2555.865000
534.026025	2601.235385
534.387040	2419.753846
534.747999	2455.041923
535.108902	2465.124231
535.469748	2553.344423
535.830537	2581.070769
536.191270	2570.988462
536.551947	2513.015192
536.912567	2452.521346
537.273131	2460.083077
537.633638	2470.165385
537.994089	2550.823846
538.354483	2555.865000
538.714821	2555.865000
539.075103	2515.535769
539.435328	2470.165385
539.795497	2434.877308
540.155609	2578.550192
540.515665	2457.562500
540.875665	2588.632500
541.235609	2434.877308
541.595496	2543.262115
541.955328	2477.727115
542.315102	2558.385577
542.674821	2497.891731
543.034483	2492.850577
543.394090	2495.371154
543.753640	2472.685962
544.113134	2553.344423
544.472571	2487.809423
544.831953	2505.453462
545.191278	2528.138654
545.550548	2475.206538
545.909761	2515.535769
546.268918	2472.685962
546.628019	2492.850577
546.987064	2492.850577
547.346053	2553.344423
547.704986	2528.138654
548.063863	2434.877308
548.422684	2409.671538
548.781449	2515.535769
549.140158	2485.288846
549.498811	2392.027500
549.857408	2507.974038
550.215949	2394.548077
550.574434	2502.932885
550.932864	2502.932885
551.291237	2485.288846
551.649555	2523.097500
552.007817	2467.644808
552.366022	2535.700385
552.724173	2470.165385
553.082267	2523.097500
553.440305	2414.712692
553.798288	2558.385577
554.156215	2462.603654
554.514086	2480.247692
554.871902	2510.494615
555.229661	2477.727115
555.587365	2402.109808
555.945014	2500.412308
556.302606	2505.453462
556.660143	2515.535769
557.017625	2477.727115
557.375050	2495.371154
557.732421	2576.029615
558.089735	2477.727115
558.446994	2528.138654
558.804197	2402.109808
559.161345	2477.727115
559.518437	2437.397885
559.875474	2432.356731
560.232455	2417.233269
560.589381	2505.453462
560.946251	2492.850577
561.303065	2548.303269
561.659825	2450.000769
562.016528	2558.385577
562.373177	2543.262115
562.729770	2550.823846
563.086307	2492.850577
563.442789	2525.618077
563.799216	2427.315577
564.155587	2515.535769
564.511904	2480.247692
564.868164	2520.576923
565.224370	2487.809423
565.580520	2477.727115
565.936615	2518.056346
566.292654	2495.371154
566.648638	2480.247692
567.004567	2528.138654
567.360441	2518.056346
567.716260	2538.220962
568.072023	2568.467885
568.427732	2525.618077
568.783385	2538.220962
569.138982	2447.480192
569.494525	2472.685962
569.850013	2452.521346
570.205445	2533.179808
570.560823	2457.562500
570.916145	2422.274423
571.271412	2520.576923
571.626625	2560.906154
571.981782	2560.906154
572.336884	2492.850577
572.691931	2409.671538
573.046923	2475.206538
573.401860	2570.988462
573.756743	2500.412308
574.111570	2555.865000
574.466342	2490.330000
574.821059	2548.303269
575.175722	2485.288846
575.530330	2480.247692
575.884882	2497.891731
576.239380	2565.947308
576.593823	2467.644808
576.948211	2507.974038
577.302544	2570.988462
577.656823	2513.015192
578.011047	2583.591346
578.365216	2482.768269
578.719330	2558.385577
579.073389	2596.194231
579.427394	2510.494615
579.781344	2455.041923
580.135239	2495.371154
580.489080	2477.727115
580.842866	2472.685962
581.196597	2455.041923
581.550273	2528.138654
581.903895	2447.480192
582.257463	2497.891731
582.610975	2490.330000
582.964434	2437.397885
583.317837	2477.727115
583.671186	2477.727115
584.024481	2497.891731
584.377721	2480.247692
584.730906	2487.809423
585.084037	2432.356731
585.437113	2462.603654
585.790135	2593.673654
586.143103	2505.453462
586.496016	2482.768269
586.848874	2530.659231
587.201679	2515.535769
587.554428	2525.618077
587.907124	2447.480192
588.259765	2490.330000
588.612352	2460.083077
588.964884	2427.315577
589.317362	2568.467885
589.669786	2492.850577
590.022155	2495.371154
590.374470	2570.988462
590.726731	2507.974038
591.078937	2477.727115
591.431090	2540.741538
591.783188	2558.385577
592.135232	2460.083077
592.487222	2507.974038
592.839157	2523.097500
593.191038	2444.959615
593.542866	2492.850577
593.894639	2460.083077
594.246358	2548.303269
594.598022	2505.453462
594.949633	2538.220962
595.301190	2429.836154
595.652692	2530.659231
596.004141	2593.673654
596.355535	2452.521346
596.706876	2447.480192
597.058162	2530.659231
597.409395	2505.453462
597.760573	2495.371154
598.111698	2490.330000
598.462768	2513.015192
598.813785	2535.700385
599.164748	2376.904038
599.515657	2528.138654
599.866511	2480.247692
600.217312	2500.412308
600.568060	2432.356731
600.918753	2482.768269
601.269392	2502.932885
601.619978	2495.371154
601.970510	2495.371154
602.320988	2510.494615
602.671412	2389.506923
603.021783	2470.165385
603.372100	2472.685962
603.722363	2523.097500
604.072572	2455.041923
604.422728	2480.247692
604.772830	2535.700385
605.122878	2399.589231
605.472872	2505.453462
605.822813	2467.644808
606.172701	2530.659231
606.522534	2477.727115
606.872314	2560.906154
607.222041	2462.603654
607.571714	2563.426731
607.921333	2429.836154
608.270899	2492.850577
608.620411	2515.535769
608.969870	2495.371154
609.319276	2470.165385
609.668627	2520.576923
610.017926	2475.206538
610.367171	2442.439038
610.716362	2492.850577
611.065500	2485.288846
611.414585	2485.288846
611.763616	2452.521346
612.112594	2525.618077
612.461518	2450.000769
612.810389	2502.932885
613.159207	2452.521346
613.507971	2525.618077
613.856682	2528.138654
614.205340	2565.947308
614.553945	2560.906154
614.902496	2586.111923
615.250994	2513.015192
615.599439	2507.974038
615.947830	2528.138654
616.296169	2560.906154
616.644454	2523.097500
616.992686	2485.288846
617.340864	2502.932885
617.688990	2497.891731
618.037063	2555.865000
618.385082	2434.877308
618.733048	2477.727115
619.080961	2439.918462
619.428821	2507.974038
619.776628	2386.986346
620.124382	2452.521346
620.472083	2497.891731
620.819731	2500.412308
621.167326	2563.426731
621.514868	2472.685962
621.862357	2500.412308
622.209793	2533.179808
622.557176	2475.206538
622.904506	2470.165385
623.251783	2450.000769
623.599007	2465.124231
623.946179	2535.700385
624.293297	2543.262115
624.640363	2444.959615
624.987376	2465.124231
625.334336	2492.850577
625.681243	2386.986346
626.028097	2540.741538
626.374899	2467.644808
626.721647	2543.262115
627.068343	2495.371154
627.414987	2477.727115
627.761577	2485.288846
628.108115	2528.138654
628.454600	2560.906154
628.801032	2457.562500
629.147412	2563.426731
629.493739	2376.904038
629.840014	2457.562500
630.186236	2530.659231
630.532405	2467.644808
630.878521	2535.700385
631.224585	2487.809423
631.570597	2583.591346
631.916556	2586.111923
632.262462	2487.809423
632.608316	2487.809423
632.954117	2578.550192
633.299866	2555.865000
633.645562	2492.850577
633.991206	2533.179808
634.336797	2563.426731
634.682336	2543.262115
635.027823	2558.385577
635.373257	2591.153077
635.718639	2495.371154
636.063968	2540.741538
636.409245	2525.618077
636.754470	2371.862885
637.099642	2460.083077
637.444762	2467.644808
637.789829	2535.700385
638.134845	2497.891731
638.479808	2535.700385
638.824719	2480.247692
639.169577	2462.603654
639.514383	2467.644808
639.859137	2467.644808
640.203839	2432.356731
640.548489	2515.535769
640.893086	2485.288846
641.237632	2492.850577
641.582125	2422.274423
641.926566	2429.836154
642.270955	2487.809423
642.615292	2462.603654
642.959576	2495.371154
643.303809	2550.823846
643.647990	2480.247692
643.992118	2412.192115
644.336195	2480.247692
644.680219	2558.385577
645.024192	2495.371154
645.368112	2460.083077
645.711981	2510.494615
646.055797	2515.535769
646.399562	2513.015192
646.743274	2502.932885
647.086935	2475.206538
647.430544	2550.823846
647.774101	2497.891731
648.117606	2475.206538
648.461059	2444.959615
648.804460	2528.138654
649.147810	2500.412308
649.491108	2492.850577
649.834354	2583.591346
650.177548	2548.303269
650.520690	2533.179808
650.863781	2450.000769
651.206820	2505.453462
651.549807	2470.165385
651.892742	2578.550192
652.235626	2550.823846
652.578458	2530.659231
652.921238	2497.891731
653.263967	2490.330000
653.606644	2386.986346
653.949269	2525.618077
654.291843	2545.782692
654.634365	2467.644808
654.976836	2495.371154
655.319255	2543.262115
655.661622	2497.891731
656.003938	2502.932885
656.346203	2558.385577
656.688416	2462.603654
657.030577	2460.083077
657.372687	2502.932885
657.714746	2530.659231
658.056753	2437.397885
658.398708	2525.618077
658.740612	2495.371154
659.082465	2424.795000
659.424266	2419.753846
659.766016	2482.768269
660.107715	2497.891731
660.449362	2457.562500
660.790958	2507.974038
661.132503	2520.576923
661.473996	2525.618077
661.815438	2492.850577
662.156829	2518.056346
662.498168	2467.644808
662.839456	2429.836154
663.180693	2528.138654
663.521879	2490.330000
663.863013	2563.426731
664.204097	2492.850577
664.545129	2495.371154
664.886110	2543.262115
665.227040	2596.194231
665.567918	2500.412308
665.908746	2490.330000
666.249522	2523.097500
666.590248	2495.371154
666.930922	2452.521346
667.271545	2540.741538
667.612118	2434.877308
667.952639	2500.412308
668.293109	2482.768269
668.633528	2601.235385
668.973896	2555.865000
669.314213	2432.356731
669.654480	2470.165385
669.994695	2475.206538
670.334859	2475.206538
670.674973	2487.809423
671.015035	2480.247692
671.355047	2465.124231
671.695008	2412.192115
672.034918	2543.262115
672.374777	2528.138654
672.714585	2520.576923
673.054342	2502.932885
673.394049	2535.700385
673.733705	2470.165385
674.073310	2462.603654
674.412864	2495.371154
674.752368	2555.865000
675.091820	2477.727115
675.431223	2515.535769
675.770574	2515.535769
676.109875	2543.262115
676.449125	2392.027500
676.788324	2548.303269
677.127473	2447.480192
677.466571	2437.397885
677.805619	2500.412308
678.144616	2439.918462
678.483562	2472.685962
678.822458	2518.056346
679.161303	2533.179808
679.500098	2576.029615
679.838842	2485.288846
680.177535	2495.371154
680.516179	2518.056346
680.854771	2465.124231
681.193314	2518.056346
681.531805	2477.727115
681.870247	2457.562500
682.208638	2492.850577
682.546978	2513.015192
682.885268	2427.315577
683.223508	2487.809423
683.561697	2523.097500
683.899836	2550.823846
684.237925	2465.124231
684.575963	2482.768269
684.913951	2563.426731
685.251889	2530.659231
685.589776	2450.000769
685.927614	2452.521346
686.265401	2480.247692
686.603137	2515.535769
686.940824	2550.823846
687.278460	2505.453462
687.616046	2460.083077
687.953582	2424.795000
688.291068	2578.550192
688.628504	2414.712692
688.965889	2548.303269
689.303224	2465.124231
689.640510	2513.015192
689.977745	2533.179808
690.314930	2487.809423
690.652065	2472.685962
690.989150	2467.644808
691.326185	2510.494615
691.663170	2485.288846
692.000105	2457.562500
692.336990	2404.630385
692.673825	2533.179808
693.010610	2475.206538
693.347345	2568.467885
693.684030	2487.809423
694.020665	2543.262115
694.357251	2485.288846
694.693786	2472.685962
695.030272	2442.439038
695.366707	2513.015192
695.703093	2485.288846
696.039429	2603.755962
696.375716	2485.288846
696.711952	2606.276538
697.048139	2581.070769
697.384276	2543.262115
697.720363	2424.795000
698.056400	2487.809423
698.392388	2482.768269
698.728326	2490.330000
699.064214	2510.494615
699.400053	2427.315577
699.735842	2462.603654
700.071581	2460.083077
700.407270	2525.618077
700.742910	2515.535769
701.078501	2462.603654
701.414042	2480.247692
701.749533	2455.041923
702.084974	2543.262115
702.420366	2497.891731
702.755709	2510.494615
703.091002	2540.741538
703.426246	2467.644808
703.761440	2450.000769
704.096584	2558.385577
704.431679	2434.877308
704.766725	2450.000769
705.101721	2507.974038
705.436668	2530.659231
705.771565	2548.303269
706.106413	2523.097500
706.441212	2500.412308
706.775961	2432.356731
707.110661	2535.700385
707.445311	2487.809423
707.779913	2505.453462
708.114465	2419.753846
708.448967	2515.535769
708.783421	2442.439038
709.117825	2487.809423
709.452180	2437.397885
709.786485	2470.165385
710.120742	2472.685962
710.454949	2495.371154
710.789107	2497.891731
711.123216	2437.397885
711.457275	2429.836154
711.791286	2434.877308
712.125247	2518.056346
712.459159	2487.809423
712.793023	2482.768269
713.126837	2460.083077
713.460602	2462.603654
713.794318	2538.220962
714.127985	2492.850577
714.461602	2480.247692
714.795171	2460.083077
715.128691	2470.165385
715.462162	2523.097500
715.795584	2485.288846
716.128957	2520.576923
716.462281	2409.671538
716.795556	2505.453462
717.128782	2505.453462
717.461960	2412.192115
717.795088	2555.865000
718.128167	2429.836154
718.461198	2502.932885
718.794180	2593.673654
719.127113	2475.206538
719.459997	2548.303269
719.792833	2490.330000
720.125619	2480.247692
720.458357	2500.412308
720.791046	2553.344423
721.123686	2583.591346
721.456278	2444.959615
721.788821	2434.877308
722.121315	2490.330000
722.453761	2565.947308
722.786158	2525.618077
723.118506	2623.920577
723.450805	2528.138654
723.783056	2434.877308
724.115259	2538.220962
724.447412	2412.192115
724.779518	2455.041923
725.111574	2437.397885
725.443582	2523.097500
725.775542	2447.480192
726.107453	2460.083077
726.439315	2482.768269
726.771129	2482.768269
727.102895	2565.947308
727.434612	2502.932885
727.766281	2419.753846
728.097901	2485.288846
728.429473	2404.630385
728.760996	2533.179808
729.092471	2591.153077
729.423897	2505.453462
729.755276	2507.974038
730.086606	2507.974038
730.417887	2455.041923
730.749120	2444.959615
731.080305	2588.632500
731.411442	2533.179808
731.742530	2553.344423
732.073570	2417.233269
732.404562	2497.891731
732.735506	2507.974038
733.066401	2424.795000
733.397249	2510.494615
733.728048	2507.974038
734.058798	2523.097500
734.389501	2523.097500
734.720156	2487.809423
735.050762	2525.618077
735.381320	2588.632500
735.711831	2490.330000
736.042293	2515.535769
736.372707	2442.439038
736.703073	2467.644808
737.033391	2502.932885
737.363661	2520.576923
737.693883	2467.644808
738.024056	2505.453462
738.354182	2427.315577
738.684260	2450.000769
739.014290	2560.906154
739.344272	2487.809423
739.674207	2432.356731
740.004093	2442.439038
740.333931	2495.371154
740.663722	2520.576923
740.993464	2497.891731
741.323159	2510.494615
741.652806	2525.618077
741.982405	2467.644808
742.311956	2591.153077
742.641460	2502.932885
742.970915	2520.576923
743.300323	2467.644808
743.629683	2523.097500
743.958996	2510.494615
744.288260	2470.165385
744.617477	2465.124231
744.946647	2507.974038
745.275768	2429.836154
745.604842	2550.823846
745.933869	2470.165385
746.262847	2452.521346
746.591778	2518.056346
746.920662	2565.947308
747.249498	2485.288846
747.578286	2485.288846
747.907027	2475.206538
748.235720	2462.603654
748.564365	2573.509038
748.892963	2533.179808
749.221514	2477.727115
749.550017	2497.891731
749.878473	2389.506923
750.206881	2460.083077
750.535242	2470.165385
750.863555	2518.056346
751.191821	2447.480192
751.520039	2520.576923
751.848210	2510.494615
752.176334	2560.906154
752.504411	2507.974038
752.832440	2492.850577
753.160421	2429.836154
753.488356	2475.206538
753.816243	2490.330000
754.144082	2442.439038
754.471875	2500.412308
754.799620	2495.371154
755.127318	2447.480192
755.454969	2490.330000
755.782572	2500.412308
756.110129	2460.083077
756.437638	2502.932885
756.765100	2482.768269
757.092515	2424.795000
757.419882	2490.330000
757.747203	2510.494615
758.074477	2530.659231
758.401703	2409.671538
758.728882	2548.303269
759.056014	2490.330000
759.383099	2470.165385
759.710138	2530.659231
760.037129	2475.206538
760.364073	2356.739423
760.690970	2485.288846
761.017820	2465.124231
761.344623	2535.700385
761.671379	2573.509038
761.998088	2502.932885
762.324751	2452.521346
762.651366	2588.632500
762.977935	2533.179808
763.304456	2520.576923
763.630931	2485.288846
763.957359	2555.865000
764.283740	2482.768269
764.610074	2475.206538
764.936362	2515.535769
765.262602	2573.509038
765.588796	2427.315577
765.914943	2500.412308
766.241044	2417.233269
766.567097	2548.303269
766.893104	2520.576923
767.219064	2553.344423
767.544978	2439.918462
767.870845	2513.015192
768.196665	2467.644808
768.522438	2515.535769
768.848165	2601.235385
769.173846	2581.070769
769.499479	2450.000769
769.825066	2452.521346
770.150607	2487.809423
770.476101	2424.795000
770.801548	2525.618077
771.126949	2510.494615
771.452303	2475.206538
771.777611	2497.891731
772.102872	2467.644808
772.428087	2518.056346
772.753256	2434.877308
773.078378	2482.768269
773.403453	2502.932885
773.728482	2538.220962
774.053465	2477.727115
774.378401	2492.850577
774.703291	2470.165385
775.028135	2465.124231
775.352932	2523.097500
775.677683	2422.274423
776.002388	2455.041923
776.327046	2510.494615
776.651658	2392.027500
776.976224	2505.453462
777.300743	2470.165385
777.625216	2523.097500
777.949643	2450.000769
778.274024	2530.659231
778.598359	2518.056346
778.922647	2535.700385
779.246889	2450.000769
779.571086	2475.206538
779.895236	2545.782692
780.219339	2563.426731
780.543397	2472.685962
780.867409	2505.453462
781.191374	2452.521346
781.515294	2538.220962
781.839167	2470.165385
782.162995	2505.453462
782.486776	2457.562500
782.810511	2535.700385
783.134201	2518.056346
783.457844	2545.782692
783.781441	2457.562500
784.104993	2477.727115
784.428498	2417.233269
784.751958	2538.220962
785.075372	2563.426731
785.398739	2447.480192
785.722061	2462.603654
786.045337	2442.439038
786.368568	2437.397885
786.691752	2495.371154
787.014891	2507.974038
787.337983	2455.041923
787.661030	2470.165385
787.984031	2467.644808
788.306987	2487.809423
788.629897	2472.685962
788.952760	2472.685962
789.275579	2480.247692
789.598351	2548.303269
789.921078	2432.356731
790.243759	2465.124231
790.566395	2485.288846
790.888984	2515.535769
791.211529	2578.550192
791.534027	2485.288846
791.856480	2518.056346
792.178888	2472.685962
792.501249	2518.056346
792.823566	2523.097500
793.145836	2447.480192
793.468062	2548.303269
793.790241	2419.753846
794.112375	2513.015192
794.434464	2495.371154
794.756507	2523.097500
795.078505	2477.727115
795.400457	2404.630385
795.722364	2434.877308
796.044226	2523.097500
796.366042	2439.918462
796.687812	2492.850577
797.009538	2467.644808
797.331218	2513.015192
797.652852	2495.371154
797.974442	2510.494615
798.295986	2505.453462
798.617484	2477.727115
798.938938	2545.782692
799.260346	2523.097500
799.581709	2434.877308
799.903026	2502.932885
800.224299	2482.768269
800.545526	2528.138654
800.866708	2465.124231
801.187845	2482.768269
801.508936	2455.041923
801.829983	2434.877308
802.150984	2432.356731
802.471940	2447.480192
802.792851	2339.095385
803.113717	2482.768269
803.434538	2432.356731
803.755314	2450.000769
804.076045	2583.591346
804.396731	2485.288846
804.717372	2570.988462
805.037967	2429.836154
805.358518	2520.576923
805.679024	2475.206538
805.999485	2452.521346
806.319901	2500.412308
806.640272	2525.618077
806.960598	2470.165385
807.280879	2538.220962
807.601115	2475.206538
807.921306	2480.247692
808.241453	2538.220962
808.561554	2444.959615
808.881611	2467.644808
809.201623	2407.150962
809.521590	2475.206538
809.841513	2482.768269
810.161390	2558.385577
810.481223	2502.932885
810.801011	2588.632500
811.120755	2467.644808
811.440453	2490.330000
811.760107	2497.891731
812.079716	2525.618077
812.399281	2432.356731
812.718801	2502.932885
813.038276	2465.124231
813.357707	2548.303269
813.677093	2538.220962
813.996434	2535.700385
814.315731	2510.494615
814.634983	2467.644808
814.954191	2528.138654
815.273354	2477.727115
815.592473	2427.315577
815.911547	2480.247692
816.230577	2467.644808
816.549562	2528.138654
816.868502	2553.344423
817.187399	2467.644808
817.506250	2540.741538
817.825058	2472.685962
818.143821	2518.056346
818.462539	2475.206538
818.781213	2497.891731
819.099843	2495.371154
819.418429	2535.700385
819.736970	2492.850577
820.055466	2528.138654
820.373919	2502.932885
820.692327	2482.768269
821.010691	2457.562500
821.329011	2470.165385
821.647286	2497.891731
821.965517	2535.700385
822.283704	2480.247692
822.601847	2538.220962
822.919945	2510.494615
823.237999	2397.068654
823.556010	2437.397885
823.873976	2424.795000
824.191897	2528.138654
824.509775	2470.165385
824.827609	2518.056346
825.145398	2427.315577
825.463144	2553.344423
825.780845	2422.274423
826.098502	2485.288846
826.416116	2477.727115
826.733685	2533.179808
827.051210	2535.700385
827.368692	2540.741538
827.686129	2477.727115
828.003522	2568.467885
828.320872	2434.877308
828.638177	2543.262115
828.955439	2535.700385
829.272656	2457.562500
829.589830	2437.397885
829.906960	2472.685962
830.224046	2470.165385
830.541088	2427.315577
830.858086	2543.262115
831.175041	2437.397885
831.491952	2409.671538
831.808819	2545.782692
832.125642	2457.562500
832.442421	2515.535769
832.759157	2492.850577
833.075849	2485.288846
833.392497	2442.439038
833.709101	2427.315577
834.025662	2477.727115
834.342179	2460.083077
834.658653	2513.015192
834.975083	2485.288846
835.291469	2603.755962
835.607811	2392.027500
835.924110	2525.618077
836.240366	2455.041923
836.556578	2442.439038
836.872746	2470.165385
837.188871	2500.412308
837.504952	2417.233269
837.820990	2487.809423
838.136984	2460.083077
838.452935	2510.494615
838.768842	2439.918462
839.084706	2477.727115
839.400526	2513.015192
839.716303	2429.836154
840.032037	2475.206538
840.347727	2480.247692
840.663373	2573.509038
840.978977	2465.124231
841.294537	2475.206538
841.610054	2513.015192
841.925527	2586.111923
842.240957	2505.453462
842.556344	2487.809423
842.871687	2588.632500
843.186987	2510.494615
843.502244	2467.644808
843.817458	2553.344423
844.132629	2523.097500
844.447756	2472.685962
844.762840	2470.165385
845.077881	2497.891731
845.392879	2470.165385
845.707833	2490.330000
846.022745	2520.576923
846.337613	2434.877308
846.652438	2507.974038
846.967221	2525.618077
847.281960	2465.124231
847.596656	2535.700385
847.911309	2518.056346
848.225919	2533.179808
848.540485	2528.138654
848.855009	2568.467885
849.169490	2497.891731
849.483928	2573.509038
849.798323	2525.618077
850.112675	2523.097500
850.426984	2538.220962
850.741251	2502.932885
851.055474	2465.124231
851.369654	2523.097500
851.683792	2485.288846
851.997887	2502.932885
852.311938	2525.618077
852.625947	2497.891731
852.939914	2490.330000
853.253837	2472.685962
853.567718	2560.906154
853.881555	2442.439038
854.195350	2528.138654
854.509103	2475.206538
854.822812	2515.535769
855.136479	2570.988462
855.450103	2515.535769
855.763685	2507.974038
856.077224	2523.097500
856.390720	2422.274423
856.704173	2555.865000
857.017584	2533.179808
857.330953	2573.509038
857.644278	2419.753846
857.957561	2500.412308
858.270802	2533.179808
858.584000	2490.330000
858.897155	2480.247692
859.210268	2581.070769
859.523339	2455.041923
859.836367	2565.947308
860.149352	2520.576923
860.462295	2439.918462
860.775195	2444.959615
861.088054	2492.850577
861.400869	2502.932885
861.713642	2480.247692
862.026373	2500.412308
862.339062	2457.562500
862.651708	2444.959615
862.964312	2444.959615
863.276873	2480.247692
863.589392	2515.535769
863.901869	2487.809423
864.214303	2467.644808
864.526696	2452.521346
864.839045	2475.206538
865.151353	2487.809423
865.463619	2467.644808
865.775842	2518.056346
866.088023	2475.206538
866.400162	2513.015192
866.712258	2482.768269
867.024313	2497.891731
867.336325	2452.521346
867.648296	2477.727115
867.960224	2465.124231
868.272110	2485.288846
868.583954	2462.603654
868.895755	2465.124231
869.207515	2462.603654
869.519233	2523.097500
869.830909	2533.179808
870.142542	2560.906154
870.454134	2447.480192
870.765684	2444.959615
871.077191	2510.494615
871.388657	2409.671538
871.700081	2555.865000
872.011463	2487.809423
872.322803	2492.850577
872.634101	2485.288846
872.945357	2545.782692
873.256571	2482.768269
873.567744	2412.192115
873.878874	2515.535769
874.189963	2437.397885
874.501010	2513.015192
874.812015	2424.795000
875.122979	2510.494615
875.433900	2523.097500
875.744780	2548.303269
876.055618	2490.330000
876.366415	2518.056346
876.677169	2480.247692
876.987882	2434.877308
877.298554	2553.344423
877.609183	2520.576923
877.919771	2528.138654
878.230317	2581.070769
878.540822	2467.644808
878.851285	2500.412308
879.161707	2555.865000
879.472087	2457.562500
879.782425	2364.301154
880.092722	2578.550192
880.402977	2480.247692
880.713191	2477.727115
881.023363	2482.768269
881.333494	2477.727115
881.643583	2538.220962
881.953631	2510.494615
882.263637	2467.644808
882.573602	2525.618077
882.883526	2518.056346
883.193408	2553.344423
883.503248	2560.906154
883.813048	2452.521346
884.122806	2513.015192
884.432522	2467.644808
884.742197	2525.618077
885.051831	2444.959615
885.361424	2550.823846
885.670975	2480.247692
885.980485	2442.439038
886.289954	2507.974038
886.599382	2502.932885
886.908768	2475.206538
887.218113	2530.659231
887.527417	2495.371154
887.836680	2553.344423
888.145901	2480.247692
888.455082	2558.385577
888.764221	2424.795000
889.073319	2507.974038
889.382376	2465.124231
889.691392	2500.412308
890.000366	2603.755962
890.309300	2462.603654
890.618193	2492.850577
890.927044	2447.480192
891.235855	2439.918462
891.544625	2450.000769
891.853353	2429.836154
892.162041	2591.153077
892.470687	2462.603654
892.779293	2490.330000
893.087858	2450.000769
893.396381	2495.371154
893.704864	2399.589231
894.013306	2570.988462
894.321707	2470.165385
894.630068	2409.671538
894.938387	2417.233269
895.246665	2505.453462
895.554903	2399.589231
895.863100	2460.083077
896.171256	2525.618077
896.479371	2462.603654
896.787446	2523.097500
897.095480	2419.753846
897.403473	2505.453462
897.711425	2492.850577
898.019336	2545.782692
898.327207	2465.124231
898.635038	2460.083077
898.942827	2447.480192
899.250576	2455.041923
899.558284	2558.385577
899.865952	2477.727115
900.173579	2369.342308
900.481165	2507.974038
900.788711	2497.891731
901.096216	2472.685962
901.403681	2427.315577
901.711105	2591.153077
902.018489	2563.426731
902.325832	2528.138654
902.633135	2460.083077
902.940397	2548.303269
903.247619	2485.288846
903.554800	2404.630385
903.861941	2472.685962
904.169041	2550.823846
904.476101	2558.385577
904.783121	2502.932885
905.090100	2497.891731
905.397039	2505.453462
905.703938	2394.548077
906.010796	2437.397885
906.317614	2460.083077
906.624391	2447.480192
906.931129	2452.521346
907.237826	2507.974038
907.544483	2457.562500
907.851099	2505.453462
908.157675	2568.467885
908.464211	2480.247692
908.770707	2568.467885
909.077163	2487.809423
909.383578	2507.974038
909.689954	2523.097500
909.996289	2475.206538
910.302584	2502.932885
910.608839	2502.932885
910.915054	2432.356731
911.221229	2475.206538
911.527363	2477.727115
911.833458	2490.330000
912.139513	2626.441154
912.445527	2480.247692
912.751502	2518.056346
913.057436	2392.027500
913.363331	2475.206538
913.669186	2543.262115
913.975000	2419.753846
914.280775	2467.644808
914.586510	2470.165385
914.892205	2518.056346
915.197859	2470.165385
915.503475	2495.371154
915.809050	2497.891731
916.114585	2500.412308
916.420081	2613.838269
916.725536	2535.700385
917.030952	2482.768269
917.336328	2457.562500
917.641665	2480.247692
917.946961	2520.576923
918.252218	2472.685962
918.557435	2555.865000
918.862612	2497.891731
919.167750	2389.506923
919.472848	2460.083077
919.777906	2480.247692
920.082925	2502.932885
920.387904	2492.850577
920.692843	2515.535769
920.997743	2505.453462
921.302603	2545.782692
921.607423	2480.247692
921.912204	2480.247692
922.216946	2482.768269
922.521647	2407.150962
922.826310	2548.303269
923.130932	2470.165385
923.435516	2535.700385
923.740059	2485.288846
924.044564	2563.426731
924.349028	2472.685962
924.653454	2505.453462
924.957840	2523.097500
925.262186	2412.192115
925.566493	2520.576923
925.870761	2515.535769
926.174989	2492.850577
926.479178	2439.918462
926.783328	2455.041923
927.087438	2505.453462
927.391509	2452.521346
927.695541	2560.906154
927.999533	2470.165385
928.303486	2462.603654
928.607400	2502.932885
928.911275	2480.247692
929.215110	2611.317692
929.518906	2439.918462
929.822663	2455.041923
930.126381	2485.288846
930.430060	2444.959615
930.733699	2485.288846
931.037299	2520.576923
931.340861	2497.891731
931.644383	2518.056346
931.947866	2518.056346
932.251309	2422.274423
932.554714	2570.988462
932.858080	2538.220962
933.161407	2417.233269
933.464694	2497.891731
933.767943	2520.576923
934.071153	2475.206538
934.374323	2442.439038
934.677455	2472.685962
934.980548	2437.397885
935.283602	2475.206538
935.586617	2407.150962
935.889593	2515.535769
936.192530	2434.877308
936.495428	2462.603654
936.798287	2543.262115
937.101108	2523.097500
937.403890	2497.891731
937.706632	2533.179808
938.009336	2535.700385
938.312002	2495.371154
938.614628	2540.741538
938.917216	2502.932885
939.219765	2550.823846
939.522275	2497.891731
939.824747	2432.356731
940.127179	2480.247692
940.429573	2480.247692
940.731929	2525.618077
941.034246	2492.850577
941.336524	2535.700385
941.638763	2515.535769
941.940964	2500.412308
942.243126	2583.591346
942.545250	2465.124231
942.847335	2548.303269
943.149381	2472.685962
943.451389	2520.576923
943.753359	2490.330000
944.055290	2482.768269
944.357182	2407.150962
944.659036	2470.165385
944.960851	2485.288846
945.262628	2555.865000
945.564367	2480.247692
945.866067	2492.850577
946.167729	2450.000769
946.469352	2437.397885
946.770937	2497.891731
947.072484	2480.247692
947.373992	2470.165385
947.675462	2475.206538
947.976893	2442.439038
948.278286	2477.727115
948.579641	2495.371154
948.880958	2510.494615
949.182236	2477.727115
949.483476	2500.412308
949.784678	2568.467885
950.085841	2472.685962
950.386967	2540.741538
950.688054	2477.727115
950.989103	2560.906154
951.290114	2457.562500
951.591087	2450.000769
951.892021	2505.453462
952.192917	2477.727115
952.493776	2429.836154
952.794596	2472.685962
953.095378	2450.000769
953.396122	2502.932885
953.696828	2417.233269
953.997496	2460.083077
954.298126	2515.535769
954.598718	2535.700385
954.899272	2581.070769
955.199788	2417.233269
955.500266	2495.371154
955.800706	2477.727115
956.101108	2573.509038
956.401472	2540.741538
956.701798	2553.344423
957.002087	2487.809423
957.302337	2437.397885
957.602550	2515.535769
957.902724	2470.165385
958.202861	2570.988462
958.502960	2523.097500
958.803022	2497.891731
959.103045	2437.397885
959.403031	2530.659231
959.702979	2510.494615
960.002889	2545.782692
960.302762	2482.768269
960.602596	2558.385577
960.902393	2560.906154
961.202153	2565.947308
961.501875	2447.480192
961.801559	2465.124231
962.101205	2477.727115
962.400814	2550.823846
962.700385	2543.262115
962.999918	2442.439038
963.299414	2603.755962
963.598873	2513.015192
963.898293	2480.247692
964.197677	2611.317692
964.497022	2369.342308
964.796331	2490.330000
965.095601	2550.823846
965.394835	2550.823846
965.694030	2540.741538
965.993189	2424.795000
966.292309	2490.330000
966.591393	2505.453462
966.890439	2475.206538
967.189447	2520.576923
967.488419	2513.015192
967.787353	2530.659231
968.086249	2497.891731
968.385108	2513.015192
968.683930	2475.206538
968.982714	2631.482308
969.281462	2581.070769
969.580172	2422.274423
969.878844	2515.535769
970.177480	2497.891731
970.476078	2434.877308
970.774639	2455.041923
971.073162	2535.700385
971.371649	2507.974038
971.670098	2457.562500
971.968510	2477.727115
972.266885	2467.644808
972.565223	2462.603654
972.863524	2568.467885
973.161788	2543.262115
973.460014	2487.809423
973.758204	2497.891731
974.056356	2450.000769
974.354471	2513.015192
974.652550	2520.576923
974.950591	2568.467885
975.248595	2513.015192
975.546563	2510.494615
975.844493	2394.548077
976.142386	2500.412308
976.440243	2523.097500
976.738062	2439.918462
977.035845	2429.836154
977.333590	2528.138654
977.631299	2525.618077
977.928971	2495.371154
978.226606	2495.371154
978.524204	2525.618077
978.821765	2477.727115
979.119290	2513.015192
979.416777	2487.809423
979.714228	2492.850577
980.011642	2573.509038
980.309020	2497.891731
980.606360	2475.206538
980.903664	2452.521346
981.200931	2470.165385
981.498162	2470.165385
981.795356	2477.727115
982.092513	2538.220962
982.389633	2576.029615
982.686717	2515.535769
982.983764	2545.782692
983.280775	2452.521346
983.577749	2497.891731
983.874686	2533.179808
984.171587	2563.426731
984.468451	2492.850577
984.765279	2515.535769
985.062070	2518.056346
985.358824	2525.618077
985.655543	2460.083077
985.952224	2525.618077
986.248869	2442.439038
986.545478	2437.397885
986.842050	2497.891731
987.138586	2570.988462
987.435086	2507.974038
987.731549	2439.918462
988.027975	2523.097500
988.324366	2523.097500
988.620719	2500.412308
988.917037	2432.356731
989.213318	2465.124231
989.509563	2505.453462
989.805772	2510.494615
990.101944	2505.453462
990.398080	2450.000769
990.694180	2558.385577
990.990244	2432.356731
991.286271	2540.741538
991.582262	2563.426731
991.878217	2570.988462
992.174136	2563.426731
992.470019	2434.877308
992.765865	2510.494615
993.061676	2480.247692
993.357450	2485.288846
993.653188	2384.465769
993.948890	2497.891731
994.244556	2470.165385
994.540186	2505.453462
994.835780	2523.097500
995.131337	2467.644808
995.426859	2467.644808
995.722345	2470.165385
996.017795	2553.344423
996.313208	2434.877308
996.608586	2518.056346
996.903928	2472.685962
997.199234	2530.659231
997.494504	2560.906154
997.789738	2578.550192
998.084936	2452.521346
998.380099	2414.712692
998.675225	2525.618077
998.970316	2520.576923
999.265371	2447.480192
999.560390	2515.535769
999.855373	2437.397885
1000.150320	2513.015192
1000.445232	2439.918462
1000.740108	2492.850577
1001.034948	2417.233269
1001.329752	2482.768269
1001.624521	2460.083077
1001.919254	2414.712692
1002.213951	2515.535769
1002.508613	2462.603654
1002.803239	2404.630385
1003.097829	2450.000769
1003.392384	2427.315577
1003.686903	2452.521346
1003.981386	2510.494615
1004.275834	2422.274423
1004.570246	2495.371154
1004.864623	2482.768269
1005.158964	2525.618077
1005.453270	2465.124231
1005.747540	2455.041923
1006.041775	2437.397885
1006.335974	2450.000769
1006.630138	2442.439038
1006.924266	2462.603654
1007.218359	2472.685962
1007.512416	2502.932885
1007.806438	2495.371154
1008.100425	2485.288846
1008.394376	2444.959615
1008.688292	2530.659231
1008.982172	2485.288846
1009.276017	2477.727115
1009.569827	2482.768269
1009.863602	2533.179808
1010.157341	2470.165385
1010.451045	2548.303269
1010.744714	2543.262115
1011.038347	2601.235385
1011.331945	2535.700385
1011.625508	2530.659231
1011.919036	2487.809423
1012.212528	2490.330000
1012.505986	2485.288846
1012.799408	2492.850577
1013.092795	2530.659231
1013.386147	2563.426731
1013.679464	2525.618077
1013.972745	2447.480192
1014.265992	2510.494615
1014.559204	2470.165385
1014.852380	2470.165385
1015.145521	2412.192115
1015.438628	2568.467885
1015.731699	2535.700385
1016.024736	2465.124231
1016.317737	2510.494615
1016.610703	2540.741538
1016.903635	2462.603654
1017.196531	2477.727115
1017.489393	2497.891731
1017.782219	2465.124231
1018.075011	2515.535769
1018.367768	2591.153077
1018.660490	2442.439038
1018.953177	2442.439038
1019.245829	2442.439038
