Dividing Wavelength (nm)	Counts (n)	Blue Motor Position (mm): 0.000000	Red Motor Position (mm): 3.000000	
326.493990	2197.943077
326.888308	2197.943077
327.282561	2197.943077
327.676750	2175.257885
328.070874	2235.751731
328.464933	2137.449231
328.858929	2170.216731
329.252859	2162.655000
329.646726	2200.463654
330.040528	2175.257885
330.434265	2157.613846
330.827938	2258.436923
331.221547	2271.039808
331.615091	2253.395769
332.008571	2286.163269
332.401986	2303.807308
332.795338	2238.272308
333.188625	2404.630385
333.581847	2346.657115
333.975006	2356.739423
334.368100	2392.027500
334.761129	2404.630385
335.154095	2427.315577
335.546996	2477.727115
335.939833	2513.015192
336.332606	2419.753846
336.725315	2548.303269
337.117960	2538.220962
337.510540	2553.344423
337.903056	2525.618077
338.295508	2495.371154
338.687896	2543.262115
339.080220	2472.685962
339.472480	2565.947308
339.864676	2523.097500
340.256807	2634.002885
340.648875	2540.741538
341.040879	2540.741538
341.432818	2603.755962
341.824694	2616.358846
342.216506	2606.276538
342.608253	2530.659231
342.999937	2550.823846
343.391557	2535.700385
343.783113	2558.385577
344.174605	2583.591346
344.566033	2570.988462
344.957397	2581.070769
345.348697	2548.303269
345.739934	2513.015192
346.131106	2576.029615
346.522215	2535.700385
346.913260	2626.441154
347.304241	2588.632500
347.695159	2560.906154
348.086012	2588.632500
348.476802	2628.961731
348.867528	2518.056346
349.258191	2502.932885
349.648789	2565.947308
350.039324	2538.220962
350.429796	2583.591346
350.820203	2593.673654
351.210548	2515.535769
351.600828	2583.591346
351.991045	2447.480192
352.381198	2530.659231
352.771288	2606.276538
353.161314	2482.768269
353.551276	2631.482308
353.941175	2563.426731
354.331010	2495.371154
354.720782	2533.179808
355.110490	2576.029615
355.500135	2611.317692
355.889717	2515.535769
356.279235	2533.179808
356.668689	2525.618077
357.058080	2608.797115
357.447408	2591.153077
357.836672	2523.097500
358.225873	2565.947308
358.615010	2477.727115
359.004084	2578.550192
359.393095	2651.646923
359.782043	2586.111923
360.170927	2618.879423
360.559748	2563.426731
360.948505	2553.344423
361.337199	2480.247692
361.725830	2523.097500
362.114398	2528.138654
362.502903	2591.153077
362.891344	2591.153077
363.279722	2576.029615
363.668037	2500.412308
364.056289	2492.850577
364.444478	2591.153077
364.832603	2621.400000
365.220665	2502.932885
365.608665	2555.865000
365.996601	2626.441154
366.384474	2530.659231
366.772284	2465.124231
367.160031	2631.482308
367.547715	2593.673654
367.935336	2623.920577
368.322893	2505.453462
368.710388	2608.797115
369.097820	2444.959615
369.485189	2611.317692
369.872495	2581.070769
370.259738	2558.385577
370.646918	2563.426731
371.034035	2487.809423
371.421090	2545.782692
371.808081	2485.288846
372.195010	2578.550192
372.581875	2565.947308
372.968678	2613.838269
373.355418	2507.974038
373.742096	2618.879423
374.128710	2603.755962
374.515262	2533.179808
374.901751	2545.782692
375.288177	2548.303269
375.674540	2583.591346
376.060841	2576.029615
376.447079	2560.906154
376.833254	2593.673654
377.219367	2593.673654
377.605417	2500.412308
377.991404	2533.179808
378.377329	2581.070769
378.763191	2616.358846
379.148991	2525.618077
379.534727	2591.153077
379.920402	2636.523462
380.306013	2540.741538
380.691563	2608.797115
381.077049	2618.879423
381.462474	2651.646923
381.847835	2588.632500
382.233134	2515.535769
382.618371	2538.220962
383.003545	2563.426731
383.388657	2565.947308
383.773706	2563.426731
384.158693	2578.550192
384.543618	2578.550192
384.928480	2581.070769
385.313280	2598.714808
385.698017	2601.235385
386.082692	2618.879423
386.467305	2639.044038
386.851856	2596.194231
387.236344	2583.591346
387.620770	2500.412308
388.005133	2578.550192
388.389435	2568.467885
388.773674	2603.755962
389.157851	2560.906154
389.541965	2505.453462
389.926018	2467.644808
390.310008	2487.809423
390.693936	2545.782692
391.077802	2540.741538
391.461606	2593.673654
391.845348	2548.303269
392.229027	2654.167500
392.612645	2644.085192
392.996200	2515.535769
393.379694	2626.441154
393.763125	2639.044038
394.146494	2520.576923
394.529801	2510.494615
394.913047	2628.961731
395.296230	2543.262115
395.679351	2603.755962
396.062410	2621.400000
396.445408	2576.029615
396.828343	2583.591346
397.211217	2586.111923
397.594028	2560.906154
397.976778	2636.523462
398.359466	2613.838269
398.742092	2560.906154
399.124656	2618.879423
399.507158	2490.330000
399.889598	2634.002885
400.271977	2576.029615
400.654294	2676.852692
401.036549	2598.714808
401.418742	2586.111923
401.800874	2510.494615
402.182944	2553.344423
402.564952	2543.262115
402.946898	2502.932885
403.328783	2548.303269
403.710606	2636.523462
404.092367	2525.618077
404.474067	2550.823846
404.855705	2591.153077
405.237282	2598.714808
405.618797	2553.344423
406.000250	2603.755962
406.381642	2530.659231
406.762972	2581.070769
407.144240	2578.550192
407.525447	2636.523462
407.906593	2586.111923
408.287677	2586.111923
408.668700	2475.206538
409.049661	2613.838269
409.430560	2523.097500
409.811399	2558.385577
410.192176	2573.509038
410.572891	2543.262115
410.953545	2560.906154
411.334138	2616.358846
411.714669	2654.167500
412.095139	2631.482308
412.475547	2601.235385
412.855894	2631.482308
413.236180	2613.838269
413.616405	2626.441154
413.996568	2586.111923
414.376670	2596.194231
414.756711	2581.070769
415.136691	2616.358846
415.516609	2623.920577
415.896466	2613.838269
416.276262	2583.591346
416.655997	2545.782692
417.035670	2608.797115
417.415283	2601.235385
417.794834	2581.070769
418.174324	2576.029615
418.553753	2538.220962
418.933121	2578.550192
419.312428	2540.741538
419.691674	2621.400000
420.070859	2608.797115
420.449983	2588.632500
420.829045	2553.344423
421.208047	2626.441154
421.586988	2616.358846
421.965867	2573.509038
422.344686	2583.591346
422.723444	2560.906154
423.102141	2623.920577
423.480777	2578.550192
423.859352	2480.247692
424.237866	2565.947308
424.616319	2581.070769
424.994712	2611.317692
425.373044	2593.673654
425.751314	2656.688077
426.129524	2543.262115
426.507673	2576.029615
426.885762	2631.482308
427.263789	2510.494615
427.641756	2613.838269
428.019662	2510.494615
428.397508	2558.385577
428.775292	2581.070769
429.153016	2626.441154
429.530679	2606.276538
429.908282	2707.099615
430.285824	2639.044038
430.663305	2651.646923
431.040726	2623.920577
431.418086	2689.455577
431.795385	2613.838269
432.172624	2649.126346
432.549802	2530.659231
432.926920	2570.988462
433.303977	2639.044038
433.680974	2611.317692
434.057910	2654.167500
434.434786	2656.688077
434.811601	2540.741538
435.188355	2553.344423
435.565050	2646.605769
435.941683	2581.070769
436.318257	2628.961731
436.694770	2601.235385
437.071222	2636.523462
437.447614	2644.085192
437.823946	2606.276538
438.200218	2573.509038
438.576429	2666.770385
438.952580	2714.661346
439.328670	2651.646923
439.704700	2709.620192
440.080670	2676.852692
440.456580	2684.414423
440.832429	2621.400000
441.208218	2727.264231
441.583947	2689.455577
441.959616	2760.031731
442.335224	2757.511154
442.710773	2707.099615
443.086261	2719.702500
443.461689	2820.525577
443.837057	2850.772500
444.212365	2830.607885
444.587612	2875.978269
444.962800	2865.895962
445.337927	2906.225192
445.712995	2916.307500
446.088002	2966.719038
446.462949	3024.692308
446.837837	3024.692308
447.212664	3095.268462
447.587431	3160.803462
447.962139	3211.215000
448.336786	3478.396154
448.711374	3604.425000
449.085901	3498.560769
449.460369	3516.204808
449.834776	3420.422885
450.209124	3619.548462
450.583412	3798.509423
450.957640	3906.894231
451.331808	3889.250192
451.705917	3967.388077
452.079965	3866.565000
452.453954	4131.225577
452.827883	4136.266731
453.201752	4277.419038
453.575562	4277.419038
453.949311	4524.435577
454.323001	4635.340962
454.696632	4723.561154
455.070202	4955.454231
455.443713	5096.606538
455.817164	5255.402885
456.190556	5467.131346
456.563888	5673.818654
456.937160	5734.312500
457.310373	5809.929808
457.683526	5877.985385
458.056619	5817.491538
458.429653	6117.440192
458.802628	6056.946346
459.175542	6351.853846
459.548398	6795.475385
459.921194	7012.245000
460.293930	7387.810962
460.666607	7821.350192
461.039224	8580.043846
461.411782	8983.336154
461.784280	8985.856731
462.156719	9338.737500
462.529099	9127.009038
462.901419	8922.842308
463.273680	8958.130385
463.645882	8988.377308
464.018024	9386.628462
464.390106	9497.533846
464.762130	10137.760385
465.134094	11133.388269
465.505999	12580.199423
465.877845	14851.239231
466.249631	16615.643077
466.621358	16356.023654
466.993026	15577.165385
467.364634	15594.809423
467.736184	14599.181538
468.107674	14654.634231
468.479105	14962.144615
468.850477	14871.403846
469.221790	14884.006731
469.593043	14720.169231
469.964238	14420.220577
470.335373	14221.095000
470.706449	15037.761923
471.077467	15249.490385
471.448425	17533.133077
471.819324	20769.553846
472.190164	21472.794808
472.560945	18090.180577
472.931667	16976.085577
473.302330	16933.235769
473.672934	17029.017692
474.043479	17122.279038
474.413965	17074.388077
474.784393	16971.044423
475.154761	17863.328654
475.525070	17996.919231
475.895321	17961.631154
476.265513	18533.802115
476.635645	19529.430000
477.005719	19224.440192
477.375734	19539.512308
477.745691	20071.354038
478.115588	20885.500385
478.485427	21535.809231
478.855207	23101.087500
479.224928	24933.546923
479.594591	26831.541346
479.964194	26327.425962
480.333739	26632.415769
480.703226	26763.485769
481.072653	26697.950769
481.442022	27267.601154
481.811333	27933.033462
482.180584	27567.549808
482.549777	27098.722500
482.918912	26531.592692
483.287988	26972.693654
483.657005	26700.471346
484.025964	26395.481538
484.394864	26287.096731
484.763706	25727.528654
485.132489	25513.279615
485.501213	25614.102692
485.869879	25568.732308
486.238487	25230.975000
486.607036	25465.388654
486.975527	24986.479038
487.343959	24684.009808
487.712333	24999.081923
488.080648	24436.993269
488.448905	24825.162115
488.817104	24600.830769
489.185244	25442.703462
489.553326	24840.285577
489.921350	26433.290192
490.289315	28416.984231
490.657222	29455.461923
491.025070	29417.653269
491.392861	29034.525577
491.760593	28031.335962
492.128267	26730.718269
492.495883	26019.915577
492.863440	25107.466731
493.230939	24139.565192
493.598380	23481.694615
493.965763	22816.262308
494.333088	22289.461731
494.700354	21863.484231
495.067563	21500.521154
495.434713	20930.870769
495.801805	21228.298846
496.168839	20903.144423
496.535815	20494.810962
496.902733	20459.522885
497.269593	19715.952692
497.636395	19784.008269
498.003139	19620.170769
498.369825	19224.440192
498.736453	19131.178846
499.103023	18891.724038
499.469535	18596.816538
499.835989	18168.318462
500.202385	18130.509808
500.568723	17671.764808
500.935003	17460.036346
501.301226	17308.801731
501.667390	17462.556923
502.033497	17134.881923
502.399546	16799.645192
502.765537	16356.023654
503.131470	16124.130577
503.497345	16252.680000
503.863163	15201.599423
504.228923	15375.519231
504.594625	15345.272308
504.960269	14609.263846
505.325856	14982.309231
505.691385	14268.985962
506.056856	14463.070385
506.422270	14100.107308
506.787625	13621.197692
507.152924	13379.222308
507.518164	13545.580385
507.883347	13059.109038
508.248472	12444.088269
508.613540	12436.526538
508.978550	12179.427692
509.343503	12171.865962
509.708398	11977.781538
510.073236	11740.847308
510.438016	11587.092115
510.802738	11377.884231
511.167403	11090.538462
511.532010	10974.591923
511.896561	10810.754423
512.261053	10631.793462
512.625488	10321.762500
512.989866	10001.649231
513.354186	9626.083269
513.718449	9764.715000
514.082655	9540.383654
514.446803	9076.597500
514.810894	9129.529615
515.174927	8834.622115
515.538904	8627.934808
515.902822	8675.825769
516.266684	8403.603462
516.630488	8123.819423
516.994235	8030.558077
517.357925	7952.420192
517.721558	7816.309038
518.085133	7503.757500
518.448651	7317.234808
518.812112	7251.699808
519.175516	7292.029038
519.538863	7027.368462
519.902152	6896.298462
520.265385	6666.925962
520.628560	6820.681154
520.991678	6387.141923
521.354739	6387.141923
521.717743	6084.672692
522.080690	5963.685000
522.443580	5940.999808
522.806413	5764.559423
523.169189	5734.312500
523.531908	5628.448269
523.894569	5452.007885
524.257174	5414.199231
524.619722	5129.374038
524.982213	5149.538654
525.344647	4975.618846
525.707025	5023.509808
526.069345	4920.166154
526.431608	4847.069423
526.793815	4655.505577
527.155964	4675.670192
527.518057	4426.133077
527.880093	4421.091923
528.242072	4252.213269
528.603995	4216.925192
528.965860	4257.254423
529.327669	4123.663846
529.689421	3990.073269
530.051117	3919.497115
530.412755	3841.359231
530.774337	3765.741923
531.135862	3836.318077
531.497331	3707.768654
531.858743	3677.521731
532.220098	3720.371538
532.581396	3591.822115
532.942638	3526.287115
533.303824	3591.822115
533.664953	3400.258269
534.026025	3407.820000
534.387040	3523.766538
534.747999	3400.258269
535.108902	3387.655385
535.469748	3276.750000
535.830537	3281.791154
536.191270	3193.570962
536.551947	3160.803462
536.912567	3175.926923
537.273131	3075.103846
537.633638	3107.871346
537.994089	3117.953654
538.354483	3143.159423
538.714821	3100.309615
539.075103	3110.391923
539.435328	2974.280769
539.795497	3049.898077
540.155609	2996.965962
540.515665	2916.307500
540.875665	2941.513269
541.235609	2898.663462
541.595496	2870.937115
541.955328	2954.116154
542.315102	2833.128462
542.674821	2840.690192
543.034483	2840.690192
543.394090	2855.813654
543.753640	2843.210769
544.113134	2812.963846
544.472571	2805.402115
544.831953	2835.649038
545.191278	2863.375385
545.550548	2782.716923
545.909761	2737.346538
546.268918	2843.210769
546.628019	2732.305385
546.987064	2833.128462
547.346053	2732.305385
547.704986	2790.278654
548.063863	2712.140769
548.422684	2686.935000
548.781449	2747.428846
549.140158	2691.976154
549.498811	2765.072885
549.857408	2812.963846
550.215949	2724.743654
550.574434	2780.196346
550.932864	2671.811538
551.291237	2727.264231
551.649555	2691.976154
552.007817	2732.305385
552.366022	2729.784808
552.724173	2676.852692
553.082267	2739.867115
553.440305	2666.770385
553.798288	2681.893846
554.156215	2709.620192
554.514086	2669.290962
554.871902	2664.249808
555.229661	2709.620192
555.587365	2671.811538
555.945014	2608.797115
556.302606	2623.920577
556.660143	2686.935000
557.017625	2780.196346
557.375050	2702.058462
557.732421	2644.085192
558.089735	2636.523462
558.446994	2583.591346
558.804197	2598.714808
559.161345	2661.729231
559.518437	2742.387692
559.875474	2639.044038
560.232455	2586.111923
560.589381	2664.249808
560.946251	2681.893846
561.303065	2737.346538
561.659825	2684.414423
562.016528	2739.867115
562.373177	2686.935000
562.729770	2676.852692
563.086307	2649.126346
563.442789	2712.140769
563.799216	2684.414423
564.155587	2694.496731
564.511904	2664.249808
564.868164	2618.879423
565.224370	2686.935000
565.580520	2611.317692
565.936615	2686.935000
566.292654	2686.935000
566.648638	2714.661346
567.004567	2714.661346
567.360441	2676.852692
567.716260	2709.620192
568.072023	2634.002885
568.427732	2656.688077
568.783385	2651.646923
569.138982	2618.879423
569.494525	2689.455577
569.850013	2681.893846
570.205445	2679.373269
570.560823	2651.646923
570.916145	2689.455577
571.271412	2674.332115
571.626625	2651.646923
571.981782	2644.085192
572.336884	2596.194231
572.691931	2674.332115
573.046923	2631.482308
573.401860	2656.688077
573.756743	2697.017308
574.111570	2689.455577
574.466342	2616.358846
574.821059	2702.058462
575.175722	2548.303269
575.530330	2634.002885
575.884882	2618.879423
576.239380	2639.044038
576.593823	2601.235385
576.948211	2613.838269
577.302544	2656.688077
577.656823	2659.208654
578.011047	2568.467885
578.365216	2621.400000
578.719330	2671.811538
579.073389	2664.249808
579.427394	2679.373269
579.781344	2664.249808
580.135239	2641.564615
580.489080	2606.276538
580.842866	2626.441154
581.196597	2628.961731
581.550273	2772.634615
581.903895	2732.305385
582.257463	2618.879423
582.610975	2613.838269
582.964434	2618.879423
583.317837	2651.646923
583.671186	2631.482308
584.024481	2618.879423
584.377721	2626.441154
584.730906	2694.496731
585.084037	2636.523462
585.437113	2651.646923
585.790135	2664.249808
586.143103	2644.085192
586.496016	2611.317692
586.848874	2664.249808
587.201679	2681.893846
587.554428	2636.523462
587.907124	2656.688077
588.259765	2707.099615
588.612352	2641.564615
588.964884	2591.153077
589.317362	2664.249808
589.669786	2563.426731
590.022155	2598.714808
590.374470	2646.605769
590.726731	2651.646923
591.078937	2621.400000
591.431090	2606.276538
591.783188	2578.550192
592.135232	2623.920577
592.487222	2636.523462
592.839157	2616.358846
593.191038	2634.002885
593.542866	2618.879423
593.894639	2611.317692
594.246358	2659.208654
594.598022	2659.208654
594.949633	2646.605769
595.301190	2674.332115
595.652692	2540.741538
596.004141	2523.097500
596.355535	2664.249808
596.706876	2654.167500
597.058162	2661.729231
597.409395	2646.605769
597.760573	2691.976154
598.111698	2651.646923
598.462768	2707.099615
598.813785	2651.646923
599.164748	2588.632500
599.515657	2631.482308
599.866511	2616.358846
600.217312	2669.290962
600.568060	2697.017308
600.918753	2689.455577
601.269392	2586.111923
601.619978	2704.579038
601.970510	2644.085192
602.320988	2649.126346
602.671412	2724.743654
603.021783	2623.920577
603.372100	2671.811538
603.722363	2621.400000
604.072572	2659.208654
604.422728	2586.111923
604.772830	2626.441154
605.122878	2641.564615
605.472872	2586.111923
605.822813	2598.714808
606.172701	2618.879423
606.522534	2628.961731
606.872314	2691.976154
607.222041	2634.002885
607.571714	2674.332115
607.921333	2669.290962
608.270899	2664.249808
608.620411	2636.523462
608.969870	2616.358846
609.319276	2712.140769
609.668627	2654.167500
610.017926	2636.523462
610.367171	2618.879423
610.716362	2618.879423
611.065500	2702.058462
611.414585	2535.700385
611.763616	2674.332115
612.112594	2563.426731
612.461518	2714.661346
612.810389	2621.400000
613.159207	2558.385577
613.507971	2586.111923
613.856682	2681.893846
614.205340	2535.700385
614.553945	2581.070769
614.902496	2664.249808
615.250994	2603.755962
615.599439	2611.317692
615.947830	2679.373269
616.296169	2641.564615
616.644454	2656.688077
616.992686	2697.017308
617.340864	2742.387692
617.688990	2618.879423
618.037063	2702.058462
618.385082	2654.167500
618.733048	2634.002885
619.080961	2586.111923
619.428821	2623.920577
619.776628	2626.441154
620.124382	2631.482308
620.472083	2576.029615
620.819731	2634.002885
621.167326	2621.400000
621.514868	2618.879423
621.862357	2596.194231
622.209793	2583.591346
622.557176	2576.029615
622.904506	2490.330000
623.251783	2618.879423
623.599007	2583.591346
623.946179	2697.017308
624.293297	2664.249808
624.640363	2586.111923
624.987376	2639.044038
625.334336	2636.523462
625.681243	2644.085192
626.028097	2616.358846
626.374899	2664.249808
626.721647	2573.509038
627.068343	2639.044038
627.414987	2712.140769
627.761577	2623.920577
628.108115	2591.153077
628.454600	2661.729231
628.801032	2659.208654
629.147412	2576.029615
629.493739	2560.906154
629.840014	2616.358846
630.186236	2586.111923
630.532405	2543.262115
630.878521	2634.002885
631.224585	2681.893846
631.570597	2634.002885
631.916556	2603.755962
632.262462	2601.235385
632.608316	2666.770385
632.954117	2591.153077
633.299866	2681.893846
633.645562	2636.523462
633.991206	2671.811538
634.336797	2608.797115
634.682336	2555.865000
635.027823	2616.358846
635.373257	2588.632500
635.718639	2691.976154
636.063968	2578.550192
636.409245	2513.015192
636.754470	2634.002885
637.099642	2618.879423
637.444762	2616.358846
637.789829	2598.714808
638.134845	2545.782692
638.479808	2621.400000
638.824719	2603.755962
639.169577	2659.208654
639.514383	2639.044038
639.859137	2598.714808
640.203839	2651.646923
640.548489	2616.358846
640.893086	2608.797115
641.237632	2507.974038
641.582125	2548.303269
641.926566	2581.070769
642.270955	2608.797115
642.615292	2573.509038
642.959576	2628.961731
643.303809	2623.920577
643.647990	2586.111923
643.992118	2694.496731
644.336195	2656.688077
644.680219	2598.714808
645.024192	2570.988462
645.368112	2724.743654
645.711981	2626.441154
646.055797	2634.002885
646.399562	2603.755962
646.743274	2656.688077
647.086935	2641.564615
647.430544	2623.920577
647.774101	2651.646923
648.117606	2596.194231
648.461059	2588.632500
648.804460	2621.400000
649.147810	2656.688077
649.491108	2661.729231
649.834354	2628.961731
650.177548	2613.838269
650.520690	2591.153077
650.863781	2664.249808
651.206820	2651.646923
651.549807	2634.002885
651.892742	2621.400000
652.235626	2636.523462
652.578458	2586.111923
652.921238	2530.659231
653.263967	2646.605769
653.606644	2565.947308
653.949269	2669.290962
654.291843	2568.467885
654.634365	2616.358846
654.976836	2639.044038
655.319255	2634.002885
655.661622	2704.579038
656.003938	2613.838269
656.346203	2618.879423
656.688416	2618.879423
657.030577	2591.153077
657.372687	2581.070769
657.714746	2631.482308
658.056753	2568.467885
658.398708	2654.167500
658.740612	2565.947308
659.082465	2545.782692
659.424266	2606.276538
659.766016	2593.673654
660.107715	2651.646923
660.449362	2639.044038
660.790958	2568.467885
661.132503	2618.879423
661.473996	2611.317692
661.815438	2565.947308
662.156829	2659.208654
662.498168	2679.373269
662.839456	2613.838269
663.180693	2621.400000
663.521879	2623.920577
663.863013	2674.332115
664.204097	2623.920577
664.545129	2666.770385
664.886110	2691.976154
665.227040	2621.400000
665.567918	2691.976154
665.908746	2656.688077
666.249522	2553.344423
666.590248	2596.194231
666.930922	2621.400000
667.271545	2671.811538
667.612118	2664.249808
667.952639	2545.782692
668.293109	2674.332115
668.633528	2550.823846
668.973896	2601.235385
669.314213	2646.605769
669.654480	2608.797115
669.994695	2681.893846
670.334859	2691.976154
670.674973	2732.305385
671.015035	2593.673654
671.355047	2608.797115
671.695008	2626.441154
672.034918	2671.811538
672.374777	2717.181923
672.714585	2545.782692
673.054342	2654.167500
673.394049	2664.249808
673.733705	2576.029615
674.073310	2573.509038
674.412864	2623.920577
674.752368	2697.017308
675.091820	2611.317692
675.431223	2664.249808
675.770574	2676.852692
676.109875	2616.358846
676.449125	2613.838269
676.788324	2621.400000
677.127473	2611.317692
677.466571	2628.961731
677.805619	2613.838269
678.144616	2611.317692
678.483562	2545.782692
678.822458	2591.153077
679.161303	2593.673654
679.500098	2666.770385
679.838842	2576.029615
680.177535	2588.632500
680.516179	2565.947308
680.854771	2621.400000
681.193314	2598.714808
681.531805	2649.126346
681.870247	2618.879423
682.208638	2649.126346
682.546978	2475.206538
682.885268	2649.126346
683.223508	2628.961731
683.561697	2654.167500
683.899836	2608.797115
684.237925	2613.838269
684.575963	2634.002885
684.913951	2623.920577
685.251889	2656.688077
685.589776	2628.961731
685.927614	2676.852692
686.265401	2636.523462
686.603137	2626.441154
686.940824	2719.702500
687.278460	2674.332115
687.616046	2664.249808
687.953582	2588.632500
688.291068	2623.920577
688.628504	2598.714808
688.965889	2636.523462
689.303224	2651.646923
689.640510	2659.208654
689.977745	2676.852692
690.314930	2669.290962
690.652065	2709.620192
690.989150	2591.153077
691.326185	2669.290962
691.663170	2553.344423
692.000105	2558.385577
692.336990	2593.673654
692.673825	2752.470000
693.010610	2634.002885
693.347345	2691.976154
693.684030	2568.467885
694.020665	2616.358846
694.357251	2545.782692
694.693786	2601.235385
695.030272	2581.070769
695.366707	2618.879423
695.703093	2538.220962
696.039429	2513.015192
696.375716	2606.276538
696.711952	2646.605769
697.048139	2659.208654
697.384276	2588.632500
697.720363	2681.893846
698.056400	2618.879423
698.392388	2654.167500
698.728326	2608.797115
699.064214	2623.920577
699.400053	2621.400000
699.735842	2654.167500
700.071581	2606.276538
700.407270	2603.755962
700.742910	2576.029615
701.078501	2631.482308
701.414042	2581.070769
701.749533	2593.673654
702.084974	2661.729231
702.420366	2593.673654
702.755709	2676.852692
703.091002	2591.153077
703.426246	2646.605769
703.761440	2636.523462
704.096584	2616.358846
704.431679	2553.344423
704.766725	2636.523462
705.101721	2644.085192
705.436668	2578.550192
705.771565	2553.344423
706.106413	2510.494615
706.441212	2603.755962
706.775961	2707.099615
707.110661	2664.249808
707.445311	2621.400000
707.779913	2586.111923
708.114465	2611.317692
708.448967	2654.167500
708.783421	2565.947308
709.117825	2621.400000
709.452180	2639.044038
709.786485	2606.276538
710.120742	2611.317692
710.454949	2649.126346
710.789107	2621.400000
711.123216	2669.290962
711.457275	2684.414423
711.791286	2651.646923
712.125247	2699.537885
712.459159	2530.659231
712.793023	2533.179808
713.126837	2681.893846
713.460602	2616.358846
713.794318	2654.167500
714.127985	2671.811538
714.461602	2576.029615
714.795171	2646.605769
715.128691	2618.879423
715.462162	2606.276538
715.795584	2576.029615
716.128957	2568.467885
716.462281	2618.879423
716.795556	2583.591346
717.128782	2639.044038
717.461960	2679.373269
717.795088	2588.632500
718.128167	2623.920577
718.461198	2570.988462
718.794180	2553.344423
719.127113	2669.290962
719.459997	2628.961731
719.792833	2717.181923
720.125619	2565.947308
720.458357	2581.070769
720.791046	2654.167500
721.123686	2618.879423
721.456278	2649.126346
721.788821	2659.208654
722.121315	2621.400000
722.453761	2631.482308
722.786158	2659.208654
723.118506	2628.961731
723.450805	2568.467885
723.783056	2686.935000
724.115259	2591.153077
724.447412	2588.632500
724.779518	2618.879423
725.111574	2634.002885
725.443582	2664.249808
725.775542	2631.482308
726.107453	2513.015192
726.439315	2674.332115
726.771129	2611.317692
727.102895	2550.823846
727.434612	2565.947308
727.766281	2601.235385
728.097901	2601.235385
728.429473	2616.358846
728.760996	2651.646923
729.092471	2644.085192
729.423897	2611.317692
729.755276	2671.811538
730.086606	2628.961731
730.417887	2631.482308
730.749120	2732.305385
731.080305	2606.276538
731.411442	2661.729231
731.742530	2628.961731
732.073570	2586.111923
732.404562	2616.358846
732.735506	2674.332115
733.066401	2631.482308
733.397249	2628.961731
733.728048	2608.797115
734.058798	2598.714808
734.389501	2565.947308
734.720156	2621.400000
735.050762	2588.632500
735.381320	2659.208654
735.711831	2669.290962
736.042293	2608.797115
736.372707	2616.358846
736.703073	2654.167500
737.033391	2608.797115
737.363661	2654.167500
737.693883	2639.044038
738.024056	2538.220962
738.354182	2666.770385
738.684260	2659.208654
739.014290	2581.070769
739.344272	2588.632500
739.674207	2623.920577
740.004093	2654.167500
740.333931	2583.591346
740.663722	2616.358846
740.993464	2623.920577
741.323159	2651.646923
741.652806	2606.276538
741.982405	2621.400000
742.311956	2628.961731
742.641460	2606.276538
742.970915	2611.317692
743.300323	2659.208654
743.629683	2606.276538
743.958996	2634.002885
744.288260	2639.044038
744.617477	2631.482308
744.946647	2482.768269
745.275768	2639.044038
745.604842	2661.729231
745.933869	2639.044038
746.262847	2621.400000
746.591778	2616.358846
746.920662	2573.509038
747.249498	2596.194231
747.578286	2654.167500
747.907027	2631.482308
748.235720	2618.879423
748.564365	2586.111923
748.892963	2628.961731
749.221514	2616.358846
749.550017	2570.988462
749.878473	2689.455577
750.206881	2639.044038
750.535242	2659.208654
750.863555	2618.879423
751.191821	2596.194231
751.520039	2659.208654
751.848210	2593.673654
752.176334	2669.290962
752.504411	2568.467885
752.832440	2598.714808
753.160421	2593.673654
753.488356	2621.400000
753.816243	2573.509038
754.144082	2674.332115
754.471875	2533.179808
754.799620	2530.659231
755.127318	2636.523462
755.454969	2596.194231
755.782572	2550.823846
756.110129	2631.482308
756.437638	2626.441154
756.765100	2704.579038
757.092515	2669.290962
757.419882	2666.770385
757.747203	2621.400000
758.074477	2649.126346
758.401703	2646.605769
758.728882	2598.714808
759.056014	2613.838269
759.383099	2676.852692
759.710138	2608.797115
760.037129	2634.002885
760.364073	2533.179808
760.690970	2540.741538
761.017820	2593.673654
761.344623	2639.044038
761.671379	2576.029615
761.998088	2576.029615
762.324751	2601.235385
762.651366	2631.482308
762.977935	2618.879423
763.304456	2623.920577
763.630931	2639.044038
763.957359	2707.099615
764.283740	2712.140769
764.610074	2608.797115
764.936362	2596.194231
765.262602	2628.961731
765.588796	2618.879423
765.914943	2681.893846
766.241044	2553.344423
766.567097	2608.797115
766.893104	2639.044038
767.219064	2689.455577
767.544978	2611.317692
767.870845	2641.564615
768.196665	2618.879423
768.522438	2613.838269
768.848165	2593.673654
769.173846	2601.235385
769.499479	2560.906154
769.825066	2593.673654
770.150607	2606.276538
770.476101	2656.688077
770.801548	2540.741538
771.126949	2656.688077
771.452303	2576.029615
771.777611	2618.879423
772.102872	2628.961731
772.428087	2570.988462
772.753256	2618.879423
773.078378	2684.414423
773.403453	2573.509038
773.728482	2578.550192
774.053465	2601.235385
774.378401	2553.344423
774.703291	2661.729231
775.028135	2611.317692
775.352932	2528.138654
775.677683	2606.276538
776.002388	2565.947308
776.327046	2570.988462
776.651658	2555.865000
776.976224	2608.797115
777.300743	2543.262115
777.625216	2593.673654
777.949643	2545.782692
778.274024	2679.373269
778.598359	2649.126346
778.922647	2570.988462
779.246889	2596.194231
779.571086	2623.920577
779.895236	2639.044038
780.219339	2593.673654
780.543397	2565.947308
780.867409	2608.797115
781.191374	2596.194231
781.515294	2608.797115
781.839167	2641.564615
782.162995	2639.044038
782.486776	2694.496731
782.810511	2623.920577
783.134201	2674.332115
783.457844	2611.317692
783.781441	2578.550192
784.104993	2666.770385
784.428498	2525.618077
784.751958	2631.482308
785.075372	2485.288846
785.398739	2593.673654
785.722061	2583.591346
786.045337	2623.920577
786.368568	2636.523462
786.691752	2654.167500
787.014891	2631.482308
787.337983	2520.576923
787.661030	2621.400000
787.984031	2669.290962
788.306987	2591.153077
788.629897	2606.276538
788.952760	2611.317692
789.275579	2535.700385
789.598351	2634.002885
789.921078	2555.865000
790.243759	2603.755962
790.566395	2606.276538
790.888984	2674.332115
791.211529	2581.070769
791.534027	2593.673654
791.856480	2621.400000
792.178888	2608.797115
792.501249	2581.070769
792.823566	2666.770385
793.145836	2621.400000
793.468062	2550.823846
793.790241	2628.961731
794.112375	2586.111923
794.434464	2593.673654
794.756507	2606.276538
795.078505	2601.235385
795.400457	2588.632500
795.722364	2583.591346
796.044226	2631.482308
796.366042	2603.755962
796.687812	2671.811538
797.009538	2523.097500
797.331218	2550.823846
797.652852	2591.153077
797.974442	2611.317692
798.295986	2656.688077
798.617484	2621.400000
798.938938	2576.029615
799.260346	2631.482308
799.581709	2586.111923
799.903026	2674.332115
800.224299	2581.070769
800.545526	2639.044038
800.866708	2616.358846
801.187845	2664.249808
801.508936	2646.605769
801.829983	2616.358846
802.150984	2573.509038
802.471940	2583.591346
802.792851	2631.482308
803.113717	2568.467885
803.434538	2613.838269
803.755314	2636.523462
804.076045	2616.358846
804.396731	2576.029615
804.717372	2608.797115
805.037967	2636.523462
805.358518	2533.179808
805.679024	2568.467885
805.999485	2634.002885
806.319901	2502.932885
806.640272	2654.167500
806.960598	2631.482308
807.280879	2649.126346
807.601115	2606.276538
807.921306	2560.906154
808.241453	2606.276538
808.561554	2616.358846
808.881611	2558.385577
809.201623	2618.879423
809.521590	2601.235385
809.841513	2573.509038
810.161390	2593.673654
810.481223	2639.044038
810.801011	2623.920577
811.120755	2596.194231
811.440453	2601.235385
811.760107	2606.276538
812.079716	2659.208654
812.399281	2661.729231
812.718801	2578.550192
813.038276	2540.741538
813.357707	2598.714808
813.677093	2664.249808
813.996434	2596.194231
814.315731	2644.085192
814.634983	2581.070769
814.954191	2588.632500
815.273354	2576.029615
815.592473	2548.303269
815.911547	2631.482308
816.230577	2616.358846
816.549562	2462.603654
816.868502	2553.344423
817.187399	2613.838269
817.506250	2631.482308
817.825058	2639.044038
818.143821	2661.729231
818.462539	2570.988462
818.781213	2631.482308
819.099843	2535.700385
819.418429	2608.797115
819.736970	2586.111923
820.055466	2651.646923
820.373919	2651.646923
820.692327	2654.167500
821.010691	2664.249808
821.329011	2644.085192
821.647286	2576.029615
821.965517	2636.523462
822.283704	2742.387692
822.601847	2742.387692
822.919945	2732.305385
823.237999	2699.537885
823.556010	2593.673654
823.873976	2626.441154
824.191897	2601.235385
824.509775	2636.523462
824.827609	2593.673654
825.145398	2616.358846
825.463144	2588.632500
825.780845	2581.070769
826.098502	2603.755962
826.416116	2691.976154
826.733685	2644.085192
827.051210	2664.249808
827.368692	2722.223077
827.686129	2651.646923
828.003522	2737.346538
828.320872	2707.099615
828.638177	2560.906154
828.955439	2611.317692
829.272656	2565.947308
829.589830	2623.920577
829.906960	2563.426731
830.224046	2641.564615
830.541088	2626.441154
830.858086	2613.838269
831.175041	2631.482308
831.491952	2581.070769
831.808819	2581.070769
832.125642	2593.673654
832.442421	2586.111923
832.759157	2676.852692
833.075849	2581.070769
833.392497	2611.317692
833.709101	2596.194231
834.025662	2649.126346
834.342179	2618.879423
834.658653	2666.770385
834.975083	2570.988462
835.291469	2603.755962
835.607811	2669.290962
835.924110	2603.755962
836.240366	2558.385577
836.556578	2656.688077
836.872746	2636.523462
837.188871	2634.002885
837.504952	2601.235385
837.820990	2528.138654
838.136984	2558.385577
838.452935	2623.920577
838.768842	2666.770385
839.084706	2555.865000
839.400526	2613.838269
839.716303	2553.344423
840.032037	2676.852692
840.347727	2593.673654
840.663373	2588.632500
840.978977	2621.400000
841.294537	2671.811538
841.610054	2669.290962
841.925527	2550.823846
842.240957	2563.426731
842.556344	2565.947308
842.871687	2565.947308
843.186987	2563.426731
843.502244	2626.441154
843.817458	2631.482308
844.132629	2533.179808
844.447756	2593.673654
844.762840	2606.276538
845.077881	2623.920577
845.392879	2626.441154
845.707833	2535.700385
846.022745	2636.523462
846.337613	2669.290962
846.652438	2621.400000
846.967221	2568.467885
847.281960	2588.632500
847.596656	2634.002885
847.911309	2583.591346
848.225919	2626.441154
848.540485	2608.797115
848.855009	2548.303269
849.169490	2576.029615
849.483928	2626.441154
849.798323	2684.414423
850.112675	2477.727115
850.426984	2578.550192
850.741251	2573.509038
851.055474	2568.467885
851.369654	2651.646923
851.683792	2613.838269
851.997887	2639.044038
852.311938	2641.564615
852.625947	2659.208654
852.939914	2621.400000
853.253837	2565.947308
853.567718	2634.002885
853.881555	2586.111923
854.195350	2598.714808
854.509103	2616.358846
854.822812	2644.085192
855.136479	2586.111923
855.450103	2623.920577
855.763685	2634.002885
856.077224	2608.797115
856.390720	2596.194231
856.704173	2573.509038
857.017584	2606.276538
857.330953	2596.194231
857.644278	2578.550192
857.957561	2618.879423
858.270802	2671.811538
858.584000	2528.138654
858.897155	2538.220962
859.210268	2507.974038
859.523339	2664.249808
859.836367	2540.741538
860.149352	2603.755962
860.462295	2502.932885
860.775195	2593.673654
861.088054	2535.700385
861.400869	2601.235385
861.713642	2611.317692
862.026373	2586.111923
862.339062	2591.153077
862.651708	2618.879423
862.964312	2586.111923
863.276873	2560.906154
863.589392	2538.220962
863.901869	2616.358846
864.214303	2608.797115
864.526696	2634.002885
864.839045	2576.029615
865.151353	2513.015192
865.463619	2588.632500
865.775842	2598.714808
866.088023	2570.988462
866.400162	2593.673654
866.712258	2641.564615
867.024313	2644.085192
867.336325	2598.714808
867.648296	2535.700385
867.960224	2540.741538
868.272110	2535.700385
868.583954	2616.358846
868.895755	2558.385577
869.207515	2659.208654
869.519233	2570.988462
869.830909	2568.467885
870.142542	2578.550192
870.454134	2608.797115
870.765684	2518.056346
871.077191	2530.659231
871.388657	2674.332115
871.700081	2608.797115
872.011463	2563.426731
872.322803	2664.249808
872.634101	2656.688077
872.945357	2586.111923
873.256571	2613.838269
873.567744	2581.070769
873.878874	2626.441154
874.189963	2523.097500
874.501010	2583.591346
874.812015	2606.276538
875.122979	2586.111923
875.433900	2598.714808
875.744780	2681.893846
876.055618	2606.276538
876.366415	2623.920577
876.677169	2669.290962
876.987882	2588.632500
877.298554	2641.564615
877.609183	2578.550192
877.919771	2611.317692
878.230317	2654.167500
878.540822	2649.126346
878.851285	2616.358846
879.161707	2649.126346
879.472087	2606.276538
879.782425	2560.906154
880.092722	2709.620192
880.402977	2543.262115
880.713191	2679.373269
881.023363	2628.961731
881.333494	2666.770385
881.643583	2699.537885
881.953631	2702.058462
882.263637	2654.167500
882.573602	2523.097500
882.883526	2639.044038
883.193408	2603.755962
883.503248	2641.564615
883.813048	2676.852692
884.122806	2555.865000
884.432522	2598.714808
884.742197	2601.235385
885.051831	2636.523462
885.361424	2628.961731
885.670975	2583.591346
885.980485	2533.179808
886.289954	2686.935000
886.599382	2634.002885
886.908768	2649.126346
887.218113	2581.070769
887.527417	2570.988462
887.836680	2608.797115
888.145901	2681.893846
888.455082	2588.632500
888.764221	2570.988462
889.073319	2560.906154
889.382376	2553.344423
889.691392	2631.482308
890.000366	2618.879423
890.309300	2576.029615
890.618193	2565.947308
890.927044	2550.823846
891.235855	2611.317692
891.544625	2593.673654
891.853353	2518.056346
892.162041	2558.385577
892.470687	2606.276538
892.779293	2651.646923
893.087858	2646.605769
893.396381	2639.044038
893.704864	2654.167500
894.013306	2634.002885
894.321707	2656.688077
894.630068	2649.126346
894.938387	2639.044038
895.246665	2601.235385
895.554903	2591.153077
895.863100	2659.208654
896.171256	2583.591346
896.479371	2578.550192
896.787446	2591.153077
897.095480	2520.576923
897.403473	2684.414423
897.711425	2540.741538
898.019336	2603.755962
898.327207	2661.729231
898.635038	2611.317692
898.942827	2641.564615
899.250576	2591.153077
899.558284	2560.906154
899.865952	2686.935000
900.173579	2626.441154
900.481165	2646.605769
900.788711	2661.729231
901.096216	2636.523462
901.403681	2644.085192
901.711105	2513.015192
902.018489	2533.179808
902.325832	2611.317692
902.633135	2618.879423
902.940397	2596.194231
903.247619	2601.235385
903.554800	2601.235385
903.861941	2606.276538
904.169041	2654.167500
904.476101	2558.385577
904.783121	2676.852692
905.090100	2555.865000
905.397039	2598.714808
905.703938	2535.700385
906.010796	2628.961731
906.317614	2598.714808
906.624391	2613.838269
906.931129	2634.002885
907.237826	2573.509038
907.544483	2593.673654
907.851099	2608.797115
908.157675	2722.223077
908.464211	2565.947308
908.770707	2540.741538
909.077163	2616.358846
909.383578	2654.167500
909.689954	2550.823846
909.996289	2649.126346
910.302584	2570.988462
910.608839	2608.797115
910.915054	2636.523462
911.221229	2641.564615
911.527363	2639.044038
911.833458	2591.153077
912.139513	2588.632500
912.445527	2628.961731
912.751502	2525.618077
913.057436	2578.550192
913.363331	2540.741538
913.669186	2533.179808
913.975000	2654.167500
914.280775	2578.550192
914.586510	2664.249808
914.892205	2596.194231
915.197859	2651.646923
915.503475	2651.646923
915.809050	2644.085192
916.114585	2732.305385
916.420081	2659.208654
916.725536	2525.618077
917.030952	2616.358846
917.336328	2581.070769
917.641665	2565.947308
917.946961	2598.714808
918.252218	2487.809423
918.557435	2674.332115
918.862612	2550.823846
919.167750	2578.550192
919.472848	2593.673654
919.777906	2639.044038
920.082925	2611.317692
920.387904	2621.400000
920.692843	2674.332115
920.997743	2560.906154
921.302603	2598.714808
921.607423	2570.988462
921.912204	2611.317692
922.216946	2586.111923
922.521647	2651.646923
922.826310	2649.126346
923.130932	2570.988462
923.435516	2621.400000
923.740059	2553.344423
924.044564	2611.317692
924.349028	2608.797115
924.653454	2626.441154
924.957840	2621.400000
925.262186	2611.317692
925.566493	2631.482308
925.870761	2548.303269
926.174989	2608.797115
926.479178	2550.823846
926.783328	2601.235385
927.087438	2565.947308
927.391509	2583.591346
927.695541	2538.220962
927.999533	2621.400000
928.303486	2616.358846
928.607400	2558.385577
928.911275	2646.605769
929.215110	2639.044038
929.518906	2540.741538
929.822663	2553.344423
930.126381	2548.303269
930.430060	2623.920577
930.733699	2628.961731
931.037299	2591.153077
931.340861	2631.482308
931.644383	2628.961731
931.947866	2581.070769
932.251309	2573.509038
932.554714	2591.153077
932.858080	2581.070769
933.161407	2538.220962
933.464694	2530.659231
933.767943	2586.111923
934.071153	2616.358846
934.374323	2540.741538
934.677455	2593.673654
934.980548	2651.646923
935.283602	2669.290962
935.586617	2563.426731
935.889593	2596.194231
936.192530	2611.317692
936.495428	2540.741538
936.798287	2528.138654
937.101108	2586.111923
937.403890	2573.509038
937.706632	2540.741538
938.009336	2576.029615
938.312002	2669.290962
938.614628	2669.290962
938.917216	2646.605769
939.219765	2631.482308
939.522275	2618.879423
939.824747	2613.838269
940.127179	2588.632500
940.429573	2613.838269
940.731929	2596.194231
941.034246	2608.797115
941.336524	2621.400000
941.638763	2694.496731
941.940964	2560.906154
942.243126	2649.126346
942.545250	2694.496731
942.847335	2651.646923
943.149381	2636.523462
943.451389	2555.865000
943.753359	2613.838269
944.055290	2606.276538
944.357182	2520.576923
944.659036	2548.303269
944.960851	2623.920577
945.262628	2611.317692
945.564367	2558.385577
945.866067	2661.729231
946.167729	2598.714808
946.469352	2601.235385
946.770937	2581.070769
947.072484	2603.755962
947.373992	2631.482308
947.675462	2608.797115
947.976893	2606.276538
948.278286	2611.317692
948.579641	2601.235385
948.880958	2570.988462
949.182236	2568.467885
949.483476	2659.208654
949.784678	2555.865000
950.085841	2601.235385
950.386967	2586.111923
950.688054	2578.550192
950.989103	2613.838269
951.290114	2623.920577
951.591087	2601.235385
951.892021	2628.961731
952.192917	2578.550192
952.493776	2606.276538
952.794596	2570.988462
953.095378	2611.317692
953.396122	2558.385577
953.696828	2644.085192
953.997496	2689.455577
954.298126	2540.741538
954.598718	2611.317692
954.899272	2618.879423
955.199788	2530.659231
955.500266	2573.509038
955.800706	2581.070769
956.101108	2681.893846
956.401472	2563.426731
956.701798	2591.153077
957.002087	2596.194231
957.302337	2666.770385
957.602550	2636.523462
957.902724	2651.646923
958.202861	2550.823846
958.502960	2593.673654
958.803022	2573.509038
959.103045	2593.673654
959.403031	2671.811538
959.702979	2581.070769
960.002889	2586.111923
960.302762	2606.276538
960.602596	2550.823846
960.902393	2581.070769
961.202153	2535.700385
961.501875	2558.385577
961.801559	2598.714808
962.101205	2646.605769
962.400814	2611.317692
962.700385	2628.961731
962.999918	2608.797115
963.299414	2628.961731
963.598873	2623.920577
963.898293	2530.659231
964.197677	2563.426731
964.497022	2704.579038
964.796331	2603.755962
965.095601	2520.576923
965.394835	2525.618077
965.694030	2646.605769
965.993189	2596.194231
966.292309	2576.029615
966.591393	2591.153077
966.890439	2583.591346
967.189447	2608.797115
967.488419	2603.755962
967.787353	2578.550192
968.086249	2641.564615
968.385108	2520.576923
968.683930	2628.961731
968.982714	2641.564615
969.281462	2669.290962
969.580172	2545.782692
969.878844	2570.988462
970.177480	2472.685962
970.476078	2611.317692
970.774639	2513.015192
971.073162	2528.138654
971.371649	2656.688077
971.670098	2535.700385
971.968510	2581.070769
972.266885	2591.153077
972.565223	2573.509038
972.863524	2598.714808
973.161788	2513.015192
973.460014	2581.070769
973.758204	2646.605769
974.056356	2596.194231
974.354471	2613.838269
974.652550	2631.482308
974.950591	2616.358846
975.248595	2618.879423
975.546563	2558.385577
975.844493	2570.988462
976.142386	2576.029615
976.440243	2588.632500
976.738062	2603.755962
977.035845	2563.426731
977.333590	2545.782692
977.631299	2502.932885
977.928971	2623.920577
978.226606	2601.235385
978.524204	2570.988462
978.821765	2573.509038
979.119290	2570.988462
979.416777	2611.317692
979.714228	2616.358846
980.011642	2606.276538
980.309020	2525.618077
980.606360	2611.317692
980.903664	2606.276538
981.200931	2523.097500
981.498162	2548.303269
981.795356	2623.920577
982.092513	2520.576923
982.389633	2533.179808
982.686717	2586.111923
982.983764	2528.138654
983.280775	2606.276538
983.577749	2581.070769
983.874686	2515.535769
984.171587	2608.797115
984.468451	2568.467885
984.765279	2563.426731
985.062070	2545.782692
985.358824	2639.044038
985.655543	2598.714808
985.952224	2588.632500
986.248869	2611.317692
986.545478	2533.179808
986.842050	2583.591346
987.138586	2623.920577
987.435086	2558.385577
987.731549	2560.906154
988.027975	2651.646923
988.324366	2671.811538
988.620719	2586.111923
988.917037	2664.249808
989.213318	2470.165385
989.509563	2581.070769
989.805772	2591.153077
990.101944	2513.015192
990.398080	2656.688077
990.694180	2606.276538
990.990244	2581.070769
991.286271	2570.988462
991.582262	2646.605769
991.878217	2588.632500
992.174136	2543.262115
992.470019	2565.947308
992.765865	2560.906154
993.061676	2593.673654
993.357450	2603.755962
993.653188	2636.523462
993.948890	2593.673654
994.244556	2626.441154
994.540186	2666.770385
994.835780	2591.153077
995.131337	2563.426731
995.426859	2586.111923
995.722345	2608.797115
996.017795	2603.755962
996.313208	2616.358846
996.608586	2555.865000
996.903928	2543.262115
997.199234	2613.838269
997.494504	2606.276538
997.789738	2654.167500
998.084936	2598.714808
998.380099	2601.235385
998.675225	2565.947308
998.970316	2608.797115
999.265371	2591.153077
999.560390	2608.797115
999.855373	2601.235385
1000.150320	2583.591346
1000.445232	2649.126346
1000.740108	2581.070769
1001.034948	2588.632500
1001.329752	2576.029615
1001.624521	2631.482308
1001.919254	2649.126346
1002.213951	2601.235385
1002.508613	2639.044038
1002.803239	2568.467885
1003.097829	2505.453462
1003.392384	2618.879423
1003.686903	2621.400000
1003.981386	2578.550192
1004.275834	2608.797115
1004.570246	2573.509038
1004.864623	2623.920577
1005.158964	2591.153077
1005.453270	2679.373269
1005.747540	2578.550192
1006.041775	2626.441154
1006.335974	2560.906154
1006.630138	2535.700385
1006.924266	2477.727115
1007.218359	2568.467885
1007.512416	2583.591346
1007.806438	2646.605769
1008.100425	2568.467885
1008.394376	2608.797115
1008.688292	2543.262115
1008.982172	2641.564615
1009.276017	2649.126346
1009.569827	2634.002885
1009.863602	2588.632500
1010.157341	2560.906154
1010.451045	2565.947308
1010.744714	2578.550192
1011.038347	2636.523462
1011.331945	2623.920577
1011.625508	2641.564615
1011.919036	2492.850577
1012.212528	2674.332115
1012.505986	2593.673654
1012.799408	2591.153077
1013.092795	2606.276538
1013.386147	2596.194231
1013.679464	2661.729231
1013.972745	2560.906154
1014.265992	2596.194231
1014.559204	2598.714808
1014.852380	2613.838269
1015.145521	2661.729231
1015.438628	2651.646923
1015.731699	2497.891731
1016.024736	2669.290962
1016.317737	2560.906154
1016.610703	2641.564615
1016.903635	2601.235385
1017.196531	2568.467885
1017.489393	2573.509038
1017.782219	2611.317692
1018.075011	2611.317692
1018.367768	2550.823846
1018.660490	2608.797115
1018.953177	2608.797115
1019.245829	2608.797115
