Dividing Wavelength (nm)	Counts (n)	Blue Motor Position (mm): 0.000000	Red Motor Position (mm): 9.100000	
326.493990	2051.749615
326.888308	2051.749615
327.282561	2051.749615
327.676750	2074.434808
328.070874	2109.722885
328.464933	2049.229038
328.858929	2059.311346
329.252859	2034.105577
329.646726	2104.681731
330.040528	2107.202308
330.434265	2056.790769
330.827938	2041.667308
331.221547	2195.422500
331.615091	2129.887500
332.008571	2197.943077
332.401986	2248.354615
332.795338	2220.628269
333.188625	2276.080962
333.581847	2263.478077
333.975006	2228.190000
334.368100	2288.683846
334.761129	2293.725000
335.154095	2361.780577
335.546996	2376.904038
335.939833	2313.889615
336.332606	2374.383462
336.725315	2452.521346
337.117960	2460.083077
337.510540	2381.945192
337.903056	2412.192115
338.295508	2442.439038
338.687896	2424.795000
339.080220	2419.753846
339.472480	2434.877308
339.864676	2470.165385
340.256807	2444.959615
340.648875	2482.768269
341.040879	2480.247692
341.432818	2467.644808
341.824694	2429.836154
342.216506	2452.521346
342.608253	2404.630385
342.999937	2470.165385
343.391557	2427.315577
343.783113	2485.288846
344.174605	2500.412308
344.566033	2386.986346
344.957397	2419.753846
345.348697	2442.439038
345.739934	2472.685962
346.131106	2439.918462
346.522215	2497.891731
346.913260	2394.548077
347.304241	2470.165385
347.695159	2364.301154
348.086012	2510.494615
348.476802	2381.945192
348.867528	2513.015192
349.258191	2450.000769
349.648789	2477.727115
350.039324	2515.535769
350.429796	2444.959615
350.820203	2384.465769
351.210548	2424.795000
351.600828	2376.904038
351.991045	2422.274423
352.381198	2457.562500
352.771288	2447.480192
353.161314	2407.150962
353.551276	2462.603654
353.941175	2465.124231
354.331010	2412.192115
354.720782	2487.809423
355.110490	2452.521346
355.500135	2530.659231
355.889717	2407.150962
356.279235	2545.782692
356.668689	2371.862885
357.058080	2414.712692
357.447408	2389.506923
357.836672	2417.233269
358.225873	2462.603654
358.615010	2399.589231
359.004084	2472.685962
359.393095	2444.959615
359.782043	2477.727115
360.170927	2414.712692
360.559748	2439.918462
360.948505	2475.206538
361.337199	2497.891731
361.725830	2462.603654
362.114398	2492.850577
362.502903	2515.535769
362.891344	2432.356731
363.279722	2452.521346
363.668037	2439.918462
364.056289	2455.041923
364.444478	2518.056346
364.832603	2429.836154
365.220665	2545.782692
365.608665	2424.795000
365.996601	2462.603654
366.384474	2462.603654
366.772284	2439.918462
367.160031	2407.150962
367.547715	2462.603654
367.935336	2439.918462
368.322893	2470.165385
368.710388	2429.836154
369.097820	2412.192115
369.485189	2455.041923
369.872495	2414.712692
370.259738	2475.206538
370.646918	2480.247692
371.034035	2374.383462
371.421090	2447.480192
371.808081	2457.562500
372.195010	2502.932885
372.581875	2480.247692
372.968678	2513.015192
373.355418	2467.644808
373.742096	2467.644808
374.128710	2505.453462
374.515262	2424.795000
374.901751	2460.083077
375.288177	2482.768269
375.674540	2452.521346
376.060841	2497.891731
376.447079	2457.562500
376.833254	2520.576923
377.219367	2444.959615
377.605417	2515.535769
377.991404	2502.932885
378.377329	2432.356731
378.763191	2409.671538
379.148991	2452.521346
379.534727	2497.891731
379.920402	2434.877308
380.306013	2500.412308
380.691563	2399.589231
381.077049	2490.330000
381.462474	2412.192115
381.847835	2533.179808
382.233134	2439.918462
382.618371	2399.589231
383.003545	2414.712692
383.388657	2409.671538
383.773706	2439.918462
384.158693	2460.083077
384.543618	2389.506923
384.928480	2412.192115
385.313280	2424.795000
385.698017	2475.206538
386.082692	2515.535769
386.467305	2444.959615
386.851856	2510.494615
387.236344	2482.768269
387.620770	2487.809423
388.005133	2472.685962
388.389435	2563.426731
388.773674	2444.959615
389.157851	2500.412308
389.541965	2412.192115
389.926018	2485.288846
390.310008	2434.877308
390.693936	2477.727115
391.077802	2485.288846
391.461606	2510.494615
391.845348	2487.809423
392.229027	2447.480192
392.612645	2502.932885
392.996200	2366.821731
393.379694	2414.712692
393.763125	2412.192115
394.146494	2533.179808
394.529801	2470.165385
394.913047	2467.644808
395.296230	2462.603654
395.679351	2500.412308
396.062410	2394.548077
396.445408	2485.288846
396.828343	2397.068654
397.211217	2354.218846
397.594028	2515.535769
397.976778	2467.644808
398.359466	2477.727115
398.742092	2513.015192
399.124656	2452.521346
399.507158	2528.138654
399.889598	2442.439038
400.271977	2518.056346
400.654294	2515.535769
401.036549	2495.371154
401.418742	2447.480192
401.800874	2444.959615
402.182944	2528.138654
402.564952	2422.274423
402.946898	2462.603654
403.328783	2381.945192
403.710606	2447.480192
404.092367	2386.986346
404.474067	2455.041923
404.855705	2429.836154
405.237282	2409.671538
405.618797	2407.150962
406.000250	2507.974038
406.381642	2457.562500
406.762972	2505.453462
407.144240	2490.330000
407.525447	2442.439038
407.906593	2507.974038
408.287677	2467.644808
408.668700	2472.685962
409.049661	2606.276538
409.430560	2439.918462
409.811399	2497.891731
410.192176	2447.480192
410.572891	2394.548077
410.953545	2502.932885
411.334138	2490.330000
411.714669	2442.439038
412.095139	2472.685962
412.475547	2462.603654
412.855894	2540.741538
413.236180	2460.083077
413.616405	2470.165385
413.996568	2374.383462
414.376670	2490.330000
414.756711	2389.506923
415.136691	2515.535769
415.516609	2480.247692
415.896466	2432.356731
416.276262	2455.041923
416.655997	2439.918462
417.035670	2477.727115
417.415283	2465.124231
417.794834	2490.330000
418.174324	2452.521346
418.553753	2455.041923
418.933121	2442.439038
419.312428	2432.356731
419.691674	2490.330000
420.070859	2419.753846
420.449983	2376.904038
420.829045	2424.795000
421.208047	2475.206538
421.586988	2434.877308
421.965867	2505.453462
422.344686	2543.262115
422.723444	2417.233269
423.102141	2497.891731
423.480777	2487.809423
423.859352	2588.632500
424.237866	2495.371154
424.616319	2497.891731
424.994712	2507.974038
425.373044	2482.768269
425.751314	2528.138654
426.129524	2467.644808
426.507673	2543.262115
426.885762	2518.056346
427.263789	2434.877308
427.641756	2467.644808
428.019662	2442.439038
428.397508	2515.535769
428.775292	2553.344423
429.153016	2492.850577
429.530679	2533.179808
429.908282	2565.947308
430.285824	2487.809423
430.663305	2480.247692
431.040726	2535.700385
431.418086	2404.630385
431.795385	2472.685962
432.172624	2598.714808
432.549802	2525.618077
432.926920	2457.562500
433.303977	2467.644808
433.680974	2550.823846
434.057910	2507.974038
434.434786	2518.056346
434.811601	2538.220962
435.188355	2457.562500
435.565050	2505.453462
435.941683	2492.850577
436.318257	2523.097500
436.694770	2467.644808
437.071222	2492.850577
437.447614	2487.809423
437.823946	2439.918462
438.200218	2520.576923
438.576429	2472.685962
438.952580	2535.700385
439.328670	2507.974038
439.704700	2525.618077
440.080670	2444.959615
440.456580	2495.371154
440.832429	2507.974038
441.208218	2533.179808
441.583947	2437.397885
441.959616	2482.768269
442.335224	2507.974038
442.710773	2507.974038
443.086261	2550.823846
443.461689	2518.056346
443.837057	2515.535769
444.212365	2543.262115
444.587612	2482.768269
444.962800	2545.782692
445.337927	2528.138654
445.712995	2492.850577
446.088002	2490.330000
446.462949	2515.535769
446.837837	2513.015192
447.212664	2482.768269
447.587431	2510.494615
447.962139	2591.153077
448.336786	2558.385577
448.711374	2545.782692
449.085901	2384.465769
449.460369	2460.083077
449.834776	2545.782692
450.209124	2563.426731
450.583412	2462.603654
450.957640	2507.974038
451.331808	2565.947308
451.705917	2528.138654
452.079965	2525.618077
452.453954	2505.453462
452.827883	2482.768269
453.201752	2528.138654
453.575562	2492.850577
453.949311	2538.220962
454.323001	2482.768269
454.696632	2455.041923
455.070202	2487.809423
455.443713	2465.124231
455.817164	2432.356731
456.190556	2475.206538
456.563888	2412.192115
456.937160	2462.603654
457.310373	2603.755962
457.683526	2510.494615
458.056619	2427.315577
458.429653	2510.494615
458.802628	2394.548077
459.175542	2434.877308
459.548398	2581.070769
459.921194	2533.179808
460.293930	2535.700385
460.666607	2507.974038
461.039224	2553.344423
461.411782	2485.288846
461.784280	2490.330000
462.156719	2422.274423
462.529099	2462.603654
462.901419	2540.741538
463.273680	2467.644808
463.645882	2439.918462
464.018024	2520.576923
464.390106	2485.288846
464.762130	2570.988462
465.134094	2467.644808
465.505999	2550.823846
465.877845	2475.206538
466.249631	2452.521346
466.621358	2505.453462
466.993026	2563.426731
467.364634	2565.947308
467.736184	2558.385577
468.107674	2450.000769
468.479105	2477.727115
468.850477	2500.412308
469.221790	2417.233269
469.593043	2427.315577
469.964238	2389.506923
470.335373	2507.974038
470.706449	2550.823846
471.077467	2518.056346
471.448425	2543.262115
471.819324	2525.618077
472.190164	2568.467885
472.560945	2545.782692
472.931667	2507.974038
473.302330	2530.659231
473.672934	2553.344423
474.043479	2553.344423
474.413965	2492.850577
474.784393	2442.439038
475.154761	2439.918462
475.525070	2530.659231
475.895321	2475.206538
476.265513	2485.288846
476.635645	2475.206538
477.005719	2470.165385
477.375734	2520.576923
477.745691	2437.397885
478.115588	2528.138654
478.485427	2608.797115
478.855207	2470.165385
479.224928	2460.083077
479.594591	2472.685962
479.964194	2432.356731
480.333739	2437.397885
480.703226	2419.753846
481.072653	2525.618077
481.442022	2439.918462
481.811333	2540.741538
482.180584	2492.850577
482.549777	2545.782692
482.918912	2487.809423
483.287988	2515.535769
483.657005	2475.206538
484.025964	2490.330000
484.394864	2442.439038
484.763706	2583.591346
485.132489	2432.356731
485.501213	2462.603654
485.869879	2455.041923
486.238487	2429.836154
486.607036	2450.000769
486.975527	2500.412308
487.343959	2540.741538
487.712333	2482.768269
488.080648	2485.288846
488.448905	2510.494615
488.817104	2525.618077
489.185244	2490.330000
489.553326	2591.153077
489.921350	2497.891731
490.289315	2500.412308
490.657222	2533.179808
491.025070	2480.247692
491.392861	2500.412308
491.760593	2528.138654
492.128267	2581.070769
492.495883	2439.918462
492.863440	2510.494615
493.230939	2444.959615
493.598380	2528.138654
493.965763	2450.000769
494.333088	2565.947308
494.700354	2444.959615
495.067563	2492.850577
495.434713	2477.727115
495.801805	2485.288846
496.168839	2573.509038
496.535815	2507.974038
496.902733	2510.494615
497.269593	2442.439038
497.636395	2497.891731
498.003139	2495.371154
498.369825	2578.550192
498.736453	2475.206538
499.103023	2490.330000
499.469535	2518.056346
499.835989	2462.603654
500.202385	2548.303269
500.568723	2467.644808
500.935003	2429.836154
501.301226	2492.850577
501.667390	2439.918462
502.033497	2538.220962
502.399546	2487.809423
502.765537	2424.795000
503.131470	2475.206538
503.497345	2525.618077
503.863163	2548.303269
504.228923	2467.644808
504.594625	2518.056346
504.960269	2513.015192
505.325856	2447.480192
505.691385	2507.974038
506.056856	2422.274423
506.422270	2563.426731
506.787625	2465.124231
507.152924	2533.179808
507.518164	2447.480192
507.883347	2490.330000
508.248472	2530.659231
508.613540	2477.727115
508.978550	2485.288846
509.343503	2523.097500
509.708398	2399.589231
510.073236	2520.576923
510.438016	2543.262115
510.802738	2422.274423
511.167403	2475.206538
511.532010	2414.712692
511.896561	2505.453462
512.261053	2565.947308
512.625488	2414.712692
512.989866	2533.179808
513.354186	2538.220962
513.718449	2477.727115
514.082655	2477.727115
514.446803	2452.521346
514.810894	2535.700385
515.174927	2467.644808
515.538904	2472.685962
515.902822	2482.768269
516.266684	2565.947308
516.630488	2598.714808
516.994235	2422.274423
517.357925	2515.535769
517.721558	2450.000769
518.085133	2442.439038
518.448651	2487.809423
518.812112	2565.947308
519.175516	2452.521346
519.538863	2601.235385
519.902152	2470.165385
520.265385	2467.644808
520.628560	2467.644808
520.991678	2439.918462
521.354739	2535.700385
521.717743	2465.124231
522.080690	2533.179808
522.443580	2462.603654
522.806413	2565.947308
523.169189	2578.550192
523.531908	2518.056346
523.894569	2560.906154
524.257174	2444.959615
524.619722	2513.015192
524.982213	2447.480192
525.344647	2548.303269
525.707025	2480.247692
526.069345	2518.056346
526.431608	2515.535769
526.793815	2422.274423
527.155964	2457.562500
527.518057	2490.330000
527.880093	2442.439038
528.242072	2492.850577
528.603995	2520.576923
528.965860	2457.562500
529.327669	2545.782692
529.689421	2535.700385
530.051117	2485.288846
530.412755	2530.659231
530.774337	2467.644808
531.135862	2543.262115
531.497331	2523.097500
531.858743	2502.932885
532.220098	2565.947308
532.581396	2523.097500
532.942638	2520.576923
533.303824	2596.194231
533.664953	2465.124231
534.026025	2548.303269
534.387040	2455.041923
534.747999	2444.959615
535.108902	2467.644808
535.469748	2523.097500
535.830537	2477.727115
536.191270	2573.509038
536.551947	2558.385577
536.912567	2553.344423
537.273131	2530.659231
537.633638	2452.521346
537.994089	2455.041923
538.354483	2502.932885
538.714821	2535.700385
539.075103	2520.576923
539.435328	2545.782692
539.795497	2523.097500
540.155609	2480.247692
540.515665	2437.397885
540.875665	2455.041923
541.235609	2558.385577
541.595496	2480.247692
541.955328	2439.918462
542.315102	2417.233269
542.674821	2477.727115
543.034483	2558.385577
543.394090	2480.247692
543.753640	2505.453462
544.113134	2412.192115
544.472571	2472.685962
544.831953	2361.780577
545.191278	2495.371154
545.550548	2543.262115
545.909761	2419.753846
546.268918	2515.535769
546.628019	2470.165385
546.987064	2502.932885
547.346053	2510.494615
547.704986	2530.659231
548.063863	2558.385577
548.422684	2545.782692
548.781449	2480.247692
549.140158	2530.659231
549.498811	2570.988462
549.857408	2492.850577
550.215949	2497.891731
550.574434	2510.494615
550.932864	2540.741538
551.291237	2500.412308
551.649555	2495.371154
552.007817	2553.344423
552.366022	2515.535769
552.724173	2530.659231
553.082267	2500.412308
553.440305	2518.056346
553.798288	2414.712692
554.156215	2528.138654
554.514086	2455.041923
554.871902	2535.700385
555.229661	2502.932885
555.587365	2497.891731
555.945014	2452.521346
556.302606	2402.109808
556.660143	2558.385577
557.017625	2450.000769
557.375050	2533.179808
557.732421	2515.535769
558.089735	2530.659231
558.446994	2568.467885
558.804197	2475.206538
559.161345	2550.823846
559.518437	2492.850577
559.875474	2465.124231
560.232455	2442.439038
560.589381	2553.344423
560.946251	2495.371154
561.303065	2465.124231
561.659825	2523.097500
562.016528	2530.659231
562.373177	2515.535769
562.729770	2477.727115
563.086307	2583.591346
563.442789	2434.877308
563.799216	2540.741538
564.155587	2518.056346
564.511904	2548.303269
564.868164	2535.700385
565.224370	2538.220962
565.580520	2475.206538
565.936615	2467.644808
566.292654	2513.015192
566.648638	2518.056346
567.004567	2528.138654
567.360441	2593.673654
567.716260	2578.550192
568.072023	2555.865000
568.427732	2538.220962
568.783385	2528.138654
569.138982	2480.247692
569.494525	2497.891731
569.850013	2452.521346
570.205445	2548.303269
570.560823	2462.603654
570.916145	2384.465769
571.271412	2558.385577
571.626625	2530.659231
571.981782	2513.015192
572.336884	2545.782692
572.691931	2502.932885
573.046923	2497.891731
573.401860	2485.288846
573.756743	2525.618077
574.111570	2452.521346
574.466342	2485.288846
574.821059	2507.974038
575.175722	2447.480192
575.530330	2538.220962
575.884882	2515.535769
576.239380	2472.685962
576.593823	2447.480192
576.948211	2523.097500
577.302544	2497.891731
577.656823	2502.932885
578.011047	2470.165385
578.365216	2442.439038
578.719330	2570.988462
579.073389	2507.974038
579.427394	2525.618077
579.781344	2480.247692
580.135239	2555.865000
580.489080	2515.535769
580.842866	2502.932885
581.196597	2528.138654
581.550273	2480.247692
581.903895	2523.097500
582.257463	2457.562500
582.610975	2555.865000
582.964434	2533.179808
583.317837	2495.371154
583.671186	2505.453462
584.024481	2452.521346
584.377721	2528.138654
584.730906	2460.083077
585.084037	2482.768269
585.437113	2452.521346
585.790135	2495.371154
586.143103	2593.673654
586.496016	2545.782692
586.848874	2439.918462
587.201679	2540.741538
587.554428	2497.891731
587.907124	2465.124231
588.259765	2457.562500
588.612352	2455.041923
588.964884	2495.371154
589.317362	2523.097500
589.669786	2477.727115
590.022155	2528.138654
590.374470	2462.603654
590.726731	2538.220962
591.078937	2525.618077
591.431090	2457.562500
591.783188	2548.303269
592.135232	2495.371154
592.487222	2573.509038
592.839157	2518.056346
593.191038	2472.685962
593.542866	2513.015192
593.894639	2467.644808
594.246358	2470.165385
594.598022	2523.097500
594.949633	2515.535769
595.301190	2515.535769
595.652692	2502.932885
596.004141	2530.659231
596.355535	2515.535769
596.706876	2558.385577
597.058162	2502.932885
597.409395	2515.535769
597.760573	2495.371154
598.111698	2558.385577
598.462768	2447.480192
598.813785	2565.947308
599.164748	2482.768269
599.515657	2518.056346
599.866511	2467.644808
600.217312	2462.603654
600.568060	2457.562500
600.918753	2490.330000
601.269392	2497.891731
601.619978	2467.644808
601.970510	2444.959615
602.320988	2427.315577
602.671412	2495.371154
603.021783	2482.768269
603.372100	2487.809423
603.722363	2563.426731
604.072572	2497.891731
604.422728	2482.768269
604.772830	2444.959615
605.122878	2528.138654
605.472872	2545.782692
605.822813	2482.768269
606.172701	2465.124231
606.522534	2558.385577
606.872314	2412.192115
607.222041	2538.220962
607.571714	2485.288846
607.921333	2497.891731
608.270899	2548.303269
608.620411	2540.741538
608.969870	2523.097500
609.319276	2507.974038
609.668627	2432.356731
610.017926	2538.220962
610.367171	2455.041923
610.716362	2570.988462
611.065500	2538.220962
611.414585	2460.083077
611.763616	2482.768269
612.112594	2462.603654
612.461518	2530.659231
612.810389	2518.056346
613.159207	2591.153077
613.507971	2460.083077
613.856682	2545.782692
614.205340	2515.535769
614.553945	2538.220962
614.902496	2414.712692
615.250994	2495.371154
615.599439	2482.768269
615.947830	2518.056346
616.296169	2472.685962
616.644454	2543.262115
616.992686	2497.891731
617.340864	2525.618077
617.688990	2432.356731
618.037063	2485.288846
618.385082	2444.959615
618.733048	2538.220962
619.080961	2492.850577
619.428821	2555.865000
619.776628	2502.932885
620.124382	2538.220962
620.472083	2502.932885
620.819731	2505.453462
621.167326	2538.220962
621.514868	2606.276538
621.862357	2553.344423
622.209793	2490.330000
622.557176	2447.480192
622.904506	2528.138654
623.251783	2533.179808
623.599007	2475.206538
623.946179	2490.330000
624.293297	2538.220962
624.640363	2497.891731
624.987376	2500.412308
625.334336	2497.891731
625.681243	2475.206538
626.028097	2487.809423
626.374899	2442.439038
626.721647	2460.083077
627.068343	2497.891731
627.414987	2573.509038
627.761577	2422.274423
628.108115	2480.247692
628.454600	2520.576923
628.801032	2477.727115
629.147412	2500.412308
629.493739	2581.070769
629.840014	2570.988462
630.186236	2525.618077
630.532405	2533.179808
630.878521	2485.288846
631.224585	2515.535769
631.570597	2510.494615
631.916556	2462.603654
632.262462	2525.618077
632.608316	2437.397885
632.954117	2477.727115
633.299866	2545.782692
633.645562	2550.823846
633.991206	2452.521346
634.336797	2523.097500
634.682336	2417.233269
635.027823	2507.974038
635.373257	2495.371154
635.718639	2520.576923
636.063968	2515.535769
636.409245	2523.097500
636.754470	2548.303269
637.099642	2507.974038
637.444762	2520.576923
637.789829	2492.850577
638.134845	2505.453462
638.479808	2533.179808
638.824719	2507.974038
639.169577	2505.453462
639.514383	2500.412308
639.859137	2427.315577
640.203839	2510.494615
640.548489	2513.015192
640.893086	2608.797115
641.237632	2450.000769
641.582125	2492.850577
641.926566	2510.494615
642.270955	2439.918462
642.615292	2482.768269
642.959576	2409.671538
643.303809	2530.659231
643.647990	2495.371154
643.992118	2540.741538
644.336195	2480.247692
644.680219	2515.535769
645.024192	2475.206538
645.368112	2523.097500
645.711981	2414.712692
646.055797	2485.288846
646.399562	2442.439038
646.743274	2497.891731
647.086935	2485.288846
647.430544	2487.809423
647.774101	2422.274423
648.117606	2505.453462
648.461059	2477.727115
648.804460	2507.974038
649.147810	2588.632500
649.491108	2611.317692
649.834354	2457.562500
650.177548	2457.562500
650.520690	2397.068654
650.863781	2487.809423
651.206820	2460.083077
651.549807	2487.809423
651.892742	2528.138654
652.235626	2487.809423
652.578458	2452.521346
652.921238	2424.795000
653.263967	2487.809423
653.606644	2538.220962
653.949269	2477.727115
654.291843	2475.206538
654.634365	2538.220962
654.976836	2482.768269
655.319255	2432.356731
655.661622	2507.974038
656.003938	2507.974038
656.346203	2543.262115
656.688416	2565.947308
657.030577	2520.576923
657.372687	2507.974038
657.714746	2538.220962
658.056753	2470.165385
658.398708	2528.138654
658.740612	2500.412308
659.082465	2578.550192
659.424266	2477.727115
659.766016	2540.741538
660.107715	2513.015192
660.449362	2495.371154
660.790958	2477.727115
661.132503	2543.262115
661.473996	2444.959615
661.815438	2545.782692
662.156829	2528.138654
662.498168	2553.344423
662.839456	2490.330000
663.180693	2477.727115
663.521879	2543.262115
663.863013	2487.809423
664.204097	2465.124231
664.545129	2540.741538
664.886110	2502.932885
665.227040	2545.782692
665.567918	2507.974038
665.908746	2467.644808
666.249522	2510.494615
666.590248	2500.412308
666.930922	2528.138654
667.271545	2558.385577
667.612118	2543.262115
667.952639	2545.782692
668.293109	2530.659231
668.633528	2487.809423
668.973896	2447.480192
669.314213	2475.206538
669.654480	2502.932885
669.994695	2470.165385
670.334859	2523.097500
670.674973	2507.974038
671.015035	2467.644808
671.355047	2520.576923
671.695008	2465.124231
672.034918	2424.795000
672.374777	2472.685962
672.714585	2477.727115
673.054342	2581.070769
673.394049	2492.850577
673.733705	2502.932885
674.073310	2480.247692
674.412864	2528.138654
674.752368	2480.247692
675.091820	2465.124231
675.431223	2465.124231
675.770574	2490.330000
676.109875	2482.768269
676.449125	2616.358846
676.788324	2563.426731
677.127473	2533.179808
677.466571	2450.000769
677.805619	2460.083077
678.144616	2482.768269
678.483562	2500.412308
678.822458	2606.276538
679.161303	2485.288846
679.500098	2505.453462
679.838842	2596.194231
680.177535	2565.947308
680.516179	2553.344423
680.854771	2487.809423
681.193314	2492.850577
681.531805	2457.562500
681.870247	2583.591346
682.208638	2434.877308
682.546978	2472.685962
682.885268	2555.865000
683.223508	2487.809423
683.561697	2460.083077
683.899836	2487.809423
684.237925	2465.124231
684.575963	2538.220962
684.913951	2482.768269
685.251889	2586.111923
685.589776	2457.562500
685.927614	2397.068654
686.265401	2513.015192
686.603137	2560.906154
686.940824	2502.932885
687.278460	2538.220962
687.616046	2437.397885
687.953582	2490.330000
688.291068	2465.124231
688.628504	2550.823846
688.965889	2462.603654
689.303224	2513.015192
689.640510	2500.412308
689.977745	2422.274423
690.314930	2520.576923
690.652065	2475.206538
690.989150	2555.865000
691.326185	2455.041923
691.663170	2525.618077
692.000105	2480.247692
692.336990	2482.768269
692.673825	2437.397885
693.010610	2548.303269
693.347345	2402.109808
693.684030	2540.741538
694.020665	2530.659231
694.357251	2523.097500
694.693786	2502.932885
695.030272	2409.671538
695.366707	2515.535769
695.703093	2475.206538
696.039429	2510.494615
696.375716	2485.288846
696.711952	2500.412308
697.048139	2427.315577
697.384276	2538.220962
697.720363	2495.371154
698.056400	2412.192115
698.392388	2480.247692
698.728326	2533.179808
699.064214	2467.644808
699.400053	2462.603654
699.735842	2520.576923
700.071581	2495.371154
700.407270	2490.330000
700.742910	2518.056346
701.078501	2591.153077
701.414042	2520.576923
701.749533	2518.056346
702.084974	2505.453462
702.420366	2568.467885
702.755709	2530.659231
703.091002	2540.741538
703.426246	2518.056346
703.761440	2548.303269
704.096584	2422.274423
704.431679	2490.330000
704.766725	2475.206538
705.101721	2543.262115
705.436668	2492.850577
705.771565	2520.576923
706.106413	2429.836154
706.441212	2533.179808
706.775961	2444.959615
707.110661	2535.700385
707.445311	2545.782692
707.779913	2485.288846
708.114465	2439.918462
708.448967	2502.932885
708.783421	2518.056346
709.117825	2497.891731
709.452180	2462.603654
709.786485	2550.823846
710.120742	2480.247692
710.454949	2533.179808
710.789107	2487.809423
711.123216	2550.823846
711.457275	2475.206538
711.791286	2540.741538
712.125247	2545.782692
712.459159	2477.727115
712.793023	2515.535769
713.126837	2502.932885
713.460602	2535.700385
713.794318	2437.397885
714.127985	2482.768269
714.461602	2442.439038
714.795171	2520.576923
715.128691	2457.562500
715.462162	2462.603654
715.795584	2409.671538
716.128957	2455.041923
716.462281	2550.823846
716.795556	2467.644808
717.128782	2470.165385
717.461960	2540.741538
717.795088	2578.550192
718.128167	2550.823846
718.461198	2538.220962
718.794180	2550.823846
719.127113	2510.494615
719.459997	2492.850577
719.792833	2515.535769
720.125619	2523.097500
720.458357	2510.494615
720.791046	2616.358846
721.123686	2545.782692
721.456278	2518.056346
721.788821	2520.576923
722.121315	2490.330000
722.453761	2462.603654
722.786158	2528.138654
723.118506	2447.480192
723.450805	2505.453462
723.783056	2444.959615
724.115259	2520.576923
724.447412	2502.932885
724.779518	2477.727115
725.111574	2548.303269
725.443582	2457.562500
725.775542	2470.165385
726.107453	2530.659231
726.439315	2528.138654
726.771129	2523.097500
727.102895	2583.591346
727.434612	2606.276538
727.766281	2455.041923
728.097901	2447.480192
728.429473	2510.494615
728.760996	2520.576923
729.092471	2543.262115
729.423897	2472.685962
729.755276	2452.521346
730.086606	2530.659231
730.417887	2530.659231
730.749120	2560.906154
731.080305	2525.618077
731.411442	2419.753846
731.742530	2540.741538
732.073570	2535.700385
732.404562	2490.330000
732.735506	2513.015192
733.066401	2460.083077
733.397249	2520.576923
733.728048	2467.644808
734.058798	2485.288846
734.389501	2424.795000
734.720156	2465.124231
735.050762	2480.247692
735.381320	2492.850577
735.711831	2482.768269
736.042293	2563.426731
736.372707	2472.685962
736.703073	2465.124231
737.033391	2515.535769
737.363661	2596.194231
737.693883	2475.206538
738.024056	2555.865000
738.354182	2492.850577
738.684260	2386.986346
739.014290	2538.220962
739.344272	2457.562500
739.674207	2477.727115
740.004093	2465.124231
740.333931	2523.097500
740.663722	2487.809423
740.993464	2533.179808
741.323159	2442.439038
741.652806	2563.426731
741.982405	2414.712692
742.311956	2482.768269
742.641460	2520.576923
742.970915	2540.741538
743.300323	2434.877308
743.629683	2548.303269
743.958996	2520.576923
744.288260	2530.659231
744.617477	2550.823846
744.946647	2477.727115
745.275768	2518.056346
745.604842	2480.247692
745.933869	2495.371154
746.262847	2515.535769
746.591778	2462.603654
746.920662	2397.068654
747.249498	2495.371154
747.578286	2452.521346
747.907027	2507.974038
748.235720	2480.247692
748.564365	2457.562500
748.892963	2482.768269
749.221514	2429.836154
749.550017	2507.974038
749.878473	2495.371154
750.206881	2543.262115
750.535242	2409.671538
750.863555	2510.494615
751.191821	2467.644808
751.520039	2533.179808
751.848210	2490.330000
752.176334	2530.659231
752.504411	2540.741538
752.832440	2538.220962
753.160421	2475.206538
753.488356	2545.782692
753.816243	2515.535769
754.144082	2565.947308
754.471875	2507.974038
754.799620	2467.644808
755.127318	2487.809423
755.454969	2502.932885
755.782572	2402.109808
756.110129	2513.015192
756.437638	2417.233269
756.765100	2447.480192
757.092515	2510.494615
757.419882	2434.877308
757.747203	2470.165385
758.074477	2432.356731
758.401703	2492.850577
758.728882	2555.865000
759.056014	2578.550192
759.383099	2500.412308
759.710138	2495.371154
760.037129	2480.247692
760.364073	2543.262115
760.690970	2472.685962
761.017820	2455.041923
761.344623	2497.891731
761.671379	2535.700385
761.998088	2495.371154
762.324751	2475.206538
762.651366	2472.685962
762.977935	2553.344423
763.304456	2502.932885
763.630931	2513.015192
763.957359	2502.932885
764.283740	2505.453462
764.610074	2444.959615
764.936362	2550.823846
765.262602	2455.041923
765.588796	2530.659231
765.914943	2502.932885
766.241044	2472.685962
766.567097	2545.782692
766.893104	2528.138654
767.219064	2439.918462
767.544978	2424.795000
767.870845	2470.165385
768.196665	2502.932885
768.522438	2462.603654
768.848165	2419.753846
769.173846	2467.644808
769.499479	2475.206538
769.825066	2540.741538
770.150607	2450.000769
770.476101	2510.494615
770.801548	2487.809423
771.126949	2528.138654
771.452303	2450.000769
771.777611	2480.247692
772.102872	2535.700385
772.428087	2487.809423
772.753256	2472.685962
773.078378	2485.288846
773.403453	2560.906154
773.728482	2452.521346
774.053465	2513.015192
774.378401	2475.206538
774.703291	2528.138654
775.028135	2540.741538
775.352932	2505.453462
775.677683	2460.083077
776.002388	2457.562500
776.327046	2492.850577
776.651658	2450.000769
776.976224	2507.974038
777.300743	2510.494615
777.625216	2482.768269
777.949643	2560.906154
778.274024	2530.659231
778.598359	2467.644808
778.922647	2450.000769
779.246889	2475.206538
779.571086	2560.906154
779.895236	2475.206538
780.219339	2518.056346
780.543397	2490.330000
780.867409	2538.220962
781.191374	2540.741538
781.515294	2452.521346
781.839167	2543.262115
782.162995	2465.124231
782.486776	2507.974038
782.810511	2490.330000
783.134201	2570.988462
783.457844	2429.836154
783.781441	2568.467885
784.104993	2558.385577
784.428498	2495.371154
784.751958	2505.453462
785.075372	2480.247692
785.398739	2548.303269
785.722061	2472.685962
786.045337	2497.891731
786.368568	2492.850577
786.691752	2490.330000
787.014891	2513.015192
787.337983	2515.535769
787.661030	2437.397885
787.984031	2485.288846
788.306987	2480.247692
788.629897	2515.535769
788.952760	2492.850577
789.275579	2573.509038
789.598351	2482.768269
789.921078	2515.535769
790.243759	2553.344423
790.566395	2450.000769
790.888984	2540.741538
791.211529	2419.753846
791.534027	2462.603654
791.856480	2475.206538
792.178888	2470.165385
792.501249	2404.630385
792.823566	2480.247692
793.145836	2470.165385
793.468062	2502.932885
793.790241	2606.276538
794.112375	2523.097500
794.434464	2500.412308
794.756507	2510.494615
795.078505	2540.741538
795.400457	2402.109808
795.722364	2505.453462
796.044226	2450.000769
796.366042	2475.206538
796.687812	2520.576923
797.009538	2450.000769
797.331218	2497.891731
797.652852	2565.947308
797.974442	2553.344423
798.295986	2525.618077
798.617484	2525.618077
798.938938	2513.015192
799.260346	2427.315577
799.581709	2500.412308
799.903026	2462.603654
800.224299	2407.150962
800.545526	2470.165385
800.866708	2502.932885
801.187845	2565.947308
801.508936	2444.959615
801.829983	2502.932885
802.150984	2444.959615
802.471940	2444.959615
802.792851	2573.509038
803.113717	2487.809423
803.434538	2460.083077
803.755314	2513.015192
804.076045	2507.974038
804.396731	2495.371154
804.717372	2492.850577
805.037967	2475.206538
805.358518	2424.795000
805.679024	2397.068654
805.999485	2467.644808
806.319901	2505.453462
806.640272	2533.179808
806.960598	2507.974038
807.280879	2417.233269
807.601115	2507.974038
807.921306	2497.891731
808.241453	2495.371154
808.561554	2422.274423
808.881611	2568.467885
809.201623	2467.644808
809.521590	2487.809423
809.841513	2447.480192
810.161390	2444.959615
810.481223	2462.603654
810.801011	2487.809423
811.120755	2497.891731
811.440453	2543.262115
811.760107	2538.220962
812.079716	2455.041923
812.399281	2397.068654
812.718801	2492.850577
813.038276	2455.041923
813.357707	2467.644808
813.677093	2583.591346
813.996434	2487.809423
814.315731	2465.124231
814.634983	2523.097500
814.954191	2487.809423
815.273354	2505.453462
815.592473	2513.015192
815.911547	2538.220962
816.230577	2465.124231
816.549562	2412.192115
816.868502	2528.138654
817.187399	2576.029615
817.506250	2482.768269
817.825058	2538.220962
818.143821	2505.453462
818.462539	2497.891731
818.781213	2417.233269
819.099843	2485.288846
819.418429	2593.673654
819.736970	2492.850577
820.055466	2447.480192
820.373919	2497.891731
820.692327	2528.138654
821.010691	2465.124231
821.329011	2485.288846
821.647286	2518.056346
821.965517	2568.467885
822.283704	2507.974038
822.601847	2427.315577
822.919945	2548.303269
823.237999	2447.480192
823.556010	2477.727115
823.873976	2538.220962
824.191897	2497.891731
824.509775	2568.467885
824.827609	2477.727115
825.145398	2487.809423
825.463144	2513.015192
825.780845	2487.809423
826.098502	2518.056346
826.416116	2472.685962
826.733685	2492.850577
827.051210	2545.782692
827.368692	2472.685962
827.686129	2492.850577
828.003522	2505.453462
828.320872	2525.618077
828.638177	2467.644808
828.955439	2525.618077
829.272656	2404.630385
829.589830	2548.303269
829.906960	2538.220962
830.224046	2507.974038
830.541088	2497.891731
830.858086	2487.809423
831.175041	2467.644808
831.491952	2518.056346
831.808819	2578.550192
832.125642	2548.303269
832.442421	2472.685962
832.759157	2487.809423
833.075849	2437.397885
833.392497	2467.644808
833.709101	2543.262115
834.025662	2505.453462
834.342179	2507.974038
834.658653	2467.644808
834.975083	2518.056346
835.291469	2560.906154
835.607811	2553.344423
835.924110	2518.056346
836.240366	2538.220962
836.556578	2467.644808
836.872746	2485.288846
837.188871	2444.959615
837.504952	2467.644808
837.820990	2457.562500
838.136984	2507.974038
838.452935	2437.397885
838.768842	2477.727115
839.084706	2457.562500
839.400526	2543.262115
839.716303	2427.315577
840.032037	2558.385577
840.347727	2513.015192
840.663373	2533.179808
840.978977	2455.041923
841.294537	2507.974038
841.610054	2432.356731
841.925527	2424.795000
842.240957	2450.000769
842.556344	2452.521346
842.871687	2467.644808
843.186987	2591.153077
843.502244	2523.097500
843.817458	2515.535769
844.132629	2636.523462
844.447756	2477.727115
844.762840	2465.124231
845.077881	2565.947308
845.392879	2568.467885
845.707833	2497.891731
846.022745	2548.303269
846.337613	2523.097500
846.652438	2457.562500
846.967221	2497.891731
847.281960	2477.727115
847.596656	2513.015192
847.911309	2455.041923
848.225919	2502.932885
848.540485	2538.220962
848.855009	2497.891731
849.169490	2581.070769
849.483928	2467.644808
849.798323	2535.700385
850.112675	2578.550192
850.426984	2528.138654
850.741251	2414.712692
851.055474	2533.179808
851.369654	2502.932885
851.683792	2528.138654
851.997887	2558.385577
852.311938	2397.068654
852.625947	2515.535769
852.939914	2475.206538
853.253837	2513.015192
853.567718	2447.480192
853.881555	2528.138654
854.195350	2432.356731
854.509103	2593.673654
854.822812	2535.700385
855.136479	2351.698269
855.450103	2462.603654
855.763685	2434.877308
856.077224	2535.700385
856.390720	2538.220962
856.704173	2495.371154
857.017584	2470.165385
857.330953	2558.385577
857.644278	2487.809423
857.957561	2573.509038
858.270802	2563.426731
858.584000	2545.782692
858.897155	2442.439038
859.210268	2502.932885
859.523339	2555.865000
859.836367	2505.453462
860.149352	2573.509038
860.462295	2495.371154
860.775195	2404.630385
861.088054	2386.986346
861.400869	2472.685962
861.713642	2444.959615
862.026373	2497.891731
862.339062	2548.303269
862.651708	2507.974038
862.964312	2520.576923
863.276873	2412.192115
863.589392	2386.986346
863.901869	2472.685962
864.214303	2477.727115
864.526696	2444.959615
864.839045	2535.700385
865.151353	2593.673654
865.463619	2475.206538
865.775842	2447.480192
866.088023	2477.727115
866.400162	2497.891731
866.712258	2429.836154
867.024313	2568.467885
867.336325	2467.644808
867.648296	2467.644808
867.960224	2502.932885
868.272110	2500.412308
868.583954	2507.974038
868.895755	2538.220962
869.207515	2462.603654
869.519233	2545.782692
869.830909	2530.659231
870.142542	2472.685962
870.454134	2497.891731
870.765684	2475.206538
871.077191	2593.673654
871.388657	2465.124231
871.700081	2550.823846
872.011463	2482.768269
872.322803	2507.974038
872.634101	2444.959615
872.945357	2432.356731
873.256571	2485.288846
873.567744	2429.836154
873.878874	2477.727115
874.189963	2457.562500
874.501010	2530.659231
874.812015	2452.521346
875.122979	2530.659231
875.433900	2518.056346
875.744780	2472.685962
876.055618	2495.371154
876.366415	2485.288846
876.677169	2530.659231
876.987882	2477.727115
877.298554	2455.041923
877.609183	2502.932885
877.919771	2487.809423
878.230317	2525.618077
878.540822	2442.439038
878.851285	2457.562500
879.161707	2555.865000
879.472087	2472.685962
879.782425	2507.974038
880.092722	2576.029615
880.402977	2553.344423
880.713191	2513.015192
881.023363	2404.630385
881.333494	2477.727115
881.643583	2442.439038
881.953631	2530.659231
882.263637	2500.412308
882.573602	2528.138654
882.883526	2462.603654
883.193408	2586.111923
883.503248	2525.618077
883.813048	2455.041923
884.122806	2518.056346
884.432522	2475.206538
884.742197	2568.467885
885.051831	2427.315577
885.361424	2467.644808
885.670975	2447.480192
885.980485	2497.891731
886.289954	2487.809423
886.599382	2538.220962
886.908768	2467.644808
887.218113	2507.974038
887.527417	2442.439038
887.836680	2417.233269
888.145901	2462.603654
888.455082	2477.727115
888.764221	2492.850577
889.073319	2409.671538
889.382376	2523.097500
889.691392	2475.206538
890.000366	2432.356731
890.309300	2414.712692
890.618193	2460.083077
890.927044	2465.124231
891.235855	2437.397885
891.544625	2555.865000
891.853353	2457.562500
892.162041	2485.288846
892.470687	2477.727115
892.779293	2447.480192
893.087858	2588.632500
893.396381	2538.220962
893.704864	2507.974038
894.013306	2457.562500
894.321707	2492.850577
894.630068	2467.644808
894.938387	2563.426731
895.246665	2452.521346
895.554903	2462.603654
895.863100	2525.618077
896.171256	2472.685962
896.479371	2439.918462
896.787446	2545.782692
897.095480	2581.070769
897.403473	2462.603654
897.711425	2530.659231
898.019336	2394.548077
898.327207	2523.097500
898.635038	2555.865000
898.942827	2515.535769
899.250576	2525.618077
899.558284	2467.644808
899.865952	2515.535769
900.173579	2487.809423
900.481165	2518.056346
900.788711	2457.562500
901.096216	2573.509038
901.403681	2507.974038
901.711105	2492.850577
902.018489	2598.714808
902.325832	2472.685962
902.633135	2460.083077
902.940397	2457.562500
903.247619	2444.959615
903.554800	2427.315577
903.861941	2495.371154
904.169041	2475.206538
904.476101	2492.850577
904.783121	2462.603654
905.090100	2598.714808
905.397039	2442.439038
905.703938	2518.056346
906.010796	2429.836154
906.317614	2475.206538
906.624391	2477.727115
906.931129	2525.618077
907.237826	2467.644808
907.544483	2515.535769
907.851099	2442.439038
908.157675	2457.562500
908.464211	2533.179808
908.770707	2492.850577
909.077163	2452.521346
909.383578	2505.453462
909.689954	2548.303269
909.996289	2490.330000
910.302584	2450.000769
910.608839	2505.453462
910.915054	2487.809423
911.221229	2513.015192
911.527363	2520.576923
911.833458	2535.700385
912.139513	2356.739423
912.445527	2482.768269
912.751502	2510.494615
913.057436	2591.153077
913.363331	2538.220962
913.669186	2523.097500
913.975000	2545.782692
914.280775	2475.206538
914.586510	2560.906154
914.892205	2588.632500
915.197859	2450.000769
915.503475	2447.480192
915.809050	2563.426731
916.114585	2460.083077
916.420081	2523.097500
916.725536	2444.959615
917.030952	2452.521346
917.336328	2414.712692
917.641665	2530.659231
917.946961	2394.548077
918.252218	2492.850577
918.557435	2465.124231
918.862612	2513.015192
919.167750	2505.453462
919.472848	2472.685962
919.777906	2540.741538
920.082925	2482.768269
920.387904	2565.947308
920.692843	2452.521346
920.997743	2525.618077
921.302603	2434.877308
921.607423	2545.782692
921.912204	2472.685962
922.216946	2550.823846
922.521647	2502.932885
922.826310	2487.809423
923.130932	2543.262115
923.435516	2470.165385
923.740059	2495.371154
924.044564	2510.494615
924.349028	2513.015192
924.653454	2510.494615
924.957840	2591.153077
925.262186	2492.850577
925.566493	2490.330000
925.870761	2490.330000
926.174989	2500.412308
926.479178	2455.041923
926.783328	2550.823846
927.087438	2470.165385
927.391509	2535.700385
927.695541	2409.671538
927.999533	2528.138654
928.303486	2470.165385
928.607400	2560.906154
928.911275	2563.426731
929.215110	2450.000769
929.518906	2563.426731
929.822663	2535.700385
930.126381	2515.535769
930.430060	2465.124231
930.733699	2485.288846
931.037299	2505.453462
931.340861	2402.109808
931.644383	2528.138654
931.947866	2477.727115
932.251309	2457.562500
932.554714	2507.974038
932.858080	2495.371154
933.161407	2543.262115
933.464694	2518.056346
933.767943	2487.809423
934.071153	2528.138654
934.374323	2507.974038
934.677455	2429.836154
934.980548	2492.850577
935.283602	2437.397885
935.586617	2553.344423
935.889593	2558.385577
936.192530	2444.959615
936.495428	2560.906154
936.798287	2533.179808
937.101108	2520.576923
937.403890	2447.480192
937.706632	2467.644808
938.009336	2510.494615
938.312002	2565.947308
938.614628	2545.782692
938.917216	2412.192115
939.219765	2487.809423
939.522275	2525.618077
939.824747	2482.768269
940.127179	2397.068654
940.429573	2495.371154
940.731929	2543.262115
941.034246	2528.138654
941.336524	2429.836154
941.638763	2492.850577
941.940964	2578.550192
942.243126	2535.700385
942.545250	2472.685962
942.847335	2535.700385
943.149381	2485.288846
943.451389	2492.850577
943.753359	2452.521346
944.055290	2490.330000
944.357182	2502.932885
944.659036	2518.056346
944.960851	2495.371154
945.262628	2495.371154
945.564367	2475.206538
945.866067	2475.206538
946.167729	2497.891731
946.469352	2497.891731
946.770937	2477.727115
947.072484	2457.562500
947.373992	2528.138654
947.675462	2477.727115
947.976893	2472.685962
948.278286	2407.150962
948.579641	2457.562500
948.880958	2432.356731
949.182236	2447.480192
949.483476	2414.712692
949.784678	2437.397885
950.085841	2417.233269
950.386967	2399.589231
950.688054	2442.439038
950.989103	2477.727115
951.290114	2492.850577
951.591087	2513.015192
951.892021	2520.576923
952.192917	2475.206538
952.493776	2467.644808
952.794596	2475.206538
953.095378	2475.206538
953.396122	2444.959615
953.696828	2447.480192
953.997496	2356.739423
954.298126	2528.138654
954.598718	2472.685962
954.899272	2497.891731
955.199788	2518.056346
955.500266	2457.562500
955.800706	2528.138654
956.101108	2434.877308
956.401472	2422.274423
956.701798	2518.056346
957.002087	2523.097500
957.302337	2452.521346
957.602550	2507.974038
957.902724	2455.041923
958.202861	2518.056346
958.502960	2530.659231
958.803022	2500.412308
959.103045	2472.685962
959.403031	2563.426731
959.702979	2457.562500
960.002889	2465.124231
960.302762	2495.371154
960.602596	2465.124231
960.902393	2545.782692
961.202153	2513.015192
961.501875	2578.550192
961.801559	2437.397885
962.101205	2472.685962
962.400814	2467.644808
962.700385	2444.959615
962.999918	2502.932885
963.299414	2518.056346
963.598873	2470.165385
963.898293	2518.056346
964.197677	2447.480192
964.497022	2510.494615
964.796331	2472.685962
965.095601	2460.083077
965.394835	2502.932885
965.694030	2472.685962
965.993189	2515.535769
966.292309	2439.918462
966.591393	2530.659231
966.890439	2510.494615
967.189447	2525.618077
967.488419	2477.727115
967.787353	2419.753846
968.086249	2505.453462
968.385108	2565.947308
968.683930	2467.644808
968.982714	2497.891731
969.281462	2545.782692
969.580172	2518.056346
969.878844	2528.138654
970.177480	2492.850577
970.476078	2523.097500
970.774639	2477.727115
971.073162	2528.138654
971.371649	2452.521346
971.670098	2540.741538
971.968510	2434.877308
972.266885	2528.138654
972.565223	2402.109808
972.863524	2495.371154
973.161788	2495.371154
973.460014	2543.262115
973.758204	2502.932885
974.056356	2530.659231
974.354471	2538.220962
974.652550	2507.974038
974.950591	2465.124231
975.248595	2520.576923
975.546563	2444.959615
975.844493	2477.727115
976.142386	2427.315577
976.440243	2477.727115
976.738062	2510.494615
977.035845	2442.439038
977.333590	2568.467885
977.631299	2432.356731
977.928971	2467.644808
978.226606	2419.753846
978.524204	2465.124231
978.821765	2533.179808
979.119290	2505.453462
979.416777	2457.562500
979.714228	2384.465769
980.011642	2507.974038
980.309020	2500.412308
980.606360	2462.603654
980.903664	2422.274423
981.200931	2513.015192
981.498162	2422.274423
981.795356	2520.576923
982.092513	2485.288846
982.389633	2475.206538
982.686717	2550.823846
982.983764	2475.206538
983.280775	2460.083077
983.577749	2472.685962
983.874686	2457.562500
984.171587	2434.877308
984.468451	2502.932885
984.765279	2480.247692
985.062070	2500.412308
985.358824	2462.603654
985.655543	2482.768269
985.952224	2455.041923
986.248869	2540.741538
986.545478	2424.795000
986.842050	2500.412308
987.138586	2480.247692
987.435086	2502.932885
987.731549	2475.206538
988.027975	2457.562500
988.324366	2525.618077
988.620719	2560.906154
988.917037	2490.330000
989.213318	2568.467885
989.509563	2497.891731
989.805772	2533.179808
990.101944	2465.124231
990.398080	2424.795000
990.694180	2583.591346
990.990244	2497.891731
991.286271	2460.083077
991.582262	2553.344423
991.878217	2447.480192
992.174136	2414.712692
992.470019	2392.027500
992.765865	2475.206538
993.061676	2429.836154
993.357450	2502.932885
993.653188	2507.974038
993.948890	2581.070769
994.244556	2523.097500
994.540186	2460.083077
994.835780	2470.165385
995.131337	2543.262115
995.426859	2490.330000
995.722345	2525.618077
996.017795	2450.000769
996.313208	2555.865000
996.608586	2434.877308
996.903928	2475.206538
997.199234	2417.233269
997.494504	2495.371154
997.789738	2492.850577
998.084936	2487.809423
998.380099	2497.891731
998.675225	2583.591346
998.970316	2447.480192
999.265371	2525.618077
999.560390	2563.426731
999.855373	2407.150962
1000.150320	2485.288846
1000.445232	2447.480192
1000.740108	2467.644808
1001.034948	2550.823846
1001.329752	2507.974038
1001.624521	2457.562500
1001.919254	2467.644808
1002.213951	2492.850577
1002.508613	2515.535769
1002.803239	2452.521346
1003.097829	2507.974038
1003.392384	2553.344423
1003.686903	2434.877308
1003.981386	2588.632500
1004.275834	2429.836154
1004.570246	2447.480192
1004.864623	2495.371154
1005.158964	2467.644808
1005.453270	2427.315577
1005.747540	2505.453462
1006.041775	2528.138654
1006.335974	2477.727115
1006.630138	2467.644808
1006.924266	2472.685962
1007.218359	2538.220962
1007.512416	2462.603654
1007.806438	2437.397885
1008.100425	2467.644808
1008.394376	2581.070769
1008.688292	2442.439038
1008.982172	2505.453462
1009.276017	2492.850577
1009.569827	2452.521346
1009.863602	2520.576923
1010.157341	2439.918462
1010.451045	2507.974038
1010.744714	2485.288846
1011.038347	2535.700385
1011.331945	2424.795000
1011.625508	2510.494615
1011.919036	2497.891731
1012.212528	2538.220962
1012.505986	2487.809423
1012.799408	2487.809423
1013.092795	2455.041923
1013.386147	2492.850577
1013.679464	2518.056346
1013.972745	2381.945192
1014.265992	2452.521346
1014.559204	2528.138654
1014.852380	2535.700385
1015.145521	2563.426731
1015.438628	2434.877308
1015.731699	2586.111923
1016.024736	2497.891731
1016.317737	2502.932885
1016.610703	2455.041923
1016.903635	2553.344423
1017.196531	2502.932885
1017.489393	2573.509038
1017.782219	2444.959615
1018.075011	2563.426731
1018.367768	2515.535769
1018.660490	2576.029615
1018.953177	2576.029615
1019.245829	2576.029615
