Dividing Wavelength (nm)	Counts (n)	Blue Motor Position (mm): 0.000000	Red Motor Position (mm): 0.700000	
326.493990	2122.325769
326.888308	2122.325769
327.282561	2122.325769
327.676750	2031.585000
328.070874	2011.420385
328.464933	2069.393654
328.858929	2024.023269
329.252859	2056.790769
329.646726	2109.722885
330.040528	2114.764038
330.434265	2127.366923
330.827938	2089.558269
331.221547	2218.107692
331.615091	2167.696154
332.008571	2220.628269
332.401986	2162.655000
332.795338	2313.889615
333.188625	2182.819615
333.581847	2218.107692
333.975006	2263.478077
334.368100	2255.916346
334.761129	2296.245577
335.154095	2361.780577
335.546996	2339.095385
335.939833	2286.163269
336.332606	2386.986346
336.725315	2397.068654
337.117960	2434.877308
337.510540	2455.041923
337.903056	2412.192115
338.295508	2457.562500
338.687896	2497.891731
339.080220	2397.068654
339.472480	2437.397885
339.864676	2409.671538
340.256807	2518.056346
340.648875	2427.315577
341.040879	2523.097500
341.432818	2462.603654
341.824694	2490.330000
342.216506	2432.356731
342.608253	2487.809423
342.999937	2475.206538
343.391557	2480.247692
343.783113	2470.165385
344.174605	2429.836154
344.566033	2457.562500
344.957397	2472.685962
345.348697	2429.836154
345.739934	2495.371154
346.131106	2525.618077
346.522215	2482.768269
346.913260	2414.712692
347.304241	2455.041923
347.695159	2523.097500
348.086012	2457.562500
348.476802	2510.494615
348.867528	2447.480192
349.258191	2437.397885
349.648789	2515.535769
350.039324	2482.768269
350.429796	2460.083077
350.820203	2376.904038
351.210548	2513.015192
351.600828	2422.274423
351.991045	2404.630385
352.381198	2500.412308
352.771288	2402.109808
353.161314	2439.918462
353.551276	2455.041923
353.941175	2457.562500
354.331010	2475.206538
354.720782	2470.165385
355.110490	2424.795000
355.500135	2417.233269
355.889717	2417.233269
356.279235	2528.138654
356.668689	2455.041923
357.058080	2392.027500
357.447408	2442.439038
357.836672	2397.068654
358.225873	2381.945192
358.615010	2392.027500
359.004084	2379.424615
359.393095	2444.959615
359.782043	2407.150962
360.170927	2515.535769
360.559748	2414.712692
360.948505	2404.630385
361.337199	2497.891731
361.725830	2442.439038
362.114398	2442.439038
362.502903	2442.439038
362.891344	2502.932885
363.279722	2502.932885
363.668037	2505.453462
364.056289	2434.877308
364.444478	2419.753846
364.832603	2455.041923
365.220665	2455.041923
365.608665	2482.768269
365.996601	2381.945192
366.384474	2505.453462
366.772284	2497.891731
367.160031	2417.233269
367.547715	2510.494615
367.935336	2510.494615
368.322893	2432.356731
368.710388	2472.685962
369.097820	2397.068654
369.485189	2505.453462
369.872495	2414.712692
370.259738	2460.083077
370.646918	2500.412308
371.034035	2432.356731
371.421090	2437.397885
371.808081	2427.315577
372.195010	2389.506923
372.581875	2379.424615
372.968678	2525.618077
373.355418	2407.150962
373.742096	2487.809423
374.128710	2465.124231
374.515262	2500.412308
374.901751	2407.150962
375.288177	2513.015192
375.674540	2543.262115
376.060841	2502.932885
376.447079	2429.836154
376.833254	2381.945192
377.219367	2505.453462
377.605417	2419.753846
377.991404	2439.918462
378.377329	2540.741538
378.763191	2399.589231
379.148991	2412.192115
379.534727	2419.753846
379.920402	2439.918462
380.306013	2480.247692
380.691563	2455.041923
381.077049	2470.165385
381.462474	2535.700385
381.847835	2500.412308
382.233134	2510.494615
382.618371	2467.644808
383.003545	2520.576923
383.388657	2427.315577
383.773706	2500.412308
384.158693	2394.548077
384.543618	2452.521346
384.928480	2414.712692
385.313280	2528.138654
385.698017	2429.836154
386.082692	2528.138654
386.467305	2535.700385
386.851856	2422.274423
387.236344	2407.150962
387.620770	2475.206538
388.005133	2467.644808
388.389435	2497.891731
388.773674	2495.371154
389.157851	2392.027500
389.541965	2386.986346
389.926018	2472.685962
390.310008	2482.768269
390.693936	2487.809423
391.077802	2394.548077
391.461606	2507.974038
391.845348	2470.165385
392.229027	2520.576923
392.612645	2452.521346
392.996200	2432.356731
393.379694	2523.097500
393.763125	2455.041923
394.146494	2475.206538
394.529801	2485.288846
394.913047	2465.124231
395.296230	2495.371154
395.679351	2477.727115
396.062410	2427.315577
396.445408	2462.603654
396.828343	2538.220962
397.211217	2407.150962
397.594028	2543.262115
397.976778	2407.150962
398.359466	2470.165385
398.742092	2427.315577
399.124656	2457.562500
399.507158	2480.247692
399.889598	2502.932885
400.271977	2460.083077
400.654294	2492.850577
401.036549	2543.262115
401.418742	2394.548077
401.800874	2505.453462
402.182944	2530.659231
402.564952	2550.823846
402.946898	2389.506923
403.328783	2437.397885
403.710606	2457.562500
404.092367	2505.453462
404.474067	2555.865000
404.855705	2480.247692
405.237282	2457.562500
405.618797	2548.303269
406.000250	2487.809423
406.381642	2407.150962
406.762972	2460.083077
407.144240	2472.685962
407.525447	2507.974038
407.906593	2528.138654
408.287677	2371.862885
408.668700	2439.918462
409.049661	2515.535769
409.430560	2467.644808
409.811399	2422.274423
410.192176	2470.165385
410.572891	2616.358846
410.953545	2462.603654
411.334138	2502.932885
411.714669	2500.412308
412.095139	2470.165385
412.475547	2472.685962
412.855894	2535.700385
413.236180	2520.576923
413.616405	2565.947308
413.996568	2455.041923
414.376670	2460.083077
414.756711	2427.315577
415.136691	2490.330000
415.516609	2452.521346
415.896466	2386.986346
416.276262	2450.000769
416.655997	2437.397885
417.035670	2530.659231
417.415283	2485.288846
417.794834	2462.603654
418.174324	2485.288846
418.553753	2553.344423
418.933121	2475.206538
419.312428	2507.974038
419.691674	2495.371154
420.070859	2412.192115
420.449983	2505.453462
420.829045	2467.644808
421.208047	2523.097500
421.586988	2467.644808
421.965867	2490.330000
422.344686	2457.562500
422.723444	2437.397885
423.102141	2495.371154
423.480777	2452.521346
423.859352	2465.124231
424.237866	2518.056346
424.616319	2497.891731
424.994712	2452.521346
425.373044	2470.165385
425.751314	2371.862885
426.129524	2513.015192
426.507673	2492.850577
426.885762	2480.247692
427.263789	2560.906154
427.641756	2525.618077
428.019662	2530.659231
428.397508	2450.000769
428.775292	2455.041923
429.153016	2465.124231
429.530679	2548.303269
429.908282	2444.959615
430.285824	2450.000769
430.663305	2523.097500
431.040726	2558.385577
431.418086	2402.109808
431.795385	2492.850577
432.172624	2434.877308
432.549802	2535.700385
432.926920	2472.685962
433.303977	2500.412308
433.680974	2450.000769
434.057910	2553.344423
434.434786	2528.138654
434.811601	2545.782692
435.188355	2434.877308
435.565050	2475.206538
435.941683	2500.412308
436.318257	2538.220962
436.694770	2477.727115
437.071222	2487.809423
437.447614	2492.850577
437.823946	2530.659231
438.200218	2437.397885
438.576429	2432.356731
438.952580	2492.850577
439.328670	2475.206538
439.704700	2515.535769
440.080670	2558.385577
440.456580	2485.288846
440.832429	2490.330000
441.208218	2538.220962
441.583947	2533.179808
441.959616	2472.685962
442.335224	2528.138654
442.710773	2540.741538
443.086261	2492.850577
443.461689	2460.083077
443.837057	2545.782692
444.212365	2482.768269
444.587612	2465.124231
444.962800	2475.206538
445.337927	2500.412308
445.712995	2502.932885
446.088002	2480.247692
446.462949	2437.397885
446.837837	2507.974038
447.212664	2485.288846
447.587431	2535.700385
447.962139	2439.918462
448.336786	2563.426731
448.711374	2568.467885
449.085901	2381.945192
449.460369	2497.891731
449.834776	2439.918462
450.209124	2495.371154
450.583412	2558.385577
450.957640	2455.041923
451.331808	2528.138654
451.705917	2429.836154
452.079965	2513.015192
452.453954	2427.315577
452.827883	2502.932885
453.201752	2528.138654
453.575562	2495.371154
453.949311	2480.247692
454.323001	2452.521346
454.696632	2450.000769
455.070202	2442.439038
455.443713	2523.097500
455.817164	2404.630385
456.190556	2480.247692
456.563888	2500.412308
456.937160	2555.865000
457.310373	2495.371154
457.683526	2452.521346
458.056619	2530.659231
458.429653	2450.000769
458.802628	2457.562500
459.175542	2533.179808
459.548398	2455.041923
459.921194	2510.494615
460.293930	2550.823846
460.666607	2427.315577
461.039224	2515.535769
461.411782	2452.521346
461.784280	2525.618077
462.156719	2515.535769
462.529099	2482.768269
462.901419	2502.932885
463.273680	2485.288846
463.645882	2507.974038
464.018024	2482.768269
464.390106	2505.453462
464.762130	2505.453462
465.134094	2578.550192
465.505999	2543.262115
465.877845	2444.959615
466.249631	2502.932885
466.621358	2472.685962
466.993026	2533.179808
467.364634	2444.959615
467.736184	2513.015192
468.107674	2480.247692
468.479105	2424.795000
468.850477	2525.618077
469.221790	2462.603654
469.593043	2455.041923
469.964238	2465.124231
470.335373	2518.056346
470.706449	2477.727115
471.077467	2520.576923
471.448425	2558.385577
471.819324	2563.426731
472.190164	2558.385577
472.560945	2507.974038
472.931667	2525.618077
473.302330	2533.179808
473.672934	2500.412308
474.043479	2467.644808
474.413965	2553.344423
474.784393	2507.974038
475.154761	2480.247692
475.525070	2480.247692
475.895321	2427.315577
476.265513	2515.535769
476.635645	2477.727115
477.005719	2500.412308
477.375734	2444.959615
477.745691	2528.138654
478.115588	2467.644808
478.485427	2442.439038
478.855207	2465.124231
479.224928	2472.685962
479.594591	2518.056346
479.964194	2482.768269
480.333739	2530.659231
480.703226	2457.562500
481.072653	2540.741538
481.442022	2432.356731
481.811333	2530.659231
482.180584	2505.453462
482.549777	2538.220962
482.918912	2359.260000
483.287988	2520.576923
483.657005	2555.865000
484.025964	2538.220962
484.394864	2482.768269
484.763706	2550.823846
485.132489	2480.247692
485.501213	2558.385577
485.869879	2497.891731
486.238487	2480.247692
486.607036	2470.165385
486.975527	2525.618077
487.343959	2502.932885
487.712333	2482.768269
488.080648	2429.836154
488.448905	2465.124231
488.817104	2417.233269
489.185244	2475.206538
489.553326	2455.041923
489.921350	2500.412308
490.289315	2492.850577
490.657222	2563.426731
491.025070	2618.879423
491.392861	2452.521346
491.760593	2545.782692
492.128267	2419.753846
492.495883	2485.288846
492.863440	2482.768269
493.230939	2520.576923
493.598380	2392.027500
493.965763	2419.753846
494.333088	2437.397885
494.700354	2439.918462
495.067563	2505.453462
495.434713	2515.535769
495.801805	2525.618077
496.168839	2442.439038
496.535815	2460.083077
496.902733	2502.932885
497.269593	2513.015192
497.636395	2538.220962
498.003139	2450.000769
498.369825	2530.659231
498.736453	2490.330000
499.103023	2460.083077
499.469535	2518.056346
499.835989	2480.247692
500.202385	2429.836154
500.568723	2530.659231
500.935003	2560.906154
501.301226	2467.644808
501.667390	2450.000769
502.033497	2465.124231
502.399546	2460.083077
502.765537	2465.124231
503.131470	2543.262115
503.497345	2505.453462
503.863163	2533.179808
504.228923	2490.330000
504.594625	2573.509038
504.960269	2480.247692
505.325856	2467.644808
505.691385	2550.823846
506.056856	2394.548077
506.422270	2465.124231
506.787625	2520.576923
507.152924	2407.150962
507.518164	2490.330000
507.883347	2437.397885
508.248472	2467.644808
508.613540	2540.741538
508.978550	2568.467885
509.343503	2510.494615
509.708398	2538.220962
510.073236	2513.015192
510.438016	2500.412308
510.802738	2442.439038
511.167403	2550.823846
511.532010	2492.850577
511.896561	2359.260000
512.261053	2485.288846
512.625488	2530.659231
512.989866	2434.877308
513.354186	2500.412308
513.718449	2505.453462
514.082655	2472.685962
514.446803	2465.124231
514.810894	2507.974038
515.174927	2576.029615
515.538904	2513.015192
515.902822	2450.000769
516.266684	2467.644808
516.630488	2457.562500
516.994235	2518.056346
517.357925	2480.247692
517.721558	2439.918462
518.085133	2432.356731
518.448651	2507.974038
518.812112	2553.344423
519.175516	2495.371154
519.538863	2525.618077
519.902152	2525.618077
520.265385	2513.015192
520.628560	2455.041923
520.991678	2543.262115
521.354739	2422.274423
521.717743	2583.591346
522.080690	2540.741538
522.443580	2502.932885
522.806413	2515.535769
523.169189	2460.083077
523.531908	2510.494615
523.894569	2480.247692
524.257174	2545.782692
524.619722	2553.344423
524.982213	2520.576923
525.344647	2480.247692
525.707025	2520.576923
526.069345	2412.192115
526.431608	2510.494615
526.793815	2475.206538
527.155964	2510.494615
527.518057	2495.371154
527.880093	2530.659231
528.242072	2581.070769
528.603995	2457.562500
528.965860	2550.823846
529.327669	2447.480192
529.689421	2490.330000
530.051117	2475.206538
530.412755	2477.727115
530.774337	2510.494615
531.135862	2487.809423
531.497331	2444.959615
531.858743	2442.439038
532.220098	2492.850577
532.581396	2485.288846
532.942638	2578.550192
533.303824	2563.426731
533.664953	2495.371154
534.026025	2404.630385
534.387040	2487.809423
534.747999	2432.356731
535.108902	2495.371154
535.469748	2502.932885
535.830537	2523.097500
536.191270	2457.562500
536.551947	2515.535769
536.912567	2467.644808
537.273131	2439.918462
537.633638	2500.412308
537.994089	2492.850577
538.354483	2518.056346
538.714821	2457.562500
539.075103	2485.288846
539.435328	2576.029615
539.795497	2535.700385
540.155609	2422.274423
540.515665	2497.891731
540.875665	2543.262115
541.235609	2518.056346
541.595496	2558.385577
541.955328	2465.124231
542.315102	2492.850577
542.674821	2480.247692
543.034483	2397.068654
543.394090	2513.015192
543.753640	2447.480192
544.113134	2555.865000
544.472571	2450.000769
544.831953	2472.685962
545.191278	2570.988462
545.550548	2563.426731
545.909761	2573.509038
546.268918	2570.988462
546.628019	2510.494615
546.987064	2510.494615
547.346053	2535.700385
547.704986	2475.206538
548.063863	2570.988462
548.422684	2515.535769
548.781449	2550.823846
549.140158	2513.015192
549.498811	2578.550192
549.857408	2550.823846
550.215949	2523.097500
550.574434	2490.330000
550.932864	2525.618077
551.291237	2507.974038
551.649555	2439.918462
552.007817	2606.276538
552.366022	2505.453462
552.724173	2452.521346
553.082267	2472.685962
553.440305	2485.288846
553.798288	2467.644808
554.156215	2467.644808
554.514086	2485.288846
554.871902	2515.535769
555.229661	2482.768269
555.587365	2452.521346
555.945014	2558.385577
556.302606	2507.974038
556.660143	2543.262115
557.017625	2525.618077
557.375050	2565.947308
557.732421	2407.150962
558.089735	2477.727115
558.446994	2520.576923
558.804197	2452.521346
559.161345	2533.179808
559.518437	2427.315577
559.875474	2477.727115
560.232455	2455.041923
560.589381	2475.206538
560.946251	2379.424615
561.303065	2538.220962
561.659825	2553.344423
562.016528	2563.426731
562.373177	2578.550192
562.729770	2444.959615
563.086307	2472.685962
563.442789	2540.741538
563.799216	2455.041923
564.155587	2573.509038
564.511904	2477.727115
564.868164	2495.371154
565.224370	2586.111923
565.580520	2583.591346
565.936615	2505.453462
566.292654	2492.850577
566.648638	2533.179808
567.004567	2583.591346
567.360441	2570.988462
567.716260	2432.356731
568.072023	2560.906154
568.427732	2525.618077
568.783385	2490.330000
569.138982	2515.535769
569.494525	2550.823846
569.850013	2515.535769
570.205445	2497.891731
570.560823	2419.753846
570.916145	2538.220962
571.271412	2490.330000
571.626625	2518.056346
571.981782	2568.467885
572.336884	2450.000769
572.691931	2538.220962
573.046923	2520.576923
573.401860	2523.097500
573.756743	2497.891731
574.111570	2490.330000
574.466342	2407.150962
574.821059	2439.918462
575.175722	2485.288846
575.530330	2457.562500
575.884882	2505.453462
576.239380	2452.521346
576.593823	2495.371154
576.948211	2573.509038
577.302544	2523.097500
577.656823	2482.768269
578.011047	2545.782692
578.365216	2467.644808
578.719330	2505.453462
579.073389	2419.753846
579.427394	2510.494615
579.781344	2427.315577
580.135239	2558.385577
580.489080	2538.220962
580.842866	2530.659231
581.196597	2485.288846
581.550273	2437.397885
581.903895	2568.467885
582.257463	2482.768269
582.610975	2560.906154
582.964434	2442.439038
583.317837	2518.056346
583.671186	2482.768269
584.024481	2540.741538
584.377721	2434.877308
584.730906	2530.659231
585.084037	2518.056346
585.437113	2540.741538
585.790135	2601.235385
586.143103	2452.521346
586.496016	2540.741538
586.848874	2543.262115
587.201679	2490.330000
587.554428	2525.618077
587.907124	2510.494615
588.259765	2540.741538
588.612352	2530.659231
588.964884	2515.535769
589.317362	2487.809423
589.669786	2490.330000
590.022155	2480.247692
590.374470	2520.576923
590.726731	2502.932885
591.078937	2482.768269
591.431090	2465.124231
591.783188	2545.782692
592.135232	2404.630385
592.487222	2495.371154
592.839157	2550.823846
593.191038	2432.356731
593.542866	2528.138654
593.894639	2573.509038
594.246358	2518.056346
594.598022	2545.782692
594.949633	2495.371154
595.301190	2472.685962
595.652692	2555.865000
596.004141	2417.233269
596.355535	2502.932885
596.706876	2553.344423
597.058162	2470.165385
597.409395	2407.150962
597.760573	2492.850577
598.111698	2510.494615
598.462768	2444.959615
598.813785	2455.041923
599.164748	2513.015192
599.515657	2530.659231
599.866511	2560.906154
600.217312	2467.644808
600.568060	2593.673654
600.918753	2520.576923
601.269392	2545.782692
601.619978	2465.124231
601.970510	2502.932885
602.320988	2354.218846
602.671412	2530.659231
603.021783	2482.768269
603.372100	2507.974038
603.722363	2555.865000
604.072572	2538.220962
604.422728	2540.741538
604.772830	2419.753846
605.122878	2502.932885
605.472872	2467.644808
605.822813	2467.644808
606.172701	2455.041923
606.522534	2480.247692
606.872314	2444.959615
607.222041	2593.673654
607.571714	2513.015192
607.921333	2543.262115
608.270899	2444.959615
608.620411	2528.138654
608.969870	2545.782692
609.319276	2419.753846
609.668627	2565.947308
610.017926	2447.480192
610.367171	2502.932885
610.716362	2507.974038
611.065500	2565.947308
611.414585	2533.179808
611.763616	2543.262115
612.112594	2439.918462
612.461518	2482.768269
612.810389	2442.439038
613.159207	2530.659231
613.507971	2510.494615
613.856682	2560.906154
614.205340	2500.412308
614.553945	2475.206538
614.902496	2540.741538
615.250994	2485.288846
615.599439	2450.000769
615.947830	2439.918462
616.296169	2472.685962
616.644454	2450.000769
616.992686	2533.179808
617.340864	2515.535769
617.688990	2555.865000
618.037063	2565.947308
618.385082	2495.371154
618.733048	2545.782692
619.080961	2447.480192
619.428821	2533.179808
619.776628	2432.356731
620.124382	2538.220962
620.472083	2528.138654
620.819731	2518.056346
621.167326	2515.535769
621.514868	2495.371154
621.862357	2518.056346
622.209793	2482.768269
622.557176	2447.480192
622.904506	2573.509038
623.251783	2543.262115
623.599007	2477.727115
623.946179	2591.153077
624.293297	2477.727115
624.640363	2465.124231
624.987376	2540.741538
625.334336	2523.097500
625.681243	2510.494615
626.028097	2437.397885
626.374899	2487.809423
626.721647	2455.041923
627.068343	2510.494615
627.414987	2480.247692
627.761577	2548.303269
628.108115	2603.755962
628.454600	2492.850577
628.801032	2555.865000
629.147412	2505.453462
629.493739	2548.303269
629.840014	2550.823846
630.186236	2404.630385
630.532405	2482.768269
630.878521	2467.644808
631.224585	2437.397885
631.570597	2455.041923
631.916556	2613.838269
632.262462	2525.618077
632.608316	2487.809423
632.954117	2502.932885
633.299866	2533.179808
633.645562	2480.247692
633.991206	2543.262115
634.336797	2563.426731
634.682336	2450.000769
635.027823	2480.247692
635.373257	2535.700385
635.718639	2616.358846
636.063968	2515.535769
636.409245	2525.618077
636.754470	2510.494615
637.099642	2492.850577
637.444762	2462.603654
637.789829	2528.138654
638.134845	2492.850577
638.479808	2520.576923
638.824719	2505.453462
639.169577	2450.000769
639.514383	2492.850577
639.859137	2535.700385
640.203839	2424.795000
640.548489	2497.891731
640.893086	2540.741538
641.237632	2460.083077
641.582125	2497.891731
641.926566	2487.809423
642.270955	2568.467885
642.615292	2485.288846
642.959576	2480.247692
643.303809	2513.015192
643.647990	2472.685962
643.992118	2386.986346
644.336195	2472.685962
644.680219	2460.083077
645.024192	2550.823846
645.368112	2530.659231
645.711981	2457.562500
646.055797	2596.194231
646.399562	2434.877308
646.743274	2465.124231
647.086935	2434.877308
647.430544	2467.644808
647.774101	2502.932885
648.117606	2563.426731
648.461059	2513.015192
648.804460	2513.015192
649.147810	2487.809423
649.491108	2470.165385
649.834354	2520.576923
650.177548	2535.700385
650.520690	2439.918462
650.863781	2492.850577
651.206820	2480.247692
651.549807	2540.741538
651.892742	2477.727115
652.235626	2505.453462
652.578458	2439.918462
652.921238	2555.865000
653.263967	2520.576923
653.606644	2523.097500
653.949269	2482.768269
654.291843	2515.535769
654.634365	2528.138654
654.976836	2475.206538
655.319255	2399.589231
655.661622	2530.659231
656.003938	2432.356731
656.346203	2467.644808
656.688416	2573.509038
657.030577	2455.041923
657.372687	2495.371154
657.714746	2455.041923
658.056753	2477.727115
658.398708	2465.124231
658.740612	2452.521346
659.082465	2467.644808
659.424266	2533.179808
659.766016	2412.192115
660.107715	2518.056346
660.449362	2444.959615
660.790958	2523.097500
661.132503	2515.535769
661.473996	2540.741538
661.815438	2392.027500
662.156829	2563.426731
662.498168	2500.412308
662.839456	2553.344423
663.180693	2480.247692
663.521879	2621.400000
663.863013	2439.918462
664.204097	2414.712692
664.545129	2540.741538
664.886110	2505.453462
665.227040	2500.412308
665.567918	2576.029615
665.908746	2467.644808
666.249522	2439.918462
666.590248	2497.891731
666.930922	2540.741538
667.271545	2538.220962
667.612118	2528.138654
667.952639	2460.083077
668.293109	2578.550192
668.633528	2475.206538
668.973896	2502.932885
669.314213	2507.974038
669.654480	2560.906154
669.994695	2457.562500
670.334859	2437.397885
670.674973	2455.041923
671.015035	2528.138654
671.355047	2475.206538
671.695008	2472.685962
672.034918	2457.562500
672.374777	2533.179808
672.714585	2422.274423
673.054342	2543.262115
673.394049	2455.041923
673.733705	2548.303269
674.073310	2545.782692
674.412864	2530.659231
674.752368	2460.083077
675.091820	2518.056346
675.431223	2417.233269
675.770574	2548.303269
676.109875	2495.371154
676.449125	2565.947308
676.788324	2447.480192
677.127473	2543.262115
677.466571	2472.685962
677.805619	2427.315577
678.144616	2533.179808
678.483562	2487.809423
678.822458	2535.700385
679.161303	2611.317692
679.500098	2528.138654
679.838842	2500.412308
680.177535	2487.809423
680.516179	2412.192115
680.854771	2520.576923
681.193314	2452.521346
681.531805	2540.741538
681.870247	2472.685962
682.208638	2530.659231
682.546978	2475.206538
682.885268	2550.823846
683.223508	2490.330000
683.561697	2505.453462
683.899836	2515.535769
684.237925	2427.315577
684.575963	2429.836154
684.913951	2460.083077
685.251889	2477.727115
685.589776	2528.138654
685.927614	2482.768269
686.265401	2485.288846
686.603137	2465.124231
686.940824	2447.480192
687.278460	2351.698269
687.616046	2490.330000
687.953582	2482.768269
688.291068	2507.974038
688.628504	2452.521346
688.965889	2515.535769
689.303224	2555.865000
689.640510	2515.535769
689.977745	2563.426731
690.314930	2424.795000
690.652065	2467.644808
690.989150	2457.562500
691.326185	2533.179808
691.663170	2510.494615
692.000105	2452.521346
692.336990	2533.179808
692.673825	2467.644808
693.010610	2470.165385
693.347345	2495.371154
693.684030	2414.712692
694.020665	2495.371154
694.357251	2502.932885
694.693786	2550.823846
695.030272	2523.097500
695.366707	2543.262115
695.703093	2502.932885
696.039429	2485.288846
696.375716	2490.330000
696.711952	2495.371154
697.048139	2470.165385
697.384276	2510.494615
697.720363	2528.138654
698.056400	2495.371154
698.392388	2543.262115
698.728326	2510.494615
699.064214	2520.576923
699.400053	2573.509038
699.735842	2548.303269
700.071581	2450.000769
700.407270	2576.029615
700.742910	2530.659231
701.078501	2455.041923
701.414042	2472.685962
701.749533	2460.083077
702.084974	2492.850577
702.420366	2409.671538
702.755709	2538.220962
703.091002	2535.700385
703.426246	2591.153077
703.761440	2465.124231
704.096584	2560.906154
704.431679	2553.344423
704.766725	2457.562500
705.101721	2434.877308
705.436668	2432.356731
705.771565	2495.371154
706.106413	2520.576923
706.441212	2513.015192
706.775961	2457.562500
707.110661	2581.070769
707.445311	2497.891731
707.779913	2490.330000
708.114465	2500.412308
708.448967	2492.850577
708.783421	2530.659231
709.117825	2598.714808
709.452180	2490.330000
709.786485	2525.618077
710.120742	2439.918462
710.454949	2540.741538
710.789107	2457.562500
711.123216	2545.782692
711.457275	2482.768269
711.791286	2455.041923
712.125247	2495.371154
712.459159	2523.097500
712.793023	2518.056346
713.126837	2465.124231
713.460602	2452.521346
713.794318	2518.056346
714.127985	2455.041923
714.461602	2538.220962
714.795171	2442.439038
715.128691	2540.741538
715.462162	2457.562500
715.795584	2523.097500
716.128957	2538.220962
716.462281	2490.330000
716.795556	2515.535769
717.128782	2472.685962
717.461960	2570.988462
717.795088	2507.974038
718.128167	2455.041923
718.461198	2563.426731
718.794180	2505.453462
719.127113	2535.700385
719.459997	2467.644808
719.792833	2528.138654
720.125619	2444.959615
720.458357	2487.809423
720.791046	2447.480192
721.123686	2507.974038
721.456278	2578.550192
721.788821	2492.850577
722.121315	2502.932885
722.453761	2533.179808
722.786158	2457.562500
723.118506	2477.727115
723.450805	2601.235385
723.783056	2480.247692
724.115259	2530.659231
724.447412	2472.685962
724.779518	2487.809423
725.111574	2475.206538
725.443582	2550.823846
725.775542	2535.700385
726.107453	2586.111923
726.439315	2518.056346
726.771129	2573.509038
727.102895	2505.453462
727.434612	2467.644808
727.766281	2457.562500
728.097901	2477.727115
728.429473	2505.453462
728.760996	2477.727115
729.092471	2513.015192
729.423897	2432.356731
729.755276	2482.768269
730.086606	2523.097500
730.417887	2472.685962
730.749120	2565.947308
731.080305	2500.412308
731.411442	2510.494615
731.742530	2495.371154
732.073570	2409.671538
732.404562	2593.673654
732.735506	2495.371154
733.066401	2515.535769
733.397249	2437.397885
733.728048	2490.330000
734.058798	2510.494615
734.389501	2548.303269
734.720156	2447.480192
735.050762	2543.262115
735.381320	2515.535769
735.711831	2545.782692
736.042293	2457.562500
736.372707	2533.179808
736.703073	2450.000769
737.033391	2543.262115
737.363661	2467.644808
737.693883	2437.397885
738.024056	2570.988462
738.354182	2455.041923
738.684260	2505.453462
739.014290	2518.056346
739.344272	2528.138654
739.674207	2505.453462
740.004093	2467.644808
740.333931	2492.850577
740.663722	2513.015192
740.993464	2462.603654
741.323159	2452.521346
741.652806	2447.480192
741.982405	2389.506923
742.311956	2535.700385
742.641460	2485.288846
742.970915	2465.124231
743.300323	2452.521346
743.629683	2450.000769
743.958996	2573.509038
744.288260	2543.262115
744.617477	2462.603654
744.946647	2480.247692
745.275768	2434.877308
745.604842	2475.206538
745.933869	2495.371154
746.262847	2480.247692
746.591778	2495.371154
746.920662	2518.056346
747.249498	2457.562500
747.578286	2513.015192
747.907027	2500.412308
748.235720	2513.015192
748.564365	2407.150962
748.892963	2482.768269
749.221514	2444.959615
749.550017	2500.412308
749.878473	2545.782692
750.206881	2533.179808
750.535242	2500.412308
750.863555	2442.439038
751.191821	2510.494615
751.520039	2487.809423
751.848210	2515.535769
752.176334	2455.041923
752.504411	2570.988462
752.832440	2520.576923
753.160421	2543.262115
753.488356	2462.603654
753.816243	2528.138654
754.144082	2515.535769
754.471875	2510.494615
754.799620	2490.330000
755.127318	2581.070769
755.454969	2412.192115
755.782572	2502.932885
756.110129	2444.959615
756.437638	2480.247692
756.765100	2530.659231
757.092515	2540.741538
757.419882	2460.083077
757.747203	2467.644808
758.074477	2530.659231
758.401703	2455.041923
758.728882	2530.659231
759.056014	2470.165385
759.383099	2492.850577
759.710138	2470.165385
760.037129	2533.179808
760.364073	2439.918462
760.690970	2495.371154
761.017820	2470.165385
761.344623	2429.836154
761.671379	2434.877308
761.998088	2490.330000
762.324751	2502.932885
762.651366	2505.453462
762.977935	2475.206538
763.304456	2402.109808
763.630931	2384.465769
763.957359	2455.041923
764.283740	2523.097500
764.610074	2467.644808
764.936362	2480.247692
765.262602	2568.467885
765.588796	2543.262115
765.914943	2500.412308
766.241044	2447.480192
766.567097	2500.412308
766.893104	2538.220962
767.219064	2475.206538
767.544978	2394.548077
767.870845	2533.179808
768.196665	2465.124231
768.522438	2417.233269
768.848165	2457.562500
769.173846	2447.480192
769.499479	2495.371154
769.825066	2487.809423
770.150607	2472.685962
770.476101	2477.727115
770.801548	2467.644808
771.126949	2558.385577
771.452303	2457.562500
771.777611	2495.371154
772.102872	2513.015192
772.428087	2452.521346
772.753256	2492.850577
773.078378	2447.480192
773.403453	2467.644808
773.728482	2495.371154
774.053465	2520.576923
774.378401	2424.795000
774.703291	2513.015192
775.028135	2513.015192
775.352932	2417.233269
775.677683	2465.124231
776.002388	2513.015192
776.327046	2465.124231
776.651658	2424.795000
776.976224	2417.233269
777.300743	2452.521346
777.625216	2475.206538
777.949643	2497.891731
778.274024	2523.097500
778.598359	2487.809423
778.922647	2545.782692
779.246889	2523.097500
779.571086	2502.932885
779.895236	2510.494615
780.219339	2432.356731
780.543397	2482.768269
780.867409	2500.412308
781.191374	2560.906154
781.515294	2424.795000
781.839167	2510.494615
782.162995	2495.371154
782.486776	2545.782692
782.810511	2510.494615
783.134201	2477.727115
783.457844	2586.111923
783.781441	2507.974038
784.104993	2472.685962
784.428498	2520.576923
784.751958	2457.562500
785.075372	2477.727115
785.398739	2518.056346
785.722061	2465.124231
786.045337	2565.947308
786.368568	2457.562500
786.691752	2553.344423
787.014891	2502.932885
787.337983	2457.562500
787.661030	2477.727115
787.984031	2578.550192
788.306987	2525.618077
788.629897	2500.412308
788.952760	2548.303269
789.275579	2523.097500
789.598351	2507.974038
789.921078	2538.220962
790.243759	2465.124231
790.566395	2507.974038
790.888984	2510.494615
791.211529	2482.768269
791.534027	2412.192115
791.856480	2427.315577
792.178888	2502.932885
792.501249	2500.412308
792.823566	2475.206538
793.145836	2505.453462
793.468062	2528.138654
793.790241	2520.576923
794.112375	2540.741538
794.434464	2497.891731
794.756507	2523.097500
795.078505	2502.932885
795.400457	2515.535769
795.722364	2439.918462
796.044226	2507.974038
796.366042	2490.330000
796.687812	2480.247692
797.009538	2497.891731
797.331218	2560.906154
797.652852	2518.056346
797.974442	2530.659231
798.295986	2439.918462
798.617484	2492.850577
798.938938	2480.247692
799.260346	2447.480192
799.581709	2606.276538
799.903026	2455.041923
800.224299	2470.165385
800.545526	2500.412308
800.866708	2492.850577
801.187845	2613.838269
801.508936	2497.891731
801.829983	2545.782692
802.150984	2444.959615
802.471940	2565.947308
802.792851	2465.124231
803.113717	2523.097500
803.434538	2432.356731
803.755314	2477.727115
804.076045	2427.315577
804.396731	2457.562500
804.717372	2490.330000
805.037967	2480.247692
805.358518	2467.644808
805.679024	2482.768269
805.999485	2437.397885
806.319901	2490.330000
806.640272	2510.494615
806.960598	2523.097500
807.280879	2520.576923
807.601115	2543.262115
807.921306	2581.070769
808.241453	2555.865000
808.561554	2490.330000
808.881611	2540.741538
809.201623	2460.083077
809.521590	2485.288846
809.841513	2427.315577
810.161390	2429.836154
810.481223	2450.000769
810.801011	2434.877308
811.120755	2502.932885
811.440453	2452.521346
811.760107	2500.412308
812.079716	2460.083077
812.399281	2497.891731
812.718801	2444.959615
813.038276	2490.330000
813.357707	2470.165385
813.677093	2555.865000
813.996434	2553.344423
814.315731	2467.644808
814.634983	2555.865000
814.954191	2434.877308
815.273354	2482.768269
815.592473	2505.453462
815.911547	2497.891731
816.230577	2523.097500
816.549562	2472.685962
816.868502	2490.330000
817.187399	2507.974038
817.506250	2492.850577
817.825058	2495.371154
818.143821	2555.865000
818.462539	2545.782692
818.781213	2492.850577
819.099843	2485.288846
819.418429	2513.015192
819.736970	2492.850577
820.055466	2538.220962
820.373919	2510.494615
820.692327	2518.056346
821.010691	2414.712692
821.329011	2490.330000
821.647286	2528.138654
821.965517	2389.506923
822.283704	2563.426731
822.601847	2467.644808
822.919945	2434.877308
823.237999	2518.056346
823.556010	2510.494615
823.873976	2419.753846
824.191897	2553.344423
824.509775	2477.727115
824.827609	2553.344423
825.145398	2475.206538
825.463144	2439.918462
825.780845	2490.330000
826.098502	2518.056346
826.416116	2591.153077
826.733685	2507.974038
827.051210	2606.276538
827.368692	2485.288846
827.686129	2492.850577
828.003522	2505.453462
828.320872	2578.550192
828.638177	2538.220962
828.955439	2502.932885
829.272656	2414.712692
829.589830	2538.220962
829.906960	2543.262115
830.224046	2482.768269
830.541088	2470.165385
830.858086	2553.344423
831.175041	2452.521346
831.491952	2540.741538
831.808819	2465.124231
832.125642	2439.918462
832.442421	2490.330000
832.759157	2485.288846
833.075849	2465.124231
833.392497	2477.727115
833.709101	2500.412308
834.025662	2495.371154
834.342179	2573.509038
834.658653	2452.521346
834.975083	2487.809423
835.291469	2515.535769
835.607811	2502.932885
835.924110	2460.083077
836.240366	2535.700385
836.556578	2538.220962
836.872746	2548.303269
837.188871	2500.412308
837.504952	2490.330000
837.820990	2487.809423
838.136984	2507.974038
838.452935	2447.480192
838.768842	2560.906154
839.084706	2495.371154
839.400526	2528.138654
839.716303	2447.480192
840.032037	2513.015192
840.347727	2480.247692
840.663373	2513.015192
840.978977	2467.644808
841.294537	2472.685962
841.610054	2495.371154
841.925527	2515.535769
842.240957	2450.000769
842.556344	2558.385577
842.871687	2450.000769
843.186987	2487.809423
843.502244	2462.603654
843.817458	2490.330000
844.132629	2492.850577
844.447756	2500.412308
844.762840	2437.397885
845.077881	2540.741538
845.392879	2520.576923
845.707833	2480.247692
846.022745	2444.959615
846.337613	2417.233269
846.652438	2480.247692
846.967221	2500.412308
847.281960	2450.000769
847.596656	2492.850577
847.911309	2472.685962
848.225919	2424.795000
848.540485	2490.330000
848.855009	2545.782692
849.169490	2495.371154
849.483928	2555.865000
849.798323	2442.439038
850.112675	2490.330000
850.426984	2412.192115
850.741251	2568.467885
851.055474	2492.850577
851.369654	2505.453462
851.683792	2500.412308
851.997887	2515.535769
852.311938	2497.891731
852.625947	2520.576923
852.939914	2513.015192
853.253837	2409.671538
853.567718	2548.303269
853.881555	2513.015192
854.195350	2419.753846
854.509103	2535.700385
854.822812	2434.877308
855.136479	2523.097500
855.450103	2434.877308
855.763685	2500.412308
856.077224	2507.974038
856.390720	2442.439038
856.704173	2470.165385
857.017584	2593.673654
857.330953	2490.330000
857.644278	2482.768269
857.957561	2535.700385
858.270802	2510.494615
858.584000	2480.247692
858.897155	2490.330000
859.210268	2515.535769
859.523339	2417.233269
859.836367	2490.330000
860.149352	2540.741538
860.462295	2460.083077
860.775195	2417.233269
861.088054	2467.644808
861.400869	2565.947308
861.713642	2581.070769
862.026373	2535.700385
862.339062	2497.891731
862.651708	2553.344423
862.964312	2422.274423
863.276873	2470.165385
863.589392	2467.644808
863.901869	2482.768269
864.214303	2565.947308
864.526696	2495.371154
864.839045	2500.412308
865.151353	2487.809423
865.463619	2555.865000
865.775842	2553.344423
866.088023	2543.262115
866.400162	2510.494615
866.712258	2467.644808
867.024313	2432.356731
867.336325	2510.494615
867.648296	2510.494615
867.960224	2520.576923
868.272110	2523.097500
868.583954	2490.330000
868.895755	2455.041923
869.207515	2495.371154
869.519233	2424.795000
869.830909	2530.659231
870.142542	2591.153077
870.454134	2452.521346
870.765684	2457.562500
871.077191	2392.027500
871.388657	2565.947308
871.700081	2465.124231
872.011463	2434.877308
872.322803	2477.727115
872.634101	2525.618077
872.945357	2593.673654
873.256571	2472.685962
873.567744	2513.015192
873.878874	2407.150962
874.189963	2497.891731
874.501010	2540.741538
874.812015	2545.782692
875.122979	2475.206538
875.433900	2538.220962
875.744780	2452.521346
876.055618	2540.741538
876.366415	2392.027500
876.677169	2492.850577
876.987882	2573.509038
877.298554	2530.659231
877.609183	2581.070769
877.919771	2505.453462
878.230317	2429.836154
878.540822	2475.206538
878.851285	2550.823846
879.161707	2475.206538
879.472087	2487.809423
879.782425	2490.330000
880.092722	2603.755962
880.402977	2540.741538
880.713191	2482.768269
881.023363	2442.439038
881.333494	2545.782692
881.643583	2475.206538
881.953631	2596.194231
882.263637	2560.906154
882.573602	2480.247692
882.883526	2472.685962
883.193408	2472.685962
883.503248	2518.056346
883.813048	2485.288846
884.122806	2465.124231
884.432522	2495.371154
884.742197	2510.494615
885.051831	2538.220962
885.361424	2492.850577
885.670975	2543.262115
885.980485	2482.768269
886.289954	2505.453462
886.599382	2518.056346
886.908768	2581.070769
887.218113	2540.741538
887.527417	2485.288846
887.836680	2427.315577
888.145901	2492.850577
888.455082	2439.918462
888.764221	2570.988462
889.073319	2442.439038
889.382376	2502.932885
889.691392	2450.000769
890.000366	2495.371154
890.309300	2470.165385
890.618193	2550.823846
890.927044	2450.000769
891.235855	2515.535769
891.544625	2492.850577
891.853353	2505.453462
892.162041	2540.741538
892.470687	2525.618077
892.779293	2583.591346
893.087858	2429.836154
893.396381	2472.685962
893.704864	2535.700385
894.013306	2523.097500
894.321707	2475.206538
894.630068	2480.247692
894.938387	2505.453462
895.246665	2462.603654
895.554903	2419.753846
895.863100	2568.467885
896.171256	2465.124231
896.479371	2477.727115
896.787446	2460.083077
897.095480	2455.041923
897.403473	2548.303269
897.711425	2482.768269
898.019336	2523.097500
898.327207	2495.371154
898.635038	2472.685962
898.942827	2452.521346
899.250576	2480.247692
899.558284	2490.330000
899.865952	2548.303269
900.173579	2530.659231
900.481165	2439.918462
900.788711	2455.041923
901.096216	2439.918462
901.403681	2492.850577
901.711105	2510.494615
902.018489	2460.083077
902.325832	2487.809423
902.633135	2545.782692
902.940397	2429.836154
903.247619	2540.741538
903.554800	2490.330000
903.861941	2467.644808
904.169041	2487.809423
904.476101	2485.288846
904.783121	2429.836154
905.090100	2414.712692
905.397039	2507.974038
905.703938	2427.315577
906.010796	2472.685962
906.317614	2576.029615
906.624391	2543.262115
906.931129	2628.961731
907.237826	2487.809423
907.544483	2485.288846
907.851099	2548.303269
908.157675	2555.865000
908.464211	2432.356731
908.770707	2487.809423
909.077163	2492.850577
909.383578	2502.932885
909.689954	2457.562500
909.996289	2409.671538
910.302584	2392.027500
910.608839	2450.000769
910.915054	2490.330000
911.221229	2472.685962
911.527363	2591.153077
911.833458	2505.453462
912.139513	2515.535769
912.445527	2470.165385
912.751502	2510.494615
913.057436	2414.712692
913.363331	2462.603654
913.669186	2472.685962
913.975000	2495.371154
914.280775	2470.165385
914.586510	2518.056346
914.892205	2475.206538
915.197859	2409.671538
915.503475	2437.397885
915.809050	2621.400000
916.114585	2477.727115
916.420081	2437.397885
916.725536	2434.877308
917.030952	2518.056346
917.336328	2510.494615
917.641665	2407.150962
917.946961	2568.467885
918.252218	2477.727115
918.557435	2513.015192
918.862612	2601.235385
919.167750	2407.150962
919.472848	2553.344423
919.777906	2427.315577
920.082925	2414.712692
920.387904	2465.124231
920.692843	2477.727115
920.997743	2485.288846
921.302603	2533.179808
921.607423	2457.562500
921.912204	2437.397885
922.216946	2477.727115
922.521647	2492.850577
922.826310	2510.494615
923.130932	2518.056346
923.435516	2502.932885
923.740059	2578.550192
924.044564	2510.494615
924.349028	2535.700385
924.653454	2457.562500
924.957840	2550.823846
925.262186	2472.685962
925.566493	2540.741538
925.870761	2507.974038
926.174989	2528.138654
926.479178	2530.659231
926.783328	2444.959615
927.087438	2470.165385
927.391509	2437.397885
927.695541	2427.315577
927.999533	2409.671538
928.303486	2477.727115
928.607400	2535.700385
928.911275	2452.521346
929.215110	2523.097500
929.518906	2480.247692
929.822663	2477.727115
930.126381	2417.233269
930.430060	2530.659231
930.733699	2500.412308
931.037299	2409.671538
931.340861	2487.809423
931.644383	2356.739423
931.947866	2460.083077
932.251309	2500.412308
932.554714	2510.494615
932.858080	2533.179808
933.161407	2507.974038
933.464694	2444.959615
933.767943	2460.083077
934.071153	2470.165385
934.374323	2505.453462
934.677455	2598.714808
934.980548	2518.056346
935.283602	2555.865000
935.586617	2485.288846
935.889593	2523.097500
936.192530	2553.344423
936.495428	2502.932885
936.798287	2402.109808
937.101108	2558.385577
937.403890	2530.659231
937.706632	2450.000769
938.009336	2480.247692
938.312002	2480.247692
938.614628	2477.727115
938.917216	2500.412308
939.219765	2490.330000
939.522275	2505.453462
939.824747	2550.823846
940.127179	2492.850577
940.429573	2434.877308
940.731929	2570.988462
941.034246	2467.644808
941.336524	2490.330000
941.638763	2429.836154
941.940964	2397.068654
942.243126	2455.041923
942.545250	2583.591346
942.847335	2470.165385
943.149381	2460.083077
943.451389	2507.974038
943.753359	2482.768269
944.055290	2434.877308
944.357182	2535.700385
944.659036	2550.823846
944.960851	2447.480192
945.262628	2460.083077
945.564367	2487.809423
945.866067	2538.220962
946.167729	2555.865000
946.469352	2457.562500
946.770937	2434.877308
947.072484	2487.809423
947.373992	2477.727115
947.675462	2543.262115
947.976893	2502.932885
948.278286	2518.056346
948.579641	2386.986346
948.880958	2482.768269
949.182236	2535.700385
949.483476	2490.330000
949.784678	2482.768269
950.085841	2502.932885
950.386967	2495.371154
950.688054	2492.850577
950.989103	2465.124231
951.290114	2525.618077
951.591087	2485.288846
951.892021	2502.932885
952.192917	2490.330000
952.493776	2447.480192
952.794596	2442.439038
953.095378	2548.303269
953.396122	2495.371154
953.696828	2455.041923
953.997496	2507.974038
954.298126	2570.988462
954.598718	2543.262115
954.899272	2467.644808
955.199788	2563.426731
955.500266	2487.809423
955.800706	2444.959615
956.101108	2560.906154
956.401472	2467.644808
956.701798	2439.918462
957.002087	2432.356731
957.302337	2497.891731
957.602550	2560.906154
957.902724	2518.056346
958.202861	2520.576923
958.502960	2520.576923
958.803022	2502.932885
959.103045	2475.206538
959.403031	2417.233269
959.702979	2530.659231
960.002889	2525.618077
960.302762	2540.741538
960.602596	2538.220962
960.902393	2442.439038
961.202153	2460.083077
961.501875	2467.644808
961.801559	2465.124231
962.101205	2543.262115
962.400814	2465.124231
962.700385	2455.041923
962.999918	2518.056346
963.299414	2462.603654
963.598873	2555.865000
963.898293	2467.644808
964.197677	2588.632500
964.497022	2452.521346
964.796331	2490.330000
965.095601	2417.233269
965.394835	2513.015192
965.694030	2482.768269
965.993189	2450.000769
966.292309	2465.124231
966.591393	2437.397885
966.890439	2520.576923
967.189447	2450.000769
967.488419	2540.741538
967.787353	2497.891731
968.086249	2497.891731
968.385108	2560.906154
968.683930	2565.947308
968.982714	2434.877308
969.281462	2507.974038
969.580172	2513.015192
969.878844	2460.083077
970.177480	2558.385577
970.476078	2467.644808
970.774639	2543.262115
971.073162	2480.247692
971.371649	2500.412308
971.670098	2417.233269
971.968510	2467.644808
972.266885	2475.206538
972.565223	2439.918462
972.863524	2530.659231
973.161788	2593.673654
973.460014	2457.562500
973.758204	2472.685962
974.056356	2500.412308
974.354471	2560.906154
974.652550	2480.247692
974.950591	2568.467885
975.248595	2515.535769
975.546563	2495.371154
975.844493	2470.165385
976.142386	2490.330000
976.440243	2513.015192
976.738062	2457.562500
977.035845	2513.015192
977.333590	2475.206538
977.631299	2510.494615
977.928971	2349.177692
978.226606	2563.426731
978.524204	2570.988462
978.821765	2644.085192
979.119290	2450.000769
979.416777	2470.165385
979.714228	2429.836154
980.011642	2490.330000
980.309020	2525.618077
980.606360	2465.124231
980.903664	2520.576923
981.200931	2444.959615
981.498162	2439.918462
981.795356	2442.439038
982.092513	2523.097500
982.389633	2409.671538
982.686717	2623.920577
982.983764	2490.330000
983.280775	2490.330000
983.577749	2555.865000
983.874686	2439.918462
984.171587	2510.494615
984.468451	2384.465769
984.765279	2480.247692
985.062070	2497.891731
985.358824	2485.288846
985.655543	2444.959615
985.952224	2507.974038
986.248869	2444.959615
986.545478	2467.644808
986.842050	2442.439038
987.138586	2462.603654
987.435086	2507.974038
987.731549	2578.550192
988.027975	2422.274423
988.324366	2475.206538
988.620719	2510.494615
988.917037	2538.220962
989.213318	2447.480192
989.509563	2505.453462
989.805772	2447.480192
990.101944	2570.988462
990.398080	2467.644808
990.694180	2507.974038
990.990244	2558.385577
991.286271	2558.385577
991.582262	2460.083077
991.878217	2528.138654
992.174136	2533.179808
992.470019	2477.727115
992.765865	2558.385577
993.061676	2455.041923
993.357450	2553.344423
993.653188	2480.247692
993.948890	2427.315577
994.244556	2442.439038
994.540186	2528.138654
994.835780	2495.371154
995.131337	2510.494615
995.426859	2472.685962
995.722345	2465.124231
996.017795	2513.015192
996.313208	2497.891731
996.608586	2530.659231
996.903928	2495.371154
997.199234	2568.467885
997.494504	2460.083077
997.789738	2548.303269
998.084936	2470.165385
998.380099	2518.056346
998.675225	2502.932885
998.970316	2470.165385
999.265371	2507.974038
999.560390	2460.083077
999.855373	2492.850577
1000.150320	2530.659231
1000.445232	2515.535769
1000.740108	2528.138654
1001.034948	2490.330000
1001.329752	2495.371154
1001.624521	2525.618077
1001.919254	2462.603654
1002.213951	2497.891731
1002.508613	2505.453462
1002.803239	2452.521346
1003.097829	2482.768269
1003.392384	2439.918462
1003.686903	2518.056346
1003.981386	2457.562500
1004.275834	2515.535769
1004.570246	2460.083077
1004.864623	2540.741538
1005.158964	2442.439038
1005.453270	2538.220962
1005.747540	2427.315577
1006.041775	2414.712692
1006.335974	2576.029615
1006.630138	2520.576923
1006.924266	2533.179808
1007.218359	2452.521346
1007.512416	2507.974038
1007.806438	2507.974038
1008.100425	2455.041923
1008.394376	2576.029615
1008.688292	2565.947308
1008.982172	2487.809423
1009.276017	2558.385577
1009.569827	2553.344423
1009.863602	2533.179808
1010.157341	2462.603654
1010.451045	2422.274423
1010.744714	2502.932885
1011.038347	2450.000769
1011.331945	2490.330000
1011.625508	2520.576923
1011.919036	2530.659231
1012.212528	2480.247692
1012.505986	2540.741538
1012.799408	2495.371154
1013.092795	2500.412308
1013.386147	2470.165385
1013.679464	2530.659231
1013.972745	2460.083077
1014.265992	2513.015192
1014.559204	2399.589231
1014.852380	2495.371154
1015.145521	2424.795000
1015.438628	2576.029615
1015.731699	2555.865000
1016.024736	2470.165385
1016.317737	2452.521346
1016.610703	2543.262115
1016.903635	2457.562500
1017.196531	2497.891731
1017.489393	2475.206538
1017.782219	2515.535769
1018.075011	2455.041923
1018.367768	2487.809423
1018.660490	2457.562500
1018.953177	2457.562500
1019.245829	2457.562500
