Dividing Wavelength (nm)	Counts (n)	Blue Motor Position (mm): 0.000000	Red Motor Position (mm): 6.800000	
326.493990	2071.914231
326.888308	2071.914231
327.282561	2071.914231
327.676750	2114.764038
328.070874	2112.243462
328.464933	2094.599423
328.858929	2074.434808
329.252859	2049.229038
329.646726	2084.517115
330.040528	2109.722885
330.434265	2155.093269
330.827938	2064.352500
331.221547	2223.148846
331.615091	2099.640577
332.008571	2208.025385
332.401986	2215.587115
332.795338	2230.710577
333.188625	2301.286731
333.581847	2187.860769
333.975006	2308.848462
334.368100	2281.122115
334.761129	2323.971923
335.154095	2283.642692
335.546996	2384.465769
335.939833	2460.083077
336.332606	2384.465769
336.725315	2366.821731
337.117960	2417.233269
337.510540	2366.821731
337.903056	2470.165385
338.295508	2457.562500
338.687896	2381.945192
339.080220	2482.768269
339.472480	2457.562500
339.864676	2399.589231
340.256807	2452.521346
340.648875	2500.412308
341.040879	2505.453462
341.432818	2447.480192
341.824694	2475.206538
342.216506	2510.494615
342.608253	2475.206538
342.999937	2538.220962
343.391557	2422.274423
343.783113	2402.109808
344.174605	2530.659231
344.566033	2392.027500
344.957397	2518.056346
345.348697	2374.383462
345.739934	2520.576923
346.131106	2444.959615
346.522215	2510.494615
346.913260	2487.809423
347.304241	2482.768269
347.695159	2465.124231
348.086012	2477.727115
348.476802	2394.548077
348.867528	2487.809423
349.258191	2409.671538
349.648789	2442.439038
350.039324	2432.356731
350.429796	2502.932885
350.820203	2482.768269
351.210548	2444.959615
351.600828	2455.041923
351.991045	2485.288846
352.381198	2409.671538
352.771288	2379.424615
353.161314	2376.904038
353.551276	2492.850577
353.941175	2371.862885
354.331010	2424.795000
354.720782	2414.712692
355.110490	2452.521346
355.500135	2369.342308
355.889717	2450.000769
356.279235	2442.439038
356.668689	2427.315577
357.058080	2439.918462
357.447408	2424.795000
357.836672	2349.177692
358.225873	2369.342308
358.615010	2502.932885
359.004084	2505.453462
359.393095	2487.809423
359.782043	2379.424615
360.170927	2399.589231
360.559748	2490.330000
360.948505	2432.356731
361.337199	2462.603654
361.725830	2505.453462
362.114398	2465.124231
362.502903	2444.959615
362.891344	2465.124231
363.279722	2470.165385
363.668037	2427.315577
364.056289	2381.945192
364.444478	2462.603654
364.832603	2417.233269
365.220665	2470.165385
365.608665	2487.809423
365.996601	2389.506923
366.384474	2429.836154
366.772284	2467.644808
367.160031	2439.918462
367.547715	2432.356731
367.935336	2389.506923
368.322893	2455.041923
368.710388	2412.192115
369.097820	2429.836154
369.485189	2424.795000
369.872495	2434.877308
370.259738	2432.356731
370.646918	2429.836154
371.034035	2429.836154
371.421090	2487.809423
371.808081	2452.521346
372.195010	2414.712692
372.581875	2470.165385
372.968678	2485.288846
373.355418	2427.315577
373.742096	2495.371154
374.128710	2482.768269
374.515262	2369.342308
374.901751	2528.138654
375.288177	2447.480192
375.674540	2457.562500
376.060841	2475.206538
376.447079	2429.836154
376.833254	2392.027500
377.219367	2437.397885
377.605417	2427.315577
377.991404	2417.233269
378.377329	2530.659231
378.763191	2424.795000
379.148991	2492.850577
379.534727	2392.027500
379.920402	2442.439038
380.306013	2565.947308
380.691563	2452.521346
381.077049	2450.000769
381.462474	2450.000769
381.847835	2495.371154
382.233134	2422.274423
382.618371	2480.247692
383.003545	2490.330000
383.388657	2545.782692
383.773706	2482.768269
384.158693	2490.330000
384.543618	2414.712692
384.928480	2510.494615
385.313280	2482.768269
385.698017	2515.535769
386.082692	2510.494615
386.467305	2452.521346
386.851856	2460.083077
387.236344	2455.041923
387.620770	2422.274423
388.005133	2414.712692
388.389435	2429.836154
388.773674	2450.000769
389.157851	2407.150962
389.541965	2555.865000
389.926018	2533.179808
390.310008	2510.494615
390.693936	2434.877308
391.077802	2467.644808
391.461606	2472.685962
391.845348	2460.083077
392.229027	2465.124231
392.612645	2497.891731
392.996200	2437.397885
393.379694	2505.453462
393.763125	2465.124231
394.146494	2447.480192
394.529801	2427.315577
394.913047	2497.891731
395.296230	2573.509038
395.679351	2513.015192
396.062410	2467.644808
396.445408	2472.685962
396.828343	2432.356731
397.211217	2475.206538
397.594028	2515.535769
397.976778	2523.097500
398.359466	2475.206538
398.742092	2480.247692
399.124656	2477.727115
399.507158	2442.439038
399.889598	2465.124231
400.271977	2513.015192
400.654294	2485.288846
401.036549	2422.274423
401.418742	2490.330000
401.800874	2457.562500
402.182944	2495.371154
402.564952	2417.233269
402.946898	2434.877308
403.328783	2555.865000
403.710606	2472.685962
404.092367	2472.685962
404.474067	2376.904038
404.855705	2467.644808
405.237282	2457.562500
405.618797	2485.288846
406.000250	2530.659231
406.381642	2477.727115
406.762972	2507.974038
407.144240	2472.685962
407.525447	2462.603654
407.906593	2500.412308
408.287677	2533.179808
408.668700	2462.603654
409.049661	2409.671538
409.430560	2419.753846
409.811399	2465.124231
410.192176	2565.947308
410.572891	2480.247692
410.953545	2460.083077
411.334138	2465.124231
411.714669	2457.562500
412.095139	2432.356731
412.475547	2480.247692
412.855894	2495.371154
413.236180	2472.685962
413.616405	2513.015192
413.996568	2475.206538
414.376670	2450.000769
414.756711	2477.727115
415.136691	2505.453462
415.516609	2545.782692
415.896466	2523.097500
416.276262	2470.165385
416.655997	2497.891731
417.035670	2518.056346
417.415283	2447.480192
417.794834	2444.959615
418.174324	2530.659231
418.553753	2472.685962
418.933121	2427.315577
419.312428	2432.356731
419.691674	2538.220962
420.070859	2399.589231
420.449983	2555.865000
420.829045	2462.603654
421.208047	2444.959615
421.586988	2427.315577
421.965867	2555.865000
422.344686	2447.480192
422.723444	2364.301154
423.102141	2442.439038
423.480777	2487.809423
423.859352	2523.097500
424.237866	2513.015192
424.616319	2432.356731
424.994712	2394.548077
425.373044	2533.179808
425.751314	2520.576923
426.129524	2495.371154
426.507673	2510.494615
426.885762	2472.685962
427.263789	2505.453462
427.641756	2495.371154
428.019662	2523.097500
428.397508	2439.918462
428.775292	2429.836154
429.153016	2502.932885
429.530679	2502.932885
429.908282	2434.877308
430.285824	2480.247692
430.663305	2434.877308
431.040726	2555.865000
431.418086	2470.165385
431.795385	2558.385577
432.172624	2439.918462
432.549802	2437.397885
432.926920	2432.356731
433.303977	2460.083077
433.680974	2528.138654
434.057910	2475.206538
434.434786	2437.397885
434.811601	2414.712692
435.188355	2525.618077
435.565050	2497.891731
435.941683	2533.179808
436.318257	2477.727115
436.694770	2513.015192
437.071222	2462.603654
437.447614	2518.056346
437.823946	2434.877308
438.200218	2513.015192
438.576429	2495.371154
438.952580	2540.741538
439.328670	2507.974038
439.704700	2497.891731
440.080670	2455.041923
440.456580	2472.685962
440.832429	2510.494615
441.208218	2513.015192
441.583947	2397.068654
441.959616	2497.891731
442.335224	2500.412308
442.710773	2540.741538
443.086261	2515.535769
443.461689	2528.138654
443.837057	2457.562500
444.212365	2450.000769
444.587612	2475.206538
444.962800	2492.850577
445.337927	2427.315577
445.712995	2467.644808
446.088002	2470.165385
446.462949	2397.068654
446.837837	2475.206538
447.212664	2543.262115
447.587431	2422.274423
447.962139	2495.371154
448.336786	2513.015192
448.711374	2492.850577
449.085901	2490.330000
449.460369	2500.412308
449.834776	2553.344423
450.209124	2460.083077
450.583412	2475.206538
450.957640	2419.753846
451.331808	2535.700385
451.705917	2560.906154
452.079965	2500.412308
452.453954	2523.097500
452.827883	2515.535769
453.201752	2533.179808
453.575562	2550.823846
453.949311	2424.795000
454.323001	2495.371154
454.696632	2518.056346
455.070202	2515.535769
455.443713	2535.700385
455.817164	2452.521346
456.190556	2487.809423
456.563888	2528.138654
456.937160	2477.727115
457.310373	2472.685962
457.683526	2424.795000
458.056619	2477.727115
458.429653	2528.138654
458.802628	2563.426731
459.175542	2475.206538
459.548398	2442.439038
459.921194	2563.426731
460.293930	2437.397885
460.666607	2510.494615
461.039224	2482.768269
461.411782	2525.618077
461.784280	2565.947308
462.156719	2467.644808
462.529099	2490.330000
462.901419	2530.659231
463.273680	2487.809423
463.645882	2497.891731
464.018024	2523.097500
464.390106	2475.206538
464.762130	2515.535769
465.134094	2523.097500
465.505999	2533.179808
465.877845	2515.535769
466.249631	2518.056346
466.621358	2533.179808
466.993026	2500.412308
467.364634	2495.371154
467.736184	2583.591346
468.107674	2497.891731
468.479105	2555.865000
468.850477	2455.041923
469.221790	2397.068654
469.593043	2495.371154
469.964238	2492.850577
470.335373	2412.192115
470.706449	2492.850577
471.077467	2452.521346
471.448425	2518.056346
471.819324	2490.330000
472.190164	2465.124231
472.560945	2485.288846
472.931667	2444.959615
473.302330	2417.233269
473.672934	2490.330000
474.043479	2538.220962
474.413965	2462.603654
474.784393	2518.056346
475.154761	2563.426731
475.525070	2394.548077
475.895321	2497.891731
476.265513	2460.083077
476.635645	2497.891731
477.005719	2510.494615
477.375734	2477.727115
477.745691	2467.644808
478.115588	2510.494615
478.485427	2412.192115
478.855207	2530.659231
479.224928	2497.891731
479.594591	2472.685962
479.964194	2485.288846
480.333739	2460.083077
480.703226	2485.288846
481.072653	2543.262115
481.442022	2434.877308
481.811333	2543.262115
482.180584	2515.535769
482.549777	2553.344423
482.918912	2500.412308
483.287988	2472.685962
483.657005	2550.823846
484.025964	2477.727115
484.394864	2576.029615
484.763706	2475.206538
485.132489	2490.330000
485.501213	2510.494615
485.869879	2457.562500
486.238487	2548.303269
486.607036	2422.274423
486.975527	2530.659231
487.343959	2510.494615
487.712333	2497.891731
488.080648	2452.521346
488.448905	2581.070769
488.817104	2540.741538
489.185244	2510.494615
489.553326	2583.591346
489.921350	2450.000769
490.289315	2520.576923
490.657222	2520.576923
491.025070	2465.124231
491.392861	2470.165385
491.760593	2434.877308
492.128267	2419.753846
492.495883	2490.330000
492.863440	2543.262115
493.230939	2389.506923
493.598380	2513.015192
493.965763	2485.288846
494.333088	2460.083077
494.700354	2434.877308
495.067563	2399.589231
495.434713	2540.741538
495.801805	2502.932885
496.168839	2535.700385
496.535815	2548.303269
496.902733	2520.576923
497.269593	2535.700385
497.636395	2394.548077
498.003139	2467.644808
498.369825	2487.809423
498.736453	2515.535769
499.103023	2422.274423
499.469535	2528.138654
499.835989	2513.015192
500.202385	2573.509038
500.568723	2497.891731
500.935003	2450.000769
501.301226	2528.138654
501.667390	2576.029615
502.033497	2500.412308
502.399546	2487.809423
502.765537	2510.494615
503.131470	2543.262115
503.497345	2507.974038
503.863163	2530.659231
504.228923	2482.768269
504.594625	2480.247692
504.960269	2555.865000
505.325856	2487.809423
505.691385	2465.124231
506.056856	2450.000769
506.422270	2465.124231
506.787625	2487.809423
507.152924	2563.426731
507.518164	2457.562500
507.883347	2480.247692
508.248472	2497.891731
508.613540	2487.809423
508.978550	2555.865000
509.343503	2533.179808
509.708398	2505.453462
510.073236	2558.385577
510.438016	2417.233269
510.802738	2452.521346
511.167403	2444.959615
511.532010	2467.644808
511.896561	2518.056346
512.261053	2467.644808
512.625488	2480.247692
512.989866	2523.097500
513.354186	2472.685962
513.718449	2502.932885
514.082655	2513.015192
514.446803	2485.288846
514.810894	2444.959615
515.174927	2545.782692
515.538904	2465.124231
515.902822	2490.330000
516.266684	2553.344423
516.630488	2507.974038
516.994235	2513.015192
517.357925	2452.521346
517.721558	2525.618077
518.085133	2515.535769
518.448651	2593.673654
518.812112	2510.494615
519.175516	2525.618077
519.538863	2608.797115
519.902152	2482.768269
520.265385	2505.453462
520.628560	2470.165385
520.991678	2482.768269
521.354739	2422.274423
521.717743	2525.618077
522.080690	2507.974038
522.443580	2480.247692
522.806413	2591.153077
523.169189	2560.906154
523.531908	2588.632500
523.894569	2482.768269
524.257174	2500.412308
524.619722	2444.959615
524.982213	2434.877308
525.344647	2538.220962
525.707025	2465.124231
526.069345	2601.235385
526.431608	2558.385577
526.793815	2462.603654
527.155964	2437.397885
527.518057	2523.097500
527.880093	2434.877308
528.242072	2467.644808
528.603995	2409.671538
528.965860	2528.138654
529.327669	2470.165385
529.689421	2613.838269
530.051117	2482.768269
530.412755	2455.041923
530.774337	2432.356731
531.135862	2510.494615
531.497331	2560.906154
531.858743	2515.535769
532.220098	2528.138654
532.581396	2545.782692
532.942638	2530.659231
533.303824	2480.247692
533.664953	2467.644808
534.026025	2492.850577
534.387040	2507.974038
534.747999	2490.330000
535.108902	2510.494615
535.469748	2452.521346
535.830537	2530.659231
536.191270	2467.644808
536.551947	2414.712692
536.912567	2565.947308
537.273131	2480.247692
537.633638	2475.206538
537.994089	2472.685962
538.354483	2432.356731
538.714821	2487.809423
539.075103	2414.712692
539.435328	2533.179808
539.795497	2560.906154
540.155609	2450.000769
540.515665	2563.426731
540.875665	2472.685962
541.235609	2429.836154
541.595496	2596.194231
541.955328	2424.795000
542.315102	2560.906154
542.674821	2570.988462
543.034483	2465.124231
543.394090	2412.192115
543.753640	2477.727115
544.113134	2530.659231
544.472571	2530.659231
544.831953	2583.591346
545.191278	2460.083077
545.550548	2477.727115
545.909761	2480.247692
546.268918	2535.700385
546.628019	2495.371154
546.987064	2470.165385
547.346053	2477.727115
547.704986	2460.083077
548.063863	2492.850577
548.422684	2457.562500
548.781449	2485.288846
549.140158	2568.467885
549.498811	2550.823846
549.857408	2550.823846
550.215949	2487.809423
550.574434	2462.603654
550.932864	2437.397885
551.291237	2555.865000
551.649555	2480.247692
552.007817	2502.932885
552.366022	2505.453462
552.724173	2422.274423
553.082267	2538.220962
553.440305	2500.412308
553.798288	2475.206538
554.156215	2513.015192
554.514086	2495.371154
554.871902	2558.385577
555.229661	2586.111923
555.587365	2462.603654
555.945014	2576.029615
556.302606	2528.138654
556.660143	2452.521346
557.017625	2492.850577
557.375050	2550.823846
557.732421	2492.850577
558.089735	2578.550192
558.446994	2465.124231
558.804197	2429.836154
559.161345	2545.782692
559.518437	2545.782692
559.875474	2502.932885
560.232455	2477.727115
560.589381	2475.206538
560.946251	2533.179808
561.303065	2502.932885
561.659825	2520.576923
562.016528	2513.015192
562.373177	2482.768269
562.729770	2495.371154
563.086307	2450.000769
563.442789	2530.659231
563.799216	2535.700385
564.155587	2444.959615
564.511904	2518.056346
564.868164	2530.659231
565.224370	2550.823846
565.580520	2538.220962
565.936615	2573.509038
566.292654	2573.509038
566.648638	2485.288846
567.004567	2515.535769
567.360441	2538.220962
567.716260	2465.124231
568.072023	2565.947308
568.427732	2447.480192
568.783385	2568.467885
569.138982	2482.768269
569.494525	2502.932885
569.850013	2518.056346
570.205445	2477.727115
570.560823	2523.097500
570.916145	2555.865000
571.271412	2565.947308
571.626625	2507.974038
571.981782	2502.932885
572.336884	2490.330000
572.691931	2543.262115
573.046923	2442.439038
573.401860	2497.891731
573.756743	2555.865000
574.111570	2515.535769
574.466342	2475.206538
574.821059	2460.083077
575.175722	2442.439038
575.530330	2578.550192
575.884882	2528.138654
576.239380	2528.138654
576.593823	2485.288846
576.948211	2520.576923
577.302544	2472.685962
577.656823	2618.879423
578.011047	2573.509038
578.365216	2437.397885
578.719330	2525.618077
579.073389	2404.630385
579.427394	2492.850577
579.781344	2500.412308
580.135239	2412.192115
580.489080	2563.426731
580.842866	2417.233269
581.196597	2500.412308
581.550273	2470.165385
581.903895	2439.918462
582.257463	2545.782692
582.610975	2523.097500
582.964434	2470.165385
583.317837	2444.959615
583.671186	2500.412308
584.024481	2452.521346
584.377721	2515.535769
584.730906	2490.330000
585.084037	2513.015192
585.437113	2485.288846
585.790135	2495.371154
586.143103	2513.015192
586.496016	2475.206538
586.848874	2460.083077
587.201679	2523.097500
587.554428	2482.768269
587.907124	2510.494615
588.259765	2477.727115
588.612352	2570.988462
588.964884	2465.124231
589.317362	2485.288846
589.669786	2530.659231
590.022155	2482.768269
590.374470	2545.782692
590.726731	2528.138654
591.078937	2518.056346
591.431090	2505.453462
591.783188	2475.206538
592.135232	2497.891731
592.487222	2507.974038
592.839157	2447.480192
593.191038	2457.562500
593.542866	2472.685962
593.894639	2487.809423
594.246358	2497.891731
594.598022	2402.109808
594.949633	2467.644808
595.301190	2510.494615
595.652692	2447.480192
596.004141	2422.274423
596.355535	2495.371154
596.706876	2563.426731
597.058162	2495.371154
597.409395	2467.644808
597.760573	2540.741538
598.111698	2487.809423
598.462768	2460.083077
598.813785	2543.262115
599.164748	2477.727115
599.515657	2535.700385
599.866511	2497.891731
600.217312	2535.700385
600.568060	2525.618077
600.918753	2518.056346
601.269392	2492.850577
601.619978	2467.644808
601.970510	2457.562500
602.320988	2447.480192
602.671412	2447.480192
603.021783	2530.659231
603.372100	2513.015192
603.722363	2583.591346
604.072572	2492.850577
604.422728	2462.603654
604.772830	2450.000769
605.122878	2384.465769
605.472872	2485.288846
605.822813	2465.124231
606.172701	2560.906154
606.522534	2424.795000
606.872314	2467.644808
607.222041	2533.179808
607.571714	2462.603654
607.921333	2485.288846
608.270899	2558.385577
608.620411	2548.303269
608.969870	2439.918462
609.319276	2495.371154
609.668627	2407.150962
610.017926	2492.850577
610.367171	2528.138654
610.716362	2520.576923
611.065500	2492.850577
611.414585	2462.603654
611.763616	2545.782692
612.112594	2447.480192
612.461518	2475.206538
612.810389	2510.494615
613.159207	2500.412308
613.507971	2422.274423
613.856682	2502.932885
614.205340	2548.303269
614.553945	2465.124231
614.902496	2586.111923
615.250994	2460.083077
615.599439	2434.877308
615.947830	2472.685962
616.296169	2533.179808
616.644454	2563.426731
616.992686	2525.618077
617.340864	2397.068654
617.688990	2485.288846
618.037063	2424.795000
618.385082	2520.576923
618.733048	2427.315577
619.080961	2492.850577
619.428821	2462.603654
619.776628	2432.356731
620.124382	2490.330000
620.472083	2482.768269
620.819731	2470.165385
621.167326	2470.165385
621.514868	2495.371154
621.862357	2510.494615
622.209793	2540.741538
622.557176	2480.247692
622.904506	2470.165385
623.251783	2487.809423
623.599007	2419.753846
623.946179	2525.618077
624.293297	2540.741538
624.640363	2520.576923
624.987376	2502.932885
625.334336	2480.247692
625.681243	2548.303269
626.028097	2500.412308
626.374899	2565.947308
626.721647	2450.000769
627.068343	2455.041923
627.414987	2462.603654
627.761577	2444.959615
628.108115	2467.644808
628.454600	2475.206538
628.801032	2578.550192
629.147412	2550.823846
629.493739	2477.727115
629.840014	2507.974038
630.186236	2472.685962
630.532405	2518.056346
630.878521	2601.235385
631.224585	2608.797115
631.570597	2563.426731
631.916556	2450.000769
632.262462	2497.891731
632.608316	2460.083077
632.954117	2618.879423
633.299866	2510.494615
633.645562	2535.700385
633.991206	2513.015192
634.336797	2480.247692
634.682336	2573.509038
635.027823	2490.330000
635.373257	2422.274423
635.718639	2525.618077
636.063968	2530.659231
636.409245	2576.029615
636.754470	2450.000769
637.099642	2465.124231
637.444762	2558.385577
637.789829	2515.535769
638.134845	2518.056346
638.479808	2510.494615
638.824719	2573.509038
639.169577	2452.521346
639.514383	2417.233269
639.859137	2507.974038
640.203839	2434.877308
640.548489	2530.659231
640.893086	2460.083077
641.237632	2422.274423
641.582125	2492.850577
641.926566	2437.397885
642.270955	2530.659231
642.615292	2495.371154
642.959576	2434.877308
643.303809	2490.330000
643.647990	2528.138654
643.992118	2460.083077
644.336195	2523.097500
644.680219	2452.521346
645.024192	2495.371154
645.368112	2533.179808
645.711981	2424.795000
646.055797	2540.741538
646.399562	2500.412308
646.743274	2533.179808
647.086935	2540.741538
647.430544	2543.262115
647.774101	2500.412308
648.117606	2520.576923
648.461059	2520.576923
648.804460	2530.659231
649.147810	2485.288846
649.491108	2550.823846
649.834354	2495.371154
650.177548	2530.659231
650.520690	2525.618077
650.863781	2447.480192
651.206820	2505.453462
651.549807	2412.192115
651.892742	2485.288846
652.235626	2472.685962
652.578458	2452.521346
652.921238	2447.480192
653.263967	2520.576923
653.606644	2452.521346
653.949269	2515.535769
654.291843	2480.247692
654.634365	2477.727115
654.976836	2414.712692
655.319255	2545.782692
655.661622	2507.974038
656.003938	2384.465769
656.346203	2427.315577
656.688416	2492.850577
657.030577	2497.891731
657.372687	2533.179808
657.714746	2573.509038
658.056753	2502.932885
658.398708	2545.782692
658.740612	2553.344423
659.082465	2460.083077
659.424266	2505.453462
659.766016	2490.330000
660.107715	2376.904038
660.449362	2535.700385
660.790958	2495.371154
661.132503	2477.727115
661.473996	2555.865000
661.815438	2507.974038
662.156829	2573.509038
662.498168	2528.138654
662.839456	2432.356731
663.180693	2477.727115
663.521879	2558.385577
663.863013	2495.371154
664.204097	2452.521346
664.545129	2465.124231
664.886110	2422.274423
665.227040	2507.974038
665.567918	2482.768269
665.908746	2419.753846
666.249522	2507.974038
666.590248	2455.041923
666.930922	2528.138654
667.271545	2455.041923
667.612118	2490.330000
667.952639	2487.809423
668.293109	2553.344423
668.633528	2548.303269
668.973896	2447.480192
669.314213	2485.288846
669.654480	2523.097500
669.994695	2505.453462
670.334859	2462.603654
670.674973	2492.850577
671.015035	2497.891731
671.355047	2500.412308
671.695008	2402.109808
672.034918	2515.535769
672.374777	2530.659231
672.714585	2513.015192
673.054342	2500.412308
673.394049	2535.700385
673.733705	2467.644808
674.073310	2460.083077
674.412864	2439.918462
674.752368	2434.877308
675.091820	2462.603654
675.431223	2548.303269
675.770574	2490.330000
676.109875	2520.576923
676.449125	2558.385577
676.788324	2429.836154
677.127473	2462.603654
677.466571	2525.618077
677.805619	2470.165385
678.144616	2507.974038
678.483562	2535.700385
678.822458	2525.618077
679.161303	2538.220962
679.500098	2424.795000
679.838842	2548.303269
680.177535	2467.644808
680.516179	2351.698269
680.854771	2553.344423
681.193314	2573.509038
681.531805	2397.068654
681.870247	2563.426731
682.208638	2545.782692
682.546978	2465.124231
682.885268	2480.247692
683.223508	2432.356731
683.561697	2465.124231
683.899836	2507.974038
684.237925	2528.138654
684.575963	2475.206538
684.913951	2434.877308
685.251889	2507.974038
685.589776	2452.521346
685.927614	2507.974038
686.265401	2523.097500
686.603137	2417.233269
686.940824	2437.397885
687.278460	2465.124231
687.616046	2457.562500
687.953582	2560.906154
688.291068	2593.673654
688.628504	2563.426731
688.965889	2482.768269
689.303224	2528.138654
689.640510	2570.988462
689.977745	2515.535769
690.314930	2515.535769
690.652065	2470.165385
690.989150	2477.727115
691.326185	2520.576923
691.663170	2502.932885
692.000105	2518.056346
692.336990	2505.453462
692.673825	2477.727115
693.010610	2490.330000
693.347345	2455.041923
693.684030	2492.850577
694.020665	2422.274423
694.357251	2528.138654
694.693786	2460.083077
695.030272	2528.138654
695.366707	2460.083077
695.703093	2591.153077
696.039429	2563.426731
696.375716	2505.453462
696.711952	2513.015192
697.048139	2465.124231
697.384276	2530.659231
697.720363	2495.371154
698.056400	2467.644808
698.392388	2444.959615
698.728326	2462.603654
699.064214	2565.947308
699.400053	2548.303269
699.735842	2412.192115
700.071581	2492.850577
700.407270	2450.000769
700.742910	2528.138654
701.078501	2523.097500
701.414042	2545.782692
701.749533	2545.782692
702.084974	2606.276538
702.420366	2502.932885
702.755709	2500.412308
703.091002	2497.891731
703.426246	2573.509038
703.761440	2502.932885
704.096584	2404.630385
704.431679	2520.576923
704.766725	2533.179808
705.101721	2550.823846
705.436668	2465.124231
705.771565	2513.015192
706.106413	2540.741538
706.441212	2485.288846
706.775961	2525.618077
707.110661	2457.562500
707.445311	2490.330000
707.779913	2530.659231
708.114465	2452.521346
708.448967	2457.562500
708.783421	2513.015192
709.117825	2444.959615
709.452180	2510.494615
709.786485	2450.000769
710.120742	2482.768269
710.454949	2475.206538
710.789107	2467.644808
711.123216	2586.111923
711.457275	2434.877308
711.791286	2485.288846
712.125247	2497.891731
712.459159	2513.015192
712.793023	2533.179808
713.126837	2477.727115
713.460602	2548.303269
713.794318	2578.550192
714.127985	2510.494615
714.461602	2520.576923
714.795171	2452.521346
715.128691	2553.344423
715.462162	2452.521346
715.795584	2540.741538
716.128957	2485.288846
716.462281	2439.918462
716.795556	2530.659231
717.128782	2465.124231
717.461960	2490.330000
717.795088	2462.603654
718.128167	2500.412308
718.461198	2550.823846
718.794180	2528.138654
719.127113	2424.795000
719.459997	2475.206538
719.792833	2460.083077
720.125619	2520.576923
720.458357	2538.220962
720.791046	2533.179808
721.123686	2543.262115
721.456278	2550.823846
721.788821	2520.576923
722.121315	2513.015192
722.453761	2515.535769
722.786158	2475.206538
723.118506	2525.618077
723.450805	2520.576923
723.783056	2596.194231
724.115259	2487.809423
724.447412	2528.138654
724.779518	2497.891731
725.111574	2485.288846
725.443582	2472.685962
725.775542	2538.220962
726.107453	2472.685962
726.439315	2492.850577
726.771129	2472.685962
727.102895	2581.070769
727.434612	2553.344423
727.766281	2465.124231
728.097901	2475.206538
728.429473	2535.700385
728.760996	2429.836154
729.092471	2535.700385
729.423897	2497.891731
729.755276	2533.179808
730.086606	2452.521346
730.417887	2540.741538
730.749120	2563.426731
731.080305	2467.644808
731.411442	2485.288846
731.742530	2450.000769
732.073570	2455.041923
732.404562	2455.041923
732.735506	2553.344423
733.066401	2497.891731
733.397249	2460.083077
733.728048	2457.562500
734.058798	2482.768269
734.389501	2485.288846
734.720156	2457.562500
735.050762	2510.494615
735.381320	2523.097500
735.711831	2419.753846
736.042293	2452.521346
736.372707	2578.550192
736.703073	2515.535769
737.033391	2485.288846
737.363661	2500.412308
737.693883	2510.494615
738.024056	2477.727115
738.354182	2513.015192
738.684260	2502.932885
739.014290	2505.453462
739.344272	2505.453462
739.674207	2467.644808
740.004093	2515.535769
740.333931	2525.618077
740.663722	2442.439038
740.993464	2502.932885
741.323159	2492.850577
741.652806	2502.932885
741.982405	2497.891731
742.311956	2495.371154
742.641460	2550.823846
742.970915	2460.083077
743.300323	2444.959615
743.629683	2543.262115
743.958996	2492.850577
744.288260	2399.589231
744.617477	2439.918462
744.946647	2502.932885
745.275768	2535.700385
745.604842	2485.288846
745.933869	2485.288846
746.262847	2525.618077
746.591778	2419.753846
746.920662	2462.603654
747.249498	2477.727115
747.578286	2497.891731
747.907027	2523.097500
748.235720	2480.247692
748.564365	2520.576923
748.892963	2467.644808
749.221514	2543.262115
749.550017	2490.330000
749.878473	2525.618077
750.206881	2439.918462
750.535242	2437.397885
750.863555	2485.288846
751.191821	2525.618077
751.520039	2442.439038
751.848210	2505.453462
752.176334	2558.385577
752.504411	2442.439038
752.832440	2553.344423
753.160421	2450.000769
753.488356	2467.644808
753.816243	2452.521346
754.144082	2540.741538
754.471875	2485.288846
754.799620	2490.330000
755.127318	2538.220962
755.454969	2490.330000
755.782572	2510.494615
756.110129	2412.192115
756.437638	2485.288846
756.765100	2457.562500
757.092515	2434.877308
757.419882	2455.041923
757.747203	2470.165385
758.074477	2477.727115
758.401703	2553.344423
758.728882	2452.521346
759.056014	2518.056346
759.383099	2606.276538
759.710138	2518.056346
760.037129	2550.823846
760.364073	2500.412308
760.690970	2513.015192
761.017820	2507.974038
761.344623	2477.727115
761.671379	2465.124231
761.998088	2545.782692
762.324751	2429.836154
762.651366	2502.932885
762.977935	2437.397885
763.304456	2502.932885
763.630931	2472.685962
763.957359	2470.165385
764.283740	2439.918462
764.610074	2477.727115
764.936362	2520.576923
765.262602	2495.371154
765.588796	2470.165385
765.914943	2455.041923
766.241044	2528.138654
766.567097	2530.659231
766.893104	2553.344423
767.219064	2490.330000
767.544978	2452.521346
767.870845	2462.603654
768.196665	2450.000769
768.522438	2550.823846
768.848165	2560.906154
769.173846	2465.124231
769.499479	2460.083077
769.825066	2520.576923
770.150607	2505.453462
770.476101	2616.358846
770.801548	2447.480192
771.126949	2460.083077
771.452303	2444.959615
771.777611	2502.932885
772.102872	2477.727115
772.428087	2513.015192
772.753256	2530.659231
773.078378	2432.356731
773.403453	2505.453462
773.728482	2437.397885
774.053465	2480.247692
774.378401	2490.330000
774.703291	2515.535769
775.028135	2528.138654
775.352932	2437.397885
775.677683	2525.618077
776.002388	2525.618077
776.327046	2462.603654
776.651658	2477.727115
776.976224	2427.315577
777.300743	2518.056346
777.625216	2422.274423
777.949643	2450.000769
778.274024	2502.932885
778.598359	2487.809423
778.922647	2472.685962
779.246889	2520.576923
779.571086	2520.576923
779.895236	2525.618077
780.219339	2573.509038
780.543397	2530.659231
780.867409	2510.494615
781.191374	2535.700385
781.515294	2563.426731
781.839167	2505.453462
782.162995	2560.906154
782.486776	2450.000769
782.810511	2538.220962
783.134201	2525.618077
783.457844	2543.262115
783.781441	2475.206538
784.104993	2434.877308
784.428498	2492.850577
784.751958	2533.179808
785.075372	2470.165385
785.398739	2442.439038
785.722061	2442.439038
786.045337	2475.206538
786.368568	2465.124231
786.691752	2470.165385
787.014891	2510.494615
787.337983	2495.371154
787.661030	2518.056346
787.984031	2543.262115
788.306987	2429.836154
788.629897	2465.124231
788.952760	2553.344423
789.275579	2432.356731
789.598351	2485.288846
789.921078	2475.206538
790.243759	2412.192115
790.566395	2485.288846
790.888984	2616.358846
791.211529	2467.644808
791.534027	2386.986346
791.856480	2500.412308
792.178888	2543.262115
792.501249	2477.727115
792.823566	2568.467885
793.145836	2482.768269
793.468062	2399.589231
793.790241	2475.206538
794.112375	2472.685962
794.434464	2548.303269
794.756507	2480.247692
795.078505	2475.206538
795.400457	2472.685962
795.722364	2535.700385
796.044226	2407.150962
796.366042	2576.029615
796.687812	2477.727115
797.009538	2460.083077
797.331218	2538.220962
797.652852	2487.809423
797.974442	2558.385577
798.295986	2482.768269
798.617484	2515.535769
798.938938	2502.932885
799.260346	2402.109808
799.581709	2598.714808
799.903026	2460.083077
800.224299	2528.138654
800.545526	2520.576923
800.866708	2545.782692
801.187845	2497.891731
801.508936	2490.330000
801.829983	2432.356731
802.150984	2530.659231
802.471940	2492.850577
802.792851	2462.603654
803.113717	2485.288846
803.434538	2550.823846
803.755314	2515.535769
804.076045	2419.753846
804.396731	2515.535769
804.717372	2497.891731
805.037967	2409.671538
805.358518	2492.850577
805.679024	2414.712692
805.999485	2442.439038
806.319901	2477.727115
806.640272	2444.959615
806.960598	2485.288846
807.280879	2513.015192
807.601115	2490.330000
807.921306	2452.521346
808.241453	2397.068654
808.561554	2497.891731
808.881611	2450.000769
809.201623	2520.576923
809.521590	2485.288846
809.841513	2437.397885
810.161390	2442.439038
810.481223	2576.029615
810.801011	2540.741538
811.120755	2613.838269
811.440453	2523.097500
811.760107	2465.124231
812.079716	2477.727115
812.399281	2399.589231
812.718801	2485.288846
813.038276	2495.371154
813.357707	2482.768269
813.677093	2598.714808
813.996434	2450.000769
814.315731	2513.015192
814.634983	2492.850577
814.954191	2520.576923
815.273354	2543.262115
815.592473	2510.494615
815.911547	2505.453462
816.230577	2419.753846
816.549562	2485.288846
816.868502	2460.083077
817.187399	2555.865000
817.506250	2447.480192
817.825058	2540.741538
818.143821	2497.891731
818.462539	2530.659231
818.781213	2533.179808
819.099843	2492.850577
819.418429	2495.371154
819.736970	2417.233269
820.055466	2505.453462
820.373919	2555.865000
820.692327	2465.124231
821.010691	2492.850577
821.329011	2528.138654
821.647286	2432.356731
821.965517	2477.727115
822.283704	2467.644808
822.601847	2515.535769
822.919945	2462.603654
823.237999	2505.453462
823.556010	2523.097500
823.873976	2442.439038
824.191897	2573.509038
824.509775	2475.206538
824.827609	2477.727115
825.145398	2475.206538
825.463144	2490.330000
825.780845	2495.371154
826.098502	2513.015192
826.416116	2543.262115
826.733685	2533.179808
827.051210	2490.330000
827.368692	2518.056346
827.686129	2495.371154
828.003522	2520.576923
828.320872	2424.795000
828.638177	2500.412308
828.955439	2492.850577
829.272656	2528.138654
829.589830	2560.906154
829.906960	2452.521346
830.224046	2475.206538
830.541088	2480.247692
830.858086	2518.056346
831.175041	2470.165385
831.491952	2470.165385
831.808819	2452.521346
832.125642	2560.906154
832.442421	2533.179808
832.759157	2444.959615
833.075849	2419.753846
833.392497	2475.206538
833.709101	2480.247692
834.025662	2525.618077
834.342179	2563.426731
834.658653	2530.659231
834.975083	2507.974038
835.291469	2565.947308
835.607811	2543.262115
835.924110	2576.029615
836.240366	2586.111923
836.556578	2518.056346
836.872746	2487.809423
837.188871	2404.630385
837.504952	2578.550192
837.820990	2442.439038
838.136984	2422.274423
838.452935	2487.809423
838.768842	2452.521346
839.084706	2477.727115
839.400526	2515.535769
839.716303	2460.083077
840.032037	2457.562500
840.347727	2470.165385
840.663373	2533.179808
840.978977	2563.426731
841.294537	2450.000769
841.610054	2457.562500
841.925527	2565.947308
842.240957	2470.165385
842.556344	2555.865000
842.871687	2485.288846
843.186987	2518.056346
843.502244	2563.426731
843.817458	2495.371154
844.132629	2477.727115
844.447756	2467.644808
844.762840	2482.768269
845.077881	2520.576923
845.392879	2457.562500
845.707833	2507.974038
846.022745	2432.356731
846.337613	2465.124231
846.652438	2495.371154
846.967221	2457.562500
847.281960	2513.015192
847.596656	2545.782692
847.911309	2543.262115
848.225919	2477.727115
848.540485	2502.932885
848.855009	2439.918462
849.169490	2477.727115
849.483928	2465.124231
849.798323	2548.303269
850.112675	2480.247692
850.426984	2560.906154
850.741251	2628.961731
851.055474	2467.644808
851.369654	2502.932885
851.683792	2490.330000
851.997887	2480.247692
852.311938	2497.891731
852.625947	2422.274423
852.939914	2485.288846
853.253837	2475.206538
853.567718	2596.194231
853.881555	2523.097500
854.195350	2470.165385
854.509103	2487.809423
854.822812	2422.274423
855.136479	2502.932885
855.450103	2470.165385
855.763685	2495.371154
856.077224	2507.974038
856.390720	2429.836154
856.704173	2470.165385
857.017584	2480.247692
857.330953	2533.179808
857.644278	2447.480192
857.957561	2450.000769
858.270802	2565.947308
858.584000	2550.823846
858.897155	2429.836154
859.210268	2492.850577
859.523339	2465.124231
859.836367	2452.521346
860.149352	2525.618077
860.462295	2480.247692
860.775195	2450.000769
861.088054	2482.768269
861.400869	2485.288846
861.713642	2437.397885
862.026373	2475.206538
862.339062	2520.576923
862.651708	2439.918462
862.964312	2412.192115
863.276873	2528.138654
863.589392	2513.015192
863.901869	2550.823846
864.214303	2434.877308
864.526696	2500.412308
864.839045	2518.056346
865.151353	2480.247692
865.463619	2510.494615
865.775842	2457.562500
866.088023	2429.836154
866.400162	2422.274423
866.712258	2495.371154
867.024313	2520.576923
867.336325	2502.932885
867.648296	2545.782692
867.960224	2439.918462
868.272110	2422.274423
868.583954	2460.083077
868.895755	2520.576923
869.207515	2462.603654
869.519233	2520.576923
869.830909	2530.659231
870.142542	2550.823846
870.454134	2525.618077
870.765684	2475.206538
871.077191	2465.124231
871.388657	2444.959615
871.700081	2480.247692
872.011463	2553.344423
872.322803	2538.220962
872.634101	2558.385577
872.945357	2467.644808
873.256571	2485.288846
873.567744	2525.618077
873.878874	2437.397885
874.189963	2518.056346
874.501010	2477.727115
874.812015	2598.714808
875.122979	2417.233269
875.433900	2543.262115
875.744780	2477.727115
876.055618	2528.138654
876.366415	2487.809423
876.677169	2477.727115
876.987882	2535.700385
877.298554	2492.850577
877.609183	2482.768269
877.919771	2472.685962
878.230317	2437.397885
878.540822	2472.685962
878.851285	2450.000769
879.161707	2515.535769
879.472087	2450.000769
879.782425	2523.097500
880.092722	2434.877308
880.402977	2515.535769
880.713191	2568.467885
881.023363	2495.371154
881.333494	2455.041923
881.643583	2477.727115
881.953631	2437.397885
882.263637	2502.932885
882.573602	2477.727115
882.883526	2437.397885
883.193408	2502.932885
883.503248	2548.303269
883.813048	2444.959615
884.122806	2492.850577
884.432522	2442.439038
884.742197	2490.330000
885.051831	2402.109808
885.361424	2477.727115
885.670975	2465.124231
885.980485	2565.947308
886.289954	2394.548077
886.599382	2485.288846
886.908768	2507.974038
887.218113	2422.274423
887.527417	2472.685962
887.836680	2497.891731
888.145901	2477.727115
888.455082	2568.467885
888.764221	2515.535769
889.073319	2570.988462
889.382376	2507.974038
889.691392	2417.233269
890.000366	2538.220962
890.309300	2447.480192
890.618193	2495.371154
890.927044	2467.644808
891.235855	2442.439038
891.544625	2432.356731
891.853353	2487.809423
892.162041	2482.768269
892.470687	2553.344423
892.779293	2429.836154
893.087858	2606.276538
893.396381	2477.727115
893.704864	2525.618077
894.013306	2480.247692
894.321707	2490.330000
894.630068	2497.891731
894.938387	2452.521346
895.246665	2442.439038
895.554903	2495.371154
895.863100	2560.906154
896.171256	2477.727115
896.479371	2455.041923
896.787446	2500.412308
897.095480	2497.891731
897.403473	2434.877308
897.711425	2538.220962
898.019336	2553.344423
898.327207	2500.412308
898.635038	2507.974038
898.942827	2427.315577
899.250576	2457.562500
899.558284	2570.988462
899.865952	2470.165385
900.173579	2553.344423
900.481165	2513.015192
900.788711	2513.015192
901.096216	2470.165385
901.403681	2495.371154
901.711105	2475.206538
902.018489	2444.959615
902.325832	2465.124231
902.633135	2444.959615
902.940397	2472.685962
903.247619	2538.220962
903.554800	2467.644808
903.861941	2447.480192
904.169041	2457.562500
904.476101	2419.753846
904.783121	2533.179808
905.090100	2502.932885
905.397039	2447.480192
905.703938	2523.097500
906.010796	2530.659231
906.317614	2419.753846
906.624391	2490.330000
906.931129	2502.932885
907.237826	2495.371154
907.544483	2475.206538
907.851099	2515.535769
908.157675	2470.165385
908.464211	2520.576923
908.770707	2462.603654
909.077163	2487.809423
909.383578	2497.891731
909.689954	2460.083077
909.996289	2576.029615
910.302584	2555.865000
910.608839	2422.274423
910.915054	2528.138654
911.221229	2460.083077
911.527363	2492.850577
911.833458	2472.685962
912.139513	2520.576923
912.445527	2608.797115
912.751502	2485.288846
913.057436	2560.906154
913.363331	2455.041923
913.669186	2434.877308
913.975000	2432.356731
914.280775	2432.356731
914.586510	2520.576923
914.892205	2563.426731
915.197859	2492.850577
915.503475	2510.494615
915.809050	2480.247692
916.114585	2540.741538
916.420081	2535.700385
916.725536	2545.782692
917.030952	2555.865000
917.336328	2525.618077
917.641665	2495.371154
917.946961	2492.850577
918.252218	2538.220962
918.557435	2452.521346
918.862612	2467.644808
919.167750	2472.685962
919.472848	2480.247692
919.777906	2548.303269
920.082925	2495.371154
920.387904	2437.397885
920.692843	2505.453462
920.997743	2480.247692
921.302603	2573.509038
921.607423	2457.562500
921.912204	2386.986346
922.216946	2477.727115
922.521647	2475.206538
922.826310	2495.371154
923.130932	2482.768269
923.435516	2422.274423
923.740059	2472.685962
924.044564	2548.303269
924.349028	2548.303269
924.653454	2540.741538
924.957840	2475.206538
925.262186	2550.823846
925.566493	2482.768269
925.870761	2432.356731
926.174989	2434.877308
926.479178	2497.891731
926.783328	2490.330000
927.087438	2369.342308
927.391509	2515.535769
927.695541	2452.521346
927.999533	2482.768269
928.303486	2485.288846
928.607400	2480.247692
928.911275	2492.850577
929.215110	2394.548077
929.518906	2495.371154
929.822663	2482.768269
930.126381	2480.247692
930.430060	2450.000769
930.733699	2492.850577
931.037299	2523.097500
931.340861	2515.535769
931.644383	2424.795000
931.947866	2470.165385
932.251309	2495.371154
932.554714	2570.988462
932.858080	2543.262115
933.161407	2533.179808
933.464694	2545.782692
933.767943	2482.768269
934.071153	2555.865000
934.374323	2505.453462
934.677455	2475.206538
934.980548	2507.974038
935.283602	2515.535769
935.586617	2538.220962
935.889593	2518.056346
936.192530	2523.097500
936.495428	2497.891731
936.798287	2513.015192
937.101108	2452.521346
937.403890	2487.809423
937.706632	2555.865000
938.009336	2442.439038
938.312002	2520.576923
938.614628	2555.865000
938.917216	2477.727115
939.219765	2472.685962
939.522275	2434.877308
939.824747	2480.247692
940.127179	2563.426731
940.429573	2548.303269
940.731929	2439.918462
941.034246	2507.974038
941.336524	2460.083077
941.638763	2565.947308
941.940964	2457.562500
942.243126	2535.700385
942.545250	2518.056346
942.847335	2470.165385
943.149381	2497.891731
943.451389	2462.603654
943.753359	2427.315577
944.055290	2518.056346
944.357182	2439.918462
944.659036	2578.550192
944.960851	2540.741538
945.262628	2487.809423
945.564367	2492.850577
945.866067	2495.371154
946.167729	2518.056346
946.469352	2490.330000
946.770937	2518.056346
947.072484	2485.288846
947.373992	2487.809423
947.675462	2462.603654
947.976893	2520.576923
948.278286	2462.603654
948.579641	2477.727115
948.880958	2502.932885
949.182236	2465.124231
949.483476	2409.671538
949.784678	2545.782692
950.085841	2482.768269
950.386967	2490.330000
950.688054	2427.315577
950.989103	2565.947308
951.290114	2487.809423
951.591087	2621.400000
951.892021	2409.671538
952.192917	2502.932885
952.493776	2482.768269
952.794596	2518.056346
953.095378	2505.453462
953.396122	2565.947308
953.696828	2515.535769
953.997496	2510.494615
954.298126	2472.685962
954.598718	2482.768269
954.899272	2472.685962
955.199788	2523.097500
955.500266	2525.618077
955.800706	2490.330000
956.101108	2490.330000
956.401472	2439.918462
956.701798	2530.659231
957.002087	2467.644808
957.302337	2475.206538
957.602550	2470.165385
957.902724	2520.576923
958.202861	2419.753846
958.502960	2492.850577
958.803022	2472.685962
959.103045	2555.865000
959.403031	2480.247692
959.702979	2540.741538
960.002889	2470.165385
960.302762	2505.453462
960.602596	2462.603654
960.902393	2480.247692
961.202153	2450.000769
961.501875	2525.618077
961.801559	2437.397885
962.101205	2490.330000
962.400814	2444.959615
962.700385	2465.124231
962.999918	2492.850577
963.299414	2437.397885
963.598873	2520.576923
963.898293	2492.850577
964.197677	2558.385577
964.497022	2419.753846
964.796331	2543.262115
965.095601	2414.712692
965.394835	2525.618077
965.694030	2462.603654
965.993189	2525.618077
966.292309	2455.041923
966.591393	2553.344423
966.890439	2482.768269
967.189447	2505.453462
967.488419	2497.891731
967.787353	2432.356731
968.086249	2530.659231
968.385108	2500.412308
968.683930	2528.138654
968.982714	2477.727115
969.281462	2465.124231
969.580172	2525.618077
969.878844	2576.029615
970.177480	2462.603654
970.476078	2518.056346
970.774639	2417.233269
971.073162	2477.727115
971.371649	2477.727115
971.670098	2535.700385
971.968510	2452.521346
972.266885	2467.644808
972.565223	2518.056346
972.863524	2447.480192
973.161788	2507.974038
973.460014	2450.000769
973.758204	2407.150962
974.056356	2482.768269
974.354471	2538.220962
974.652550	2573.509038
974.950591	2450.000769
975.248595	2563.426731
975.546563	2480.247692
975.844493	2533.179808
976.142386	2475.206538
976.440243	2424.795000
976.738062	2500.412308
977.035845	2394.548077
977.333590	2505.453462
977.631299	2442.439038
977.928971	2518.056346
978.226606	2475.206538
978.524204	2472.685962
978.821765	2427.315577
979.119290	2505.453462
979.416777	2492.850577
979.714228	2497.891731
980.011642	2560.906154
980.309020	2497.891731
980.606360	2513.015192
980.903664	2480.247692
981.200931	2502.932885
981.498162	2485.288846
981.795356	2482.768269
982.092513	2424.795000
982.389633	2434.877308
982.686717	2450.000769
982.983764	2523.097500
983.280775	2525.618077
983.577749	2487.809423
983.874686	2487.809423
984.171587	2434.877308
984.468451	2505.453462
984.765279	2447.480192
985.062070	2487.809423
985.358824	2447.480192
985.655543	2487.809423
985.952224	2457.562500
986.248869	2538.220962
986.545478	2482.768269
986.842050	2472.685962
987.138586	2482.768269
987.435086	2578.550192
987.731549	2502.932885
988.027975	2510.494615
988.324366	2434.877308
988.620719	2419.753846
988.917037	2447.480192
989.213318	2495.371154
989.509563	2419.753846
989.805772	2548.303269
990.101944	2450.000769
990.398080	2462.603654
990.694180	2477.727115
990.990244	2495.371154
991.286271	2477.727115
991.582262	2545.782692
991.878217	2455.041923
992.174136	2548.303269
992.470019	2487.809423
992.765865	2518.056346
993.061676	2482.768269
993.357450	2513.015192
993.653188	2502.932885
993.948890	2543.262115
994.244556	2407.150962
994.540186	2414.712692
994.835780	2505.453462
995.131337	2485.288846
995.426859	2460.083077
995.722345	2528.138654
996.017795	2528.138654
996.313208	2578.550192
996.608586	2492.850577
996.903928	2465.124231
997.199234	2417.233269
997.494504	2502.932885
997.789738	2492.850577
998.084936	2434.877308
998.380099	2397.068654
998.675225	2477.727115
998.970316	2465.124231
999.265371	2555.865000
999.560390	2452.521346
999.855373	2533.179808
1000.150320	2523.097500
1000.445232	2467.644808
1000.740108	2422.274423
1001.034948	2510.494615
1001.329752	2480.247692
1001.624521	2515.535769
1001.919254	2553.344423
1002.213951	2465.124231
1002.508613	2465.124231
1002.803239	2480.247692
1003.097829	2472.685962
1003.392384	2434.877308
1003.686903	2437.397885
1003.981386	2507.974038
1004.275834	2510.494615
1004.570246	2485.288846
1004.864623	2452.521346
1005.158964	2523.097500
1005.453270	2558.385577
1005.747540	2414.712692
1006.041775	2462.603654
1006.335974	2419.753846
1006.630138	2520.576923
1006.924266	2452.521346
1007.218359	2457.562500
1007.512416	2535.700385
1007.806438	2439.918462
1008.100425	2550.823846
1008.394376	2444.959615
1008.688292	2422.274423
1008.982172	2528.138654
1009.276017	2475.206538
1009.569827	2570.988462
1009.863602	2538.220962
1010.157341	2409.671538
1010.451045	2513.015192
1010.744714	2513.015192
1011.038347	2485.288846
1011.331945	2583.591346
1011.625508	2576.029615
1011.919036	2434.877308
1012.212528	2500.412308
1012.505986	2427.315577
1012.799408	2510.494615
1013.092795	2432.356731
1013.386147	2467.644808
1013.679464	2550.823846
1013.972745	2462.603654
1014.265992	2495.371154
1014.559204	2439.918462
1014.852380	2477.727115
1015.145521	2414.712692
1015.438628	2429.836154
1015.731699	2528.138654
1016.024736	2364.301154
1016.317737	2528.138654
1016.610703	2432.356731
1016.903635	2495.371154
1017.196531	2422.274423
1017.489393	2472.685962
1017.782219	2497.891731
1018.075011	2570.988462
1018.367768	2487.809423
1018.660490	2495.371154
1018.953177	2495.371154
1019.245829	2495.371154
