Dividing Wavelength (nm)	Counts (n)	Blue Motor Position (mm): 0.000000	Red Motor Position (mm): 4.100000	
326.493990	2167.696154
326.888308	2167.696154
327.282561	2167.696154
327.676750	2102.161154
328.070874	2036.626154
328.464933	2006.379231
328.858929	2011.420385
329.252859	2132.408077
329.646726	2054.270192
330.040528	2132.408077
330.434265	2192.901923
330.827938	2109.722885
331.221547	2084.517115
331.615091	2074.434808
332.008571	2175.257885
332.401986	2175.257885
332.795338	2253.395769
333.188625	2185.340192
333.581847	2225.669423
333.975006	2351.698269
334.368100	2326.492500
334.761129	2291.204423
335.154095	2326.492500
335.546996	2346.657115
335.939833	2354.218846
336.332606	2351.698269
336.725315	2374.383462
337.117960	2397.068654
337.510540	2457.562500
337.903056	2402.109808
338.295508	2530.659231
338.687896	2366.821731
339.080220	2528.138654
339.472480	2402.109808
339.864676	2374.383462
340.256807	2485.288846
340.648875	2452.521346
341.040879	2487.809423
341.432818	2455.041923
341.824694	2467.644808
342.216506	2457.562500
342.608253	2460.083077
342.999937	2386.986346
343.391557	2553.344423
343.783113	2462.603654
344.174605	2518.056346
344.566033	2540.741538
344.957397	2432.356731
345.348697	2414.712692
345.739934	2505.453462
346.131106	2442.439038
346.522215	2450.000769
346.913260	2480.247692
347.304241	2447.480192
347.695159	2432.356731
348.086012	2374.383462
348.476802	2475.206538
348.867528	2414.712692
349.258191	2487.809423
349.648789	2434.877308
350.039324	2497.891731
350.429796	2422.274423
350.820203	2487.809423
351.210548	2381.945192
351.600828	2417.233269
351.991045	2422.274423
352.381198	2424.795000
352.771288	2417.233269
353.161314	2424.795000
353.551276	2457.562500
353.941175	2505.453462
354.331010	2492.850577
354.720782	2407.150962
355.110490	2452.521346
355.500135	2533.179808
355.889717	2472.685962
356.279235	2364.301154
356.668689	2432.356731
357.058080	2505.453462
357.447408	2399.589231
357.836672	2455.041923
358.225873	2558.385577
358.615010	2515.535769
359.004084	2412.192115
359.393095	2505.453462
359.782043	2482.768269
360.170927	2452.521346
360.559748	2381.945192
360.948505	2470.165385
361.337199	2477.727115
361.725830	2419.753846
362.114398	2424.795000
362.502903	2424.795000
362.891344	2409.671538
363.279722	2528.138654
363.668037	2470.165385
364.056289	2447.480192
364.444478	2422.274423
364.832603	2450.000769
365.220665	2487.809423
365.608665	2480.247692
365.996601	2371.862885
366.384474	2389.506923
366.772284	2444.959615
367.160031	2472.685962
367.547715	2520.576923
367.935336	2414.712692
368.322893	2520.576923
368.710388	2477.727115
369.097820	2520.576923
369.485189	2404.630385
369.872495	2392.027500
370.259738	2444.959615
370.646918	2462.603654
371.034035	2434.877308
371.421090	2497.891731
371.808081	2444.959615
372.195010	2492.850577
372.581875	2439.918462
372.968678	2462.603654
373.355418	2437.397885
373.742096	2477.727115
374.128710	2465.124231
374.515262	2495.371154
374.901751	2470.165385
375.288177	2371.862885
375.674540	2457.562500
376.060841	2518.056346
376.447079	2487.809423
376.833254	2495.371154
377.219367	2500.412308
377.605417	2482.768269
377.991404	2402.109808
378.377329	2412.192115
378.763191	2442.439038
379.148991	2500.412308
379.534727	2439.918462
379.920402	2465.124231
380.306013	2470.165385
380.691563	2591.153077
381.077049	2439.918462
381.462474	2429.836154
381.847835	2412.192115
382.233134	2480.247692
382.618371	2450.000769
383.003545	2444.959615
383.388657	2460.083077
383.773706	2419.753846
384.158693	2475.206538
384.543618	2510.494615
384.928480	2432.356731
385.313280	2495.371154
385.698017	2480.247692
386.082692	2502.932885
386.467305	2460.083077
386.851856	2404.630385
387.236344	2447.480192
387.620770	2455.041923
388.005133	2444.959615
388.389435	2550.823846
388.773674	2457.562500
389.157851	2427.315577
389.541965	2462.603654
389.926018	2477.727115
390.310008	2475.206538
390.693936	2447.480192
391.077802	2487.809423
391.461606	2409.671538
391.845348	2487.809423
392.229027	2497.891731
392.612645	2447.480192
392.996200	2417.233269
393.379694	2475.206538
393.763125	2467.644808
394.146494	2447.480192
394.529801	2477.727115
394.913047	2432.356731
395.296230	2513.015192
395.679351	2442.439038
396.062410	2412.192115
396.445408	2447.480192
396.828343	2510.494615
397.211217	2424.795000
397.594028	2485.288846
397.976778	2455.041923
398.359466	2447.480192
398.742092	2414.712692
399.124656	2422.274423
399.507158	2437.397885
399.889598	2422.274423
400.271977	2386.986346
400.654294	2447.480192
401.036549	2450.000769
401.418742	2507.974038
401.800874	2505.453462
402.182944	2487.809423
402.564952	2447.480192
402.946898	2434.877308
403.328783	2432.356731
403.710606	2482.768269
404.092367	2452.521346
404.474067	2467.644808
404.855705	2442.439038
405.237282	2565.947308
405.618797	2470.165385
406.000250	2414.712692
406.381642	2452.521346
406.762972	2444.959615
407.144240	2427.315577
407.525447	2520.576923
407.906593	2467.644808
408.287677	2480.247692
408.668700	2452.521346
409.049661	2447.480192
409.430560	2434.877308
409.811399	2518.056346
410.192176	2465.124231
410.572891	2480.247692
410.953545	2427.315577
411.334138	2366.821731
411.714669	2452.521346
412.095139	2492.850577
412.475547	2530.659231
412.855894	2523.097500
413.236180	2548.303269
413.616405	2419.753846
413.996568	2460.083077
414.376670	2510.494615
414.756711	2439.918462
415.136691	2381.945192
415.516609	2444.959615
415.896466	2505.453462
416.276262	2465.124231
416.655997	2429.836154
417.035670	2515.535769
417.415283	2497.891731
417.794834	2472.685962
418.174324	2553.344423
418.553753	2515.535769
418.933121	2452.521346
419.312428	2558.385577
419.691674	2555.865000
420.070859	2475.206538
420.449983	2482.768269
420.829045	2450.000769
421.208047	2457.562500
421.586988	2402.109808
421.965867	2538.220962
422.344686	2495.371154
422.723444	2500.412308
423.102141	2427.315577
423.480777	2515.535769
423.859352	2392.027500
424.237866	2472.685962
424.616319	2490.330000
424.994712	2492.850577
425.373044	2467.644808
425.751314	2525.618077
426.129524	2444.959615
426.507673	2460.083077
426.885762	2545.782692
427.263789	2507.974038
427.641756	2543.262115
428.019662	2457.562500
428.397508	2510.494615
428.775292	2462.603654
429.153016	2492.850577
429.530679	2414.712692
429.908282	2477.727115
430.285824	2520.576923
430.663305	2424.795000
431.040726	2384.465769
431.418086	2568.467885
431.795385	2497.891731
432.172624	2475.206538
432.549802	2563.426731
432.926920	2513.015192
433.303977	2407.150962
433.680974	2533.179808
434.057910	2492.850577
434.434786	2490.330000
434.811601	2480.247692
435.188355	2528.138654
435.565050	2455.041923
435.941683	2515.535769
436.318257	2455.041923
436.694770	2480.247692
437.071222	2447.480192
437.447614	2472.685962
437.823946	2422.274423
438.200218	2543.262115
438.576429	2455.041923
438.952580	2417.233269
439.328670	2465.124231
439.704700	2470.165385
440.080670	2515.535769
440.456580	2447.480192
440.832429	2472.685962
441.208218	2422.274423
441.583947	2555.865000
441.959616	2528.138654
442.335224	2397.068654
442.710773	2399.589231
443.086261	2495.371154
443.461689	2412.192115
443.837057	2523.097500
444.212365	2603.755962
444.587612	2465.124231
444.962800	2513.015192
445.337927	2495.371154
445.712995	2530.659231
446.088002	2455.041923
446.462949	2462.603654
446.837837	2550.823846
447.212664	2472.685962
447.587431	2560.906154
447.962139	2472.685962
448.336786	2465.124231
448.711374	2475.206538
449.085901	2545.782692
449.460369	2530.659231
449.834776	2434.877308
450.209124	2502.932885
450.583412	2492.850577
450.957640	2482.768269
451.331808	2535.700385
451.705917	2492.850577
452.079965	2505.453462
452.453954	2520.576923
452.827883	2510.494615
453.201752	2467.644808
453.575562	2450.000769
453.949311	2634.002885
454.323001	2510.494615
454.696632	2500.412308
455.070202	2457.562500
455.443713	2570.988462
455.817164	2404.630385
456.190556	2485.288846
456.563888	2510.494615
456.937160	2442.439038
457.310373	2560.906154
457.683526	2452.521346
458.056619	2528.138654
458.429653	2429.836154
458.802628	2555.865000
459.175542	2530.659231
459.548398	2460.083077
459.921194	2487.809423
460.293930	2500.412308
460.666607	2543.262115
461.039224	2414.712692
461.411782	2495.371154
461.784280	2437.397885
462.156719	2535.700385
462.529099	2460.083077
462.901419	2538.220962
463.273680	2563.426731
463.645882	2407.150962
464.018024	2452.521346
464.390106	2545.782692
464.762130	2497.891731
465.134094	2470.165385
465.505999	2523.097500
465.877845	2444.959615
466.249631	2472.685962
466.621358	2528.138654
466.993026	2470.165385
467.364634	2470.165385
467.736184	2487.809423
468.107674	2525.618077
468.479105	2356.739423
468.850477	2424.795000
469.221790	2465.124231
469.593043	2442.439038
469.964238	2472.685962
470.335373	2427.315577
470.706449	2452.521346
471.077467	2598.714808
471.448425	2490.330000
471.819324	2560.906154
472.190164	2412.192115
472.560945	2450.000769
472.931667	2568.467885
473.302330	2394.548077
473.672934	2480.247692
474.043479	2485.288846
474.413965	2525.618077
474.784393	2452.521346
475.154761	2472.685962
475.525070	2555.865000
475.895321	2467.644808
476.265513	2513.015192
476.635645	2530.659231
477.005719	2475.206538
477.375734	2497.891731
477.745691	2422.274423
478.115588	2470.165385
478.485427	2485.288846
478.855207	2507.974038
479.224928	2432.356731
479.594591	2439.918462
479.964194	2455.041923
480.333739	2492.850577
480.703226	2437.397885
481.072653	2490.330000
481.442022	2460.083077
481.811333	2538.220962
482.180584	2495.371154
482.549777	2588.632500
482.918912	2515.535769
483.287988	2450.000769
483.657005	2507.974038
484.025964	2513.015192
484.394864	2467.644808
484.763706	2533.179808
485.132489	2475.206538
485.501213	2502.932885
485.869879	2475.206538
486.238487	2462.603654
486.607036	2505.453462
486.975527	2583.591346
487.343959	2535.700385
487.712333	2502.932885
488.080648	2434.877308
488.448905	2507.974038
488.817104	2470.165385
489.185244	2492.850577
489.553326	2455.041923
489.921350	2538.220962
490.289315	2523.097500
490.657222	2510.494615
491.025070	2525.618077
491.392861	2502.932885
491.760593	2477.727115
492.128267	2490.330000
492.495883	2470.165385
492.863440	2462.603654
493.230939	2601.235385
493.598380	2452.521346
493.965763	2510.494615
494.333088	2500.412308
494.700354	2500.412308
495.067563	2490.330000
495.434713	2429.836154
495.801805	2591.153077
496.168839	2480.247692
496.535815	2344.136538
496.902733	2515.535769
497.269593	2510.494615
497.636395	2505.453462
498.003139	2429.836154
498.369825	2437.397885
498.736453	2593.673654
499.103023	2485.288846
499.469535	2477.727115
499.835989	2379.424615
500.202385	2583.591346
500.568723	2495.371154
500.935003	2502.932885
501.301226	2457.562500
501.667390	2525.618077
502.033497	2465.124231
502.399546	2548.303269
502.765537	2555.865000
503.131470	2457.562500
503.497345	2497.891731
503.863163	2538.220962
504.228923	2608.797115
504.594625	2432.356731
504.960269	2513.015192
505.325856	2417.233269
505.691385	2518.056346
506.056856	2492.850577
506.422270	2490.330000
506.787625	2419.753846
507.152924	2543.262115
507.518164	2548.303269
507.883347	2586.111923
508.248472	2500.412308
508.613540	2565.947308
508.978550	2485.288846
509.343503	2502.932885
509.708398	2568.467885
510.073236	2540.741538
510.438016	2457.562500
510.802738	2487.809423
511.167403	2525.618077
511.532010	2467.644808
511.896561	2505.453462
512.261053	2528.138654
512.625488	2533.179808
512.989866	2432.356731
513.354186	2467.644808
513.718449	2472.685962
514.082655	2568.467885
514.446803	2490.330000
514.810894	2520.576923
515.174927	2407.150962
515.538904	2520.576923
515.902822	2472.685962
516.266684	2485.288846
516.630488	2444.959615
516.994235	2538.220962
517.357925	2434.877308
517.721558	2475.206538
518.085133	2513.015192
518.448651	2472.685962
518.812112	2477.727115
519.175516	2543.262115
519.538863	2578.550192
519.902152	2535.700385
520.265385	2414.712692
520.628560	2452.521346
520.991678	2550.823846
521.354739	2507.974038
521.717743	2457.562500
522.080690	2462.603654
522.443580	2470.165385
522.806413	2545.782692
523.169189	2507.974038
523.531908	2518.056346
523.894569	2505.453462
524.257174	2465.124231
524.619722	2452.521346
524.982213	2502.932885
525.344647	2417.233269
525.707025	2477.727115
526.069345	2452.521346
526.431608	2540.741538
526.793815	2485.288846
527.155964	2528.138654
527.518057	2462.603654
527.880093	2525.618077
528.242072	2520.576923
528.603995	2371.862885
528.965860	2533.179808
529.327669	2626.441154
529.689421	2462.603654
530.051117	2455.041923
530.412755	2480.247692
530.774337	2485.288846
531.135862	2513.015192
531.497331	2399.589231
531.858743	2407.150962
532.220098	2545.782692
532.581396	2573.509038
532.942638	2470.165385
533.303824	2535.700385
533.664953	2523.097500
534.026025	2497.891731
534.387040	2419.753846
534.747999	2485.288846
535.108902	2452.521346
535.469748	2434.877308
535.830537	2548.303269
536.191270	2530.659231
536.551947	2528.138654
536.912567	2419.753846
537.273131	2553.344423
537.633638	2447.480192
537.994089	2480.247692
538.354483	2533.179808
538.714821	2490.330000
539.075103	2500.412308
539.435328	2528.138654
539.795497	2576.029615
540.155609	2520.576923
540.515665	2555.865000
540.875665	2530.659231
541.235609	2497.891731
541.595496	2528.138654
541.955328	2460.083077
542.315102	2492.850577
542.674821	2450.000769
543.034483	2502.932885
543.394090	2563.426731
543.753640	2515.535769
544.113134	2485.288846
544.472571	2525.618077
544.831953	2480.247692
545.191278	2495.371154
545.550548	2548.303269
545.909761	2588.632500
546.268918	2497.891731
546.628019	2460.083077
546.987064	2507.974038
547.346053	2523.097500
547.704986	2513.015192
548.063863	2477.727115
548.422684	2465.124231
548.781449	2442.439038
549.140158	2439.918462
549.498811	2525.618077
549.857408	2477.727115
550.215949	2502.932885
550.574434	2560.906154
550.932864	2515.535769
551.291237	2477.727115
551.649555	2472.685962
552.007817	2510.494615
552.366022	2570.988462
552.724173	2492.850577
553.082267	2457.562500
553.440305	2495.371154
553.798288	2560.906154
554.156215	2475.206538
554.514086	2520.576923
554.871902	2487.809423
555.229661	2523.097500
555.587365	2515.535769
555.945014	2528.138654
556.302606	2540.741538
556.660143	2497.891731
557.017625	2490.330000
557.375050	2548.303269
557.732421	2593.673654
558.089735	2465.124231
558.446994	2543.262115
558.804197	2495.371154
559.161345	2563.426731
559.518437	2434.877308
559.875474	2533.179808
560.232455	2550.823846
560.589381	2427.315577
560.946251	2520.576923
561.303065	2482.768269
561.659825	2424.795000
562.016528	2555.865000
562.373177	2492.850577
562.729770	2530.659231
563.086307	2369.342308
563.442789	2543.262115
563.799216	2507.974038
564.155587	2535.700385
564.511904	2475.206538
564.868164	2520.576923
565.224370	2470.165385
565.580520	2482.768269
565.936615	2583.591346
566.292654	2583.591346
566.648638	2480.247692
567.004567	2490.330000
567.360441	2510.494615
567.716260	2540.741538
568.072023	2545.782692
568.427732	2586.111923
568.783385	2555.865000
569.138982	2475.206538
569.494525	2485.288846
569.850013	2533.179808
570.205445	2548.303269
570.560823	2533.179808
570.916145	2502.932885
571.271412	2427.315577
571.626625	2500.412308
571.981782	2513.015192
572.336884	2520.576923
572.691931	2480.247692
573.046923	2492.850577
573.401860	2419.753846
573.756743	2455.041923
574.111570	2434.877308
574.466342	2485.288846
574.821059	2434.877308
575.175722	2394.548077
575.530330	2558.385577
575.884882	2472.685962
576.239380	2502.932885
576.593823	2442.439038
576.948211	2457.562500
577.302544	2548.303269
577.656823	2500.412308
578.011047	2525.618077
578.365216	2490.330000
578.719330	2477.727115
579.073389	2507.974038
579.427394	2394.548077
579.781344	2457.562500
580.135239	2530.659231
580.489080	2568.467885
580.842866	2477.727115
581.196597	2518.056346
581.550273	2432.356731
581.903895	2470.165385
582.257463	2502.932885
582.610975	2427.315577
582.964434	2568.467885
583.317837	2465.124231
583.671186	2560.906154
584.024481	2460.083077
584.377721	2462.603654
584.730906	2452.521346
585.084037	2543.262115
585.437113	2495.371154
585.790135	2465.124231
586.143103	2490.330000
586.496016	2520.576923
586.848874	2576.029615
587.201679	2452.521346
587.554428	2407.150962
587.907124	2520.576923
588.259765	2465.124231
588.612352	2487.809423
588.964884	2530.659231
589.317362	2513.015192
589.669786	2460.083077
590.022155	2513.015192
590.374470	2533.179808
590.726731	2540.741538
591.078937	2570.988462
591.431090	2460.083077
591.783188	2470.165385
592.135232	2520.576923
592.487222	2495.371154
592.839157	2485.288846
593.191038	2540.741538
593.542866	2460.083077
593.894639	2525.618077
594.246358	2482.768269
594.598022	2578.550192
594.949633	2465.124231
595.301190	2500.412308
595.652692	2583.591346
596.004141	2480.247692
596.355535	2538.220962
596.706876	2477.727115
597.058162	2520.576923
597.409395	2550.823846
597.760573	2485.288846
598.111698	2507.974038
598.462768	2457.562500
598.813785	2515.535769
599.164748	2515.535769
599.515657	2528.138654
599.866511	2407.150962
600.217312	2533.179808
600.568060	2583.591346
600.918753	2497.891731
601.269392	2492.850577
601.619978	2497.891731
601.970510	2576.029615
602.320988	2470.165385
602.671412	2467.644808
603.021783	2455.041923
603.372100	2502.932885
603.722363	2502.932885
604.072572	2520.576923
604.422728	2462.603654
604.772830	2548.303269
605.122878	2429.836154
605.472872	2515.535769
605.822813	2470.165385
606.172701	2550.823846
606.522534	2467.644808
606.872314	2535.700385
607.222041	2477.727115
607.571714	2505.453462
607.921333	2450.000769
608.270899	2533.179808
608.620411	2497.891731
608.969870	2487.809423
609.319276	2462.603654
609.668627	2444.959615
610.017926	2495.371154
610.367171	2538.220962
610.716362	2477.727115
611.065500	2475.206538
611.414585	2492.850577
611.763616	2533.179808
612.112594	2568.467885
612.461518	2533.179808
612.810389	2437.397885
613.159207	2510.494615
613.507971	2520.576923
613.856682	2477.727115
614.205340	2404.630385
614.553945	2452.521346
614.902496	2500.412308
615.250994	2455.041923
615.599439	2492.850577
615.947830	2543.262115
616.296169	2555.865000
616.644454	2540.741538
616.992686	2457.562500
617.340864	2505.453462
617.688990	2545.782692
618.037063	2543.262115
618.385082	2465.124231
618.733048	2467.644808
619.080961	2472.685962
619.428821	2402.109808
619.776628	2434.877308
620.124382	2427.315577
620.472083	2482.768269
620.819731	2500.412308
621.167326	2555.865000
621.514868	2467.644808
621.862357	2422.274423
622.209793	2606.276538
622.557176	2540.741538
622.904506	2487.809423
623.251783	2497.891731
623.599007	2414.712692
623.946179	2568.467885
624.293297	2616.358846
624.640363	2543.262115
624.987376	2548.303269
625.334336	2523.097500
625.681243	2492.850577
626.028097	2447.480192
626.374899	2495.371154
626.721647	2507.974038
627.068343	2490.330000
627.414987	2495.371154
627.761577	2492.850577
628.108115	2457.562500
628.454600	2442.439038
628.801032	2525.618077
629.147412	2502.932885
629.493739	2495.371154
629.840014	2518.056346
630.186236	2530.659231
630.532405	2462.603654
630.878521	2535.700385
631.224585	2492.850577
631.570597	2497.891731
631.916556	2465.124231
632.262462	2510.494615
632.608316	2487.809423
632.954117	2510.494615
633.299866	2457.562500
633.645562	2568.467885
633.991206	2480.247692
634.336797	2442.439038
634.682336	2540.741538
635.027823	2477.727115
635.373257	2502.932885
635.718639	2480.247692
636.063968	2530.659231
636.409245	2560.906154
636.754470	2513.015192
637.099642	2520.576923
637.444762	2475.206538
637.789829	2455.041923
638.134845	2570.988462
638.479808	2485.288846
638.824719	2475.206538
639.169577	2513.015192
639.514383	2457.562500
639.859137	2444.959615
640.203839	2538.220962
640.548489	2513.015192
640.893086	2419.753846
641.237632	2528.138654
641.582125	2578.550192
641.926566	2482.768269
642.270955	2560.906154
642.615292	2500.412308
642.959576	2427.315577
643.303809	2507.974038
643.647990	2450.000769
643.992118	2495.371154
644.336195	2596.194231
644.680219	2558.385577
645.024192	2462.603654
645.368112	2520.576923
645.711981	2477.727115
646.055797	2437.397885
646.399562	2487.809423
646.743274	2555.865000
647.086935	2444.959615
647.430544	2558.385577
647.774101	2543.262115
648.117606	2543.262115
648.461059	2462.603654
648.804460	2518.056346
649.147810	2402.109808
649.491108	2475.206538
649.834354	2470.165385
650.177548	2510.494615
650.520690	2432.356731
650.863781	2490.330000
651.206820	2457.562500
651.549807	2505.453462
651.892742	2515.535769
652.235626	2540.741538
652.578458	2490.330000
652.921238	2513.015192
653.263967	2518.056346
653.606644	2482.768269
653.949269	2470.165385
654.291843	2475.206538
654.634365	2535.700385
654.976836	2497.891731
655.319255	2530.659231
655.661622	2490.330000
656.003938	2523.097500
656.346203	2482.768269
656.688416	2558.385577
657.030577	2460.083077
657.372687	2450.000769
657.714746	2515.535769
658.056753	2510.494615
658.398708	2518.056346
658.740612	2510.494615
659.082465	2510.494615
659.424266	2553.344423
659.766016	2439.918462
660.107715	2492.850577
660.449362	2419.753846
660.790958	2540.741538
661.132503	2586.111923
661.473996	2495.371154
661.815438	2444.959615
662.156829	2500.412308
662.498168	2550.823846
662.839456	2462.603654
663.180693	2462.603654
663.521879	2422.274423
663.863013	2525.618077
664.204097	2450.000769
664.545129	2505.453462
664.886110	2455.041923
665.227040	2535.700385
665.567918	2447.480192
665.908746	2560.906154
666.249522	2543.262115
666.590248	2457.562500
666.930922	2533.179808
667.271545	2518.056346
667.612118	2565.947308
667.952639	2485.288846
668.293109	2477.727115
668.633528	2510.494615
668.973896	2472.685962
669.314213	2563.426731
669.654480	2472.685962
669.994695	2533.179808
670.334859	2570.988462
670.674973	2475.206538
671.015035	2495.371154
671.355047	2439.918462
671.695008	2596.194231
672.034918	2460.083077
672.374777	2548.303269
672.714585	2523.097500
673.054342	2515.535769
673.394049	2442.439038
673.733705	2470.165385
674.073310	2548.303269
674.412864	2515.535769
674.752368	2523.097500
675.091820	2555.865000
675.431223	2490.330000
675.770574	2528.138654
676.109875	2573.509038
676.449125	2470.165385
676.788324	2523.097500
677.127473	2475.206538
677.466571	2528.138654
677.805619	2505.453462
678.144616	2530.659231
678.483562	2540.741538
678.822458	2487.809423
679.161303	2487.809423
679.500098	2583.591346
679.838842	2450.000769
680.177535	2510.494615
680.516179	2523.097500
680.854771	2523.097500
681.193314	2465.124231
681.531805	2485.288846
681.870247	2510.494615
682.208638	2505.453462
682.546978	2455.041923
682.885268	2482.768269
683.223508	2492.850577
683.561697	2520.576923
683.899836	2608.797115
684.237925	2513.015192
684.575963	2480.247692
684.913951	2480.247692
685.251889	2560.906154
685.589776	2422.274423
685.927614	2490.330000
686.265401	2444.959615
686.603137	2530.659231
686.940824	2465.124231
687.278460	2520.576923
687.616046	2480.247692
687.953582	2497.891731
688.291068	2545.782692
688.628504	2513.015192
688.965889	2560.906154
689.303224	2505.453462
689.640510	2497.891731
689.977745	2467.644808
690.314930	2505.453462
690.652065	2490.330000
690.989150	2492.850577
691.326185	2442.439038
691.663170	2518.056346
692.000105	2427.315577
692.336990	2550.823846
692.673825	2475.206538
693.010610	2434.877308
693.347345	2477.727115
693.684030	2472.685962
694.020665	2414.712692
694.357251	2543.262115
694.693786	2492.850577
695.030272	2558.385577
695.366707	2495.371154
695.703093	2603.755962
696.039429	2485.288846
696.375716	2520.576923
696.711952	2528.138654
697.048139	2523.097500
697.384276	2510.494615
697.720363	2538.220962
698.056400	2490.330000
698.392388	2543.262115
698.728326	2490.330000
699.064214	2530.659231
699.400053	2502.932885
699.735842	2444.959615
700.071581	2455.041923
700.407270	2525.618077
700.742910	2470.165385
701.078501	2581.070769
701.414042	2457.562500
701.749533	2513.015192
702.084974	2487.809423
702.420366	2384.465769
702.755709	2460.083077
703.091002	2437.397885
703.426246	2364.301154
703.761440	2523.097500
704.096584	2442.439038
704.431679	2520.576923
704.766725	2528.138654
705.101721	2457.562500
705.436668	2545.782692
705.771565	2565.947308
706.106413	2490.330000
706.441212	2507.974038
706.775961	2407.150962
707.110661	2462.603654
707.445311	2513.015192
707.779913	2399.589231
708.114465	2432.356731
708.448967	2543.262115
708.783421	2535.700385
709.117825	2505.453462
709.452180	2550.823846
709.786485	2525.618077
710.120742	2475.206538
710.454949	2447.480192
710.789107	2507.974038
711.123216	2404.630385
711.457275	2513.015192
711.791286	2553.344423
712.125247	2533.179808
712.459159	2452.521346
712.793023	2472.685962
713.126837	2505.453462
713.460602	2570.988462
713.794318	2535.700385
714.127985	2465.124231
714.461602	2475.206538
714.795171	2482.768269
715.128691	2470.165385
715.462162	2467.644808
715.795584	2477.727115
716.128957	2593.673654
716.462281	2530.659231
716.795556	2495.371154
717.128782	2507.974038
717.461960	2518.056346
717.795088	2530.659231
718.128167	2515.535769
718.461198	2507.974038
718.794180	2502.932885
719.127113	2553.344423
719.459997	2500.412308
719.792833	2477.727115
720.125619	2518.056346
720.458357	2480.247692
720.791046	2394.548077
721.123686	2500.412308
721.456278	2497.891731
721.788821	2452.521346
722.121315	2460.083077
722.453761	2462.603654
722.786158	2485.288846
723.118506	2452.521346
723.450805	2505.453462
723.783056	2429.836154
724.115259	2505.453462
724.447412	2452.521346
724.779518	2540.741538
725.111574	2523.097500
725.443582	2515.535769
725.775542	2417.233269
726.107453	2495.371154
726.439315	2550.823846
726.771129	2570.988462
727.102895	2502.932885
727.434612	2482.768269
727.766281	2518.056346
728.097901	2485.288846
728.429473	2429.836154
728.760996	2500.412308
729.092471	2530.659231
729.423897	2487.809423
729.755276	2452.521346
730.086606	2480.247692
730.417887	2475.206538
730.749120	2429.836154
731.080305	2523.097500
731.411442	2490.330000
731.742530	2560.906154
732.073570	2397.068654
732.404562	2530.659231
732.735506	2460.083077
733.066401	2460.083077
733.397249	2460.083077
733.728048	2523.097500
734.058798	2530.659231
734.389501	2480.247692
734.720156	2444.959615
735.050762	2510.494615
735.381320	2470.165385
735.711831	2505.453462
736.042293	2500.412308
736.372707	2533.179808
736.703073	2581.070769
737.033391	2455.041923
737.363661	2497.891731
737.693883	2555.865000
738.024056	2505.453462
738.354182	2455.041923
738.684260	2482.768269
739.014290	2427.315577
739.344272	2513.015192
739.674207	2487.809423
740.004093	2528.138654
740.333931	2530.659231
740.663722	2548.303269
740.993464	2505.453462
741.323159	2457.562500
741.652806	2487.809423
741.982405	2581.070769
742.311956	2497.891731
742.641460	2497.891731
742.970915	2548.303269
743.300323	2427.315577
743.629683	2495.371154
743.958996	2462.603654
744.288260	2482.768269
744.617477	2482.768269
744.946647	2472.685962
745.275768	2568.467885
745.604842	2434.877308
745.933869	2429.836154
746.262847	2465.124231
746.591778	2560.906154
746.920662	2603.755962
747.249498	2518.056346
747.578286	2515.535769
747.907027	2487.809423
748.235720	2475.206538
748.564365	2470.165385
748.892963	2497.891731
749.221514	2412.192115
749.550017	2397.068654
749.878473	2518.056346
750.206881	2480.247692
750.535242	2457.562500
750.863555	2465.124231
751.191821	2482.768269
751.520039	2472.685962
751.848210	2510.494615
752.176334	2447.480192
752.504411	2553.344423
752.832440	2530.659231
753.160421	2555.865000
753.488356	2475.206538
753.816243	2482.768269
754.144082	2525.618077
754.471875	2485.288846
754.799620	2523.097500
755.127318	2502.932885
755.454969	2455.041923
755.782572	2402.109808
756.110129	2487.809423
756.437638	2419.753846
756.765100	2570.988462
757.092515	2467.644808
757.419882	2495.371154
757.747203	2467.644808
758.074477	2525.618077
758.401703	2535.700385
758.728882	2472.685962
759.056014	2502.932885
759.383099	2543.262115
759.710138	2518.056346
760.037129	2568.467885
760.364073	2455.041923
760.690970	2460.083077
761.017820	2515.535769
761.344623	2518.056346
761.671379	2467.644808
761.998088	2518.056346
762.324751	2500.412308
762.651366	2447.480192
762.977935	2477.727115
763.304456	2533.179808
763.630931	2523.097500
763.957359	2495.371154
764.283740	2548.303269
764.610074	2573.509038
764.936362	2500.412308
765.262602	2525.618077
765.588796	2507.974038
765.914943	2502.932885
766.241044	2581.070769
766.567097	2530.659231
766.893104	2412.192115
767.219064	2472.685962
767.544978	2450.000769
767.870845	2550.823846
768.196665	2565.947308
768.522438	2475.206538
768.848165	2439.918462
769.173846	2495.371154
769.499479	2480.247692
769.825066	2528.138654
770.150607	2528.138654
770.476101	2475.206538
770.801548	2492.850577
771.126949	2475.206538
771.452303	2543.262115
771.777611	2507.974038
772.102872	2472.685962
772.428087	2475.206538
772.753256	2462.603654
773.078378	2465.124231
773.403453	2462.603654
773.728482	2530.659231
774.053465	2598.714808
774.378401	2444.959615
774.703291	2538.220962
775.028135	2434.877308
775.352932	2530.659231
775.677683	2472.685962
776.002388	2497.891731
776.327046	2507.974038
776.651658	2523.097500
776.976224	2530.659231
777.300743	2626.441154
777.625216	2452.521346
777.949643	2502.932885
778.274024	2424.795000
778.598359	2570.988462
778.922647	2462.603654
779.246889	2450.000769
779.571086	2470.165385
779.895236	2472.685962
780.219339	2540.741538
780.543397	2460.083077
780.867409	2505.453462
781.191374	2475.206538
781.515294	2520.576923
781.839167	2439.918462
782.162995	2535.700385
782.486776	2432.356731
782.810511	2452.521346
783.134201	2525.618077
783.457844	2470.165385
783.781441	2477.727115
784.104993	2419.753846
784.428498	2525.618077
784.751958	2457.562500
785.075372	2646.605769
785.398739	2467.644808
785.722061	2555.865000
786.045337	2467.644808
786.368568	2543.262115
786.691752	2538.220962
787.014891	2477.727115
787.337983	2518.056346
787.661030	2447.480192
787.984031	2510.494615
788.306987	2472.685962
788.629897	2437.397885
788.952760	2543.262115
789.275579	2467.644808
789.598351	2495.371154
789.921078	2505.453462
790.243759	2548.303269
790.566395	2455.041923
790.888984	2533.179808
791.211529	2523.097500
791.534027	2452.521346
791.856480	2528.138654
792.178888	2513.015192
792.501249	2505.453462
792.823566	2495.371154
793.145836	2515.535769
793.468062	2472.685962
793.790241	2434.877308
794.112375	2538.220962
794.434464	2432.356731
794.756507	2518.056346
795.078505	2530.659231
795.400457	2422.274423
795.722364	2487.809423
796.044226	2465.124231
796.366042	2492.850577
796.687812	2485.288846
797.009538	2470.165385
797.331218	2386.986346
797.652852	2548.303269
797.974442	2460.083077
798.295986	2482.768269
798.617484	2510.494615
798.938938	2452.521346
799.260346	2437.397885
799.581709	2530.659231
799.903026	2495.371154
800.224299	2581.070769
800.545526	2530.659231
800.866708	2487.809423
801.187845	2495.371154
801.508936	2477.727115
801.829983	2515.535769
802.150984	2460.083077
802.471940	2528.138654
802.792851	2437.397885
803.113717	2472.685962
803.434538	2507.974038
803.755314	2475.206538
804.076045	2392.027500
804.396731	2402.109808
804.717372	2515.535769
805.037967	2497.891731
805.358518	2583.591346
805.679024	2530.659231
805.999485	2414.712692
806.319901	2482.768269
806.640272	2457.562500
806.960598	2510.494615
807.280879	2510.494615
807.601115	2437.397885
807.921306	2495.371154
808.241453	2523.097500
808.561554	2439.918462
808.881611	2555.865000
809.201623	2462.603654
809.521590	2457.562500
809.841513	2465.124231
810.161390	2475.206538
810.481223	2477.727115
810.801011	2505.453462
811.120755	2407.150962
811.440453	2533.179808
811.760107	2507.974038
812.079716	2573.509038
812.399281	2477.727115
812.718801	2442.439038
813.038276	2535.700385
813.357707	2558.385577
813.677093	2480.247692
813.996434	2593.673654
814.315731	2475.206538
814.634983	2437.397885
814.954191	2442.439038
815.273354	2535.700385
815.592473	2530.659231
815.911547	2447.480192
816.230577	2407.150962
816.549562	2500.412308
816.868502	2457.562500
817.187399	2480.247692
817.506250	2518.056346
817.825058	2538.220962
818.143821	2515.535769
818.462539	2452.521346
818.781213	2465.124231
819.099843	2502.932885
819.418429	2502.932885
819.736970	2462.603654
820.055466	2439.918462
820.373919	2497.891731
820.692327	2434.877308
821.010691	2439.918462
821.329011	2495.371154
821.647286	2530.659231
821.965517	2447.480192
822.283704	2477.727115
822.601847	2409.671538
822.919945	2563.426731
823.237999	2424.795000
823.556010	2417.233269
823.873976	2427.315577
824.191897	2490.330000
824.509775	2429.836154
824.827609	2497.891731
825.145398	2472.685962
825.463144	2402.109808
825.780845	2475.206538
826.098502	2500.412308
826.416116	2507.974038
826.733685	2510.494615
827.051210	2424.795000
827.368692	2502.932885
827.686129	2480.247692
828.003522	2568.467885
828.320872	2495.371154
828.638177	2502.932885
828.955439	2439.918462
829.272656	2565.947308
829.589830	2457.562500
829.906960	2513.015192
830.224046	2455.041923
830.541088	2520.576923
830.858086	2482.768269
831.175041	2482.768269
831.491952	2490.330000
831.808819	2366.821731
832.125642	2495.371154
832.442421	2535.700385
832.759157	2495.371154
833.075849	2475.206538
833.392497	2472.685962
833.709101	2472.685962
834.025662	2412.192115
834.342179	2573.509038
834.658653	2518.056346
834.975083	2465.124231
835.291469	2540.741538
835.607811	2535.700385
835.924110	2480.247692
836.240366	2427.315577
836.556578	2513.015192
836.872746	2434.877308
837.188871	2497.891731
837.504952	2389.506923
837.820990	2447.480192
838.136984	2570.988462
838.452935	2518.056346
838.768842	2502.932885
839.084706	2500.412308
839.400526	2573.509038
839.716303	2465.124231
840.032037	2477.727115
840.347727	2429.836154
840.663373	2480.247692
840.978977	2621.400000
841.294537	2487.809423
841.610054	2472.685962
841.925527	2500.412308
842.240957	2475.206538
842.556344	2515.535769
842.871687	2492.850577
843.186987	2419.753846
843.502244	2490.330000
843.817458	2442.439038
844.132629	2528.138654
844.447756	2515.535769
844.762840	2475.206538
845.077881	2439.918462
845.392879	2510.494615
845.707833	2452.521346
846.022745	2528.138654
846.337613	2513.015192
846.652438	2520.576923
846.967221	2369.342308
847.281960	2505.453462
847.596656	2563.426731
847.911309	2480.247692
848.225919	2480.247692
848.540485	2586.111923
848.855009	2477.727115
849.169490	2485.288846
849.483928	2450.000769
849.798323	2455.041923
850.112675	2513.015192
850.426984	2513.015192
850.741251	2568.467885
851.055474	2540.741538
851.369654	2533.179808
851.683792	2480.247692
851.997887	2450.000769
852.311938	2513.015192
852.625947	2450.000769
852.939914	2460.083077
853.253837	2515.535769
853.567718	2465.124231
853.881555	2429.836154
854.195350	2550.823846
854.509103	2414.712692
854.822812	2487.809423
855.136479	2452.521346
855.450103	2550.823846
855.763685	2520.576923
856.077224	2523.097500
856.390720	2593.673654
856.704173	2434.877308
857.017584	2500.412308
857.330953	2414.712692
857.644278	2475.206538
857.957561	2455.041923
858.270802	2447.480192
858.584000	2359.260000
858.897155	2477.727115
859.210268	2538.220962
859.523339	2507.974038
859.836367	2507.974038
860.149352	2570.988462
860.462295	2492.850577
860.775195	2457.562500
861.088054	2482.768269
861.400869	2497.891731
861.713642	2540.741538
862.026373	2555.865000
862.339062	2472.685962
862.651708	2460.083077
862.964312	2528.138654
863.276873	2525.618077
863.589392	2412.192115
863.901869	2465.124231
864.214303	2490.330000
864.526696	2397.068654
864.839045	2462.603654
865.151353	2485.288846
865.463619	2462.603654
865.775842	2475.206538
866.088023	2558.385577
866.400162	2409.671538
866.712258	2518.056346
867.024313	2369.342308
867.336325	2432.356731
867.648296	2437.397885
867.960224	2525.618077
868.272110	2492.850577
868.583954	2520.576923
868.895755	2520.576923
869.207515	2563.426731
869.519233	2538.220962
869.830909	2455.041923
870.142542	2490.330000
870.454134	2475.206538
870.765684	2505.453462
871.077191	2472.685962
871.388657	2513.015192
871.700081	2490.330000
872.011463	2472.685962
872.322803	2462.603654
872.634101	2540.741538
872.945357	2565.947308
873.256571	2525.618077
873.567744	2505.453462
873.878874	2581.070769
874.189963	2545.782692
874.501010	2497.891731
874.812015	2523.097500
875.122979	2427.315577
875.433900	2510.494615
875.744780	2533.179808
876.055618	2447.480192
876.366415	2460.083077
876.677169	2583.591346
876.987882	2465.124231
877.298554	2475.206538
877.609183	2477.727115
877.919771	2475.206538
878.230317	2490.330000
878.540822	2563.426731
878.851285	2386.986346
879.161707	2497.891731
879.472087	2497.891731
879.782425	2520.576923
880.092722	2439.918462
880.402977	2472.685962
880.713191	2513.015192
881.023363	2467.644808
881.333494	2565.947308
881.643583	2505.453462
881.953631	2495.371154
882.263637	2540.741538
882.573602	2447.480192
882.883526	2467.644808
883.193408	2467.644808
883.503248	2578.550192
883.813048	2465.124231
884.122806	2452.521346
884.432522	2402.109808
884.742197	2497.891731
885.051831	2492.850577
885.361424	2452.521346
885.670975	2485.288846
885.980485	2540.741538
886.289954	2513.015192
886.599382	2450.000769
886.908768	2439.918462
887.218113	2533.179808
887.527417	2495.371154
887.836680	2540.741538
888.145901	2490.330000
888.455082	2439.918462
888.764221	2465.124231
889.073319	2553.344423
889.382376	2495.371154
889.691392	2535.700385
890.000366	2460.083077
890.309300	2518.056346
890.618193	2465.124231
890.927044	2472.685962
891.235855	2533.179808
891.544625	2555.865000
891.853353	2598.714808
892.162041	2457.562500
892.470687	2444.959615
892.779293	2434.877308
893.087858	2507.974038
893.396381	2513.015192
893.704864	2477.727115
894.013306	2507.974038
894.321707	2392.027500
894.630068	2518.056346
894.938387	2525.618077
895.246665	2502.932885
895.554903	2462.603654
895.863100	2606.276538
896.171256	2553.344423
896.479371	2467.644808
896.787446	2455.041923
897.095480	2576.029615
897.403473	2487.809423
897.711425	2515.535769
898.019336	2482.768269
898.327207	2417.233269
898.635038	2462.603654
898.942827	2502.932885
899.250576	2538.220962
899.558284	2535.700385
899.865952	2447.480192
900.173579	2500.412308
900.481165	2545.782692
900.788711	2487.809423
901.096216	2528.138654
901.403681	2487.809423
901.711105	2525.618077
902.018489	2477.727115
902.325832	2442.439038
902.633135	2477.727115
902.940397	2457.562500
903.247619	2513.015192
903.554800	2487.809423
903.861941	2460.083077
904.169041	2558.385577
904.476101	2568.467885
904.783121	2520.576923
905.090100	2507.974038
905.397039	2530.659231
905.703938	2437.397885
906.010796	2477.727115
906.317614	2510.494615
906.624391	2492.850577
906.931129	2520.576923
907.237826	2507.974038
907.544483	2548.303269
907.851099	2460.083077
908.157675	2515.535769
908.464211	2424.795000
908.770707	2518.056346
909.077163	2492.850577
909.383578	2434.877308
909.689954	2497.891731
909.996289	2528.138654
910.302584	2467.644808
910.608839	2439.918462
910.915054	2502.932885
911.221229	2548.303269
911.527363	2578.550192
911.833458	2447.480192
912.139513	2490.330000
912.445527	2460.083077
912.751502	2447.480192
913.057436	2528.138654
913.363331	2462.603654
913.669186	2570.988462
913.975000	2530.659231
914.280775	2402.109808
914.586510	2518.056346
914.892205	2485.288846
915.197859	2535.700385
915.503475	2520.576923
915.809050	2460.083077
916.114585	2477.727115
916.420081	2558.385577
916.725536	2482.768269
917.030952	2525.618077
917.336328	2510.494615
917.641665	2482.768269
917.946961	2457.562500
918.252218	2460.083077
918.557435	2533.179808
918.862612	2439.918462
919.167750	2450.000769
919.472848	2558.385577
919.777906	2510.494615
920.082925	2475.206538
920.387904	2500.412308
920.692843	2490.330000
920.997743	2487.809423
921.302603	2480.247692
921.607423	2543.262115
921.912204	2460.083077
922.216946	2520.576923
922.521647	2422.274423
922.826310	2545.782692
923.130932	2530.659231
923.435516	2525.618077
923.740059	2505.453462
924.044564	2460.083077
924.349028	2477.727115
924.653454	2485.288846
924.957840	2427.315577
925.262186	2467.644808
925.566493	2500.412308
925.870761	2407.150962
926.174989	2432.356731
926.479178	2447.480192
926.783328	2432.356731
927.087438	2470.165385
927.391509	2457.562500
927.695541	2495.371154
927.999533	2467.644808
928.303486	2465.124231
928.607400	2480.247692
928.911275	2467.644808
929.215110	2518.056346
929.518906	2442.439038
929.822663	2538.220962
930.126381	2520.576923
930.430060	2417.233269
930.733699	2467.644808
931.037299	2555.865000
931.340861	2457.562500
931.644383	2480.247692
931.947866	2407.150962
932.251309	2422.274423
932.554714	2568.467885
932.858080	2462.603654
933.161407	2591.153077
933.464694	2533.179808
933.767943	2485.288846
934.071153	2487.809423
934.374323	2500.412308
934.677455	2520.576923
934.980548	2444.959615
935.283602	2533.179808
935.586617	2487.809423
935.889593	2475.206538
936.192530	2535.700385
936.495428	2518.056346
936.798287	2510.494615
937.101108	2513.015192
937.403890	2477.727115
937.706632	2502.932885
938.009336	2497.891731
938.312002	2480.247692
938.614628	2424.795000
938.917216	2513.015192
939.219765	2470.165385
939.522275	2422.274423
939.824747	2515.535769
940.127179	2482.768269
940.429573	2520.576923
940.731929	2450.000769
941.034246	2465.124231
941.336524	2563.426731
941.638763	2495.371154
941.940964	2434.877308
942.243126	2480.247692
942.545250	2417.233269
942.847335	2460.083077
943.149381	2467.644808
943.451389	2462.603654
943.753359	2520.576923
944.055290	2528.138654
944.357182	2475.206538
944.659036	2533.179808
944.960851	2490.330000
945.262628	2510.494615
945.564367	2573.509038
945.866067	2457.562500
946.167729	2409.671538
946.469352	2581.070769
946.770937	2475.206538
947.072484	2434.877308
947.373992	2573.509038
947.675462	2460.083077
947.976893	2545.782692
948.278286	2502.932885
948.579641	2467.644808
948.880958	2475.206538
949.182236	2394.548077
949.483476	2482.768269
949.784678	2460.083077
950.085841	2523.097500
950.386967	2487.809423
950.688054	2578.550192
950.989103	2389.506923
951.290114	2565.947308
951.591087	2470.165385
951.892021	2513.015192
952.192917	2578.550192
952.493776	2460.083077
952.794596	2487.809423
953.095378	2525.618077
953.396122	2515.535769
953.696828	2502.932885
953.997496	2485.288846
954.298126	2432.356731
954.598718	2427.315577
954.899272	2477.727115
955.199788	2520.576923
955.500266	2437.397885
955.800706	2510.494615
956.101108	2462.603654
956.401472	2533.179808
956.701798	2500.412308
957.002087	2523.097500
957.302337	2560.906154
957.602550	2465.124231
957.902724	2465.124231
958.202861	2490.330000
958.502960	2525.618077
958.803022	2455.041923
959.103045	2457.562500
959.403031	2492.850577
959.702979	2394.548077
960.002889	2422.274423
960.302762	2502.932885
960.602596	2538.220962
960.902393	2581.070769
961.202153	2523.097500
961.501875	2515.535769
961.801559	2424.795000
962.101205	2497.891731
962.400814	2520.576923
962.700385	2465.124231
962.999918	2492.850577
963.299414	2518.056346
963.598873	2507.974038
963.898293	2515.535769
964.197677	2492.850577
964.497022	2530.659231
964.796331	2558.385577
965.095601	2427.315577
965.394835	2477.727115
965.694030	2470.165385
965.993189	2520.576923
966.292309	2477.727115
966.591393	2432.356731
966.890439	2477.727115
967.189447	2505.453462
967.488419	2475.206538
967.787353	2417.233269
968.086249	2495.371154
968.385108	2462.603654
968.683930	2482.768269
968.982714	2422.274423
969.281462	2548.303269
969.580172	2513.015192
969.878844	2500.412308
970.177480	2485.288846
970.476078	2530.659231
970.774639	2583.591346
971.073162	2540.741538
971.371649	2495.371154
971.670098	2442.439038
971.968510	2550.823846
972.266885	2439.918462
972.565223	2520.576923
972.863524	2447.480192
973.161788	2424.795000
973.460014	2399.589231
973.758204	2414.712692
974.056356	2419.753846
974.354471	2578.550192
974.652550	2397.068654
974.950591	2470.165385
975.248595	2482.768269
975.546563	2460.083077
975.844493	2442.439038
976.142386	2507.974038
976.440243	2535.700385
976.738062	2414.712692
977.035845	2414.712692
977.333590	2444.959615
977.631299	2492.850577
977.928971	2492.850577
978.226606	2558.385577
978.524204	2548.303269
978.821765	2553.344423
979.119290	2404.630385
979.416777	2500.412308
979.714228	2492.850577
980.011642	2427.315577
980.309020	2394.548077
980.606360	2553.344423
980.903664	2429.836154
981.200931	2475.206538
981.498162	2518.056346
981.795356	2412.192115
982.092513	2419.753846
982.389633	2495.371154
982.686717	2472.685962
982.983764	2492.850577
983.280775	2540.741538
983.577749	2475.206538
983.874686	2477.727115
984.171587	2560.906154
984.468451	2510.494615
984.765279	2455.041923
985.062070	2472.685962
985.358824	2477.727115
985.655543	2414.712692
985.952224	2510.494615
986.248869	2507.974038
986.545478	2455.041923
986.842050	2492.850577
987.138586	2487.809423
987.435086	2480.247692
987.731549	2447.480192
988.027975	2563.426731
988.324366	2475.206538
988.620719	2442.439038
988.917037	2414.712692
989.213318	2507.974038
989.509563	2475.206538
989.805772	2442.439038
990.101944	2530.659231
990.398080	2502.932885
990.694180	2507.974038
990.990244	2422.274423
991.286271	2555.865000
991.582262	2606.276538
991.878217	2540.741538
992.174136	2457.562500
992.470019	2495.371154
992.765865	2558.385577
993.061676	2457.562500
993.357450	2485.288846
993.653188	2417.233269
993.948890	2452.521346
994.244556	2442.439038
994.540186	2492.850577
994.835780	2472.685962
995.131337	2523.097500
995.426859	2550.823846
995.722345	2465.124231
996.017795	2510.494615
996.313208	2520.576923
996.608586	2520.576923
996.903928	2470.165385
997.199234	2533.179808
997.494504	2444.959615
997.789738	2460.083077
998.084936	2434.877308
998.380099	2434.877308
998.675225	2444.959615
998.970316	2507.974038
999.265371	2470.165385
999.560390	2548.303269
999.855373	2528.138654
1000.150320	2457.562500
1000.445232	2502.932885
1000.740108	2460.083077
1001.034948	2523.097500
1001.329752	2548.303269
1001.624521	2507.974038
1001.919254	2434.877308
1002.213951	2490.330000
1002.508613	2444.959615
1002.803239	2497.891731
1003.097829	2513.015192
1003.392384	2457.562500
1003.686903	2505.453462
1003.981386	2432.356731
1004.275834	2497.891731
1004.570246	2570.988462
1004.864623	2467.644808
1005.158964	2412.192115
1005.453270	2545.782692
1005.747540	2422.274423
1006.041775	2495.371154
1006.335974	2477.727115
1006.630138	2450.000769
1006.924266	2502.932885
1007.218359	2530.659231
1007.512416	2442.439038
1007.806438	2553.344423
1008.100425	2470.165385
1008.394376	2439.918462
1008.688292	2470.165385
1008.982172	2586.111923
1009.276017	2535.700385
1009.569827	2465.124231
1009.863602	2555.865000
1010.157341	2455.041923
1010.451045	2407.150962
1010.744714	2477.727115
1011.038347	2502.932885
1011.331945	2502.932885
1011.625508	2492.850577
1011.919036	2523.097500
1012.212528	2462.603654
1012.505986	2419.753846
1012.799408	2485.288846
1013.092795	2525.618077
1013.386147	2550.823846
1013.679464	2480.247692
1013.972745	2535.700385
1014.265992	2497.891731
1014.559204	2548.303269
1014.852380	2505.453462
1015.145521	2465.124231
1015.438628	2553.344423
1015.731699	2462.603654
1016.024736	2442.439038
1016.317737	2518.056346
1016.610703	2507.974038
1016.903635	2455.041923
1017.196531	2404.630385
1017.489393	2540.741538
1017.782219	2412.192115
1018.075011	2472.685962
1018.367768	2447.480192
1018.660490	2467.644808
1018.953177	2467.644808
1019.245829	2467.644808
