Dividing Wavelength (nm)	Counts (n)	Blue Motor Position (mm): 0.000000	Red Motor Position (mm): 19.000000	
326.493990	2144.983235
326.888308	2144.983235
327.282561	2144.983235
327.676750	2121.675460
328.070874	2123.570934
328.464933	2124.521192
328.858929	2135.551236
329.252859	2148.126395
329.646726	2162.629794
330.040528	2176.818122
330.434265	2195.082222
330.827938	2214.654502
331.221547	2232.089333
331.615091	2253.355440
332.008571	2273.497370
332.401986	2290.284413
332.795338	2314.340799
333.188625	2334.702019
333.581847	2352.477128
333.975006	2373.728112
334.368100	2391.745195
334.761129	2408.683472
335.154095	2424.172417
335.546996	2438.101126
335.939833	2454.227777
336.332606	2465.898048
336.725315	2478.768114
337.117960	2488.273209
337.510540	2493.705052
337.903056	2503.613440
338.295508	2512.619462
338.687896	2519.382170
339.080220	2526.008766
339.472480	2533.094108
339.864676	2534.520755
340.256807	2537.457227
340.648875	2542.886549
341.040879	2545.581046
341.432818	2543.884698
341.824694	2547.652960
342.216506	2544.275387
342.608253	2545.956612
342.999937	2542.780685
343.391557	2543.400747
343.783113	2542.170706
344.174605	2541.837989
344.566033	2537.941178
344.957397	2537.222813
345.348697	2535.362627
345.739934	2534.351876
346.131106	2533.981351
346.522215	2530.913809
346.913260	2525.933149
347.304241	2526.507841
347.695159	2523.957017
348.086012	2523.306708
348.476802	2521.368384
348.867528	2520.849145
349.258191	2521.446522
349.648789	2519.281347
350.039324	2519.185565
350.429796	2521.063394
350.820203	2513.978053
351.210548	2515.087107
351.600828	2514.177178
351.991045	2515.014010
352.381198	2512.727847
352.771288	2512.611900
353.161314	2512.516118
353.551276	2513.128618
353.941175	2510.804646
354.331010	2511.018895
354.720782	2512.843793
355.110490	2516.022241
355.500135	2512.989987
355.889717	2513.143742
356.279235	2513.448732
356.668689	2516.352436
357.058080	2517.776562
357.447408	2512.569050
357.836672	2514.729185
358.225873	2510.978566
358.615010	2513.912518
359.004084	2518.792355
359.393095	2517.229597
359.782043	2519.482993
360.170927	2516.004597
360.559748	2517.882426
360.948505	2521.247397
361.337199	2521.396111
361.725830	2522.127078
362.114398	2522.474918
362.502903	2521.386028
362.891344	2523.752850
363.279722	2521.360823
363.668037	2526.656555
364.056289	2523.243693
364.444478	2523.916688
364.832603	2523.800741
365.220665	2524.070443
365.608665	2526.470032
365.996601	2522.505164
366.384474	2526.500279
366.772284	2528.196627
367.160031	2528.584796
367.547715	2527.574045
367.935336	2525.093797
368.322893	2522.462315
368.710388	2526.036493
369.097820	2528.962883
369.485189	2527.800897
369.872495	2527.516071
370.259738	2529.409025
370.646918	2529.719056
371.034035	2531.097811
371.421090	2530.318953
371.808081	2533.310878
372.195010	2534.513193
372.581875	2529.928263
372.968678	2533.714170
373.355418	2536.393543
373.742096	2534.036804
374.128710	2536.564943
374.515262	2536.123842
374.901751	2534.419932
375.288177	2538.641898
375.674540	2541.235572
376.060841	2540.217258
376.447079	2543.753628
376.833254	2545.845707
377.219367	2542.616848
377.605417	2546.647250
377.991404	2545.540717
378.377329	2550.271840
378.763191	2551.643034
379.148991	2560.349106
379.534727	2564.371947
379.920402	2566.549726
380.306013	2572.644481
380.691563	2576.017012
381.077049	2579.107240
381.462474	2582.552868
381.847835	2587.392376
382.233134	2594.354210
382.618371	2599.473501
383.003545	2607.015067
383.388657	2611.262240
383.773706	2618.551748
384.158693	2622.196502
384.543618	2632.727473
384.928480	2637.960190
385.313280	2645.458907
385.698017	2653.129022
386.082692	2660.030362
386.467305	2665.265600
386.851856	2674.506035
387.236344	2687.272757
387.620770	2691.671164
388.005133	2703.722042
388.389435	2716.879454
388.773674	2719.117726
389.157851	2725.303222
389.541965	2740.764441
389.926018	2739.925089
390.310008	2755.845052
390.693936	2762.146495
391.077802	2772.042280
391.461606	2782.270781
391.845348	2791.170938
392.229027	2801.533030
392.612645	2813.374700
392.996200	2822.854590
393.379694	2836.445541
393.763125	2849.761749
394.146494	2860.688450
394.529801	2872.671272
394.913047	2891.333624
395.296230	2891.593243
395.679351	2895.719428
396.062410	2912.183836
396.445408	2910.069072
396.828343	2922.185485
397.211217	2929.331321
397.594028	2925.356371
397.976778	2937.349276
398.359466	2952.697069
398.742092	2949.495936
399.124656	2968.622074
399.507158	2979.896615
399.889598	2984.705875
400.271977	2997.422186
400.654294	3005.339318
401.036549	3016.046729
401.418742	3025.287164
401.800874	3046.901111
402.182944	3050.311452
402.564952	3080.427305
402.946898	3070.718042
403.328783	3080.823035
403.710606	3094.141764
404.092367	3117.782255
404.474067	3146.214362
404.855705	3134.856643
405.237282	3136.802528
405.618797	3165.761436
406.000250	3188.587781
406.381642	3219.275805
406.762972	3223.263358
407.144240	3210.340360
407.525447	3235.183166
407.906593	3235.657034
408.287677	3254.843666
408.668700	3276.175308
409.049661	3271.779422
409.430560	3288.737864
409.811399	3292.813637
410.192176	3314.082265
410.572891	3318.490754
410.953545	3360.039944
411.334138	3328.192454
411.714669	3379.506359
412.095139	3322.853873
412.475547	3374.790360
412.855894	3367.145450
413.236180	3395.552352
413.616405	3375.344887
413.996568	3397.175604
414.376670	3400.588465
414.756711	3400.354051
415.136691	3417.320054
415.516609	3443.803756
415.896466	3449.139818
416.276262	3473.770895
416.655997	3502.134947
417.035670	3506.961852
417.415283	3572.506934
417.794834	3594.410748
418.174324	3574.820824
418.553753	3573.046338
418.933121	3612.500928
419.312428	3600.485338
419.691674	3592.563165
420.070859	3630.828043
420.449983	3605.042541
420.829045	3651.068276
421.208047	3631.223774
421.586988	3671.144671
421.965867	3696.209288
422.344686	3697.267930
422.723444	3726.733475
423.102141	3631.233856
423.480777	3720.800037
423.859352	3685.096064
424.237866	3765.023559
424.616319	3741.347780
424.994712	3791.240079
425.373044	3770.092439
425.751314	3821.335768
426.129524	3748.090323
426.507673	3829.946058
426.885762	3797.894402
427.263789	3802.938077
427.641756	3791.456849
428.019662	3808.024601
428.397508	3796.329124
428.775292	3816.526507
429.153016	3803.532933
429.530679	3801.889517
429.908282	3790.471303
430.285824	3758.162548
430.663305	3797.319711
431.040726	3749.494284
431.418086	3726.415882
431.795385	3764.325359
432.172624	3772.736524
432.549802	3728.591140
432.926920	3720.316086
433.303977	3698.434957
433.680974	3704.454095
434.057910	3700.010318
434.434786	3680.453162
434.811601	3658.793844
435.188355	3701.487376
435.565050	3663.043537
435.941683	3637.918426
436.318257	3665.193589
436.694770	3643.982934
437.071222	3650.521311
437.447614	3589.049481
437.823946	3567.332190
438.200218	3554.555386
438.576429	3519.022813
438.952580	3507.970083
439.328670	3483.011330
439.704700	3480.198366
440.080670	3438.182870
440.456580	3436.683126
440.832429	3429.005449
441.208218	3361.698483
441.583947	3358.089017
441.959616	3337.531192
442.335224	3322.972340
442.710773	3305.076243
443.086261	3302.739669
443.461689	3258.017072
443.837057	3237.915471
444.212365	3236.652662
444.587612	3212.054352
444.962800	3179.491019
445.337927	3165.743792
445.712995	3111.841255
446.088002	3140.517858
446.462949	3121.374077
446.837837	3106.686675
447.212664	3076.618713
447.587431	3104.670213
447.962139	3141.745379
448.336786	3186.848583
448.711374	3164.246570
449.085901	3070.561767
449.460369	3028.286650
449.834776	2993.817761
450.209124	3009.838548
450.583412	2991.617297
450.957640	2985.260402
451.331808	2945.841100
451.705917	2902.933319
452.079965	2885.256513
452.453954	2871.489122
452.827883	2850.633868
453.201752	2834.824810
453.575562	2820.187820
453.949311	2815.605411
454.323001	2806.022177
454.696632	2790.805454
455.070202	2788.602470
455.443713	2776.554112
455.817164	2766.491969
456.190556	2757.811102
456.563888	2744.429360
456.937160	2737.225551
457.310373	2721.479507
457.683526	2711.276211
458.056619	2701.088039
458.429653	2691.731658
458.802628	2685.664629
459.175542	2676.058711
459.548398	2676.635923
459.921194	2675.748680
460.293930	2672.590397
460.666607	2671.519152
461.039224	2671.234326
461.411782	2668.297854
461.784280	2662.553459
462.156719	2656.559527
462.529099	2648.745739
462.901419	2639.979172
463.273680	2630.748820
463.645882	2629.775877
464.018024	2624.338993
464.390106	2622.156173
464.762130	2622.541821
465.134094	2624.699435
465.505999	2632.793008
465.877845	2640.448000
466.249631	2641.148720
466.621358	2635.283338
466.993026	2631.983902
467.364634	2628.966772
467.736184	2623.529887
468.107674	2616.560492
468.479105	2612.169647
468.850477	2609.573453
469.221790	2608.633278
469.593043	2605.401898
469.964238	2602.104984
470.335373	2602.218410
470.706449	2603.607247
471.077467	2605.480036
471.448425	2608.358535
471.819324	2610.889194
472.190164	2613.513115
472.560945	2607.252002
472.931667	2603.110694
473.302330	2601.434510
473.672934	2599.576845
474.043479	2599.954932
474.413965	2599.395363
474.784393	2592.922522
475.154761	2594.162646
475.525070	2598.298912
475.895321	2593.025866
476.265513	2593.136771
476.635645	2600.383430
477.005719	2599.221444
477.375734	2598.903851
477.745691	2598.470312
478.115588	2603.072885
478.485427	2598.712287
478.855207	2606.861312
479.224928	2605.245623
479.594591	2607.451127
479.964194	2608.567743
480.333739	2609.218052
480.703226	2609.772579
481.072653	2606.715119
481.442022	2608.398864
481.811333	2611.163937
482.180584	2608.504728
482.549777	2609.868361
482.918912	2606.170674
483.287988	2609.291148
483.657005	2607.811570
484.025964	2608.350973
484.394864	2605.855602
484.763706	2607.413319
485.132489	2605.162443
485.501213	2606.180757
485.869879	2605.840479
486.238487	2603.403081
486.607036	2605.570777
486.975527	2604.000457
487.343959	2603.917278
487.712333	2604.171857
488.080648	2605.628750
488.448905	2604.507093
488.817104	2602.246136
489.185244	2603.143461
489.553326	2610.705192
489.921350	2608.953391
490.289315	2611.035388
490.657222	2612.701489
491.025070	2616.603342
491.392861	2611.393310
491.760593	2611.307610
492.128267	2608.371138
492.495883	2607.947681
492.863440	2607.405757
493.230939	2603.738317
493.598380	2602.069696
493.965763	2601.431990
494.333088	2599.723038
494.700354	2601.759665
495.067563	2597.923347
495.434713	2596.859663
495.801805	2601.026177
496.168839	2601.053903
496.535815	2601.386619
496.902733	2597.777153
497.269593	2600.131372
497.636395	2599.811259
498.003139	2598.213213
498.369825	2599.730600
498.736453	2599.208841
499.103023	2599.513831
499.469535	2596.728593
499.835989	2599.221444
500.202385	2599.828903
500.568723	2598.016608
500.935003	2601.200097
501.301226	2597.071392
501.667390	2598.472832
502.033497	2598.341762
502.399546	2598.661876
502.765537	2597.608274
503.131470	2598.397215
503.497345	2599.007195
503.863163	2599.957452
504.228923	2599.501228
504.594625	2598.392174
504.960269	2599.120621
505.325856	2600.746393
505.691385	2597.915785
506.056856	2600.527102
506.422270	2600.143975
506.787625	2597.940991
507.152924	2598.109869
507.518164	2597.336052
507.883347	2597.451999
508.248472	2599.312184
508.613540	2596.786566
508.978550	2596.862184
509.343503	2598.770260
509.708398	2601.374016
510.073236	2599.481063
510.438016	2599.957452
510.802738	2598.359406
511.167403	2595.942173
511.532010	2597.825044
511.896561	2598.402256
512.261053	2602.273862
512.625488	2597.595672
512.989866	2595.327152
513.354186	2595.916967
513.718449	2595.778336
514.082655	2596.184148
514.446803	2598.581217
514.810894	2598.230857
515.174927	2601.000971
515.538904	2599.007195
515.902822	2599.047524
516.266684	2598.369489
516.630488	2596.355548
516.994235	2597.202462
517.357925	2599.745724
517.721558	2598.765219
518.085133	2598.813110
518.448651	2602.780498
518.812112	2599.042483
519.175516	2602.717484
519.538863	2600.615323
519.902152	2599.266814
520.265385	2601.482401
520.628560	2602.079778
520.991678	2597.212544
521.354739	2599.304623
521.717743	2599.523913
522.080690	2598.029211
522.443580	2600.638008
522.806413	2598.530806
523.169189	2598.868563
523.531908	2599.433172
523.894569	2598.281268
524.257174	2597.217585
524.619722	2600.484253
524.982213	2601.386619
525.344647	2599.037442
525.707025	2599.889397
526.069345	2597.043665
526.431608	2600.539705
526.793815	2598.714808
527.155964	2599.786053
527.518057	2597.028542
527.880093	2598.213213
528.242072	2598.820672
528.603995	2598.737493
528.965860	2597.774632
529.327669	2598.009046
529.689421	2598.084663
530.051117	2597.177256
530.412755	2597.376381
530.774337	2597.071392
531.135862	2596.388315
531.497331	2597.162132
531.858743	2594.795311
532.220098	2592.330186
532.581396	2596.070722
532.942638	2594.697008
533.303824	2597.706577
533.664953	2595.624580
534.026025	2598.203131
534.387040	2596.829416
534.747999	2596.617688
535.108902	2597.126844
535.469748	2596.615167
535.830537	2601.011053
536.191270	2597.482246
536.551947	2597.570466
536.912567	2598.810590
537.273131	2596.940322
537.633638	2597.588110
537.994089	2597.825044
538.354483	2597.900661
538.714821	2599.128182
539.075103	2597.971237
539.435328	2599.755806
539.795497	2597.341093
540.155609	2597.736824
540.515665	2597.557863
540.875665	2598.001484
541.235609	2596.847060
541.595496	2597.169694
541.955328	2596.937801
542.315102	2596.244642
542.674821	2596.194231
543.034483	2597.411669
543.394090	2595.662389
543.753640	2596.650455
544.113134	2599.387802
544.472571	2594.049220
544.831953	2598.722369
545.191278	2594.669282
545.550548	2593.161977
545.909761	2599.216402
546.268918	2597.300764
546.628019	2597.956114
546.987064	2595.901844
547.346053	2596.970568
547.704986	2595.445619
548.063863	2598.616505
548.422684	2596.259766
548.781449	2596.940322
549.140158	2595.259097
549.498811	2597.273038
549.857408	2595.579210
550.215949	2591.639548
550.574434	2594.235742
550.932864	2592.826740
551.291237	2594.780187
551.649555	2594.351689
552.007817	2593.986205
552.366022	2597.605754
552.724173	2596.567276
553.082267	2596.703387
553.440305	2593.940835
553.798288	2596.189190
554.156215	2598.881166
554.514086	2596.663058
554.871902	2596.106011
555.229661	2599.266814
555.587365	2597.540219
555.945014	2597.532657
556.302606	2594.868407
556.660143	2594.765064
557.017625	2597.857812
557.375050	2593.713983
557.732421	2595.362440
558.089735	2594.303798
558.446994	2593.499734
558.804197	2598.704725
559.161345	2594.807913
559.518437	2597.343614
559.875474	2599.637339
560.232455	2596.922677
560.589381	2596.650455
560.946251	2601.300920
561.303065	2594.616350
561.659825	2594.969230
562.016528	2597.449478
562.373177	2595.186000
562.729770	2594.628952
563.086307	2596.600044
563.442789	2595.417893
563.799216	2599.460898
564.155587	2596.000146
564.511904	2595.919488
564.868164	2595.128027
565.224370	2599.274376
565.580520	2594.830599
565.936615	2599.617174
566.292654	2597.522575
566.648638	2596.037955
567.004567	2596.426124
567.360441	2595.440578
567.716260	2595.579210
568.072023	2597.986361
568.427732	2592.536874
568.783385	2593.340938
569.138982	2593.434199
569.494525	2594.230701
569.850013	2591.536205
570.205445	2595.120465
570.560823	2594.926381
570.916145	2597.930908
571.271412	2593.310691
571.626625	2596.297574
571.981782	2597.756988
572.336884	2595.601895
572.691931	2595.904364
573.046923	2596.791608
573.401860	2597.661207
573.756743	2596.060640
574.111570	2596.141299
574.466342	2595.092739
574.821059	2595.256576
575.175722	2595.261617
575.530330	2595.382605
575.884882	2598.041814
576.239380	2592.428489
576.593823	2594.364292
576.948211	2594.641555
577.302544	2592.786411
577.656823	2595.458222
578.011047	2597.961155
578.365216	2593.260279
578.719330	2594.598706
579.073389	2594.359251
579.427394	2591.173242
579.781344	2594.301277
580.135239	2594.155084
580.489080	2595.412852
580.842866	2594.518047
581.196597	2595.793459
581.550273	2591.243818
581.903895	2592.988057
582.257463	2595.354879
582.610975	2595.178438
582.964434	2595.032245
583.317837	2592.844384
583.671186	2592.541915
584.024481	2596.637852
584.377721	2596.577358
584.730906	2593.978644
585.084037	2596.143819
585.437113	2594.122317
585.790135	2591.160639
586.143103	2593.023345
586.496016	2596.307657
586.848874	2589.839856
587.201679	2591.168200
587.554428	2590.452357
587.907124	2592.032758
588.259765	2589.292891
588.612352	2593.663572
588.964884	2593.159456
589.317362	2593.673654
589.669786	2593.131730
590.022155	2594.762543
590.374470	2592.632656
590.726731	2591.931935
591.078937	2591.057295
591.431090	2591.384970
591.783188	2591.821030
592.135232	2592.123499
592.487222	2590.714497
592.839157	2593.482090
593.191038	2591.178283
593.542866	2593.638366
593.894639	2589.791965
594.246358	2594.860846
594.598022	2588.990422
594.949633	2591.319435
595.301190	2593.474528
595.652692	2589.776842
596.004141	2590.865731
596.355535	2592.468818
596.706876	2589.587799
597.058162	2593.643407
597.409395	2590.706935
597.760573	2590.598550
598.111698	2589.618046
598.462768	2594.339086
598.813785	2591.117789
599.164748	2591.069898
599.515657	2589.348344
599.866511	2589.013107
600.217312	2594.429827
600.568060	2590.908581
600.918753	2592.375557
601.269392	2591.546287
601.619978	2591.773139
601.970510	2593.257759
602.320988	2592.191555
602.671412	2592.630135
603.021783	2592.287337
603.372100	2589.731472
603.722363	2587.205853
604.072572	2590.424630
604.422728	2593.308170
604.772830	2586.762232
605.122878	2585.882551
605.472872	2588.524115
605.822813	2589.537387
606.172701	2589.774321
606.522534	2589.701225
606.872314	2589.040833
607.222041	2589.983529
607.571714	2591.644589
607.921333	2592.057964
608.270899	2590.283478
608.620411	2590.351533
608.969870	2592.625094
609.319276	2590.742223
609.668627	2591.944538
610.017926	2592.690629
610.367171	2591.142995
610.716362	2592.793973
611.065500	2586.278281
611.414585	2589.595360
611.763616	2590.787593
612.112594	2589.880186
612.461518	2590.049064
612.810389	2592.201637
613.159207	2590.724579
613.507971	2594.170207
613.856682	2590.568303
614.205340	2588.191399
614.553945	2590.883375
614.902496	2590.575865
615.250994	2591.347161
615.599439	2592.189034
615.947830	2590.545618
616.296169	2590.535536
616.644454	2588.483786
616.992686	2588.294743
617.340864	2591.082501
617.688990	2593.174580
618.037063	2591.054774
618.385082	2591.059816
618.733048	2593.219950
619.080961	2593.865218
619.428821	2591.994950
619.776628	2590.459918
620.124382	2591.500917
620.472083	2590.439754
620.819731	2591.306832
621.167326	2591.079980
621.514868	2589.867583
621.862357	2589.991091
622.209793	2591.788262
622.557176	2592.007552
622.904506	2586.777355
623.251783	2589.434043
623.599007	2586.101841
623.946179	2588.420772
624.293297	2584.977663
624.640363	2590.550659
624.987376	2589.028231
625.334336	2588.952613
625.681243	2588.388004
626.028097	2586.794999
626.374899	2589.993612
626.721647	2588.766091
627.068343	2590.384301
627.414987	2589.486976
627.761577	2591.425299
628.108115	2589.703745
628.454600	2588.839187
628.801032	2587.904053
629.147412	2588.282140
629.493739	2588.798858
629.840014	2587.369691
630.186236	2588.246852
630.532405	2590.021338
630.878521	2584.332396
631.224585	2587.778024
631.570597	2588.229208
631.916556	2591.465628
632.262462	2587.072263
632.608316	2590.091914
632.954117	2587.833477
633.299866	2585.396079
633.645562	2586.721903
633.991206	2587.813312
634.336797	2584.644947
634.682336	2587.775504
635.027823	2585.882551
635.373257	2586.361460
635.718639	2585.678384
636.063968	2586.139649
636.409245	2586.613518
636.754470	2587.150401
637.099642	2586.127047
637.444762	2587.125195
637.789829	2586.328693
638.134845	2587.662078
638.479808	2585.877509
638.824719	2586.001018
639.169577	2583.145204
639.514383	2586.046388
639.859137	2585.038157
640.203839	2586.729464
640.548489	2584.113106
640.893086	2583.800554
641.237632	2581.582446
641.582125	2581.998342
641.926566	2582.573033
642.270955	2582.951120
642.615292	2583.954309
642.959576	2585.620411
643.303809	2583.823239
643.647990	2584.665112
643.992118	2586.616038
644.336195	2585.789289
644.680219	2583.729978
645.024192	2585.489341
645.368112	2584.660071
645.711981	2584.793661
646.055797	2584.400451
646.399562	2585.990935
646.743274	2586.197623
647.086935	2586.663929
647.430544	2586.394228
647.774101	2586.434557
648.117606	2583.961871
648.461059	2586.159814
648.804460	2586.666450
649.147810	2587.258786
649.491108	2584.501274
649.834354	2585.242324
650.177548	2585.673343
650.520690	2585.469176
650.863781	2584.675194
651.206820	2584.201326
651.549807	2585.096131
651.892742	2584.297108
652.235626	2585.030596
652.578458	2582.696541
652.921238	2582.638568
653.263967	2585.501943
653.606644	2582.517580
653.949269	2582.255440
654.291843	2582.348702
654.634365	2584.806264
654.976836	2585.002869
655.319255	2583.062025
655.661622	2583.939186
656.003938	2585.549834
656.346203	2585.093610
656.688416	2583.661922
657.030577	2584.453383
657.372687	2584.218970
657.714746	2583.175451
658.056753	2582.331058
658.398708	2578.708989
658.740612	2584.614700
659.082465	2578.585480
659.424266	2577.864595
659.766016	2580.165882
660.107715	2582.431881
660.449362	2583.460276
660.790958	2583.679566
661.132503	2582.394072
661.473996	2581.065728
661.815438	2584.314752
662.156829	2583.545976
662.498168	2583.203177
662.839456	2582.973805
663.180693	2584.372725
663.521879	2583.699731
663.863013	2584.251737
664.204097	2582.573033
664.545129	2582.852817
664.886110	2582.000862
665.227040	2585.116295
665.567918	2584.191243
665.908746	2582.865420
666.249522	2584.350040
666.590248	2583.324165
666.930922	2583.311562
667.271545	2580.775862
667.612118	2585.940524
667.952639	2583.530852
668.293109	2584.166038
668.633528	2581.330389
668.973896	2582.260482
669.314213	2582.361305
669.654480	2583.059504
669.994695	2582.094123
670.334859	2582.028588
670.674973	2585.098651
671.015035	2583.886254
671.355047	2584.254258
671.695008	2582.996490
672.034918	2583.581264
672.374777	2582.741912
672.714585	2581.184195
673.054342	2581.043043
673.394049	2584.430698
673.733705	2583.747622
674.073310	2582.285687
674.412864	2586.109402
674.752368	2581.428691
675.091820	2582.648650
675.431223	2584.788620
675.770574	2583.387179
676.109875	2580.105388
676.449125	2579.724781
676.788324	2580.612024
677.127473	2579.664287
677.466571	2577.521797
677.805619	2583.551017
678.144616	2581.380800
678.483562	2581.426171
678.822458	2582.257961
679.161303	2582.073959
679.500098	2581.022878
679.838842	2580.087744
680.177535	2581.335430
680.516179	2580.175964
680.854771	2582.068918
681.193314	2581.678228
681.531805	2581.688311
681.870247	2582.220152
682.208638	2584.191243
682.546978	2584.176120
682.885268	2581.101016
683.223508	2584.022365
683.561697	2584.103023
683.899836	2581.506829
684.237925	2580.175964
684.575963	2584.723085
684.913951	2582.361305
685.251889	2583.994638
685.589776	2580.322158
685.927614	2582.031109
686.265401	2580.972467
686.603137	2584.793661
686.940824	2582.658733
687.278460	2582.147056
687.616046	2583.170410
687.953582	2583.450194
688.291068	2582.845255
688.628504	2584.861717
688.965889	2581.569843
689.303224	2582.885585
689.640510	2581.244689
689.977745	2582.600759
690.314930	2581.640420
690.652065	2581.678228
690.989150	2581.814339
691.326185	2578.779565
691.663170	2581.050605
692.000105	2580.627148
692.336990	2580.085224
692.673825	2581.148907
693.010610	2580.884247
693.347345	2577.110943
693.684030	2576.374934
694.020665	2576.392578
694.357251	2577.448700
694.693786	2577.199163
695.030272	2578.711509
695.366707	2579.326530
695.703093	2579.404668
696.039429	2578.219997
696.375716	2580.238979
696.711952	2577.315110
697.048139	2576.889132
697.384276	2576.964749
697.720363	2579.109760
698.056400	2579.976839
698.392388	2579.749987
698.728326	2576.561457
699.064214	2576.773186
699.400053	2576.632033
699.735842	2576.826118
700.071581	2579.303845
700.407270	2578.272929
700.742910	2578.943402
701.078501	2575.812846
701.414042	2579.069431
701.749533	2578.913155
702.084974	2577.801581
702.420366	2577.970460
702.755709	2578.169585
703.091002	2576.354770
703.426246	2576.687486
703.761440	2576.201015
704.096584	2578.169585
704.431679	2576.982393
704.766725	2578.093968
705.101721	2579.865933
705.436668	2577.544482
705.771565	2579.429874
706.106413	2578.708989
706.441212	2578.729153
706.775961	2578.225038
707.110661	2578.219997
707.445311	2574.779409
707.779913	2576.889132
708.114465	2577.410892
708.448967	2575.275963
708.783421	2577.889801
709.117825	2576.286714
709.452180	2576.516087
709.786485	2577.052970
710.120742	2578.078844
710.454949	2579.850810
710.789107	2573.753534
711.123216	2574.363514
711.457275	2576.024574
711.791286	2574.555078
712.125247	2575.729667
712.459159	2580.775862
712.793023	2579.878536
713.126837	2577.849472
713.460602	2577.882239
713.794318	2580.213773
714.127985	2580.052456
714.461602	2583.495564
714.795171	2577.388206
715.128691	2579.492888
715.462162	2577.131107
715.795584	2579.908783
716.128957	2577.620099
716.462281	2577.788978
716.795556	2578.081365
717.128782	2578.998855
717.461960	2577.937692
717.795088	2577.201684
718.128167	2576.964749
718.461198	2573.650191
718.794180	2578.585480
719.127113	2577.526838
719.459997	2574.497105
719.792833	2577.307548
720.125619	2577.063052
720.458357	2575.144893
720.791046	2573.004923
721.123686	2575.956519
721.456278	2577.385686
721.788821	2575.865778
722.121315	2579.717219
722.453761	2575.424677
722.786158	2572.513411
723.118506	2573.045252
723.450805	2576.001889
723.783056	2575.437280
724.115259	2573.345201
724.447412	2573.299831
724.779518	2575.482650
725.111574	2577.433577
725.443582	2574.020716
725.775542	2577.478947
726.107453	2576.511046
726.439315	2575.618761
726.771129	2579.865933
727.102895	2573.889646
727.434612	2575.762434
727.766281	2577.035326
728.097901	2573.708164
728.429473	2573.466189
728.760996	2573.642629
729.092471	2570.890159
729.423897	2574.587845
729.755276	2577.390727
730.086606	2577.345357
730.417887	2576.626992
730.749120	2575.769996
731.080305	2575.873340
731.411442	2576.969791
731.742530	2574.376117
732.073570	2579.215625
732.404562	2575.959039
732.735506	2577.758731
733.066401	2576.044739
733.397249	2578.020871
733.728048	2574.411405
734.058798	2576.400140
734.389501	2577.541962
734.720156	2578.628330
735.050762	2576.132959
735.381320	2575.827969
735.711831	2575.351580
736.042293	2574.688668
736.372707	2574.119018
736.703073	2573.002402
737.033391	2572.881415
737.363661	2577.176478
737.693883	2575.316292
738.024056	2577.438618
738.354182	2576.301838
738.684260	2574.043401
739.014290	2575.442321
739.344272	2575.076837
739.674207	2574.610531
740.004093	2576.301838
740.333931	2576.014492
740.663722	2573.866960
740.993464	2577.486509
741.323159	2576.803433
741.652806	2574.275294
741.982405	2577.509194
742.311956	2574.038360
742.641460	2576.195973
742.970915	2574.799574
743.300323	2577.231931
743.629683	2575.303689
743.958996	2573.085582
744.288260	2574.560119
744.617477	2572.795715
744.946647	2571.311095
745.275768	2571.366548
745.604842	2568.823286
745.933869	2572.805797
746.262847	2569.042576
746.591778	2575.202866
746.920662	2572.357135
747.249498	2576.561457
747.578286	2571.603482
747.907027	2571.434604
748.235720	2572.152968
748.564365	2575.401992
748.892963	2573.403174
749.221514	2572.710016
749.550017	2573.183884
749.878473	2574.119018
750.206881	2575.336457
750.535242	2573.022567
750.863555	2573.327557
751.191821	2572.762948
751.520039	2573.191446
751.848210	2573.602300
752.176334	2573.171281
752.504411	2574.166909
752.832440	2572.369738
753.160421	2573.274625
753.488356	2574.638257
753.816243	2572.896538
754.144082	2574.396282
754.471875	2574.378637
754.799620	2573.982907
755.127318	2571.064079
755.454969	2571.510221
755.782572	2572.876374
756.110129	2572.331929
756.437638	2571.394274
756.765100	2574.567681
757.092515	2574.426528
757.419882	2571.517783
757.747203	2574.708833
758.074477	2573.317475
758.401703	2574.519790
758.728882	2572.649522
759.056014	2572.710016
759.383099	2572.853688
759.710138	2576.919379
760.037129	2570.496949
760.364073	2574.439131
760.690970	2575.850654
761.017820	2572.967114
761.344623	2576.531210
761.671379	2576.107753
761.998088	2570.789336
762.324751	2569.551733
762.651366	2571.023750
762.977935	2575.346539
763.304456	2577.640264
763.630931	2583.787951
763.957359	2580.065059
764.283740	2581.093454
764.610074	2579.414750
764.936362	2578.802250
765.262602	2575.838052
765.588796	2576.279153
765.914943	2573.844275
766.241044	2573.682958
766.567097	2575.099522
766.893104	2574.819738
767.219064	2575.137331
767.544978	2572.513411
767.870845	2574.300500
768.196665	2574.038360
768.522438	2569.702967
768.848165	2574.834862
769.173846	2570.615416
769.499479	2570.582649
769.825066	2573.279666
770.150607	2571.845458
770.476101	2571.777402
770.801548	2572.339491
771.126949	2571.568194
771.452303	2568.024263
771.777611	2570.290262
772.102872	2569.801270
772.428087	2572.493246
772.753256	2574.164388
773.078378	2573.123390
773.403453	2572.740262
773.728482	2569.249263
774.053465	2571.953842
774.378401	2569.776064
774.703291	2569.082905
775.028135	2571.311095
775.352932	2571.356466
775.677683	2568.097360
776.002388	2573.569532
776.327046	2568.225909
776.651658	2571.621126
776.976224	2569.685323
777.300743	2572.425190
777.625216	2570.504511
777.949643	2571.858061
778.274024	2570.131465
778.598359	2565.299519
778.922647	2566.141392
779.246889	2566.131310
779.571086	2566.368244
779.895236	2568.510734
780.219339	2569.672720
780.543397	2570.927968
780.867409	2570.993503
781.191374	2570.444017
781.515294	2565.221382
781.839167	2567.726835
782.162995	2569.549212
782.486776	2570.890159
782.810511	2569.841599
783.134201	2570.711198
783.457844	2572.021898
783.781441	2571.381672
784.104993	2570.925447
784.428498	2571.916034
784.751958	2569.397977
785.075372	2570.559963
785.398739	2570.701116
785.722061	2568.576269
786.045337	2568.316650
786.368568	2568.551064
786.691752	2569.198852
787.014891	2571.633729
787.337983	2570.839747
787.661030	2570.209603
787.984031	2571.580797
788.306987	2572.137845
788.629897	2570.988462
788.952760	2571.260684
789.275579	2571.525344
789.598351	2574.686148
789.921078	2571.464851
790.243759	2571.081723
790.566395	2569.251784
790.888984	2569.377813
791.211529	2569.544171
791.534027	2569.345045
791.856480	2572.064748
792.178888	2571.212793
792.501249	2570.887638
792.823566	2571.956363
793.145836	2568.886300
793.468062	2568.445199
793.790241	2572.210941
794.112375	2569.592062
794.434464	2569.173646
794.756507	2571.873184
795.078505	2571.429562
795.400457	2565.949828
795.722364	2567.527709
796.044226	2565.052503
796.366042	2566.872359
796.687812	2565.904458
797.009538	2569.035014
797.331218	2568.800601
797.652852	2572.268915
797.974442	2569.360169
798.295986	2572.692372
798.617484	2571.999213
798.938938	2570.131465
799.260346	2570.096177
799.581709	2566.395970
799.903026	2570.799418
800.224299	2568.082236
800.545526	2570.542319
800.866708	2568.989644
801.187845	2567.706670
801.508936	2570.295303
801.829983	2570.590210
802.150984	2571.787484
802.471940	2572.679769
802.792851	2568.931671
803.113717	2570.025601
803.434538	2568.513255
803.755314	2570.222206
804.076045	2568.568708
804.396731	2571.258163
804.717372	2568.440158
805.037967	2568.959397
805.358518	2567.167267
805.679024	2569.473595
805.999485	2569.042576
806.319901	2567.071485
806.640272	2569.730694
806.960598	2569.403019
807.280879	2571.893349
807.601115	2572.024419
807.921306	2565.619633
808.241453	2570.184398
808.561554	2572.127762
808.881611	2567.784808
809.201623	2569.619788
809.521590	2568.089798
809.841513	2571.361507
810.161390	2569.403019
810.481223	2569.337484
810.801011	2568.311609
811.120755	2568.069633
811.440453	2570.648184
811.760107	2568.591393
812.079716	2567.265569
812.399281	2567.421845
812.718801	2565.594427
813.038276	2565.531412
813.357707	2565.831361
813.677093	2566.007802
813.996434	2568.762792
814.315731	2568.399829
814.634983	2567.716753
814.954191	2570.370920
815.273354	2566.017884
815.592473	2570.854871
815.911547	2569.100549
816.230577	2570.474264
816.549562	2568.467885
816.868502	2570.189439
817.187399	2568.356979
817.506250	2567.547874
817.825058	2572.011816
818.143821	2569.241702
818.462539	2571.038873
818.781213	2570.325550
819.099843	2571.636250
819.418429	2572.551219
819.736970	2570.194480
820.055466	2572.238668
820.373919	2573.370407
820.692327	2575.293607
821.010691	2577.930130
821.329011	2580.604463
821.647286	2594.414703
821.965517	2599.924685
822.283704	2610.296859
822.601847	2617.223404
822.919945	2612.310800
823.237999	2608.232506
823.556010	2605.366610
823.873976	2600.948039
824.191897	2596.451330
824.509775	2590.434712
824.827609	2586.653847
825.145398	2586.578230
825.463144	2583.074628
825.780845	2582.797364
826.098502	2584.367684
826.416116	2585.774166
826.733685	2587.709969
827.051210	2588.014959
827.368692	2589.638210
827.686129	2586.805082
828.003522	2582.371387
828.320872	2576.412743
828.638177	2579.114802
828.955439	2576.987435
829.272656	2573.186405
829.589830	2569.665159
829.906960	2571.422001
830.224046	2574.741601
830.541088	2573.020047
830.858086	2568.155333
831.175041	2568.362020
831.491952	2570.131465
831.808819	2573.335119
832.125642	2567.497462
832.442421	2574.098853
832.759157	2571.497618
833.075849	2574.988617
833.392497	2577.211766
833.709101	2576.364852
834.025662	2579.883577
834.342179	2577.267219
834.658653	2574.852506
834.975083	2574.489543
835.291469	2579.843248
835.607811	2574.363514
835.924110	2573.655232
836.240366	2572.001733
836.556578	2571.570715
836.872746	2570.060889
837.188871	2568.929150
837.504952	2568.798080
837.820990	2565.614592
838.136984	2567.981413
838.452935	2564.404715
838.768842	2568.611557
839.084706	2565.380178
839.400526	2568.951835
839.716303	2570.154151
840.032037	2570.620457
840.347727	2570.254974
840.663373	2571.621126
840.978977	2571.008626
841.294537	2572.208421
841.610054	2569.511403
841.925527	2568.714901
842.240957	2567.293296
842.556344	2569.662638
842.871687	2568.525858
843.186987	2566.005281
843.502244	2566.774057
843.817458	2567.066444
844.132629	2566.963100
844.447756	2567.051320
844.762840	2563.088973
845.077881	2562.852039
845.392879	2564.946639
845.707833	2562.844478
846.022745	2563.593089
846.337613	2567.096691
846.652438	2567.605847
846.967221	2566.615261
847.281960	2565.380178
847.596656	2569.118193
847.911309	2565.906978
848.225919	2565.959911
848.540485	2565.521330
848.855009	2565.100394
849.169490	2564.737431
849.483928	2566.950497
849.798323	2565.924622
850.112675	2567.537792
850.426984	2565.291958
850.741251	2565.173491
851.055474	2566.189283
851.369654	2565.095353
851.683792	2567.026115
851.997887	2567.144582
852.311938	2566.857236
852.625947	2567.094170
852.939914	2568.412432
853.253837	2569.871846
853.567718	2563.797256
853.881555	2568.188101
854.195350	2564.034190
854.509103	2564.676937
854.822812	2567.482339
855.136479	2565.861608
855.450103	2566.025446
855.763685	2565.080229
856.077224	2566.327915
856.390720	2563.651062
856.704173	2566.121227
857.017584	2565.007133
857.330953	2564.742472
857.644278	2565.533933
857.957561	2564.422359
858.270802	2568.341856
858.584000	2567.401681
858.897155	2568.903944
859.210268	2566.947977
859.523339	2566.388409
859.836367	2567.104252
860.149352	2565.438151
860.462295	2567.258008
860.775195	2560.490259
861.088054	2562.393294
861.400869	2562.748696
861.713642	2558.249466
862.026373	2560.918757
862.339062	2565.980075
862.651708	2566.282544
862.964312	2570.209603
863.276873	2567.142061
863.589392	2568.283882
863.901869	2564.853377
864.214303	2565.712894
864.526696	2563.182235
864.839045	2565.160888
865.151353	2566.194324
865.463619	2568.425035
865.775842	2565.680127
866.088023	2565.002091
866.400162	2566.663152
866.712258	2566.441341
867.024313	2565.208779
867.336325	2567.517627
867.648296	2566.950497
867.960224	2564.893707
868.272110	2565.833882
868.583954	2564.397153
868.895755	2569.065261
869.207515	2567.268090
869.519233	2566.821948
869.830909	2569.264387
870.142542	2566.171639
870.454134	2567.091650
870.765684	2565.869170
871.077191	2568.919068
871.388657	2566.758933
871.700081	2564.535785
872.011463	2565.062585
872.322803	2567.197514
872.634101	2563.572924
872.945357	2564.220713
873.256571	2569.392936
873.567744	2564.480332
873.878874	2566.718604
874.189963	2570.068451
874.501010	2568.790518
874.812015	2566.035528
875.122979	2566.441341
875.433900	2567.920919
875.744780	2566.383367
876.055618	2567.426886
876.366415	2564.092163
876.677169	2564.508058
876.987882	2562.708366
877.298554	2561.654765
877.609183	2564.629046
877.919771	2564.903789
878.230317	2563.956052
878.540822	2569.831517
878.851285	2568.457802
879.161707	2566.920250
879.472087	2569.395457
879.782425	2569.944943
880.092722	2571.505180
880.402977	2574.492063
880.713191	2578.577919
881.023363	2582.699062
881.333494	2590.114599
881.643583	2591.039651
881.953631	2592.299939
882.263637	2588.181317
882.573602	2589.555031
882.883526	2588.619897
883.193408	2584.344999
883.503248	2580.581777
883.813048	2581.710996
884.122806	2584.783579
884.432522	2580.561613
884.742197	2576.006930
885.051831	2578.023392
885.361424	2575.525500
885.670975	2570.983420
885.980485	2571.356466
886.289954	2572.130283
886.599382	2569.324881
886.908768	2571.081723
887.218113	2571.094326
887.527417	2567.013512
887.836680	2569.014850
888.145901	2569.854202
888.455082	2566.375806
888.764221	2568.470405
889.073319	2564.916392
889.382376	2565.672565
889.691392	2568.150292
890.000366	2568.966959
890.309300	2566.970662
890.618193	2568.964438
890.927044	2565.327246
891.235855	2566.663152
891.544625	2569.367731
891.853353	2566.027966
892.162041	2568.351938
892.470687	2567.628532
892.779293	2567.053841
893.087858	2567.568039
893.396381	2564.752554
893.704864	2565.995199
894.013306	2564.709704
894.321707	2570.612896
894.630068	2571.769840
894.938387	2571.260684
895.246665	2572.498287
895.554903	2572.818400
895.863100	2573.319995
896.171256	2570.446537
896.479371	2570.451579
896.787446	2570.688513
897.095480	2569.639953
897.403473	2570.310426
897.711425	2569.017370
898.019336	2565.302040
898.327207	2570.454099
898.635038	2566.884962
898.942827	2567.878070
899.250576	2567.273131
899.558284	2566.020404
899.865952	2565.667524
900.173579	2567.971331
900.481165	2565.942267
900.788711	2565.080229
901.096216	2564.956721
901.403681	2565.854046
901.711105	2565.889334
902.018489	2565.594427
902.325832	2566.078378
902.633135	2565.425548
902.940397	2565.327246
903.247619	2564.820610
903.554800	2569.249263
903.861941	2572.742783
904.169041	2575.041549
904.476101	2574.665983
904.783121	2574.645819
905.090100	2572.135324
905.397039	2572.667166
905.703938	2570.469223
906.010796	2571.800087
906.317614	2570.164233
906.624391	2567.920919
906.931129	2568.409911
907.237826	2566.096022
907.544483	2567.124417
907.851099	2569.970148
908.157675	2567.890673
908.464211	2567.764644
908.770707	2561.422872
909.077163	2560.858263
909.383578	2561.526216
909.689954	2564.903789
909.996289	2558.554456
910.302584	2565.445713
910.608839	2565.745662
910.915054	2562.768860
911.221229	2562.904971
911.527363	2564.291289
911.833458	2567.124417
912.139513	2565.501166
912.445527	2566.509396
912.751502	2565.158367
913.057436	2563.288099
913.363331	2563.595609
913.669186	2565.985116
913.975000	2568.210786
914.280775	2566.637946
914.586510	2565.254149
914.892205	2566.728687
915.197859	2570.035683
915.503475	2569.629871
915.809050	2571.331260
916.114585	2571.721949
916.420081	2571.948801
916.725536	2574.839903
917.030952	2574.751683
917.336328	2574.698751
917.641665	2572.551219
917.946961	2573.892166
918.252218	2571.318657
918.557435	2571.548030
918.862612	2568.533420
919.167750	2570.257494
919.472848	2568.120045
919.777906	2567.867987
920.082925	2564.949159
920.387904	2569.098029
920.692843	2567.058882
920.997743	2566.958059
921.302603	2566.390929
921.607423	2565.443192
921.912204	2564.540826
922.216946	2563.890517
922.521647	2566.910168
922.826310	2567.658779
923.130932	2564.797925
923.435516	2565.397822
923.740059	2567.358831
924.044564	2564.235836
924.349028	2564.702143
924.653454	2559.043448
924.957840	2562.088304
925.262186	2560.492779
925.566493	2560.230639
925.870761	2559.824826
926.174989	2563.255332
926.479178	2565.644838
926.783328	2562.428582
927.087438	2562.317677
927.391509	2562.839436
927.695541	2563.298181
927.999533	2563.935887
928.303486	2562.209292
928.607400	2564.351782
928.911275	2562.967986
929.215110	2565.317163
929.518906	2561.901782
929.822663	2563.890517
930.126381	2561.783315
930.430060	2563.898079
930.733699	2560.696946
931.037299	2560.724672
931.340861	2562.400856
931.644383	2564.848336
931.947866	2565.841443
932.251309	2564.533264
932.554714	2562.383212
932.858080	2567.394119
933.161407	2562.983109
933.464694	2565.042421
933.767943	2560.734755
934.071153	2562.138716
934.374323	2563.278017
934.677455	2563.648542
934.980548	2561.909343
935.283602	2565.362534
935.586617	2561.369940
935.889593	2564.301371
936.192530	2562.060578
936.495428	2563.008315
936.798287	2565.281875
937.101108	2560.860783
937.403890	2562.380691
937.706632	2563.361196
938.009336	2564.838254
938.312002	2562.511761
938.614628	2561.934549
938.917216	2563.542677
939.219765	2561.511092
939.522275	2565.594427
939.824747	2565.506207
940.127179	2559.411452
940.429573	2562.030331
940.731929	2558.493962
941.034246	2559.761812
941.336524	2559.882800
941.638763	2559.895402
941.940964	2562.915054
942.243126	2564.505538
942.545250	2563.988819
942.847335	2563.693912
943.149381	2563.411607
943.451389	2561.226267
943.753359	2562.519323
944.055290	2563.575445
944.357182	2563.709035
944.659036	2564.908830
944.960851	2562.867163
945.262628	2562.121072
945.564367	2563.376319
945.866067	2563.116700
946.167729	2563.235167
946.469352	2562.158881
946.770937	2562.940259
947.072484	2563.315825
947.373992	2564.097204
947.675462	2563.872873
947.976893	2561.223747
948.278286	2563.537636
948.579641	2563.066288
948.880958	2562.529405
949.182236	2564.187945
949.483476	2561.599312
949.784678	2563.436813
950.085841	2561.828685
950.386967	2563.320867
950.688054	2564.528223
950.989103	2560.772563
951.290114	2562.060578
951.591087	2563.701474
951.892021	2559.605536
952.192917	2563.956052
952.493776	2564.886145
952.794596	2563.724159
953.095378	2562.874724
953.396122	2564.737431
953.696828	2561.924467
953.997496	2561.478325
954.298126	2566.063254
954.598718	2564.984447
954.899272	2562.186607
955.199788	2562.484035
955.500266	2562.317677
955.800706	2561.163253
956.101108	2559.106462
956.401472	2559.943293
956.701798	2561.536298
957.002087	2559.083777
957.302337	2560.868345
957.602550	2564.114848
957.902724	2563.063768
958.202861	2564.666855
958.502960	2563.711556
958.803022	2562.801628
959.103045	2564.218192
959.403031	2561.748027
959.702979	2563.010836
960.002889	2563.151988
960.302762	2563.199879
960.602596	2561.465722
960.902393	2561.561504
961.202153	2559.459343
961.501875	2559.850032
961.801559	2561.042265
962.101205	2561.869014
962.400814	2562.746175
962.700385	2564.515620
962.999918	2562.902451
963.299414	2560.593602
963.598873	2562.053016
963.898293	2562.078222
964.197677	2561.942111
964.497022	2562.521844
964.796331	2561.473284
965.095601	2559.887841
965.394835	2564.147616
965.694030	2561.904302
965.993189	2564.044272
966.292309	2560.046637
966.591393	2558.514126
966.890439	2560.250804
967.189447	2561.977399
967.488419	2563.162070
967.787353	2561.712738
968.086249	2559.910526
968.385108	2561.274158
968.683930	2559.908005
968.982714	2562.002605
969.281462	2563.235167
969.580172	2560.689384
969.878844	2560.205433
970.177480	2562.451267
970.476078	2562.773901
970.774639	2562.940259
971.073162	2561.369940
971.371649	2555.895247
971.670098	2559.623180
971.968510	2558.045299
972.266885	2558.075546
972.565223	2563.207441
972.863524	2561.538819
973.161788	2561.543860
973.460014	2560.727193
973.758204	2561.798438
974.056356	2562.473953
974.354471	2561.833726
974.652550	2562.973027
974.950591	2561.337172
975.248595	2559.015721
975.546563	2560.901113
975.844493	2560.291133
976.142386	2561.259035
976.440243	2562.562173
976.738062	2562.390774
977.035845	2560.026472
977.333590	2561.740465
977.631299	2560.117213
977.928971	2563.358675
978.226606	2559.459343
978.524204	2560.812893
978.821765	2561.236349
979.119290	2559.560166
979.416777	2559.509754
979.714228	2561.324570
980.011642	2561.400187
980.309020	2563.393963
980.606360	2562.219374
980.903664	2564.513099
981.200931	2565.246587
981.498162	2559.683674
981.795356	2560.966648
982.092513	2564.500497
982.389633	2561.564024
982.686717	2561.082594
982.983764	2564.245918
983.280775	2562.229457
983.577749	2561.211144
983.874686	2564.167780
984.171587	2562.771381
984.468451	2564.082081
984.765279	2562.209292
985.062070	2563.300702
985.358824	2563.406566
985.655543	2564.187945
985.952224	2564.583676
986.248869	2563.540157
986.545478	2556.464897
986.842050	2559.572769
987.138586	2559.411452
987.435086	2557.813406
987.731549	2555.600339
988.027975	2558.753581
988.324366	2561.932029
988.620719	2560.457491
988.917037	2560.911195
989.213318	2562.302553
989.509563	2558.932542
989.805772	2561.425393
990.101944	2558.493962
990.398080	2563.383881
990.694180	2560.535629
990.990244	2560.202913
991.286271	2561.231308
991.582262	2557.654610
991.878217	2558.677964
992.174136	2559.960937
992.470019	2558.050340
992.765865	2560.530588
993.061676	2560.180228
993.357450	2560.941442
993.653188	2559.565207
993.948890	2562.098387
994.244556	2560.770043
994.540186	2559.824826
994.835780	2559.187120
995.131337	2561.957234
995.426859	2561.687533
995.722345	2559.330793
996.017795	2560.182748
996.313208	2562.625187
996.608586	2561.538819
996.903928	2561.470763
997.199234	2563.434292
997.494504	2561.707697
997.789738	2560.301215
998.084936	2562.098387
998.380099	2562.552091
998.675225	2560.563355
998.970316	2562.073181
999.265371	2561.800959
999.560390	2561.039744
999.855373	2561.135526
1000.150320	2560.676781
1000.445232	2563.096535
1000.740108	2561.213664
1001.034948	2562.058057
1001.329752	2561.064950
1001.624521	2561.659806
1001.919254	2555.106306
1002.213951	2558.907336
1002.508613	2557.105124
1002.803239	2559.292985
1003.097829	2556.580844
1003.392384	2563.434292
1003.686903	2560.328942
1003.981386	2561.110321
1004.275834	2559.766853
1004.570246	2560.341545
1004.864623	2561.180897
1005.158964	2561.369940
1005.453270	2559.726524
1005.747540	2561.939590
1006.041775	2560.081925
1006.335974	2562.594940
1006.630138	2561.117882
1006.924266	2561.581668
1007.218359	2558.665361
1007.512416	2559.948335
1007.806438	2557.694939
1008.100425	2558.267110
1008.394376	2559.061092
1008.688292	2559.429096
1008.982172	2558.614949
1009.276017	2561.180897
1009.569827	2560.328942
1009.863602	2563.091494
1010.157341	2561.997564
1010.451045	2560.616288
1010.744714	2559.935732
1011.038347	2558.715772
1011.331945	2559.555125
1011.625508	2559.676112
1011.919036	2558.814075
1012.212528	2557.470608
1012.505986	2558.902295
1012.799408	2559.691236
1013.092795	2559.166956
1013.386147	2560.288613
1013.679464	2556.699311
1013.972745	2557.357182
1014.265992	2561.536298
1014.559204	2561.778273
1014.852380	2560.875907
1015.145521	2561.309446
1015.438628	2559.570248
1015.731699	2560.454971
1016.024736	2557.097562
1016.317737	2560.906154
1016.610703	2561.253993
1016.903635	2556.737120
1017.196531	2554.559341
1017.489393	2555.416337
1017.782219	2556.326266
1018.075011	2557.112686
1018.367768	2557.904147
1018.660490	2559.371122
1018.953177	2559.371122
1019.245829	2559.371122
