Dividing Wavelength (nm)	Counts (n)	Blue Motor Position (mm): 0.000000	Red Motor Position (mm): 2.000000	
326.493990	2087.193968
326.888308	2087.193968
327.282561	2087.193968
327.676750	2066.883159
328.070874	2067.132696
328.464933	2073.565209
328.858929	2084.204564
329.252859	2097.243508
329.646726	2106.609972
330.040528	2125.799124
330.434265	2144.564819
330.827938	2165.576349
331.221547	2186.275326
331.615091	2206.366845
332.008571	2225.208158
332.401986	2246.930489
332.795338	2268.819179
333.188625	2285.066818
333.581847	2308.150262
333.975006	2323.931594
334.368100	2338.039263
334.761129	2360.973992
335.154095	2372.087216
335.546996	2392.697973
335.939833	2405.542833
336.332606	2416.199833
336.725315	2428.618715
337.117960	2436.235899
337.510540	2444.158072
337.903056	2453.922787
338.295508	2457.985957
338.687896	2468.426187
339.080220	2471.208903
339.472480	2477.016313
339.864676	2481.843218
340.256807	2483.506798
340.648875	2486.120637
341.040879	2491.151708
341.432818	2487.912767
341.824694	2487.305308
342.216506	2489.316728
342.608253	2488.028713
342.999937	2486.816316
343.391557	2487.121306
343.783113	2485.150214
344.174605	2482.382621
344.566033	2481.200470
344.957397	2477.573360
345.348697	2477.371714
345.739934	2477.936323
346.131106	2476.300469
346.522215	2475.803915
346.913260	2471.972638
347.304241	2470.488018
347.695159	2470.004068
348.086012	2468.824438
348.476802	2464.108438
348.867528	2465.015846
349.258191	2462.623818
349.648789	2464.239508
350.039324	2461.877728
350.429796	2460.793880
350.820203	2461.061061
351.210548	2457.859928
351.600828	2458.137192
351.991045	2460.040227
352.381198	2461.429065
352.771288	2456.405555
353.161314	2461.325721
353.551276	2458.232973
353.941175	2456.614763
354.331010	2457.378498
354.720782	2460.433437
355.110490	2456.534105
355.500135	2458.883282
355.889717	2457.723817
356.279235	2456.052674
356.668689	2460.226750
357.058080	2459.480659
357.447408	2459.853704
357.836672	2456.387911
358.225873	2457.965792
358.615010	2453.310287
359.004084	2462.059209
359.393095	2462.218006
359.782043	2464.418469
360.170927	2462.346555
360.559748	2464.990640
360.948505	2464.907461
361.337199	2464.199179
361.725830	2463.203551
362.114398	2466.878552
362.502903	2465.676237
362.891344	2465.461988
363.279722	2464.068109
363.668037	2469.656228
364.056289	2466.124900
364.444478	2467.521299
364.832603	2468.418625
365.220665	2468.539612
365.608665	2467.244036
365.996601	2469.247895
366.384474	2469.230251
366.772284	2470.561115
367.160031	2468.411063
367.547715	2471.350056
367.935336	2469.537761
368.322893	2473.187556
368.710388	2473.114460
369.097820	2476.103864
369.485189	2470.241002
369.872495	2472.320478
370.259738	2473.812659
370.646918	2472.958184
371.034035	2476.451703
371.421090	2475.473720
371.808081	2475.713174
372.195010	2478.087558
372.581875	2478.067393
372.968678	2475.730818
373.355418	2477.860706
373.742096	2483.781541
374.128710	2486.009731
374.515262	2486.793631
374.901751	2485.132570
375.288177	2490.466111
375.674540	2491.973416
376.060841	2498.272338
376.447079	2495.920640
376.833254	2500.016577
377.219367	2498.521875
377.605417	2503.973883
377.991404	2505.602176
378.377329	2510.260202
378.763191	2508.475633
379.148991	2516.377642
379.534727	2518.351254
379.920402	2523.730165
380.306013	2523.266379
380.691563	2528.700742
381.077049	2530.999509
381.462474	2535.178625
381.847835	2538.135262
382.233134	2541.555685
382.618371	2539.002340
383.003545	2545.586087
383.388657	2547.940306
383.773706	2550.400389
384.158693	2548.744370
384.543618	2554.818961
384.928480	2554.816440
385.313280	2558.695608
385.698017	2560.883469
386.082692	2562.053016
386.467305	2562.917574
386.851856	2565.707853
387.236344	2565.362534
387.620770	2566.489232
388.005133	2565.387740
388.389435	2564.334138
388.773674	2565.112997
389.157851	2562.907492
389.541965	2564.687019
389.926018	2564.782801
390.310008	2559.819785
390.693936	2561.329611
391.077802	2562.234498
391.461606	2559.771894
391.845348	2557.107644
392.229027	2554.251831
392.612645	2557.647048
392.996200	2553.326779
393.379694	2551.670760
393.763125	2551.756460
394.146494	2549.573640
394.529801	2545.472661
394.913047	2543.874616
395.296230	2539.647608
395.679351	2535.435724
396.062410	2532.300126
396.445408	2526.180166
396.828343	2525.345855
397.211217	2519.024248
397.594028	2518.152128
397.976778	2511.457476
398.359466	2513.612569
398.742092	2507.487567
399.124656	2507.691734
399.507158	2508.551251
399.889598	2505.375324
400.271977	2502.900117
400.654294	2502.668224
401.036549	2501.841475
401.418742	2498.234529
401.800874	2498.118583
402.182944	2497.087667
402.564952	2495.973572
402.946898	2498.665548
403.328783	2495.086329
403.710606	2493.979795
404.092367	2494.337717
404.474067	2497.735455
404.855705	2496.487769
405.237282	2492.782521
405.618797	2495.298057
406.000250	2495.005670
406.381642	2494.468787
406.762972	2493.775629
407.144240	2494.683036
407.525447	2497.690085
407.906593	2494.337717
408.287677	2495.356030
408.668700	2497.798469
409.049661	2493.359733
409.430560	2492.659013
409.811399	2495.419045
410.192176	2492.157418
410.572891	2493.919302
410.953545	2494.914929
411.334138	2495.887872
411.714669	2495.386277
412.095139	2497.516165
412.475547	2493.629435
412.855894	2496.462564
413.236180	2495.272851
413.616405	2496.664210
413.996568	2492.701863
414.376670	2496.323932
414.756711	2495.071205
415.136691	2496.011380
415.516609	2493.198417
415.896466	2497.362410
416.276262	2496.855774
416.655997	2493.957110
417.035670	2492.807727
417.415283	2495.638335
417.794834	2490.723210
418.174324	2496.283603
418.553753	2498.121103
418.933121	2497.589262
419.312428	2495.063643
419.691674	2497.906854
420.070859	2498.078253
420.449983	2498.214365
420.829045	2499.252842
421.208047	2498.080774
421.586988	2497.861484
421.965867	2498.133706
422.344686	2499.958604
422.723444	2500.354334
423.102141	2497.639673
423.480777	2497.627070
423.859352	2499.484735
424.237866	2503.646208
424.616319	2500.339211
424.994712	2500.399705
425.373044	2499.598161
425.751314	2498.282420
426.129524	2499.678820
426.507673	2501.896927
426.885762	2502.612771
427.263789	2500.926505
427.641756	2499.898110
428.019662	2500.833244
428.397508	2501.723008
428.775292	2500.235867
429.153016	2501.652432
429.530679	2502.068327
429.908282	2503.033708
430.285824	2500.971876
430.663305	2498.307626
431.040726	2500.021618
431.418086	2501.970024
431.795385	2504.810714
432.172624	2502.824500
432.549802	2501.312154
432.926920	2500.805518
433.303977	2502.451454
433.680974	2500.729900
434.057910	2502.655621
434.434786	2501.919613
434.811601	2504.112515
435.188355	2501.768378
435.565050	2502.118738
435.941683	2502.713594
436.318257	2501.072699
436.694770	2500.719818
437.071222	2503.628564
437.447614	2499.280569
437.823946	2502.259891
438.200218	2505.135869
438.576429	2505.140910
438.952580	2504.979593
439.328670	2506.887670
439.704700	2504.848523
440.080670	2503.426918
440.456580	2504.152844
440.832429	2505.864316
441.208218	2504.125118
441.583947	2504.863647
441.959616	2503.928512
442.335224	2504.218379
442.710773	2505.178719
443.086261	2504.687206
443.461689	2502.564880
443.837057	2507.195180
444.212365	2508.329440
444.587612	2506.754079
444.962800	2504.442710
445.337927	2506.020591
445.712995	2503.429438
446.088002	2509.040242
446.462949	2507.374141
446.837837	2507.976559
447.212664	2506.771723
447.587431	2505.491270
447.962139	2509.844307
448.336786	2507.444717
448.711374	2506.428925
449.085901	2506.252484
449.460369	2506.605365
449.834776	2506.854902
450.209124	2507.066631
450.583412	2506.181908
450.957640	2509.312465
451.331808	2508.611744
451.705917	2506.209635
452.079965	2507.757269
452.453954	2505.264418
452.827883	2510.227434
453.201752	2507.389265
453.575562	2506.199552
453.949311	2507.648884
454.323001	2506.839779
454.696632	2508.193329
455.070202	2509.496467
455.443713	2509.723319
455.817164	2504.256187
456.190556	2503.373986
456.563888	2506.242402
456.937160	2502.564880
457.310373	2509.060407
457.683526	2509.569564
458.056619	2506.141579
458.429653	2508.838596
458.802628	2508.145438
459.175542	2509.267094
459.548398	2510.633247
459.921194	2508.762979
460.293930	2506.882629
460.666607	2511.588546
461.039224	2509.229286
461.411782	2509.062928
461.784280	2510.149296
462.156719	2510.547548
462.529099	2509.299862
462.901419	2509.151148
463.273680	2506.433966
463.645882	2508.125273
464.018024	2512.707682
464.390106	2508.606703
464.762130	2510.971004
465.134094	2507.790036
465.505999	2511.286077
465.877845	2510.711385
466.249631	2511.369256
466.621358	2512.778258
466.993026	2513.662981
467.364634	2513.352950
467.736184	2509.073010
468.107674	2512.478309
468.479105	2513.136180
468.850477	2511.656601
469.221790	2511.086951
469.593043	2513.199194
469.964238	2511.868330
470.335373	2511.948988
470.706449	2514.290604
471.077467	2511.049142
471.448425	2514.890502
471.819324	2513.267250
472.190164	2511.006292
472.560945	2512.853875
472.931667	2514.207425
473.302330	2510.038391
473.672934	2509.257012
474.043479	2511.212980
474.413965	2512.233813
474.784393	2507.222907
475.154761	2508.621827
475.525070	2508.702485
475.895321	2510.691220
476.265513	2508.357166
476.635645	2511.618793
477.005719	2510.678618
477.375734	2512.193484
477.745691	2511.006293
478.115588	2509.153668
478.485427	2512.652229
478.855207	2511.137362
479.224928	2513.899915
479.594591	2510.386231
479.964194	2507.933709
480.333739	2510.603000
480.703226	2510.338340
481.072653	2514.106602
481.442022	2514.139370
481.811333	2515.442508
482.180584	2510.666015
482.549777	2513.718433
482.918912	2513.103412
483.287988	2513.322703
483.657005	2512.276663
484.025964	2515.994514
484.394864	2513.027795
484.763706	2514.893022
485.132489	2514.303207
485.501213	2512.138032
485.869879	2512.090141
486.238487	2513.436129
486.607036	2515.147600
486.975527	2512.304390
487.343959	2514.227590
487.712333	2513.279853
488.080648	2513.239524
488.448905	2515.263547
488.817104	2516.400327
489.185244	2512.584174
489.553326	2513.541993
489.921350	2512.911849
490.289315	2512.478309
490.657222	2514.197343
491.025070	2511.205418
491.392861	2515.606345
491.760593	2511.815398
492.128267	2517.363187
492.495883	2513.879750
492.863440	2514.638444
493.230939	2513.007631
493.598380	2513.894874
493.965763	2509.819101
494.333088	2511.134842
494.700354	2510.892867
495.067563	2512.276663
495.434713	2508.266425
495.801805	2513.214318
496.168839	2514.620800
496.535815	2512.886643
496.902733	2513.806653
497.269593	2515.278670
497.636395	2513.350429
498.003139	2514.809843
498.369825	2513.373114
498.736453	2514.386386
499.103023	2513.965450
499.469535	2512.105264
499.835989	2512.004441
500.202385	2515.392096
500.568723	2513.990656
500.935003	2514.799761
501.301226	2512.148114
501.667390	2514.956037
502.033497	2516.589370
502.399546	2517.302694
502.765537	2513.123577
503.131470	2514.565347
503.497345	2515.500481
503.863163	2513.340347
504.228923	2514.124246
504.594625	2514.640964
504.960269	2514.993845
505.325856	2515.724813
505.691385	2513.121057
506.056856	2513.771365
506.422270	2514.214987
506.787625	2513.728516
507.152924	2513.683145
507.518164	2515.840759
507.883347	2512.039729
508.248472	2515.727333
508.613540	2512.264060
508.978550	2514.328413
509.343503	2511.757424
509.708398	2515.452590
510.073236	2513.403361
510.438016	2515.064421
510.802738	2514.656088
511.167403	2517.368229
511.532010	2514.761952
511.896561	2514.598115
512.261053	2515.997035
512.625488	2510.925634
512.989866	2512.218690
513.354186	2511.822959
513.718449	2512.276663
514.082655	2514.509894
514.446803	2515.099709
514.810894	2516.128105
515.174927	2518.043743
515.538904	2514.595594
515.902822	2514.144411
516.266684	2514.066273
516.630488	2516.153311
516.994235	2515.747498
517.357925	2514.625841
517.721558	2516.450739
518.085133	2515.230779
518.448651	2516.044926
518.812112	2514.033505
519.175516	2513.733557
519.538863	2512.410254
519.902152	2514.227590
520.265385	2515.949144
520.628560	2514.335975
520.991678	2513.786489
521.354739	2515.722292
521.717743	2518.126922
522.080690	2516.067611
522.443580	2513.846983
522.806413	2516.861593
523.169189	2516.362518
523.531908	2515.530728
523.894569	2515.392096
524.257174	2516.090296
524.619722	2514.981242
524.982213	2518.091634
525.344647	2514.915707
525.707025	2516.196160
526.069345	2515.543331
526.431608	2517.887467
526.793815	2515.699607
527.155964	2515.782786
527.518057	2516.453259
527.880093	2517.569875
528.242072	2515.603825
528.603995	2517.194309
528.965860	2515.865965
529.327669	2517.486696
529.689421	2512.591735
530.051117	2515.371932
530.412755	2514.593073
530.774337	2512.904287
531.135862	2517.443846
531.497331	2514.038547
531.858743	2510.164420
532.220098	2513.181550
532.581396	2511.548217
532.942638	2516.037364
533.303824	2518.464680
533.664953	2516.750687
534.026025	2516.354957
534.387040	2516.092817
534.747999	2516.072652
535.108902	2518.704134
535.469748	2515.220697
535.830537	2517.083403
536.191270	2518.104237
536.551947	2516.841428
536.912567	2514.693897
537.273131	2515.936541
537.633638	2514.991325
537.994089	2515.898732
538.354483	2516.307066
538.714821	2516.483506
539.075103	2514.472086
539.435328	2517.174144
539.795497	2516.395286
540.155609	2520.685308
540.515665	2515.797909
540.875665	2518.308404
541.235609	2517.325379
541.595496	2515.006448
541.955328	2513.705830
542.315102	2517.645492
542.674821	2514.585512
543.034483	2519.160359
543.394090	2515.026613
543.753640	2521.083559
544.113134	2518.278157
544.472571	2518.084073
544.831953	2517.723630
545.191278	2516.377642
545.550548	2514.940913
545.909761	2517.577437
546.268918	2513.980573
546.628019	2516.438136
546.987064	2515.611387
547.346053	2516.932169
547.704986	2515.891171
548.063863	2515.124915
548.422684	2518.131963
548.781449	2515.447549
549.140158	2518.089114
549.498811	2516.448218
549.857408	2517.814371
550.215949	2513.541993
550.574434	2512.226252
550.932864	2514.013341
551.291237	2512.120388
551.649555	2515.823115
552.007817	2514.431757
552.366022	2516.254134
552.724173	2514.454442
553.082267	2517.254803
553.440305	2514.787158
553.798288	2515.762621
554.156215	2517.600122
554.514086	2517.562313
554.871902	2517.521984
555.229661	2514.893022
555.587365	2517.101048
555.945014	2515.770183
556.302606	2515.424864
556.660143	2516.725482
557.017625	2516.211284
557.375050	2517.078362
557.732421	2514.015861
558.089735	2517.668177
558.446994	2515.094668
558.804197	2517.733712
559.161345	2518.147087
559.518437	2514.812364
559.875474	2513.620131
560.232455	2518.162210
560.589381	2518.043743
560.946251	2517.854700
561.303065	2518.373939
561.659825	2517.645492
562.016528	2517.746315
562.373177	2515.336644
562.729770	2518.570544
563.086307	2514.356139
563.442789	2515.180368
563.799216	2515.997035
564.155587	2518.290760
564.511904	2516.778414
564.868164	2515.679442
565.224370	2519.709845
565.580520	2516.228928
565.936615	2516.493588
566.292654	2517.408558
566.648638	2516.763290
567.004567	2517.602642
567.360441	2517.658095
567.716260	2515.903773
568.072023	2518.081552
568.427732	2510.192146
568.783385	2514.189781
569.138982	2512.788340
569.494525	2512.380007
569.850013	2511.772548
570.205445	2517.000224
570.560823	2519.016686
570.916145	2514.620800
571.271412	2518.192457
571.626625	2518.366377
571.981782	2514.691376
572.336884	2518.076511
572.691931	2515.566016
573.046923	2519.082221
573.401860	2516.533918
573.756743	2519.566172
574.111570	2516.244051
574.466342	2517.456449
574.821059	2516.826305
575.175722	2517.085924
575.530330	2516.622138
575.884882	2516.861593
576.239380	2515.692045
576.593823	2518.373939
576.948211	2517.153980
577.302544	2519.629186
577.656823	2514.877899
578.011047	2518.537776
578.365216	2518.789834
578.719330	2517.642972
579.073389	2516.183558
579.427394	2515.626510
579.781344	2518.802437
580.135239	2518.459638
580.489080	2519.682118
580.842866	2516.286901
581.196597	2523.228570
581.550273	2517.085924
581.903895	2517.879906
582.257463	2514.351098
582.610975	2516.632220
582.964434	2517.748836
583.317837	2515.785306
583.671186	2515.026613
584.024481	2517.413599
584.377721	2518.936027
584.730906	2517.053157
585.084037	2515.611387
585.437113	2516.415451
585.790135	2514.691376
586.143103	2519.752694
586.496016	2517.927797
586.848874	2513.453773
587.201679	2513.421005
587.554428	2511.553258
587.907124	2516.884278
588.259765	2511.359173
588.612352	2513.796571
588.964884	2515.807992
589.317362	2519.230935
589.669786	2513.660460
590.022155	2519.175482
590.374470	2515.061901
590.726731	2515.878568
591.078937	2516.309586
591.431090	2517.337982
591.783188	2516.359998
592.135232	2516.589370
592.487222	2516.937210
592.839157	2515.533249
593.191038	2517.486696
593.542866	2515.084586
593.894639	2514.676253
594.246358	2516.150790
594.598022	2518.608352
594.949633	2514.900584
595.301190	2515.906294
595.652692	2514.822446
596.004141	2514.467045
596.355535	2514.220028
596.706876	2516.365039
597.058162	2517.272447
597.409395	2516.433095
597.760573	2516.488547
598.111698	2517.794206
598.462768	2514.895543
598.813785	2518.356295
599.164748	2518.154649
599.515657	2515.815553
599.866511	2518.376459
600.217312	2518.305883
600.568060	2517.673218
600.918753	2518.767149
601.269392	2517.670698
601.619978	2517.648013
601.970510	2515.550893
602.320988	2516.997704
602.671412	2517.418640
603.021783	2517.968126
603.372100	2517.869823
603.722363	2515.177847
604.072572	2512.982425
604.422728	2516.957375
604.772830	2513.668022
605.122878	2511.160048
605.472872	2514.545183
605.822813	2511.429749
606.172701	2513.675583
606.522534	2516.969977
606.872314	2518.678929
607.222041	2513.017713
607.571714	2516.624658
607.921333	2515.238341
608.270899	2517.705986
608.620411	2514.242713
608.969870	2516.100378
609.319276	2516.065090
609.668627	2516.690193
610.017926	2518.663805
610.367171	2515.850841
610.716362	2518.598270
611.065500	2518.888137
611.414585	2516.208763
611.763616	2517.138856
612.112594	2515.707168
612.461518	2516.264216
612.810389	2513.516787
613.159207	2516.813702
613.507971	2515.071983
613.856682	2518.721778
614.205340	2516.246572
614.553945	2517.375790
614.902496	2516.909484
615.250994	2517.504340
615.599439	2517.978208
615.947830	2519.755215
616.296169	2517.448887
616.644454	2518.943589
616.992686	2517.060718
617.340864	2516.541479
617.688990	2516.092817
618.037063	2516.823784
618.385082	2514.318331
618.733048	2519.833353
619.080961	2516.246572
619.428821	2515.417302
619.776628	2518.787313
620.124382	2518.716737
620.472083	2516.939731
620.819731	2515.649195
621.167326	2517.403517
621.514868	2518.537776
621.862357	2516.148269
622.209793	2517.990811
622.557176	2516.763290
622.904506	2513.244565
623.251783	2514.217508
623.599007	2513.768845
623.946179	2513.116015
624.293297	2513.915038
624.640363	2515.810512
624.987376	2517.602642
625.334336	2515.598784
625.681243	2514.719102
626.028097	2516.574247
626.374899	2515.853362
626.721647	2516.496109
627.068343	2515.903773
627.414987	2518.547859
627.761577	2519.427540
628.108115	2517.496778
628.454600	2516.425533
628.801032	2515.598784
629.147412	2517.264885
629.493739	2514.366222
629.840014	2515.704648
630.186236	2516.256654
630.532405	2515.152642
630.878521	2514.484689
631.224585	2515.167765
631.570597	2517.186747
631.916556	2514.426715
632.262462	2514.709020
632.608316	2519.215812
632.954117	2514.209946
633.299866	2518.759587
633.645562	2514.250275
633.991206	2518.305883
634.336797	2516.334792
634.682336	2517.138856
635.027823	2515.971829
635.373257	2519.178003
635.718639	2514.966119
636.063968	2516.337313
636.409245	2516.324710
636.754470	2515.475275
637.099642	2514.812364
637.444762	2518.817560
637.789829	2515.903773
638.134845	2514.945954
638.479808	2515.843280
638.824719	2515.586181
639.169577	2516.173475
639.514383	2518.447036
639.859137	2520.859228
640.203839	2518.689011
640.548489	2515.626510
640.893086	2516.349916
641.237632	2514.189781
641.582125	2513.970491
641.926566	2511.891015
642.270955	2514.033505
642.615292	2516.821263
642.959576	2516.428053
643.303809	2517.476613
643.647990	2515.588701
643.992118	2515.606345
644.336195	2516.493588
644.680219	2516.682632
645.024192	2516.763290
645.368112	2515.656757
645.711981	2516.395286
646.055797	2514.698938
646.399562	2515.424864
646.743274	2512.327075
647.086935	2515.518125
647.430544	2514.885460
647.774101	2513.599966
648.117606	2516.430574
648.461059	2516.551562
648.804460	2517.963085
649.147810	2515.603825
649.491108	2516.153311
649.834354	2515.142559
650.177548	2516.687673
650.520690	2516.639782
650.863781	2515.192971
651.206820	2520.317304
651.549807	2517.940400
651.892742	2515.707168
652.235626	2514.320851
652.578458	2516.874196
652.921238	2517.179185
653.263967	2515.566016
653.606644	2513.794051
653.949269	2517.960564
654.291843	2514.134328
654.634365	2514.610717
654.976836	2513.468896
655.319255	2513.904956
655.661622	2515.868485
656.003938	2520.100534
656.346203	2515.971829
656.688416	2516.382683
657.030577	2516.145749
657.372687	2518.285719
657.714746	2514.119205
658.056753	2517.222035
658.398708	2512.369925
658.740612	2513.675583
659.082465	2509.597290
659.424266	2514.794720
659.766016	2508.904131
660.107715	2516.284381
660.449362	2514.502333
660.790958	2517.043074
661.132503	2515.071983
661.473996	2518.656243
661.815438	2514.159534
662.156829	2516.690193
662.498168	2517.088445
662.839456	2514.721623
663.180693	2514.469565
663.521879	2514.852693
663.863013	2515.863444
664.204097	2518.152128
664.545129	2515.482837
664.886110	2518.792355
665.227040	2516.367560
665.567918	2514.741787
665.908746	2511.772548
666.249522	2514.789678
666.590248	2515.079545
666.930922	2513.388238
667.271545	2514.857734
667.612118	2514.953516
667.952639	2517.063239
668.293109	2514.872858
668.633528	2513.536952
668.973896	2514.451921
669.314213	2516.589370
669.654480	2514.134328
669.994695	2515.404699
670.334859	2517.005266
670.674973	2515.044257
671.015035	2515.765142
671.355047	2516.672549
671.695008	2513.375635
672.034918	2516.181037
672.374777	2517.814371
672.714585	2516.957375
673.054342	2517.678260
673.394049	2515.699607
673.733705	2517.471572
674.073310	2515.702127
674.412864	2516.687673
674.752368	2514.061232
675.091820	2515.787827
675.431223	2514.971160
675.770574	2515.722292
676.109875	2509.551920
676.449125	2511.089472
676.788324	2513.305059
677.127473	2512.795902
677.466571	2511.210459
677.805619	2516.576767
678.144616	2514.424195
678.483562	2515.472755
678.822458	2515.349247
679.161303	2517.673218
679.500098	2515.694566
679.838842	2515.482837
680.177535	2515.034174
680.516179	2516.619617
680.854771	2515.089627
681.193314	2517.537107
681.531805	2513.857065
681.870247	2515.601304
682.208638	2515.593743
682.546978	2514.446880
682.885268	2513.380676
683.223508	2517.201871
683.561697	2514.537621
683.899836	2516.337313
684.237925	2512.906808
684.575963	2515.805471
684.913951	2515.192971
685.251889	2513.388238
685.589776	2514.734226
685.927614	2514.489730
686.265401	2514.893022
686.603137	2515.906294
686.940824	2513.786489
687.278460	2516.354957
687.616046	2514.827487
687.953582	2517.826974
688.291068	2514.719102
688.628504	2513.098371
688.965889	2516.216325
689.303224	2515.487878
689.640510	2513.799092
689.977745	2515.001407
690.314930	2518.250431
690.652065	2515.485358
690.989150	2515.112312
691.326185	2512.558968
691.663170	2513.438649
692.000105	2514.600635
692.336990	2514.300687
692.673825	2514.157014
693.010610	2515.694566
693.347345	2510.527383
693.684030	2509.125942
694.020665	2512.180881
694.357251	2510.295490
694.693786	2514.734226
695.030272	2513.605007
695.366707	2515.029133
695.703093	2511.717095
696.039429	2514.940913
696.375716	2513.713392
696.711952	2514.444359
697.048139	2512.470748
697.384276	2512.324554
697.720363	2513.287415
698.056400	2515.140039
698.392388	2514.477127
698.728326	2515.490399
699.064214	2511.885974
699.400053	2515.019051
699.735842	2514.328413
700.071581	2515.613907
700.407270	2515.021572
700.742910	2512.921931
701.078501	2514.603156
701.414042	2514.698938
701.749533	2514.305728
702.084974	2513.113495
702.420366	2514.429236
702.755709	2515.097189
703.091002	2514.550224
703.426246	2514.724143
703.761440	2514.325892
704.096584	2513.761283
704.431679	2513.786489
704.766725	2512.785820
705.101721	2515.382014
705.436668	2514.020903
705.771565	2513.201715
706.106413	2513.423526
706.441212	2517.418640
706.775961	2514.409071
707.110661	2513.758763
707.445311	2515.099709
707.779913	2511.757424
708.114465	2515.283712
708.448967	2516.516274
708.783421	2515.878568
709.117825	2516.163393
709.452180	2514.071314
709.786485	2514.600635
710.120742	2514.860255
710.454949	2516.221366
710.789107	2512.715244
711.123216	2509.632578
711.457275	2511.701972
711.791286	2511.770027
712.125247	2510.295490
712.459159	2513.647857
712.793023	2514.963598
713.126837	2514.404030
713.460602	2514.358660
713.794318	2511.175171
714.127985	2516.859072
714.461602	2515.150121
714.795171	2515.001407
715.128691	2514.068793
715.462162	2514.792199
715.795584	2512.203567
716.128957	2515.190450
716.462281	2515.089627
716.795556	2513.443690
717.128782	2514.061232
717.461960	2512.755573
717.795088	2513.305059
718.128167	2515.036695
718.461198	2513.947806
718.794180	2515.366891
719.127113	2513.955368
719.459997	2513.511746
719.792833	2513.277332
720.125619	2510.487054
720.458357	2510.913031
720.791046	2510.746673
721.123686	2512.352281
721.456278	2513.751201
721.788821	2513.332785
722.121315	2515.591222
722.453761	2513.955368
722.786158	2513.665501
723.118506	2513.897394
723.450805	2513.718433
723.783056	2513.625172
724.115259	2513.216838
724.447412	2513.373114
724.779518	2514.749349
725.111574	2514.605676
725.443582	2511.606190
725.775542	2515.518125
726.107453	2513.781448
726.439315	2513.713392
726.771129	2516.213804
727.102895	2512.150634
727.434612	2513.846983
727.766281	2513.869668
728.097901	2511.749863
728.429473	2509.667866
728.760996	2509.007475
729.092471	2508.831035
729.423897	2513.063083
729.755276	2513.864627
730.086606	2512.616941
730.417887	2512.591735
730.749120	2511.588546
731.080305	2511.770027
731.411442	2513.831859
731.742530	2511.878412
732.073570	2514.724143
732.404562	2514.398989
732.735506	2512.644667
733.066401	2514.499812
733.397249	2512.402692
733.728048	2513.932682
734.058798	2514.109123
734.389501	2513.138701
734.720156	2516.289422
735.050762	2513.020233
735.381320	2513.864627
735.711831	2513.720954
736.042293	2514.963598
736.372707	2511.729698
736.703073	2514.797240
737.033391	2511.888494
737.363661	2515.031654
737.693883	2514.066273
738.024056	2516.914525
738.354182	2510.529903
738.684260	2512.435460
739.014290	2512.841272
739.344272	2512.435460
739.674207	2513.642816
740.004093	2511.906138
740.333931	2509.574605
740.663722	2513.100892
740.993464	2512.402692
741.323159	2512.831190
741.652806	2511.059225
741.982405	2514.958557
742.311956	2512.707682
742.641460	2512.339678
742.970915	2512.185922
743.300323	2511.686848
743.629683	2514.146931
743.958996	2513.335306
744.288260	2510.842455
744.617477	2514.270440
744.946647	2508.266425
745.275768	2510.918072
745.604842	2509.441014
745.933869	2511.974194
746.262847	2508.352125
746.591778	2513.705830
746.920662	2511.913700
747.249498	2514.192302
747.578286	2513.259688
747.907027	2513.158865
748.235720	2511.580984
748.564365	2513.584843
748.892963	2513.615090
749.221514	2511.517970
749.550017	2511.888494
749.878473	2515.021572
750.206881	2512.727847
750.535242	2514.383866
750.863555	2513.022754
751.191821	2513.015192
751.520039	2513.189112
751.848210	2513.789009
752.176334	2514.469565
752.504411	2513.973012
752.832440	2511.205418
753.160421	2512.594256
753.488356	2511.976715
753.816243	2516.271778
754.144082	2514.547703
754.471875	2514.887981
754.799620	2512.750532
755.127318	2511.860768
755.454969	2512.682476
755.782572	2514.560306
756.110129	2509.357835
756.437638	2512.069976
756.765100	2513.668022
757.092515	2513.902435
757.419882	2510.171982
757.747203	2511.497805
758.074477	2514.051149
758.401703	2512.415295
758.728882	2513.736077
759.056014	2514.083917
759.383099	2512.639626
759.710138	2512.311951
760.037129	2513.773886
760.364073	2512.274143
760.690970	2511.956550
761.017820	2511.896056
761.344623	2511.893536
761.671379	2513.189112
761.998088	2509.136024
762.324751	2510.514780
762.651366	2509.685510
762.977935	2511.628875
763.304456	2510.008144
763.630931	2512.851355
763.957359	2512.047291
764.283740	2512.780779
764.610074	2512.800943
764.936362	2511.066786
765.262602	2511.656601
765.588796	2514.335975
765.914943	2512.279184
766.241044	2512.669873
766.567097	2513.269771
766.893104	2510.723988
767.219064	2510.638288
767.544978	2512.629544
767.870845	2513.088289
768.196665	2511.223062
768.522438	2512.443021
768.848165	2513.662981
769.173846	2512.241375
769.499479	2512.362363
769.825066	2514.709020
770.150607	2511.293638
770.476101	2512.402692
770.801548	2515.046777
771.126949	2513.741118
771.452303	2515.142559
771.777611	2512.032167
772.102872	2509.947650
772.428087	2513.826818
772.753256	2513.340347
773.078378	2511.822959
773.403453	2512.062414
773.728482	2509.312465
774.053465	2512.105264
774.378401	2512.450583
774.703291	2512.138032
775.028135	2511.487723
775.352932	2513.378155
775.677683	2512.269102
776.002388	2512.117867
776.327046	2511.719616
776.651658	2513.438649
776.976224	2512.382527
777.300743	2513.156345
777.625216	2511.764986
777.949643	2514.104082
778.274024	2512.206087
778.598359	2508.223576
778.922647	2505.816425
779.246889	2508.556292
779.571086	2509.138545
779.895236	2509.095695
780.219339	2510.182064
780.543397	2511.669204
780.867409	2510.787002
781.191374	2512.591735
781.515294	2511.608710
781.839167	2511.303721
782.162995	2511.686848
782.486776	2508.946981
782.810511	2512.193484
783.134201	2510.212311
783.457844	2510.933196
783.781441	2510.867661
784.104993	2510.441683
784.428498	2513.771365
784.751958	2512.425377
785.075372	2512.836231
785.398739	2511.313803
785.722061	2513.083248
786.045337	2512.294307
786.368568	2513.983094
786.691752	2513.466376
787.014891	2511.187774
787.337983	2512.911849
787.661030	2511.523011
787.984031	2511.782630
788.306987	2513.221880
788.629897	2512.894205
788.952760	2513.239524
789.275579	2509.922444
789.598351	2512.495953
789.921078	2510.794564
790.243759	2511.858247
790.566395	2512.662312
790.888984	2510.907990
791.211529	2509.428411
791.534027	2513.680625
791.856480	2509.345232
792.178888	2512.062414
792.501249	2511.822959
792.823566	2514.580471
793.145836	2512.201046
793.468062	2510.764317
793.790241	2510.897908
794.112375	2511.187774
794.434464	2510.860099
794.756507	2511.606190
795.078505	2509.667866
795.400457	2511.505367
795.722364	2506.985972
796.044226	2508.316837
796.366042	2506.479336
796.687812	2507.273318
797.009538	2512.364883
797.331218	2513.262209
797.652852	2511.265912
797.974442	2511.444873
798.295986	2509.042763
798.617484	2511.089472
798.938938	2510.257681
799.260346	2510.114008
799.581709	2511.202898
799.903026	2512.831190
800.224299	2512.695079
800.545526	2512.727847
800.866708	2511.162568
801.187845	2513.655419
801.508936	2508.644512
801.829983	2510.623165
802.150984	2512.579133
802.471940	2510.645850
802.792851	2510.482013
803.113717	2511.714575
803.434538	2510.756755
803.755314	2511.084430
804.076045	2510.050994
804.396731	2509.887156
804.717372	2510.907990
805.037967	2509.347753
805.358518	2507.984121
805.679024	2513.347908
805.999485	2509.216683
806.319901	2510.844976
806.640272	2512.412774
806.960598	2508.490757
807.280879	2514.073835
807.601115	2510.809687
807.921306	2508.533607
808.241453	2511.323885
808.561554	2510.645850
808.881611	2510.913031
809.201623	2511.520490
809.521590	2512.032167
809.841513	2511.008813
810.161390	2509.130983
810.481223	2509.950171
810.801011	2510.718947
811.120755	2507.575787
811.440453	2512.402692
811.760107	2511.674245
812.079716	2509.907321
812.399281	2510.557630
812.718801	2507.101919
813.038276	2505.937412
813.357707	2510.557630
813.677093	2510.653412
813.996434	2510.146776
814.315731	2510.643329
814.634983	2511.245747
814.954191	2509.625016
815.273354	2510.371107
815.592473	2510.129132
815.911547	2511.190295
816.230577	2508.841117
816.549562	2511.336488
816.868502	2507.757269
817.187399	2511.588546
817.506250	2510.787002
817.825058	2508.793226
818.143821	2510.683659
818.462539	2511.011334
818.781213	2511.006292
819.099843	2510.567712
819.418429	2511.129801
819.736970	2509.723319
820.055466	2508.904131
820.373919	2509.672907
820.692327	2510.305572
821.010691	2513.907477
821.329011	2508.523524
821.647286	2512.538803
821.965517	2510.638288
822.283704	2511.860768
822.601847	2512.735408
822.919945	2511.984276
823.237999	2510.234996
823.556010	2512.120388
823.873976	2510.635768
824.191897	2511.422188
824.509775	2510.096364
824.827609	2511.046622
825.145398	2511.424708
825.463144	2511.152486
825.780845	2510.323216
826.098502	2512.561488
826.416116	2510.703823
826.733685	2510.855058
827.051210	2510.015706
827.368692	2511.316323
827.686129	2512.735408
828.003522	2509.095695
828.320872	2506.602845
828.638177	2507.797598
828.955439	2507.361538
829.272656	2506.844820
829.589830	2505.987824
829.906960	2510.802126
830.224046	2506.973369
830.541088	2509.551920
830.858086	2509.816580
831.175041	2513.794051
831.491952	2511.323885
831.808819	2511.076869
832.125642	2511.964112
832.442421	2513.184071
832.759157	2509.347753
833.075849	2510.471930
833.392497	2514.582991
833.709101	2509.272136
834.025662	2509.022598
834.342179	2510.713906
834.658653	2506.577639
834.975083	2511.344050
835.291469	2513.428567
835.607811	2510.386231
835.924110	2510.348422
836.240366	2509.814060
836.556578	2509.995541
836.872746	2509.176354
837.188871	2513.294976
837.504952	2511.810357
837.820990	2509.206601
838.136984	2509.551920
838.452935	2510.411436
838.768842	2510.691220
839.084706	2509.425891
839.400526	2507.268277
839.716303	2510.232475
840.032037	2508.457989
840.347727	2510.345901
840.663373	2510.645850
840.978977	2509.418329
841.294537	2509.327588
841.610054	2510.300531
841.925527	2509.625016
842.240957	2510.587877
842.556344	2510.860099
842.871687	2507.381703
843.186987	2512.490912
843.502244	2511.354132
843.817458	2512.100223
844.132629	2509.685510
844.447756	2507.359018
844.762840	2505.282062
845.077881	2509.130983
845.392879	2508.435304
845.707833	2507.038904
846.022745	2506.043277
846.337613	2509.982938
846.652438	2510.015706
846.967221	2508.810870
847.281960	2511.122239
847.596656	2509.335150
847.911309	2509.166271
848.225919	2508.594100
848.540485	2509.887156
848.855009	2507.757269
849.169490	2508.992352
849.483928	2510.232475
849.798323	2509.062928
850.112675	2510.381189
850.426984	2510.444204
850.741251	2511.734739
851.055474	2509.756086
851.369654	2508.314316
851.683792	2511.091992
851.997887	2508.957063
852.311938	2509.549399
852.625947	2509.544358
852.939914	2508.616786
853.253837	2510.222393
853.567718	2511.223062
853.881555	2509.425891
854.195350	2508.594100
854.509103	2507.999244
854.822812	2511.308762
855.136479	2509.740963
855.450103	2510.774399
855.763685	2508.163082
856.077224	2507.903462
856.390720	2508.485716
856.704173	2509.521673
857.017584	2509.851868
857.330953	2509.783813
857.644278	2509.244409
857.957561	2515.263547
858.270802	2510.603000
858.584000	2509.020078
858.897155	2510.597959
859.210268	2508.765500
859.523339	2510.489574
859.836367	2507.497649
860.149352	2509.967815
860.462295	2510.882784
860.775195	2505.279542
861.088054	2505.156033
861.400869	2505.748369
861.713642	2503.701661
862.026373	2507.593431
862.339062	2506.257526
862.651708	2509.340191
862.964312	2508.132835
863.276873	2507.989162
863.589392	2511.888494
863.901869	2509.872033
864.214303	2510.098885
864.526696	2512.863958
864.839045	2508.667197
865.151353	2507.754748
865.463619	2507.401868
865.775842	2510.723988
866.088023	2508.309275
866.400162	2509.861951
866.712258	2507.106960
867.024313	2508.137876
867.336325	2507.938750
867.648296	2509.158710
867.960224	2508.016888
868.272110	2507.558143
868.583954	2507.419512
868.895755	2509.514111
869.207515	2509.577125
869.519233	2509.272136
869.830909	2510.111488
870.142542	2508.571415
870.454134	2510.093844
870.765684	2507.207783
871.077191	2510.154338
871.388657	2507.215345
871.700081	2505.614778
872.011463	2510.847496
872.322803	2509.534276
872.634101	2508.584018
872.945357	2510.454286
873.256571	2510.857578
873.567744	2511.651560
873.878874	2508.800788
874.189963	2507.800119
874.501010	2508.377331
874.812015	2506.870026
875.122979	2509.897239
875.433900	2509.183915
875.744780	2510.025788
876.055618	2511.374297
876.366415	2510.209790
876.677169	2509.599811
876.987882	2509.443535
877.298554	2503.300889
877.609183	2509.627537
877.919771	2503.139572
878.230317	2504.596465
878.540822	2510.787002
878.851285	2510.366066
879.161707	2506.270128
879.472087	2509.894718
879.782425	2509.113339
880.092722	2509.110819
880.402977	2508.793226
880.713191	2506.219717
881.023363	2507.094357
881.333494	2511.152486
881.643583	2507.848010
881.953631	2510.086282
882.263637	2509.274656
882.573602	2509.304903
882.883526	2509.899759
883.193408	2507.074193
883.503248	2505.829028
883.813048	2509.204080
884.122806	2508.102588
884.432522	2510.169461
884.742197	2509.226765
885.051831	2510.454286
885.361424	2508.896570
885.670975	2508.641991
885.980485	2507.384223
886.289954	2509.375479
886.599382	2506.686024
886.908768	2508.415139
887.218113	2507.784995
887.527417	2510.161899
887.836680	2506.063441
888.145901	2511.553258
888.455082	2509.526714
888.764221	2506.660818
889.073319	2507.422032
889.382376	2507.016219
889.691392	2509.254492
890.000366	2510.315654
890.309300	2508.475633
890.618193	2506.683503
890.927044	2509.188957
891.235855	2508.427742
891.544625	2511.036539
891.853353	2510.114008
892.162041	2509.463699
892.470687	2510.499657
892.779293	2507.812722
893.087858	2505.534120
893.396381	2505.105622
893.704864	2506.595283
894.013306	2504.664521
894.321707	2510.234996
894.630068	2507.709378
894.938387	2510.391272
895.246665	2507.278359
895.554903	2508.379851
895.863100	2509.574605
896.171256	2508.735253
896.479371	2508.641991
896.787446	2508.962105
897.095480	2508.526045
897.403473	2507.585870
897.711425	2510.028309
898.019336	2508.631909
898.327207	2507.759789
898.635038	2508.979749
898.942827	2509.569564
899.250576	2508.460510
899.558284	2509.317506
899.865952	2508.581497
900.173579	2508.014368
900.481165	2508.369769
900.788711	2506.907834
901.096216	2510.890346
901.403681	2508.392454
901.711105	2509.461179
902.018489	2507.099398
902.325832	2509.320027
902.633135	2509.405726
902.940397	2510.030829
903.247619	2509.904800
903.554800	2507.185098
903.861941	2509.317506
904.169041	2507.830366
904.476101	2507.416991
904.783121	2510.378669
905.090100	2508.193329
905.397039	2507.449758
905.703938	2507.061590
906.010796	2507.127125
906.317614	2508.745335
906.624391	2509.935047
906.931129	2506.993534
907.237826	2506.819614
907.544483	2506.103770
907.851099	2507.447238
908.157675	2507.492608
908.464211	2509.887156
908.770707	2504.525889
909.077163	2506.234840
909.383578	2503.129490
909.689954	2504.432628
909.996289	2503.694099
910.302584	2507.608555
910.608839	2507.321209
910.915054	2505.869357
911.221229	2509.254492
911.527363	2510.129132
911.833458	2508.326919
912.139513	2511.328926
912.445527	2509.078051
912.751502	2507.462361
913.057436	2509.098216
913.363331	2507.222907
913.669186	2508.364728
913.975000	2509.234327
914.280775	2507.797598
914.586510	2508.614265
914.892205	2509.534276
915.197859	2507.855571
915.503475	2507.094357
915.809050	2506.333143
916.114585	2506.948164
916.420081	2506.343225
916.725536	2507.046466
917.030952	2508.082423
917.336328	2511.018895
917.641665	2510.018226
917.946961	2506.766682
918.252218	2505.831548
918.557435	2507.013699
918.862612	2510.028309
919.167750	2506.025633
919.472848	2508.072341
919.777906	2509.110819
920.082925	2508.029491
920.387904	2506.330622
920.692843	2507.671569
920.997743	2507.374141
921.302603	2510.789523
921.607423	2506.927999
921.912204	2507.769872
922.216946	2507.840448
922.521647	2508.705006
922.826310	2505.907165
923.130932	2506.991013
923.435516	2506.761641
923.740059	2508.306755
924.044564	2505.203924
924.349028	2507.235509
924.653454	2503.381547
924.957840	2503.825169
925.262186	2503.008502
925.566493	2507.288442
925.870761	2503.137051
926.174989	2510.182064
926.479178	2507.469923
926.783328	2506.983452
927.087438	2508.652074
927.391509	2508.667197
927.695541	2508.513442
927.999533	2506.287772
928.303486	2504.246105
928.607400	2508.163082
928.911275	2505.302227
929.215110	2506.756600
929.518906	2509.025119
929.822663	2507.739625
930.126381	2505.481188
930.430060	2508.493277
930.733699	2506.509583
931.037299	2510.464368
931.340861	2507.424553
931.644383	2506.539830
931.947866	2507.059069
932.251309	2506.648215
932.554714	2507.512773
932.858080	2508.231137
933.161407	2506.895232
933.464694	2506.144100
933.767943	2506.953205
934.071153	2507.175016
934.374323	2507.240551
934.677455	2509.365397
934.980548	2508.387413
935.283602	2506.570077
935.586617	2507.235509
935.889593	2509.073010
936.192530	2505.594614
936.495428	2506.121414
936.798287	2506.083606
937.101108	2509.015037
937.403890	2506.496980
937.706632	2507.416991
938.009336	2504.883811
938.312002	2504.535972
938.614628	2505.279542
938.917216	2507.777433
939.219765	2506.335663
939.522275	2505.844151
939.824747	2509.456138
940.127179	2504.911537
940.429573	2503.222751
940.731929	2500.576145
941.034246	2502.829541
941.336524	2504.432628
941.638763	2506.585201
941.940964	2506.804491
942.243126	2507.079234
942.545250	2505.856754
942.847335	2507.548061
943.149381	2504.662000
943.451389	2505.851713
943.753359	2508.299193
944.055290	2507.558143
944.357182	2507.926147
944.659036	2506.766682
944.960851	2508.578977
945.262628	2506.451610
945.564367	2505.009840
945.866067	2506.542351
946.167729	2510.161899
946.469352	2505.483708
946.770937	2507.154851
947.072484	2508.977228
947.373992	2507.250633
947.675462	2507.469923
947.976893	2507.318688
948.278286	2506.023112
948.579641	2508.319358
948.880958	2507.626199
949.182236	2507.613596
949.483476	2505.350118
949.784678	2508.072341
950.085841	2507.086795
950.386967	2506.854902
950.688054	2505.995386
950.989103	2503.923471
951.290114	2505.478667
951.591087	2506.217196
951.892021	2506.862464
952.192917	2504.079747
952.493776	2504.334325
952.794596	2508.044615
953.095378	2506.456651
953.396122	2508.868843
953.696828	2506.834738
953.997496	2507.094357
954.298126	2502.259891
954.598718	2506.507063
954.899272	2508.132835
955.199788	2509.125942
955.500266	2507.545540
955.800706	2504.286434
956.101108	2504.788029
956.401472	2504.477998
956.701798	2501.443224
957.002087	2506.610406
957.302337	2506.088647
957.602550	2505.516476
957.902724	2505.806342
958.202861	2503.386588
958.502960	2506.678462
958.803022	2506.827176
959.103045	2509.181395
959.403031	2504.472957
959.702979	2505.748369
960.002889	2506.665859
960.302762	2506.673421
960.602596	2506.912876
960.902393	2506.406240
961.202153	2506.093688
961.501875	2503.300889
961.801559	2505.382885
962.101205	2504.626712
962.400814	2508.851199
962.700385	2504.881291
962.999918	2507.154851
963.299414	2503.583193
963.598873	2506.534789
963.898293	2506.640653
964.197677	2506.340705
964.497022	2507.008658
964.796331	2505.181239
965.095601	2506.565036
965.394835	2508.510921
965.694030	2506.469254
965.993189	2507.860613
966.292309	2506.255005
966.591393	2509.960253
966.890439	2508.258864
967.189447	2504.959428
967.488419	2506.464213
967.787353	2505.524038
968.086249	2504.830879
968.385108	2506.885149
968.683930	2504.707371
968.982714	2506.249964
969.281462	2505.329953
969.580172	2507.593431
969.878844	2506.209635
970.177480	2506.517145
970.476078	2504.843482
970.774639	2508.831035
971.073162	2505.634943
971.371649	2505.607217
971.670098	2503.363903
971.968510	2504.687206
972.266885	2501.745693
972.565223	2506.628050
972.863524	2508.258864
973.161788	2507.346415
973.460014	2505.846672
973.758204	2504.893893
974.056356	2505.768534
974.354471	2504.765344
974.652550	2506.973369
974.950591	2503.767196
975.248595	2507.626199
975.546563	2506.353308
975.844493	2506.509583
976.142386	2506.378513
976.440243	2503.557988
976.738062	2507.416991
977.035845	2504.467916
977.333590	2506.864985
977.631299	2506.718791
977.928971	2503.661331
978.226606	2504.568739
978.524204	2507.364059
978.821765	2505.166116
979.119290	2506.393637
979.416777	2504.780468
979.714228	2504.208297
980.011642	2507.046466
980.309020	2507.467402
980.606360	2506.189470
980.903664	2506.439007
981.200931	2503.298368
981.498162	2504.677124
981.795356	2505.904645
982.092513	2506.834738
982.389633	2503.028667
982.686717	2507.169974
982.983764	2505.214007
983.280775	2505.952536
983.577749	2505.604696
983.874686	2503.003461
984.171587	2507.406909
984.468451	2506.839779
984.765279	2505.264418
985.062070	2507.727022
985.358824	2502.789212
985.655543	2505.392968
985.952224	2507.326250
986.248869	2507.595952
986.545478	2503.621002
986.842050	2505.251815
987.138586	2503.053872
987.435086	2502.970693
987.731549	2501.884325
988.027975	2506.809532
988.324366	2503.946157
988.620719	2506.076044
988.917037	2505.771054
989.213318	2504.258708
989.509563	2504.634274
989.805772	2504.788029
990.101944	2506.398678
990.398080	2507.694254
990.694180	2504.301558
990.990244	2506.799450
991.286271	2506.761641
991.582262	2507.230468
991.878217	2505.153513
992.174136	2508.137876
992.470019	2503.600838
992.765865	2507.175016
993.061676	2505.914727
993.357450	2504.311640
993.653188	2504.359531
993.948890	2505.362721
994.244556	2504.127638
994.540186	2506.028153
994.835780	2504.462875
995.131337	2505.607217
995.426859	2504.667042
995.722345	2504.183091
996.017795	2505.932371
996.313208	2506.698627
996.608586	2503.747031
996.903928	2505.887001
997.199234	2504.513286
997.494504	2506.287772
997.789738	2503.053872
998.084936	2505.024963
998.380099	2504.921620
998.675225	2505.140910
998.970316	2505.508914
999.265371	2507.520335
999.560390	2503.255518
999.855373	2508.654594
1000.150320	2504.488081
1000.445232	2507.195180
1000.740108	2504.311640
1001.034948	2504.903976
1001.329752	2506.791888
1001.624521	2504.472957
1001.919254	2500.624036
1002.213951	2502.360714
1002.508613	2503.731907
1002.803239	2501.833913
1003.097829	2500.923985
1003.392384	2504.667042
1003.686903	2504.745179
1003.981386	2507.167454
1004.275834	2505.377844
1004.570246	2505.733246
1004.864623	2506.885149
1005.158964	2503.119407
1005.453270	2503.905827
1005.747540	2503.600838
1006.041775	2504.596465
1006.335974	2506.683503
1006.630138	2501.786022
1006.924266	2504.442710
1007.218359	2505.627381
1007.512416	2505.461023
1007.806438	2505.710560
1008.100425	2506.905314
1008.394376	2504.339367
1008.688292	2506.945643
1008.982172	2504.364572
1009.276017	2504.450272
1009.569827	2503.724346
1009.863602	2506.988493
1010.157341	2503.585714
1010.451045	2501.901969
1010.744714	2506.340705
1011.038347	2505.594614
1011.331945	2503.386588
1011.625508	2506.774244
1011.919036	2502.809376
1012.212528	2506.020591
1012.505986	2502.700992
1012.799408	2507.253153
1013.092795	2506.103770
1013.386147	2504.024294
1013.679464	2503.691578
1013.972745	2504.193173
1014.265992	2503.489932
1014.559204	2504.004130
1014.852380	2505.319871
1015.145521	2509.320027
1015.438628	2503.754593
1015.731699	2507.197701
1016.024736	2503.784840
1016.317737	2505.990344
1016.610703	2508.208452
1016.903635	2500.389622
1017.196531	2499.487256
1017.489393	2504.321722
1017.782219	2499.421721
1018.075011	2503.749552
1018.367768	2503.439521
1018.660490	2506.660818
1018.953177	2506.660818
1019.245829	2506.660818
