Dividing Wavelength (nm)	Counts (n)	Blue Motor Position (mm): 0.000000	Red Motor Position (mm): 32.800000	
326.493990	2129.605195
326.888308	2129.605195
327.282561	2129.605195
327.676750	2096.883066
328.070874	2095.441296
328.464933	2097.477922
328.858929	2101.382296
329.252859	2113.380242
329.646726	2121.408279
330.040528	2139.291773
330.434265	2153.701911
330.827938	2173.508604
331.221547	2189.494103
331.615091	2208.766434
332.008571	2228.981461
332.401986	2248.238669
332.795338	2266.454878
333.188625	2288.146963
333.581847	2304.858388
333.975006	2324.740699
334.368100	2343.019923
334.761129	2361.861235
335.154095	2375.805067
335.546996	2395.785680
335.939833	2412.686148
336.332606	2428.071750
336.725315	2443.797629
337.117960	2449.743670
337.510540	2463.538788
337.903056	2469.578090
338.295508	2476.416415
338.687896	2485.586274
339.080220	2493.614312
339.472480	2502.660662
339.864676	2506.292814
340.256807	2509.138545
340.648875	2513.423526
341.040879	2515.066942
341.432818	2513.597446
341.824694	2519.021727
342.216506	2518.260513
342.608253	2517.819412
342.999937	2516.937210
343.391557	2517.479134
343.783113	2515.477796
344.174605	2517.411078
344.566033	2515.198012
344.957397	2514.225069
345.348697	2510.781961
345.739934	2508.987310
346.131106	2508.359687
346.522215	2508.825993
346.913260	2504.959428
347.304241	2503.923471
347.695159	2500.886176
348.086012	2502.161588
348.476802	2499.361227
348.867528	2495.000629
349.258191	2495.487100
349.648789	2495.293016
350.039324	2490.806389
350.429796	2491.103817
350.820203	2492.772439
351.210548	2490.055257
351.600828	2489.304125
351.991045	2489.649444
352.381198	2486.632314
352.771288	2489.931749
353.161314	2486.637355
353.551276	2488.971409
353.941175	2488.000987
354.331010	2488.197592
354.720782	2488.386635
355.110490	2485.883702
355.500135	2487.572489
355.889717	2487.491830
356.279235	2486.266830
356.668689	2489.236070
357.058080	2487.849752
357.447408	2486.954947
357.836672	2483.947899
358.225873	2488.636172
358.615010	2486.246665
359.004084	2492.520381
359.393095	2489.755308
359.782043	2491.418889
360.170927	2491.423930
360.559748	2493.105155
360.948505	2493.878972
361.337199	2496.255876
361.725830	2497.143119
362.114398	2496.197903
362.502903	2497.306957
362.891344	2496.528099
363.279722	2495.724035
363.668037	2497.982472
364.056289	2496.828047
364.444478	2500.308964
364.832603	2499.530106
365.220665	2501.193687
365.608665	2502.015395
365.996601	2502.516989
366.384474	2503.341218
366.772284	2504.747700
367.160031	2504.966990
367.547715	2507.941271
367.935336	2509.456138
368.322893	2513.655419
368.710388	2516.062570
369.097820	2524.249404
369.485189	2526.883407
369.872495	2532.889941
370.259738	2535.110570
370.646918	2546.044832
371.034035	2553.588919
371.421090	2565.604509
371.808081	2574.774368
372.195010	2584.614700
372.581875	2596.847060
372.968678	2611.340377
373.355418	2620.381687
373.742096	2637.188894
374.128710	2650.686583
374.515262	2667.115704
374.901751	2684.379135
375.288177	2696.170394
375.674540	2719.163097
376.060841	2733.840416
376.447079	2757.848911
376.833254	2774.729215
377.219367	2789.184723
377.605417	2827.242914
377.991404	2836.717763
378.377329	2858.833305
378.763191	2873.727394
379.148991	2911.977149
379.534727	2939.950512
379.920402	2966.598051
380.306013	2982.659167
380.691563	3030.542567
381.077049	3050.061914
381.462474	3067.242167
381.847835	3108.783795
382.233134	3130.579224
382.618371	3130.304481
383.003545	3198.135726
383.388657	3203.033207
383.773706	3236.745924
384.158693	3254.521032
384.543618	3280.755197
384.928480	3316.126453
385.313280	3360.823843
385.698017	3359.987012
386.082692	3415.354004
386.467305	3417.143614
386.851856	3452.923203
387.236344	3473.526399
387.620770	3503.980010
388.005133	3529.402548
388.389435	3557.690983
388.773674	3572.327973
389.157851	3611.313737
389.541965	3626.442239
389.926018	3591.189451
390.310008	3661.306859
390.693936	3679.472657
391.077802	3721.916652
391.461606	3713.518090
391.845348	3771.602264
392.229027	3773.291051
392.612645	3787.186992
392.996200	3863.305894
393.379694	3904.592944
393.763125	3972.444354
394.146494	3935.346503
394.529801	4001.463756
394.913047	4046.130900
395.296230	4013.199562
395.679351	4067.034044
396.062410	4091.352571
396.445408	4073.640477
396.828343	4104.555353
397.211217	4128.836070
397.594028	4050.181467
397.976778	4114.216724
398.359466	4144.037669
398.742092	4171.186803
399.124656	4092.426336
399.507158	4175.234850
399.889598	4198.474569
400.271977	4261.879682
400.654294	4231.191658
401.036549	4239.784304
401.418742	4206.500086
401.800874	4313.009585
402.182944	4331.954241
402.564952	4398.923449
402.946898	4389.186460
403.328783	4381.609606
403.710606	4295.413437
404.092367	4488.865195
404.474067	4452.198363
404.855705	4459.528201
405.237282	4388.657139
405.618797	4495.809385
406.000250	4530.477400
406.381642	4610.571252
406.762972	4574.481632
407.144240	4587.558385
407.525447	4585.199125
407.906593	4646.045852
408.287677	4687.572357
408.668700	4611.612250
409.049661	4666.152494
409.430560	4709.060275
409.811399	4633.891630
410.192176	4797.182165
410.572891	4734.502978
410.953545	4841.713197
411.334138	4717.466399
411.714669	4785.698416
412.095139	4682.813507
412.475547	4818.990196
412.855894	4806.112569
413.236180	4813.107170
413.616405	4766.920118
413.996568	4853.723746
414.376670	4798.003873
414.756711	4748.482098
415.136691	4780.732880
415.516609	4859.727760
415.896466	4894.345364
416.276262	4931.412968
416.655997	4907.192744
417.035670	5094.864820
417.415283	5184.420918
417.794834	5128.242299
418.174324	5081.379733
418.553753	4990.066793
418.933121	5177.249877
419.312428	5239.155246
419.691674	5178.686605
420.070859	5311.639476
420.449983	5221.685127
420.829045	5335.587478
421.208047	5240.523919
421.586988	5311.011853
421.965867	5325.605993
422.344686	5458.074913
422.723444	5311.566380
423.102141	5128.343123
423.480777	5427.185243
423.859352	5197.812743
424.237866	5454.334377
424.616319	5449.593172
424.994712	5556.931940
425.373044	5435.304021
425.751314	5576.355506
426.129524	5376.451071
426.507673	5575.743006
426.885762	5654.488349
427.263789	5590.082568
427.641756	5465.213187
428.019662	5595.322847
428.397508	5599.685966
428.775292	5547.061361
429.153016	5645.961238
429.530679	5571.705042
429.908282	5661.344319
430.285824	5527.005130
430.663305	5800.850690
431.040726	5533.609042
431.418086	5537.084917
431.795385	5642.954189
432.172624	5653.482639
432.549802	5647.292102
432.926920	5659.884905
433.303977	5673.029713
433.680974	5705.557758
434.057910	5724.141972
434.434786	5733.568930
434.811601	5701.008117
435.188355	5935.308345
435.565050	5809.508871
435.941683	5794.445904
436.318257	6003.910887
436.694770	5990.166181
437.071222	6025.151789
437.447614	5956.511438
437.823946	5865.269074
438.200218	6020.493763
438.576429	5886.550305
438.952580	5986.929760
439.328670	6026.248240
439.704700	5939.056443
440.080670	5922.954998
440.456580	6196.515732
440.832429	6077.133647
441.208218	5920.550367
441.583947	6078.903092
441.959616	6081.027938
442.335224	6013.962948
442.710773	6151.765409
443.086261	6171.095713
443.461689	5968.582481
443.837057	6112.031034
444.212365	6273.715962
444.587612	6165.182440
444.962800	6322.824362
445.337927	6295.259333
445.712995	5911.597278
446.088002	6489.182439
446.462949	6313.667106
446.837837	6244.441981
447.212664	6417.966058
447.587431	6560.983593
447.962139	7105.609690
448.336786	8030.106894
448.711374	7770.522759
449.085901	6847.137129
449.460369	6771.958402
449.834776	6699.786723
450.209124	7089.931701
450.583412	7239.243117
450.957640	7386.341465
451.331808	7158.839233
451.705917	6709.760646
452.079965	6626.556402
452.453954	6840.303845
452.827883	6719.263221
453.201752	6812.673281
453.575562	6608.667867
453.949311	6816.461708
454.323001	6703.706220
454.696632	6775.212467
455.070202	6917.277223
455.443713	7070.132570
455.817164	7170.932961
456.190556	7251.278871
456.563888	7331.592014
456.937160	7368.614248
457.310373	7025.430138
457.683526	7054.694036
458.056619	6937.993845
458.429653	6928.377844
458.802628	6866.822835
459.175542	6977.103117
459.548398	7327.911972
459.921194	7493.246694
460.293930	7495.865574
460.666607	8025.602623
461.039224	8329.957245
461.411782	8455.741595
461.784280	8472.480747
462.156719	8362.654169
462.529099	8242.178154
462.901419	7833.953077
463.273680	7730.727890
463.645882	7740.616113
464.018024	7607.917821
464.390106	7765.665607
464.762130	8160.332500
465.134094	8625.734344
465.505999	9647.624120
465.877845	10864.122598
466.249631	11525.156499
466.621358	11138.197530
466.993026	10503.811168
467.364634	10251.443445
467.736184	9889.425584
468.107674	9554.624913
468.479105	9589.744112
468.850477	9350.180919
469.221790	9117.561916
469.593043	8799.460067
469.964238	8653.594281
470.335373	8672.498608
470.706449	8728.954490
471.077467	8706.481026
471.448425	10014.844451
471.819324	11083.422873
472.190164	11114.705753
472.560945	9870.183500
472.931667	9076.849558
473.302330	8941.824773
473.672934	8587.555165
474.043479	8949.653684
474.413965	8882.147593
474.784393	8764.807176
475.154761	8923.648892
475.525070	9006.122169
475.895321	8842.035132
476.265513	9015.511318
476.635645	9184.551289
477.005719	9176.309002
477.375734	9300.202920
477.745691	9533.711687
478.115588	9661.134412
478.485427	9907.026773
478.855207	10439.251632
479.224928	11254.965777
479.594591	11881.286292
479.964194	11690.105574
480.333739	11629.170627
480.703226	11548.562577
481.072653	11634.723458
481.442022	11873.185158
481.811333	12059.969990
482.180584	11858.263342
482.549777	11566.544372
482.918912	11391.349153
483.287988	11406.641493
483.657005	11418.951991
484.025964	11091.100550
484.394864	11230.826211
484.763706	11193.562002
485.132489	10949.794487
485.501213	10903.302446
485.869879	10977.414969
486.238487	10817.295320
486.607036	10921.836248
486.975527	10696.292504
487.343959	10883.105063
487.712333	10922.645353
488.080648	10848.989054
488.448905	10881.053313
488.817104	10819.034518
489.185244	11075.677140
489.553326	11214.805424
489.921350	11735.314641
490.289315	12751.906164
490.657222	13093.381323
491.025070	12982.954848
491.392861	12856.076567
491.760593	12476.092034
492.128267	12118.502827
492.495883	11792.004937
492.863440	11446.761516
493.230939	11108.668971
493.598380	11031.395645
493.965763	10884.025074
494.333088	10778.911975
494.700354	10688.735815
495.067563	10736.062167
495.434713	10544.165605
495.801805	10654.617286
496.168839	10562.432226
496.535815	10478.154216
496.902733	10470.002670
497.269593	10371.778308
497.636395	10464.409510
498.003139	10419.913765
498.369825	10272.379357
498.736453	10400.908615
499.103023	10312.038114
499.469535	10318.395009
499.835989	10284.241192
500.202385	10224.135515
500.568723	10059.945134
500.935003	10237.623122
501.301226	10020.568681
501.667390	10240.030273
502.033497	10300.188882
502.399546	10145.962342
502.765537	10021.644968
503.131470	10062.637110
503.497345	10183.831490
503.863163	9807.055651
504.228923	10051.498681
504.594625	10076.412063
504.960269	9815.320623
505.325856	9969.489190
505.691385	9744.598276
506.056856	9855.511222
506.422270	9825.332354
506.787625	9688.999390
507.152924	9747.746476
507.518164	9700.828457
507.883347	9578.736752
508.248472	9465.865318
508.613540	9620.477506
508.978550	9464.244587
509.343503	9405.426924
509.708398	9456.307290
510.073236	9495.527467
510.438016	9457.522208
510.802738	9356.716775
511.167403	9346.866361
511.532010	9204.269762
511.896561	9346.831072
512.261053	9341.179939
512.625488	9187.949027
512.989866	9114.963201
513.354186	9050.554899
513.718449	8916.082120
514.082655	9010.933951
514.446803	8870.782312
514.810894	8899.249708
515.174927	8735.099656
515.538904	8703.544554
515.902822	8749.681194
516.266684	8608.465872
516.630488	8507.214297
516.994235	8490.727203
517.357925	8451.081048
517.721558	8455.265206
518.085133	8395.479642
518.448651	8343.018875
518.812112	8195.083694
519.175516	8136.949108
519.538863	8150.567785
519.902152	8036.864560
520.265385	8055.542035
520.628560	7947.936086
520.991678	7856.648352
521.354739	7835.150351
521.717743	7733.187973
522.080690	7651.387690
522.443580	7646.931310
522.806413	7563.137251
523.169189	7521.409100
523.531908	7474.506205
523.894569	7305.647716
524.257174	7242.207315
524.619722	7227.691313
524.982213	7153.906464
525.344647	7089.697288
525.707025	7005.489854
526.069345	6990.124417
526.431608	6867.498350
526.793815	6858.628439
527.155964	6690.705084
527.518057	6652.886348
527.880093	6564.260343
528.242072	6532.596856
528.603995	6415.102683
528.965860	6315.275234
529.327669	6279.848525
529.689421	6196.949271
530.051117	6118.776098
530.412755	6087.291572
530.774337	5999.535166
531.135862	5918.019708
531.497331	5872.780393
531.858743	5741.518829
532.220098	5748.672227
532.581396	5648.002905
532.942638	5585.227937
533.303824	5517.890724
533.664953	5450.659376
534.026025	5368.551583
534.387040	5344.343962
534.747999	5294.464265
535.108902	5255.715436
535.469748	5129.681549
535.830537	5105.705821
536.191270	5048.198859
536.551947	4995.251620
536.912567	4947.703457
537.273131	4876.035893
537.633638	4820.202594
537.994089	4762.559520
538.354483	4705.221436
538.714821	4696.921176
539.075103	4653.466430
539.435328	4589.436215
539.795497	4510.239688
540.155609	4493.044312
540.515665	4470.401969
540.875665	4366.234087
541.235609	4334.633614
541.595496	4293.245741
541.955328	4274.911064
542.315102	4214.102146
542.674821	4165.142460
543.034483	4120.210656
543.394090	4084.307558
543.753640	4031.690515
544.113134	4027.037530
544.472571	3970.823623
544.831953	3954.147486
545.191278	3886.026374
545.550548	3851.895242
545.909761	3843.932740
546.268918	3806.136689
546.628019	3783.396044
546.987064	3726.433526
547.346053	3688.773586
547.704986	3667.048734
548.063863	3637.169815
548.422684	3606.519599
548.781449	3565.224988
549.140158	3549.151269
549.498811	3505.245339
549.857408	3465.846201
550.215949	3458.113071
550.574434	3415.333840
550.932864	3399.892786
551.291237	3380.668345
551.649555	3347.495032
552.007817	3331.958196
552.366022	3306.404588
552.724173	3282.794343
553.082267	3259.872217
553.440305	3245.366297
553.798288	3216.800598
554.156215	3197.934080
554.514086	3182.868592
554.871902	3149.269302
555.229661	3137.437713
555.587365	3116.030454
555.945014	3095.575972
556.302606	3082.476534
556.660143	3064.595561
557.017625	3052.453942
557.375050	3032.911909
557.732421	3023.227853
558.089735	3003.746313
558.446994	2990.924139
558.804197	2978.510297
559.161345	2963.696867
559.518437	2945.536110
559.875474	2932.630756
560.232455	2923.271854
560.589381	2911.183167
560.946251	2896.795714
561.303065	2892.447719
561.659825	2875.393495
562.016528	2864.325642
562.373177	2850.704444
562.729770	2844.047601
563.086307	2831.749706
563.442789	2828.488079
563.799216	2813.130204
564.155587	2804.890438
564.511904	2796.847277
564.868164	2789.698921
565.224370	2782.293466
565.580520	2773.723505
565.936615	2769.816610
566.292654	2754.788931
566.648638	2756.308839
567.004567	2749.785586
567.360441	2741.981879
567.716260	2734.720097
568.072023	2733.757237
568.427732	2723.501009
568.783385	2717.754094
569.138982	2712.980121
569.494525	2708.508618
569.850013	2701.468647
570.205445	2706.280428
570.560823	2700.233564
570.916145	2693.165866
571.271412	2691.562779
571.626625	2688.235618
571.981782	2687.373580
572.336884	2682.254289
572.691931	2681.001562
573.046923	2677.692044
573.401860	2671.181394
573.756743	2670.142917
574.111570	2669.870694
574.466342	2666.445230
574.821059	2665.421876
575.175722	2662.301402
575.530330	2659.574137
575.884882	2659.856442
576.239380	2652.342602
576.593823	2652.254382
576.948211	2652.158600
577.302544	2651.455359
577.656823	2646.285656
578.011047	2645.194246
578.365216	2644.848927
578.719330	2645.511839
579.073389	2642.837507
579.427394	2640.561426
579.781344	2637.572022
580.135239	2637.670324
580.489080	2635.086733
580.842866	2633.944911
581.196597	2634.126393
581.550273	2629.929632
581.903895	2630.819396
582.257463	2631.822586
582.610975	2629.231432
582.964434	2630.718573
583.317837	2628.724797
583.671186	2627.600619
584.024481	2625.228756
584.377721	2625.352265
584.730906	2620.548045
585.084037	2624.853190
585.437113	2621.163066
585.790135	2623.247583
586.143103	2618.866820
586.496016	2620.948817
586.848874	2616.154679
587.201679	2616.230297
587.554428	2614.387755
587.907124	2616.555451
588.259765	2610.420367
588.612352	2617.046964
588.964884	2615.516973
589.317362	2614.619648
589.669786	2613.450100
590.022155	2615.905142
590.374470	2615.620317
590.726731	2617.074690
591.078937	2610.488422
591.431090	2613.286263
591.783188	2610.818618
592.135232	2609.855758
592.487222	2608.847527
592.839157	2610.296859
593.191038	2606.362238
593.542866	2608.497167
593.894639	2607.080602
594.246358	2607.861981
594.598022	2608.116560
594.949633	2606.558843
595.301190	2607.408277
595.652692	2607.080602
596.004141	2606.102619
596.355535	2606.788216
596.706876	2605.419542
597.058162	2602.465426
597.409395	2600.965683
597.760573	2604.718822
598.111698	2602.331836
598.462768	2604.376023
598.813785	2604.050869
599.164748	2603.675303
599.515657	2605.762341
599.866511	2602.553646
600.217312	2602.901486
600.568060	2602.538523
600.918753	2604.854933
601.269392	2602.266301
601.619978	2599.077771
601.970510	2598.404777
602.320988	2598.273707
602.671412	2602.725046
603.021783	2600.065837
603.372100	2600.940477
603.722363	2598.908892
604.072572	2601.583224
604.422728	2602.155395
604.772830	2593.993767
605.122878	2596.411000
605.472872	2597.489807
605.822813	2593.257759
606.172701	2597.704056
606.522534	2598.742534
606.872314	2599.140785
607.222041	2598.074581
607.571714	2599.758327
607.921333	2598.278748
608.270899	2596.917636
608.620411	2600.799325
608.969870	2599.123141
609.319276	2599.826382
609.668627	2603.723194
610.017926	2603.801332
610.367171	2606.284100
610.716362	2605.527927
611.065500	2603.322422
611.414585	2600.474170
611.763616	2603.932402
612.112594	2601.210179
612.461518	2602.294027
612.810389	2598.402256
613.159207	2601.232864
613.507971	2599.546598
613.856682	2599.488625
614.205340	2600.638008
614.553945	2600.247318
614.902496	2599.120621
615.250994	2600.350662
615.599439	2599.743203
615.947830	2599.765888
616.296169	2599.135744
616.644454	2600.522061
616.992686	2599.259252
617.340864	2599.173553
617.688990	2596.673140
618.037063	2598.598861
618.385082	2598.775302
618.733048	2599.193717
619.080961	2600.209510
619.428821	2598.797987
619.776628	2596.521906
620.124382	2600.897627
620.472083	2594.717173
620.819731	2599.045003
621.167326	2597.106680
621.514868	2596.655496
621.862357	2596.531988
622.209793	2596.385795
622.557176	2595.790938
622.904506	2595.301947
623.251783	2589.943200
623.599007	2591.148036
623.946179	2590.270875
624.293297	2590.742223
624.640363	2592.521750
624.987376	2591.508478
625.334336	2593.701380
625.681243	2591.526122
626.028097	2591.687439
626.374899	2591.611822
626.721647	2590.651482
627.068343	2592.945207
627.414987	2590.724579
627.761577	2589.073601
628.108115	2587.626790
628.454600	2591.054774
628.801032	2586.676532
629.147412	2587.747778
629.493739	2586.149732
629.840014	2587.962027
630.186236	2588.670309
630.532405	2590.099476
630.878521	2588.919846
631.224585	2588.324990
631.570597	2586.066553
631.916556	2587.576378
632.262462	2584.753332
632.608316	2587.097469
632.954117	2585.900195
633.299866	2586.149732
633.645562	2586.643765
633.991206	2586.366501
634.336797	2587.480596
634.682336	2586.492530
635.027823	2583.087231
635.373257	2583.198136
635.718639	2584.831470
636.063968	2583.331727
636.409245	2581.521952
636.754470	2583.868610
637.099642	2580.546489
637.444762	2584.357602
637.789829	2581.514391
638.134845	2581.496747
638.479808	2581.136304
638.824719	2580.473393
639.169577	2578.857703
639.514383	2578.950964
639.859137	2578.714030
640.203839	2580.796026
640.548489	2577.746128
640.893086	2575.192784
641.237632	2576.246385
641.582125	2576.858885
641.926566	2574.149265
642.270955	2577.980542
642.615292	2578.633371
642.959576	2579.288721
643.303809	2578.154462
643.647990	2581.285018
643.992118	2579.213104
644.336195	2577.849472
644.680219	2577.846951
645.024192	2577.388206
645.368112	2578.761921
645.711981	2578.088927
646.055797	2576.795871
646.399562	2579.127404
646.743274	2579.525656
647.086935	2579.863413
647.430544	2579.497929
647.774101	2581.577405
648.117606	2580.944740
648.461059	2581.058166
648.804460	2581.406006
649.147810	2581.403485
649.491108	2579.593711
649.834354	2581.161510
650.177548	2578.918197
650.520690	2577.988104
650.863781	2577.242013
651.206820	2580.995152
651.549807	2578.640933
651.892742	2575.739749
652.235626	2575.782599
652.578458	2576.725295
652.921238	2579.709658
653.263967	2573.947619
653.606644	2578.199832
653.949269	2572.407546
654.291843	2575.626323
654.634365	2576.470716
654.976836	2574.590366
655.319255	2575.853175
655.661622	2577.060531
656.003938	2575.432239
656.346203	2574.572722
656.688416	2573.937537
657.030577	2572.266394
657.372687	2571.263204
657.714746	2572.520972
658.056753	2575.543144
658.398708	2567.860426
658.740612	2570.353276
659.082465	2570.451579
659.424266	2571.215313
659.766016	2569.430745
660.107715	2575.545665
660.449362	2573.854357
660.790958	2575.379307
661.132503	2574.403843
661.473996	2576.702609
661.815438	2573.725808
662.156829	2574.088771
662.498168	2574.038360
662.839456	2572.238668
663.180693	2573.060376
663.521879	2573.221693
663.863013	2574.890315
664.204097	2575.588514
664.545129	2574.285376
664.886110	2577.846951
665.227040	2576.301838
665.567918	2576.100192
665.908746	2573.589697
666.249522	2577.214287
666.590248	2574.870150
666.930922	2575.386868
667.271545	2577.637743
667.612118	2576.132959
667.952639	2578.325861
668.293109	2573.095664
668.633528	2572.649522
668.973896	2575.112125
669.314213	2573.846796
669.654480	2575.517938
669.994695	2573.259501
670.334859	2574.870150
670.674973	2573.267063
671.015035	2574.870150
671.355047	2574.058524
671.695008	2575.835531
672.034918	2573.650191
672.374777	2573.486353
672.714585	2573.057855
673.054342	2574.976014
673.394049	2573.340160
673.733705	2575.394430
674.073310	2575.167578
674.412864	2577.085737
674.752368	2575.822928
675.091820	2572.583987
675.431223	2573.191446
675.770574	2575.278483
676.109875	2567.515107
676.449125	2569.226578
676.788324	2569.183728
677.127473	2570.796898
677.466571	2567.719273
677.805619	2571.658935
678.144616	2572.160530
678.483562	2573.108267
678.822458	2570.927968
679.161303	2572.921744
679.500098	2571.411918
679.838842	2572.483164
680.177535	2567.686506
680.516179	2571.714388
680.854771	2573.004923
681.193314	2573.526682
681.531805	2571.003585
681.870247	2575.772517
682.208638	2575.893504
682.546978	2577.075655
682.885268	2575.689337
683.223508	2573.020047
683.561697	2572.306723
683.899836	2572.079871
684.237925	2575.817887
684.575963	2573.866960
684.913951	2570.519634
685.251889	2572.596590
685.589776	2572.342011
685.927614	2570.378482
686.265401	2574.013154
686.603137	2575.207907
686.940824	2576.662280
687.278460	2571.974007
687.616046	2574.812177
687.953582	2574.492063
688.291068	2573.914851
688.628504	2578.956005
688.965889	2576.095150
689.303224	2574.920562
689.640510	2573.017526
689.977745	2573.319995
690.314930	2570.809501
690.652065	2571.840417
690.989150	2572.470561
691.326185	2572.309244
691.663170	2568.523337
692.000105	2568.556105
692.336990	2568.994685
692.673825	2568.346897
693.010610	2568.661969
693.347345	2564.797925
693.684030	2564.586196
694.020665	2565.067626
694.357251	2560.162584
694.693786	2563.646021
695.030272	2565.097873
695.366707	2564.871021
695.703093	2564.071998
696.039429	2562.841957
696.375716	2562.831875
696.711952	2564.240877
697.048139	2565.034859
697.384276	2564.346741
697.720363	2563.101576
698.056400	2562.506720
698.392388	2561.967317
698.728326	2564.089643
699.064214	2562.514282
699.400053	2562.980589
699.735842	2561.574107
700.071581	2562.332800
700.407270	2561.133006
700.742910	2563.630897
701.078501	2559.761812
701.414042	2562.599982
701.749533	2559.613098
702.084974	2561.291802
702.420366	2560.507903
702.755709	2557.760474
703.091002	2561.080074
703.426246	2561.221226
703.761440	2558.675443
704.096584	2563.096535
704.431679	2562.161401
704.766725	2561.372461
705.101721	2558.556976
705.436668	2555.917932
705.771565	2557.029507
706.106413	2562.448747
706.441212	2558.625032
706.775961	2560.134857
707.110661	2558.315001
707.445311	2562.458829
707.779913	2560.535629
708.114465	2560.568397
708.448967	2562.453788
708.783421	2562.574776
709.117825	2560.891030
709.452180	2559.855073
709.786485	2562.337842
710.120742	2564.356824
710.454949	2566.401012
710.789107	2563.605692
711.123216	2561.745506
711.457275	2562.650393
711.791286	2562.254663
712.125247	2563.351113
712.459159	2563.525033
712.793023	2566.847154
713.126837	2565.949828
713.460602	2566.169118
713.794318	2566.824468
714.127985	2564.238357
714.461602	2565.554098
714.795171	2563.454457
715.128691	2562.547049
715.462162	2560.593602
715.795584	2560.099569
716.128957	2560.404559
716.462281	2561.702656
716.795556	2562.158881
717.128782	2559.151832
717.461960	2557.702501
717.795088	2558.100752
718.128167	2560.298695
718.461198	2558.940104
718.794180	2558.713252
719.127113	2557.498334
719.459997	2557.359702
719.792833	2557.284085
720.125619	2559.292985
720.458357	2559.260217
720.791046	2558.196534
721.123686	2557.102603
721.456278	2554.521532
721.788821	2554.952551
722.121315	2556.422047
722.453761	2554.254351
722.786158	2555.572613
723.118506	2555.529763
723.450805	2555.829712
723.783056	2556.197716
724.115259	2554.617314
724.447412	2555.605381
724.779518	2554.370298
725.111574	2557.639486
725.443582	2557.223591
725.775542	2555.544887
726.107453	2555.585216
726.439315	2557.878941
726.771129	2558.504044
727.102895	2554.521533
727.434612	2558.355330
727.766281	2560.517985
728.097901	2558.173848
728.429473	2553.649413
728.760996	2558.219219
729.092471	2552.691594
729.423897	2557.861297
729.755276	2556.106975
730.086606	2559.842470
730.417887	2557.815927
730.749120	2557.853735
731.080305	2560.528067
731.411442	2561.803479
731.742530	2560.737275
732.073570	2561.745506
732.404562	2560.515464
732.735506	2562.237018
733.066401	2561.526216
733.397249	2559.073694
733.728048	2558.577141
734.058798	2558.476318
734.389501	2556.565720
734.720156	2557.258879
735.050762	2555.096224
735.381320	2556.341389
735.711831	2554.224104
736.042293	2553.278888
736.372707	2554.834084
736.703073	2553.835936
737.033391	2554.947510
737.363661	2556.200237
737.693883	2555.209650
738.024056	2556.573282
738.354182	2552.709238
738.684260	2556.192675
739.014290	2556.419527
739.344272	2558.378015
739.674207	2557.652089
740.004093	2558.075546
740.333931	2557.092521
740.663722	2557.004301
740.993464	2556.742161
741.323159	2558.234342
741.652806	2555.560010
741.982405	2557.112686
742.311956	2554.380380
742.641460	2556.180072
742.970915	2553.818292
743.300323	2555.887685
743.629683	2555.466749
743.958996	2552.845349
744.288260	2554.014897
744.617477	2549.755122
744.946647	2550.922149
745.275768	2548.255378
745.604842	2548.613300
745.933869	2551.509443
746.262847	2546.470810
746.591778	2553.236038
746.920662	2551.189330
747.249498	2555.146636
747.578286	2551.433826
747.907027	2555.136553
748.235720	2555.655792
748.564365	2554.637479
748.892963	2553.296532
749.221514	2554.435833
749.550017	2551.844680
749.878473	2550.526418
750.206881	2550.528939
750.535242	2552.719320
750.863555	2552.081614
751.191821	2550.511295
751.520039	2552.439536
751.848210	2553.359547
752.176334	2552.399207
752.504411	2551.713610
752.832440	2554.077911
753.160421	2550.927190
753.488356	2548.474668
753.816243	2550.743188
754.144082	2552.600853
754.471875	2551.030533
754.799620	2550.614638
755.127318	2551.388455
755.454969	2551.217056
755.782572	2554.390463
756.110129	2551.907694
756.437638	2550.964998
756.765100	2549.356870
757.092515	2551.396017
757.419882	2549.750080
757.747203	2549.636654
758.074477	2548.835111
758.401703	2551.436346
758.728882	2551.360729
759.056014	2551.249824
759.383099	2552.404248
759.710138	2552.462221
760.037129	2551.012889
760.364073	2554.125802
760.690970	2551.794268
761.017820	2551.844680
761.344623	2552.905843
761.671379	2554.161090
761.998088	2548.830070
762.324751	2553.750236
762.651366	2557.458005
762.977935	2565.498645
763.304456	2571.220355
763.630931	2574.950808
763.957359	2573.002402
764.283740	2569.765982
764.610074	2563.149467
764.936362	2558.141081
765.262602	2556.162428
765.588796	2552.479865
765.914943	2551.549772
766.241044	2550.964998
766.567097	2550.375183
766.893104	2551.028013
767.219064	2551.857283
767.544978	2549.238403
767.870845	2549.782848
768.196665	2549.145142
768.522438	2550.168496
768.848165	2547.842004
769.173846	2545.288659
769.499479	2548.567930
769.825066	2545.928886
770.150607	2548.512477
770.476101	2546.314534
770.801548	2547.274874
771.126949	2547.196736
771.452303	2545.775131
771.777611	2545.076931
772.102872	2546.906870
772.428087	2545.528114
772.753256	2547.952909
773.078378	2542.175747
773.403453	2544.169523
773.728482	2545.109698
774.053465	2543.572146
774.378401	2543.005017
774.703291	2545.104657
775.028135	2544.492157
775.352932	2543.529297
775.677683	2544.192208
776.002388	2546.932075
776.327046	2544.719009
776.651658	2544.867723
776.976224	2546.339740
777.300743	2544.867723
777.625216	2542.274049
777.949643	2546.493495
778.274024	2543.947712
778.598359	2541.114584
778.922647	2540.645757
779.246889	2541.041487
779.571086	2538.508307
779.895236	2543.042825
780.219339	2543.325130
780.543397	2541.873277
780.867409	2543.191539
781.191374	2543.862013
781.515294	2545.056766
781.839167	2543.236910
782.162995	2546.279246
782.486776	2545.964174
782.810511	2540.681045
783.134201	2543.010058
783.457844	2542.546272
783.781441	2543.060469
784.104993	2540.854964
784.428498	2542.740356
784.751958	2540.421425
785.075372	2543.980480
785.398739	2543.481406
785.722061	2543.287321
786.045337	2543.821683
786.368568	2545.674308
786.691752	2540.237423
787.014891	2542.805891
787.337983	2544.431663
787.661030	2548.023485
787.984031	2544.091385
788.306987	2548.991387
788.629897	2546.102806
788.952760	2548.096582
789.275579	2546.864020
789.598351	2543.756148
789.921078	2545.167672
790.243759	2545.160110
790.566395	2543.519214
790.888984	2543.751107
791.211529	2543.753628
791.534027	2544.141797
791.856480	2543.284801
792.178888	2542.117773
792.501249	2543.020140
792.823566	2542.694986
793.145836	2543.990562
793.468062	2543.373021
793.790241	2541.235572
794.112375	2543.965356
794.434464	2542.296734
794.756507	2544.086344
795.078505	2541.880839
795.400457	2540.234902
795.722364	2540.333205
796.044226	2540.844882
796.366042	2542.415202
796.687812	2539.670293
797.009538	2545.031560
797.331218	2542.803370
797.652852	2544.411498
797.974442	2543.705737
798.295986	2543.312527
798.617484	2541.606096
798.938938	2541.439738
799.260346	2542.316899
799.581709	2542.205994
799.903026	2543.998124
800.224299	2544.741694
800.545526	2541.653987
800.866708	2541.495191
801.187845	2542.334543
801.508936	2541.903524
801.829983	2543.869574
802.150984	2540.975952
802.471940	2540.943185
802.792851	2539.856816
803.113717	2542.397557
803.434538	2539.720705
803.755314	2540.663401
804.076045	2538.515869
804.396731	2543.549461
804.717372	2539.428318
805.037967	2539.587114
805.358518	2541.260777
805.679024	2543.365459
805.999485	2540.224820
806.319901	2541.162475
806.640272	2542.737835
806.960598	2543.209183
807.280879	2545.233207
807.601115	2543.249512
807.921306	2540.688606
808.241453	2541.318751
808.561554	2541.475026
808.881611	2540.660880
809.201623	2540.875129
809.521590	2542.725233
809.841513	2540.292876
810.161390	2542.011909
810.481223	2540.189532
810.801011	2541.260777
811.120755	2543.302445
811.440453	2541.081816
811.760107	2541.966539
812.079716	2539.866898
812.399281	2537.202648
812.718801	2539.158616
813.038276	2538.062165
813.357707	2539.337577
813.677093	2541.202804
813.996434	2539.335057
814.315731	2541.893442
814.634983	2539.458565
814.954191	2541.568288
815.273354	2540.391178
815.592473	2540.222300
815.911547	2538.964532
816.230577	2545.707075
816.549562	2542.384955
816.868502	2544.754297
817.187399	2541.903524
817.506250	2541.296065
817.825058	2543.922507
818.143821	2545.374359
818.462539	2542.294214
818.781213	2542.783206
819.099843	2545.205480
819.418429	2546.506098
819.736970	2551.282591
820.055466	2552.472303
820.373919	2555.680998
820.692327	2559.300546
821.010691	2567.673903
821.329011	2581.947930
821.647286	2614.488578
821.965517	2651.273878
822.283704	2673.354132
822.601847	2679.471572
822.919945	2662.079591
823.237999	2642.560243
823.556010	2622.715741
823.873976	2607.851899
824.191897	2591.579054
824.509775	2583.813157
824.827609	2572.999882
825.145398	2568.324212
825.463144	2571.154820
825.780845	2571.306054
826.098502	2577.040367
826.416116	2583.422467
826.733685	2593.154415
827.051210	2600.723707
827.368692	2596.073243
827.686129	2583.911459
828.003522	2574.005592
828.320872	2563.328428
828.638177	2558.604867
828.955439	2550.367622
829.272656	2550.707900
829.589830	2545.276056
829.906960	2547.912580
830.224046	2545.593649
830.541088	2545.281098
830.858086	2546.281767
831.175041	2543.872095
831.491952	2543.151210
831.808819	2544.545089
832.125642	2544.270346
832.442421	2546.957281
832.759157	2550.954916
833.075849	2558.078067
833.392497	2564.588717
833.709101	2569.541650
834.025662	2570.585169
834.342179	2566.791701
834.658653	2559.960937
834.975083	2553.253682
835.291469	2559.396328
835.607811	2549.180430
835.924110	2548.726726
836.240366	2543.163813
836.556578	2542.818494
836.872746	2544.179605
837.188871	2541.480068
837.504952	2541.825387
837.820990	2540.068544
838.136984	2536.388502
838.452935	2539.110725
838.768842	2539.115766
839.084706	2537.863040
839.400526	2541.381765
839.716303	2545.795295
840.032037	2554.357695
840.347727	2551.189330
840.663373	2550.813764
840.978977	2544.633309
841.294537	2542.440407
841.610054	2544.328319
841.925527	2538.881353
842.240957	2539.945036
842.556344	2539.438400
842.871687	2535.907072
843.186987	2538.195756
843.502244	2538.099974
843.817458	2538.316743
844.132629	2537.116949
844.447756	2536.849768
844.762840	2531.453213
845.077881	2536.028060
845.392879	2532.214427
845.707833	2534.949253
846.022745	2529.840043
846.337613	2534.987061
846.652438	2536.950591
846.967221	2534.873635
847.281960	2535.692823
847.596656	2536.882535
847.911309	2536.365817
848.225919	2536.519572
848.540485	2536.343132
848.855009	2537.278266
849.169490	2535.367668
849.483928	2532.161495
849.798323	2535.065199
850.112675	2536.406146
850.426984	2534.805580
850.741251	2533.966228
851.055474	2535.508821
851.369654	2535.987730
851.683792	2534.679551
851.997887	2536.300282
852.311938	2533.822555
852.625947	2534.215765
852.939914	2532.693336
853.253837	2536.446475
853.567718	2534.893800
853.881555	2534.029242
854.195350	2533.013450
854.509103	2535.511341
854.822812	2533.573018
855.136479	2534.586290
855.450103	2536.300282
855.763685	2535.231557
856.077224	2534.493028
856.390720	2534.014119
856.704173	2535.080323
857.017584	2536.007895
857.330953	2534.387164
857.644278	2536.023018
857.957561	2540.343287
858.270802	2537.351363
858.584000	2532.627801
858.897155	2536.330529
859.210268	2536.822041
859.523339	2534.586290
859.836367	2533.278110
860.149352	2532.703419
860.462295	2537.936136
860.775195	2530.321473
861.088054	2532.932791
861.400869	2532.552184
861.713642	2531.448171
862.026373	2532.877338
862.339062	2536.630477
862.651708	2536.658204
862.964312	2533.671320
863.276873	2537.744573
863.589392	2534.218285
863.901869	2535.788605
864.214303	2533.300795
864.526696	2534.692154
864.839045	2537.837834
865.151353	2537.797505
865.463619	2536.111239
865.775842	2536.617875
866.088023	2533.159643
866.400162	2536.443955
866.712258	2537.295910
867.024313	2537.852957
867.336325	2535.581918
867.648296	2538.813297
867.960224	2537.472350
868.272110	2535.513862
868.583954	2536.267514
868.895755	2537.268183
869.207515	2537.570653
869.519233	2534.714839
869.830909	2535.425642
870.142542	2536.819521
870.454134	2534.762730
870.765684	2536.002854
871.077191	2534.624098
871.388657	2536.597710
871.700081	2535.279448
872.011463	2538.820859
872.322803	2538.561239
872.634101	2538.150385
872.945357	2537.051414
873.256571	2536.527134
873.567744	2538.218441
873.878874	2537.958822
874.189963	2536.733821
874.501010	2539.793802
874.812015	2539.226672
875.122979	2537.290869
875.433900	2538.009233
875.744780	2539.055273
876.055618	2535.745755
876.366415	2540.504604
876.677169	2538.707433
876.987882	2537.691640
877.298554	2537.104346
877.609183	2536.847247
877.919771	2536.927906
878.230317	2538.790612
878.540822	2540.860006
878.851285	2544.837476
879.161707	2543.804039
879.472087	2548.189843
879.782425	2551.045657
880.092722	2556.522871
880.402977	2568.092319
880.713191	2584.473548
881.023363	2602.500714
881.333494	2617.102416
881.643583	2618.871861
881.953631	2618.634927
882.263637	2612.512446
882.573602	2607.365428
882.883526	2598.263624
883.193408	2585.315421
883.503248	2578.348546
883.813048	2574.723957
884.122806	2569.266907
884.432522	2560.785166
884.742197	2556.472459
885.051831	2554.929866
885.361424	2553.717468
885.670975	2550.193702
885.980485	2546.264122
886.289954	2545.339071
886.599382	2545.260933
886.908768	2545.641540
887.218113	2542.793288
887.527417	2543.403268
887.836680	2541.071734
888.145901	2542.969728
888.455082	2541.117104
888.764221	2542.503422
889.073319	2539.211548
889.382376	2542.508463
889.691392	2537.943698
890.000366	2538.538554
890.309300	2539.249357
890.618193	2542.503422
890.927044	2539.256919
891.235855	2539.582073
891.544625	2538.173071
891.853353	2541.038967
892.162041	2542.500901
892.470687	2542.160623
892.779293	2539.879501
893.087858	2541.603576
893.396381	2543.415871
893.704864	2547.363094
894.013306	2546.932075
894.321707	2560.424724
894.630068	2560.238201
894.938387	2566.088460
895.246665	2563.923284
895.554903	2561.198541
895.863100	2557.601678
896.171256	2553.354505
896.479371	2552.938610
896.787446	2548.779658
897.095480	2545.195398
897.403473	2545.457538
897.711425	2541.722043
898.019336	2541.280942
898.327207	2544.275387
898.635038	2541.318751
898.942827	2544.250182
899.250576	2541.391847
899.558284	2538.841023
899.865952	2538.997299
900.173579	2540.423946
900.481165	2540.466796
900.788711	2537.449665
901.096216	2538.352032
901.403681	2536.103677
901.711105	2537.570653
902.018489	2536.305323
902.325832	2543.476364
902.633135	2539.841692
902.940397	2541.303627
903.247619	2540.784388
903.554800	2548.202446
903.861941	2559.713921
904.169041	2570.993503
904.476101	2574.844944
904.783121	2576.637074
905.090100	2570.350756
905.397039	2564.187945
905.703938	2554.009855
906.010796	2548.530121
906.317614	2546.304452
906.624391	2545.202960
906.931129	2540.363452
907.237826	2542.241282
907.544483	2542.682383
907.851099	2540.902855
908.157675	2535.521424
908.464211	2536.073430
908.770707	2531.213758
909.077163	2533.883049
909.383578	2531.937163
909.689954	2531.548994
909.996289	2529.151926
910.302584	2536.262473
910.608839	2532.055630
910.915054	2533.852802
911.221229	2535.518903
911.527363	2534.808100
911.833458	2534.704757
912.139513	2535.776002
912.445527	2530.697039
912.751502	2535.067720
913.057436	2536.771630
913.363331	2537.661393
913.669186	2536.330529
913.975000	2538.089892
914.280775	2541.749769
914.586510	2542.571477
914.892205	2547.627755
915.197859	2549.669422
915.503475	2558.995557
915.809050	2564.913871
916.114585	2572.246229
916.420081	2570.945612
916.725536	2575.144893
917.030952	2569.108111
917.336328	2562.990671
917.641665	2561.367419
917.946961	2557.687377
918.252218	2553.314176
918.557435	2550.178578
918.862612	2547.844524
919.167750	2544.706406
919.472848	2542.526107
919.777906	2542.750438
920.082925	2543.425953
920.387904	2539.216589
920.692843	2539.498894
920.997743	2538.246167
921.302603	2537.469830
921.607423	2536.138965
921.912204	2537.832793
922.216946	2533.734335
922.521647	2537.343801
922.826310	2539.584594
923.130932	2537.946219
923.435516	2532.385826
923.740059	2535.395395
924.044564	2531.173428
924.349028	2533.845240
924.653454	2526.235618
924.957840	2529.487163
925.262186	2530.666793
925.566493	2531.180990
925.870761	2526.810310
926.174989	2532.171577
926.479178	2533.585621
926.783328	2533.255425
927.087438	2534.946732
927.391509	2532.650487
927.695541	2532.022863
927.999533	2533.157122
928.303486	2529.729138
928.607400	2534.203162
928.911275	2530.407173
929.215110	2530.155115
929.518906	2528.206709
929.822663	2531.468336
930.126381	2531.019673
930.430060	2531.208717
930.733699	2528.615043
931.037299	2531.725435
931.340861	2530.291227
931.644383	2530.833151
931.947866	2531.105373
932.251309	2531.874149
932.554714	2529.530012
932.858080	2534.034283
933.161407	2531.637215
933.464694	2529.719056
933.767943	2528.433561
934.071153	2533.318439
934.374323	2532.058151
934.677455	2534.767771
934.980548	2530.288706
935.283602	2530.540764
935.586617	2531.533871
935.889593	2528.715866
936.192530	2531.438089
936.495428	2532.259797
936.798287	2532.526978
937.101108	2531.483459
937.403890	2531.571680
937.706632	2532.811803
938.009336	2531.753161
938.312002	2533.210055
938.614628	2531.647297
938.917216	2532.857174
939.219765	2532.542102
939.522275	2532.736186
939.824747	2535.917154
940.127179	2531.004550
940.429573	2528.360465
940.731929	2532.547143
941.034246	2529.444313
941.336524	2533.202493
941.638763	2532.716022
941.940964	2533.784746
942.243126	2531.049920
942.545250	2532.413552
942.847335	2531.838861
943.149381	2533.991433
943.451389	2531.183511
943.753359	2532.101001
944.055290	2531.816176
944.357182	2533.540250
944.659036	2531.624612
944.960851	2532.166536
945.262628	2530.477749
945.564367	2532.549663
945.866067	2529.950949
946.167729	2531.420445
946.469352	2530.306350
946.770937	2532.509334
947.072484	2532.232071
947.373992	2532.597554
947.675462	2533.474715
947.976893	2529.835002
948.278286	2530.666793
948.579641	2531.264169
948.880958	2531.526309
949.182236	2529.333407
949.483476	2532.595034
949.784678	2528.146216
950.085841	2534.268697
950.386967	2531.087729
950.688054	2532.214427
950.989103	2529.043541
951.290114	2531.700229
951.591087	2534.608975
951.892021	2531.614529
952.192917	2531.801052
952.493776	2531.029756
952.794596	2531.344828
953.095378	2531.990095
953.396122	2532.133768
953.696828	2532.741227
953.997496	2532.703419
954.298126	2529.719056
954.598718	2532.229550
954.899272	2532.257277
955.199788	2528.640249
955.500266	2529.285516
955.800706	2528.796524
956.101108	2526.893489
956.401472	2525.444157
956.701798	2525.260155
957.002087	2527.412728
957.302337	2527.871473
957.602550	2532.063192
957.902724	2528.408356
958.202861	2527.931967
958.502960	2529.918181
958.803022	2528.536905
959.103045	2527.997502
959.403031	2530.782739
959.702979	2527.218643
960.002889	2527.468180
960.302762	2527.195958
960.602596	2527.879034
960.902393	2528.763757
961.202153	2527.647141
961.501875	2526.704446
961.801559	2529.948428
962.101205	2528.995650
962.400814	2528.312574
962.700385	2528.544467
962.999918	2532.151412
963.299414	2527.939528
963.598873	2530.467667
963.898293	2526.250742
964.197677	2525.096318
964.497022	2527.868952
964.796331	2529.918181
965.095601	2528.000022
965.394835	2528.972965
965.694030	2528.315094
965.993189	2529.265352
966.292309	2527.158149
966.591393	2528.178983
966.890439	2527.894158
967.189447	2527.321987
967.488419	2526.480114
967.787353	2530.404653
968.086249	2528.184024
968.385108	2526.369209
968.683930	2527.611853
968.982714	2528.935156
969.281462	2528.065557
969.580172	2526.948942
969.878844	2530.412214
970.177480	2527.873993
970.476078	2528.388191
970.774639	2528.042872
971.073162	2527.601771
971.371649	2525.907943
971.670098	2524.882068
971.968510	2523.984743
972.266885	2523.354599
972.565223	2528.355423
972.863524	2530.634025
973.161788	2528.017666
973.460014	2527.780732
973.758204	2530.001360
974.056356	2524.171266
974.354471	2526.631349
974.652550	2525.920546
974.950591	2526.999353
975.248595	2527.100176
975.546563	2527.392563
975.844493	2529.734179
976.142386	2527.470701
976.440243	2526.873324
976.738062	2529.756864
977.035845	2527.904240
977.333590	2525.335772
977.631299	2526.848118
977.928971	2529.192255
978.226606	2526.792666
978.524204	2528.786442
978.821765	2529.648479
979.119290	2525.668488
979.416777	2527.014477
979.714228	2528.698222
980.011642	2529.484642
980.309020	2530.087060
980.606360	2528.778880
980.903664	2527.266534
981.200931	2528.408356
981.498162	2527.503468
981.795356	2530.094622
982.092513	2530.407173
982.389633	2528.983047
982.686717	2528.055475
982.983764	2530.034128
983.280775	2531.322142
983.577749	2530.432379
983.874686	2529.056144
984.171587	2529.988757
984.468451	2529.582944
984.765279	2527.327028
985.062070	2527.611853
985.358824	2528.942718
985.655543	2528.037831
985.952224	2530.722245
986.248869	2526.346524
986.545478	2523.294105
986.842050	2524.904754
987.138586	2523.203364
987.435086	2524.100690
987.731549	2523.929290
988.027975	2528.557070
988.324366	2526.480114
988.620719	2526.870804
988.917037	2527.904240
989.213318	2526.679240
989.509563	2529.131761
989.805772	2527.599250
990.101944	2525.111441
990.398080	2528.239477
990.694180	2527.894158
990.990244	2529.663603
991.286271	2525.981040
991.582262	2526.522964
991.878217	2526.233098
992.174136	2525.819723
992.470019	2527.074970
992.765865	2527.190917
993.061676	2526.444826
993.357450	2527.947090
993.653188	2527.974816
993.948890	2528.305012
994.244556	2526.926256
994.540186	2525.920546
994.835780	2528.093283
995.131337	2527.969775
995.426859	2529.250228
995.722345	2526.210412
996.017795	2526.759898
996.313208	2526.124713
996.608586	2528.577234
996.903928	2528.320135
997.199234	2528.337779
997.494504	2527.382481
997.789738	2527.069929
998.084936	2528.189065
998.380099	2527.344672
998.675225	2530.094622
998.970316	2527.198479
999.265371	2526.530526
999.560390	2526.797707
999.855373	2528.552028
1000.150320	2524.088087
1000.445232	2524.685463
1000.740108	2528.231915
1001.034948	2523.200844
1001.329752	2525.376102
1001.624521	2529.061185
1001.919254	2521.895185
1002.213951	2526.417100
1002.508613	2523.042047
1002.803239	2524.831657
1003.097829	2519.833353
1003.392384	2524.355268
1003.686903	2525.481966
1003.981386	2526.424662
1004.275834	2529.121679
1004.570246	2525.106400
1004.864623	2524.829136
1005.158964	2524.413241
1005.453270	2525.197141
1005.747540	2525.494569
1006.041775	2526.081863
1006.335974	2524.536749
1006.630138	2526.522964
1006.924266	2528.063037
1007.218359	2524.970289
1007.512416	2525.910464
1007.806438	2527.276617
1008.100425	2525.297964
1008.394376	2526.596061
1008.688292	2526.724610
1008.982172	2525.512213
1009.276017	2526.265865
1009.569827	2525.219826
1009.863602	2528.519261
1010.157341	2526.938859
1010.451045	2527.480783
1010.744714	2527.269055
1011.038347	2528.267203
1011.331945	2526.049096
1011.625508	2527.664785
1011.919036	2526.323838
1012.212528	2525.461801
1012.505986	2527.004394
1012.799408	2527.957172
1013.092795	2525.154291
1013.386147	2527.130423
1013.679464	2526.606143
1013.972745	2524.718231
1014.265992	2528.148736
1014.559204	2525.295443
1014.852380	2526.449867
1015.145521	2528.620084
1015.438628	2525.620598
1015.731699	2526.407018
1016.024736	2526.659075
1016.317737	2528.892306
1016.610703	2526.104548
1016.903635	2523.689836
1017.196531	2525.663447
1017.489393	2522.928621
1017.782219	2519.493075
1018.075011	2522.696728
1018.367768	2527.218643
1018.660490	2523.382325
1018.953177	2523.382325
1019.245829	2523.382325
