Dividing Wavelength (nm)	Counts (n)	Blue Motor Position (mm): 0.000000	Red Motor Position (mm): 4.400000	
326.493990	2099.640577
326.888308	2099.640577
327.282561	2099.640577
327.676750	2094.599423
328.070874	2134.928654
328.464933	2087.037692
328.858929	2054.270192
329.252859	2119.805192
329.646726	2064.352500
330.040528	2124.846346
330.434265	2122.325769
330.827938	2089.558269
331.221547	2112.243462
331.615091	2129.887500
332.008571	2139.969808
332.401986	2150.052115
332.795338	2137.449231
333.188625	2296.245577
333.581847	2278.601538
333.975006	2258.436923
334.368100	2293.725000
334.761129	2344.136538
335.154095	2316.410192
335.546996	2404.630385
335.939833	2424.795000
336.332606	2321.451346
336.725315	2386.986346
337.117960	2472.685962
337.510540	2437.397885
337.903056	2452.521346
338.295508	2399.589231
338.687896	2457.562500
339.080220	2429.836154
339.472480	2442.439038
339.864676	2434.877308
340.256807	2409.671538
340.648875	2417.233269
341.040879	2490.330000
341.432818	2475.206538
341.824694	2452.521346
342.216506	2404.630385
342.608253	2467.644808
342.999937	2505.453462
343.391557	2442.439038
343.783113	2510.494615
344.174605	2497.891731
344.566033	2437.397885
344.957397	2492.850577
345.348697	2364.301154
345.739934	2520.576923
346.131106	2462.603654
346.522215	2502.932885
346.913260	2485.288846
347.304241	2568.467885
347.695159	2475.206538
348.086012	2465.124231
348.476802	2535.700385
348.867528	2447.480192
349.258191	2402.109808
349.648789	2442.439038
350.039324	2482.768269
350.429796	2422.274423
350.820203	2502.932885
351.210548	2455.041923
351.600828	2500.412308
351.991045	2429.836154
352.381198	2429.836154
352.771288	2465.124231
353.161314	2361.780577
353.551276	2475.206538
353.941175	2404.630385
354.331010	2510.494615
354.720782	2447.480192
355.110490	2460.083077
355.500135	2402.109808
355.889717	2452.521346
356.279235	2379.424615
356.668689	2467.644808
357.058080	2444.959615
357.447408	2505.453462
357.836672	2369.342308
358.225873	2409.671538
358.615010	2492.850577
359.004084	2507.974038
359.393095	2447.480192
359.782043	2379.424615
360.170927	2495.371154
360.559748	2455.041923
360.948505	2462.603654
361.337199	2472.685962
361.725830	2424.795000
362.114398	2432.356731
362.502903	2467.644808
362.891344	2434.877308
363.279722	2424.795000
363.668037	2422.274423
364.056289	2455.041923
364.444478	2513.015192
364.832603	2548.303269
365.220665	2452.521346
365.608665	2470.165385
365.996601	2452.521346
366.384474	2450.000769
366.772284	2422.274423
367.160031	2490.330000
367.547715	2389.506923
367.935336	2379.424615
368.322893	2465.124231
368.710388	2424.795000
369.097820	2465.124231
369.485189	2434.877308
369.872495	2500.412308
370.259738	2397.068654
370.646918	2548.303269
371.034035	2462.603654
371.421090	2427.315577
371.808081	2530.659231
372.195010	2523.097500
372.581875	2538.220962
372.968678	2490.330000
373.355418	2472.685962
373.742096	2429.836154
374.128710	2475.206538
374.515262	2543.262115
374.901751	2444.959615
375.288177	2404.630385
375.674540	2465.124231
376.060841	2447.480192
376.447079	2475.206538
376.833254	2462.603654
377.219367	2442.439038
377.605417	2442.439038
377.991404	2447.480192
378.377329	2502.932885
378.763191	2475.206538
379.148991	2465.124231
379.534727	2414.712692
379.920402	2538.220962
380.306013	2500.412308
380.691563	2518.056346
381.077049	2528.138654
381.462474	2346.657115
381.847835	2447.480192
382.233134	2510.494615
382.618371	2402.109808
383.003545	2417.233269
383.388657	2492.850577
383.773706	2427.315577
384.158693	2450.000769
384.543618	2434.877308
384.928480	2457.562500
385.313280	2490.330000
385.698017	2502.932885
386.082692	2389.506923
386.467305	2472.685962
386.851856	2447.480192
387.236344	2429.836154
387.620770	2525.618077
388.005133	2470.165385
388.389435	2545.782692
388.773674	2422.274423
389.157851	2465.124231
389.541965	2457.562500
389.926018	2470.165385
390.310008	2467.644808
390.693936	2409.671538
391.077802	2422.274423
391.461606	2437.397885
391.845348	2434.877308
392.229027	2452.521346
392.612645	2500.412308
392.996200	2470.165385
393.379694	2467.644808
393.763125	2467.644808
394.146494	2490.330000
394.529801	2450.000769
394.913047	2505.453462
395.296230	2553.344423
395.679351	2477.727115
396.062410	2530.659231
396.445408	2510.494615
396.828343	2472.685962
397.211217	2379.424615
397.594028	2422.274423
397.976778	2414.712692
398.359466	2374.383462
398.742092	2495.371154
399.124656	2409.671538
399.507158	2525.618077
399.889598	2477.727115
400.271977	2492.850577
400.654294	2457.562500
401.036549	2419.753846
401.418742	2502.932885
401.800874	2432.356731
402.182944	2490.330000
402.564952	2427.315577
402.946898	2419.753846
403.328783	2565.947308
403.710606	2505.453462
404.092367	2490.330000
404.474067	2573.509038
404.855705	2465.124231
405.237282	2462.603654
405.618797	2397.068654
406.000250	2515.535769
406.381642	2429.836154
406.762972	2513.015192
407.144240	2460.083077
407.525447	2502.932885
407.906593	2507.974038
408.287677	2384.465769
408.668700	2505.453462
409.049661	2465.124231
409.430560	2540.741538
409.811399	2457.562500
410.192176	2482.768269
410.572891	2568.467885
410.953545	2462.603654
411.334138	2475.206538
411.714669	2381.945192
412.095139	2434.877308
412.475547	2487.809423
412.855894	2480.247692
413.236180	2467.644808
413.616405	2384.465769
413.996568	2513.015192
414.376670	2467.644808
414.756711	2404.630385
415.136691	2573.509038
415.516609	2442.439038
415.896466	2505.453462
416.276262	2432.356731
416.655997	2553.344423
417.035670	2520.576923
417.415283	2444.959615
417.794834	2502.932885
418.174324	2455.041923
418.553753	2510.494615
418.933121	2560.906154
419.312428	2442.439038
419.691674	2500.412308
420.070859	2422.274423
420.449983	2520.576923
420.829045	2495.371154
421.208047	2555.865000
421.586988	2495.371154
421.965867	2495.371154
422.344686	2495.371154
422.723444	2407.150962
423.102141	2528.138654
423.480777	2518.056346
423.859352	2462.603654
424.237866	2538.220962
424.616319	2538.220962
424.994712	2447.480192
425.373044	2472.685962
425.751314	2480.247692
426.129524	2407.150962
426.507673	2553.344423
426.885762	2513.015192
427.263789	2444.959615
427.641756	2429.836154
428.019662	2457.562500
428.397508	2485.288846
428.775292	2444.959615
429.153016	2513.015192
429.530679	2490.330000
429.908282	2472.685962
430.285824	2487.809423
430.663305	2487.809423
431.040726	2465.124231
431.418086	2545.782692
431.795385	2515.535769
432.172624	2432.356731
432.549802	2497.891731
432.926920	2477.727115
433.303977	2523.097500
433.680974	2593.673654
434.057910	2520.576923
434.434786	2477.727115
434.811601	2528.138654
435.188355	2455.041923
435.565050	2485.288846
435.941683	2455.041923
436.318257	2492.850577
436.694770	2467.644808
437.071222	2452.521346
437.447614	2482.768269
437.823946	2492.850577
438.200218	2450.000769
438.576429	2502.932885
438.952580	2520.576923
439.328670	2429.836154
439.704700	2515.535769
440.080670	2424.795000
440.456580	2500.412308
440.832429	2465.124231
441.208218	2414.712692
441.583947	2487.809423
441.959616	2543.262115
442.335224	2409.671538
442.710773	2543.262115
443.086261	2422.274423
443.461689	2573.509038
443.837057	2475.206538
444.212365	2364.301154
444.587612	2510.494615
444.962800	2424.795000
445.337927	2409.671538
445.712995	2538.220962
446.088002	2452.521346
446.462949	2505.453462
446.837837	2447.480192
447.212664	2495.371154
447.587431	2457.562500
447.962139	2510.494615
448.336786	2492.850577
448.711374	2568.467885
449.085901	2457.562500
449.460369	2457.562500
449.834776	2480.247692
450.209124	2500.412308
450.583412	2432.356731
450.957640	2492.850577
451.331808	2538.220962
451.705917	2455.041923
452.079965	2510.494615
452.453954	2581.070769
452.827883	2485.288846
453.201752	2497.891731
453.575562	2502.932885
453.949311	2510.494615
454.323001	2570.988462
454.696632	2452.521346
455.070202	2528.138654
455.443713	2520.576923
455.817164	2495.371154
456.190556	2460.083077
456.563888	2520.576923
456.937160	2437.397885
457.310373	2500.412308
457.683526	2442.439038
458.056619	2570.988462
458.429653	2480.247692
458.802628	2432.356731
459.175542	2475.206538
459.548398	2490.330000
459.921194	2450.000769
460.293930	2535.700385
460.666607	2510.494615
461.039224	2518.056346
461.411782	2530.659231
461.784280	2515.535769
462.156719	2432.356731
462.529099	2369.342308
462.901419	2457.562500
463.273680	2490.330000
463.645882	2528.138654
464.018024	2450.000769
464.390106	2480.247692
464.762130	2437.397885
465.134094	2576.029615
465.505999	2578.550192
465.877845	2475.206538
466.249631	2429.836154
466.621358	2467.644808
466.993026	2437.397885
467.364634	2482.768269
467.736184	2518.056346
468.107674	2505.453462
468.479105	2487.809423
468.850477	2477.727115
469.221790	2480.247692
469.593043	2523.097500
469.964238	2492.850577
470.335373	2513.015192
470.706449	2487.809423
471.077467	2414.712692
471.448425	2495.371154
471.819324	2500.412308
472.190164	2470.165385
472.560945	2477.727115
472.931667	2497.891731
473.302330	2513.015192
473.672934	2560.906154
474.043479	2495.371154
474.413965	2533.179808
474.784393	2467.644808
475.154761	2444.959615
475.525070	2525.618077
475.895321	2477.727115
476.265513	2465.124231
476.635645	2442.439038
477.005719	2507.974038
477.375734	2563.426731
477.745691	2422.274423
478.115588	2502.932885
478.485427	2545.782692
478.855207	2452.521346
479.224928	2480.247692
479.594591	2460.083077
479.964194	2510.494615
480.333739	2462.603654
480.703226	2535.700385
481.072653	2550.823846
481.442022	2545.782692
481.811333	2429.836154
482.180584	2505.453462
482.549777	2507.974038
482.918912	2429.836154
483.287988	2538.220962
483.657005	2500.412308
484.025964	2417.233269
484.394864	2386.986346
484.763706	2429.836154
485.132489	2477.727115
485.501213	2450.000769
485.869879	2507.974038
486.238487	2482.768269
486.607036	2540.741538
486.975527	2437.397885
487.343959	2525.618077
487.712333	2442.439038
488.080648	2424.795000
488.448905	2505.453462
488.817104	2442.439038
489.185244	2528.138654
489.553326	2429.836154
489.921350	2422.274423
490.289315	2543.262115
490.657222	2444.959615
491.025070	2487.809423
491.392861	2555.865000
491.760593	2560.906154
492.128267	2550.823846
492.495883	2497.891731
492.863440	2558.385577
493.230939	2518.056346
493.598380	2631.482308
493.965763	2510.494615
494.333088	2563.426731
494.700354	2487.809423
495.067563	2538.220962
495.434713	2510.494615
495.801805	2525.618077
496.168839	2475.206538
496.535815	2407.150962
496.902733	2578.550192
497.269593	2515.535769
497.636395	2502.932885
498.003139	2397.068654
498.369825	2472.685962
498.736453	2523.097500
499.103023	2492.850577
499.469535	2409.671538
499.835989	2492.850577
500.202385	2530.659231
500.568723	2495.371154
500.935003	2490.330000
501.301226	2450.000769
501.667390	2429.836154
502.033497	2490.330000
502.399546	2513.015192
502.765537	2530.659231
503.131470	2460.083077
503.497345	2495.371154
503.863163	2475.206538
504.228923	2576.029615
504.594625	2550.823846
504.960269	2394.548077
505.325856	2467.644808
505.691385	2472.685962
506.056856	2497.891731
506.422270	2510.494615
506.787625	2487.809423
507.152924	2452.521346
507.518164	2515.535769
507.883347	2477.727115
508.248472	2525.618077
508.613540	2553.344423
508.978550	2495.371154
509.343503	2427.315577
509.708398	2533.179808
510.073236	2588.632500
510.438016	2505.453462
510.802738	2598.714808
511.167403	2518.056346
511.532010	2550.823846
511.896561	2513.015192
512.261053	2472.685962
512.625488	2533.179808
512.989866	2467.644808
513.354186	2515.535769
513.718449	2444.959615
514.082655	2485.288846
514.446803	2480.247692
514.810894	2593.673654
515.174927	2432.356731
515.538904	2452.521346
515.902822	2548.303269
516.266684	2530.659231
516.630488	2540.741538
516.994235	2424.795000
517.357925	2545.782692
517.721558	2528.138654
518.085133	2495.371154
518.448651	2485.288846
518.812112	2533.179808
519.175516	2497.891731
519.538863	2523.097500
519.902152	2502.932885
520.265385	2543.262115
520.628560	2455.041923
520.991678	2492.850577
521.354739	2460.083077
521.717743	2470.165385
522.080690	2555.865000
522.443580	2482.768269
522.806413	2470.165385
523.169189	2480.247692
523.531908	2515.535769
523.894569	2442.439038
524.257174	2515.535769
524.619722	2465.124231
524.982213	2444.959615
525.344647	2523.097500
525.707025	2450.000769
526.069345	2568.467885
526.431608	2467.644808
526.793815	2533.179808
527.155964	2444.959615
527.518057	2450.000769
527.880093	2548.303269
528.242072	2472.685962
528.603995	2480.247692
528.965860	2427.315577
529.327669	2344.136538
529.689421	2523.097500
530.051117	2570.988462
530.412755	2535.700385
530.774337	2538.220962
531.135862	2513.015192
531.497331	2470.165385
531.858743	2475.206538
532.220098	2492.850577
532.581396	2477.727115
532.942638	2510.494615
533.303824	2540.741538
533.664953	2644.085192
534.026025	2475.206538
534.387040	2442.439038
534.747999	2495.371154
535.108902	2485.288846
535.469748	2550.823846
535.830537	2442.439038
536.191270	2480.247692
536.551947	2447.480192
536.912567	2467.644808
537.273131	2530.659231
537.633638	2515.535769
537.994089	2520.576923
538.354483	2568.467885
538.714821	2462.603654
539.075103	2475.206538
539.435328	2563.426731
539.795497	2434.877308
540.155609	2538.220962
540.515665	2490.330000
540.875665	2472.685962
541.235609	2576.029615
541.595496	2502.932885
541.955328	2543.262115
542.315102	2475.206538
542.674821	2460.083077
543.034483	2487.809423
543.394090	2475.206538
543.753640	2540.741538
544.113134	2533.179808
544.472571	2460.083077
544.831953	2432.356731
545.191278	2588.632500
545.550548	2444.959615
545.909761	2560.906154
546.268918	2419.753846
546.628019	2530.659231
546.987064	2432.356731
547.346053	2472.685962
547.704986	2570.988462
548.063863	2495.371154
548.422684	2434.877308
548.781449	2550.823846
549.140158	2495.371154
549.498811	2525.618077
549.857408	2507.974038
550.215949	2447.480192
550.574434	2404.630385
550.932864	2472.685962
551.291237	2578.550192
551.649555	2477.727115
552.007817	2502.932885
552.366022	2523.097500
552.724173	2475.206538
553.082267	2553.344423
553.440305	2442.439038
553.798288	2465.124231
554.156215	2480.247692
554.514086	2523.097500
554.871902	2455.041923
555.229661	2505.453462
555.587365	2477.727115
555.945014	2520.576923
556.302606	2500.412308
556.660143	2558.385577
557.017625	2497.891731
557.375050	2497.891731
557.732421	2460.083077
558.089735	2515.535769
558.446994	2386.986346
558.804197	2472.685962
559.161345	2507.974038
559.518437	2525.618077
559.875474	2497.891731
560.232455	2502.932885
560.589381	2545.782692
560.946251	2397.068654
561.303065	2618.879423
561.659825	2528.138654
562.016528	2485.288846
562.373177	2457.562500
562.729770	2427.315577
563.086307	2482.768269
563.442789	2422.274423
563.799216	2392.027500
564.155587	2563.426731
564.511904	2497.891731
564.868164	2480.247692
565.224370	2470.165385
565.580520	2510.494615
565.936615	2465.124231
566.292654	2538.220962
566.648638	2455.041923
567.004567	2444.959615
567.360441	2475.206538
567.716260	2492.850577
568.072023	2533.179808
568.427732	2477.727115
568.783385	2437.397885
569.138982	2502.932885
569.494525	2505.453462
569.850013	2525.618077
570.205445	2477.727115
570.560823	2548.303269
570.916145	2520.576923
571.271412	2482.768269
571.626625	2553.344423
571.981782	2507.974038
572.336884	2543.262115
572.691931	2444.959615
573.046923	2495.371154
573.401860	2419.753846
573.756743	2452.521346
574.111570	2490.330000
574.466342	2502.932885
574.821059	2487.809423
575.175722	2444.959615
575.530330	2520.576923
575.884882	2540.741538
576.239380	2515.535769
576.593823	2482.768269
576.948211	2548.303269
577.302544	2465.124231
577.656823	2414.712692
578.011047	2472.685962
578.365216	2545.782692
578.719330	2442.439038
579.073389	2462.603654
579.427394	2533.179808
579.781344	2480.247692
580.135239	2386.986346
580.489080	2510.494615
580.842866	2424.795000
581.196597	2525.618077
581.550273	2520.576923
581.903895	2422.274423
582.257463	2576.029615
582.610975	2492.850577
582.964434	2482.768269
583.317837	2535.700385
583.671186	2500.412308
584.024481	2477.727115
584.377721	2485.288846
584.730906	2510.494615
585.084037	2538.220962
585.437113	2460.083077
585.790135	2583.591346
586.143103	2538.220962
586.496016	2550.823846
586.848874	2447.480192
587.201679	2490.330000
587.554428	2535.700385
587.907124	2472.685962
588.259765	2475.206538
588.612352	2462.603654
588.964884	2515.535769
589.317362	2467.644808
589.669786	2560.906154
590.022155	2487.809423
590.374470	2545.782692
590.726731	2507.974038
591.078937	2477.727115
591.431090	2545.782692
591.783188	2422.274423
592.135232	2528.138654
592.487222	2467.644808
592.839157	2538.220962
593.191038	2543.262115
593.542866	2545.782692
593.894639	2487.809423
594.246358	2507.974038
594.598022	2482.768269
594.949633	2470.165385
595.301190	2462.603654
595.652692	2462.603654
596.004141	2482.768269
596.355535	2520.576923
596.706876	2460.083077
597.058162	2515.535769
597.409395	2495.371154
597.760573	2475.206538
598.111698	2565.947308
598.462768	2470.165385
598.813785	2507.974038
599.164748	2467.644808
599.515657	2472.685962
599.866511	2427.315577
600.217312	2424.795000
600.568060	2523.097500
600.918753	2482.768269
601.269392	2535.700385
601.619978	2518.056346
601.970510	2492.850577
602.320988	2570.988462
602.671412	2450.000769
603.021783	2523.097500
603.372100	2437.397885
603.722363	2515.535769
604.072572	2505.453462
604.422728	2505.453462
604.772830	2439.918462
605.122878	2502.932885
605.472872	2422.274423
605.822813	2507.974038
606.172701	2442.439038
606.522534	2475.206538
606.872314	2475.206538
607.222041	2525.618077
607.571714	2447.480192
607.921333	2535.700385
608.270899	2437.397885
608.620411	2543.262115
608.969870	2538.220962
609.319276	2482.768269
609.668627	2417.233269
610.017926	2603.755962
610.367171	2470.165385
610.716362	2538.220962
611.065500	2530.659231
611.414585	2523.097500
611.763616	2500.412308
612.112594	2495.371154
612.461518	2523.097500
612.810389	2510.494615
613.159207	2550.823846
613.507971	2540.741538
613.856682	2437.397885
614.205340	2520.576923
614.553945	2576.029615
614.902496	2419.753846
615.250994	2434.877308
615.599439	2568.467885
615.947830	2434.877308
616.296169	2513.015192
616.644454	2465.124231
616.992686	2472.685962
617.340864	2432.356731
617.688990	2472.685962
618.037063	2555.865000
618.385082	2437.397885
618.733048	2495.371154
619.080961	2485.288846
619.428821	2530.659231
619.776628	2513.015192
620.124382	2467.644808
620.472083	2427.315577
620.819731	2492.850577
621.167326	2515.535769
621.514868	2500.412308
621.862357	2568.467885
622.209793	2432.356731
622.557176	2540.741538
622.904506	2442.439038
623.251783	2525.618077
623.599007	2472.685962
623.946179	2460.083077
624.293297	2485.288846
624.640363	2470.165385
624.987376	2467.644808
625.334336	2530.659231
625.681243	2530.659231
626.028097	2472.685962
626.374899	2470.165385
626.721647	2417.233269
627.068343	2530.659231
627.414987	2500.412308
627.761577	2545.782692
628.108115	2460.083077
628.454600	2487.809423
628.801032	2525.618077
629.147412	2540.741538
629.493739	2543.262115
629.840014	2460.083077
630.186236	2497.891731
630.532405	2492.850577
630.878521	2399.589231
631.224585	2434.877308
631.570597	2505.453462
631.916556	2568.467885
632.262462	2515.535769
632.608316	2490.330000
632.954117	2472.685962
633.299866	2518.056346
633.645562	2502.932885
633.991206	2558.385577
634.336797	2460.083077
634.682336	2475.206538
635.027823	2528.138654
635.373257	2444.959615
635.718639	2528.138654
636.063968	2500.412308
636.409245	2437.397885
636.754470	2437.397885
637.099642	2523.097500
637.444762	2492.850577
637.789829	2470.165385
638.134845	2477.727115
638.479808	2497.891731
638.824719	2505.453462
639.169577	2550.823846
639.514383	2530.659231
639.859137	2598.714808
640.203839	2492.850577
640.548489	2553.344423
640.893086	2525.618077
641.237632	2424.795000
641.582125	2533.179808
641.926566	2510.494615
642.270955	2611.317692
642.615292	2497.891731
642.959576	2583.591346
643.303809	2485.288846
643.647990	2540.741538
643.992118	2444.959615
644.336195	2487.809423
644.680219	2485.288846
645.024192	2533.179808
645.368112	2409.671538
645.711981	2523.097500
646.055797	2543.262115
646.399562	2462.603654
646.743274	2470.165385
647.086935	2470.165385
647.430544	2525.618077
647.774101	2515.535769
648.117606	2475.206538
648.461059	2475.206538
648.804460	2510.494615
649.147810	2497.891731
649.491108	2523.097500
649.834354	2492.850577
650.177548	2472.685962
650.520690	2535.700385
650.863781	2513.015192
651.206820	2490.330000
651.549807	2611.317692
651.892742	2475.206538
652.235626	2523.097500
652.578458	2460.083077
652.921238	2510.494615
653.263967	2560.906154
653.606644	2528.138654
653.949269	2444.959615
654.291843	2525.618077
654.634365	2475.206538
654.976836	2550.823846
655.319255	2563.426731
655.661622	2482.768269
656.003938	2457.562500
656.346203	2422.274423
656.688416	2495.371154
657.030577	2480.247692
657.372687	2485.288846
657.714746	2502.932885
658.056753	2460.083077
658.398708	2467.644808
658.740612	2525.618077
659.082465	2452.521346
659.424266	2550.823846
659.766016	2515.535769
660.107715	2548.303269
660.449362	2442.439038
660.790958	2515.535769
661.132503	2500.412308
661.473996	2462.603654
661.815438	2502.932885
662.156829	2485.288846
662.498168	2432.356731
662.839456	2490.330000
663.180693	2470.165385
663.521879	2500.412308
663.863013	2568.467885
664.204097	2530.659231
664.545129	2611.317692
664.886110	2429.836154
665.227040	2560.906154
665.567918	2467.644808
665.908746	2596.194231
666.249522	2470.165385
666.590248	2424.795000
666.930922	2520.576923
667.271545	2487.809423
667.612118	2513.015192
667.952639	2455.041923
668.293109	2477.727115
668.633528	2500.412308
668.973896	2477.727115
669.314213	2550.823846
669.654480	2563.426731
669.994695	2477.727115
670.334859	2495.371154
670.674973	2523.097500
671.015035	2465.124231
671.355047	2581.070769
671.695008	2518.056346
672.034918	2467.644808
672.374777	2570.988462
672.714585	2437.397885
673.054342	2510.494615
673.394049	2432.356731
673.733705	2538.220962
674.073310	2455.041923
674.412864	2462.603654
674.752368	2520.576923
675.091820	2510.494615
675.431223	2502.932885
675.770574	2386.986346
676.109875	2444.959615
676.449125	2424.795000
676.788324	2480.247692
677.127473	2555.865000
677.466571	2548.303269
677.805619	2533.179808
678.144616	2518.056346
678.483562	2525.618077
678.822458	2452.521346
679.161303	2502.932885
679.500098	2485.288846
679.838842	2487.809423
680.177535	2538.220962
680.516179	2500.412308
680.854771	2384.465769
681.193314	2487.809423
681.531805	2543.262115
681.870247	2487.809423
682.208638	2399.589231
682.546978	2573.509038
682.885268	2548.303269
683.223508	2460.083077
683.561697	2442.439038
683.899836	2520.576923
684.237925	2540.741538
684.575963	2507.974038
684.913951	2525.618077
685.251889	2495.371154
685.589776	2525.618077
685.927614	2485.288846
686.265401	2487.809423
686.603137	2432.356731
686.940824	2518.056346
687.278460	2402.109808
687.616046	2553.344423
687.953582	2492.850577
688.291068	2485.288846
688.628504	2558.385577
688.965889	2596.194231
689.303224	2414.712692
689.640510	2480.247692
689.977745	2538.220962
690.314930	2447.480192
690.652065	2467.644808
690.989150	2497.891731
691.326185	2581.070769
691.663170	2487.809423
692.000105	2573.509038
692.336990	2492.850577
692.673825	2492.850577
693.010610	2485.288846
693.347345	2467.644808
693.684030	2424.795000
694.020665	2490.330000
694.357251	2545.782692
694.693786	2513.015192
695.030272	2437.397885
695.366707	2452.521346
695.703093	2480.247692
696.039429	2523.097500
696.375716	2500.412308
696.711952	2487.809423
697.048139	2399.589231
697.384276	2545.782692
697.720363	2525.618077
698.056400	2500.412308
698.392388	2558.385577
698.728326	2560.906154
699.064214	2477.727115
699.400053	2402.109808
699.735842	2465.124231
700.071581	2593.673654
700.407270	2530.659231
700.742910	2452.521346
701.078501	2460.083077
701.414042	2492.850577
701.749533	2505.453462
702.084974	2480.247692
702.420366	2439.918462
702.755709	2490.330000
703.091002	2495.371154
703.426246	2462.603654
703.761440	2505.453462
704.096584	2450.000769
704.431679	2465.124231
704.766725	2492.850577
705.101721	2535.700385
705.436668	2568.467885
705.771565	2586.111923
706.106413	2513.015192
706.441212	2581.070769
706.775961	2573.509038
707.110661	2492.850577
707.445311	2533.179808
707.779913	2495.371154
708.114465	2490.330000
708.448967	2515.535769
708.783421	2525.618077
709.117825	2429.836154
709.452180	2507.974038
709.786485	2465.124231
710.120742	2593.673654
710.454949	2513.015192
710.789107	2455.041923
711.123216	2523.097500
711.457275	2502.932885
711.791286	2510.494615
712.125247	2550.823846
712.459159	2462.603654
712.793023	2555.865000
713.126837	2409.671538
713.460602	2560.906154
713.794318	2480.247692
714.127985	2520.576923
714.461602	2487.809423
714.795171	2586.111923
715.128691	2500.412308
715.462162	2555.865000
715.795584	2460.083077
716.128957	2487.809423
716.462281	2477.727115
716.795556	2505.453462
717.128782	2497.891731
717.461960	2485.288846
717.795088	2553.344423
718.128167	2528.138654
718.461198	2548.303269
718.794180	2447.480192
719.127113	2543.262115
719.459997	2485.288846
719.792833	2518.056346
720.125619	2472.685962
720.458357	2548.303269
720.791046	2505.453462
721.123686	2523.097500
721.456278	2548.303269
721.788821	2540.741538
722.121315	2553.344423
722.453761	2588.632500
722.786158	2434.877308
723.118506	2513.015192
723.450805	2419.753846
723.783056	2455.041923
724.115259	2482.768269
724.447412	2568.467885
724.779518	2515.535769
725.111574	2530.659231
725.443582	2417.233269
725.775542	2525.618077
726.107453	2543.262115
726.439315	2523.097500
726.771129	2576.029615
727.102895	2548.303269
727.434612	2497.891731
727.766281	2525.618077
728.097901	2465.124231
728.429473	2487.809423
728.760996	2528.138654
729.092471	2593.673654
729.423897	2477.727115
729.755276	2417.233269
730.086606	2533.179808
730.417887	2528.138654
730.749120	2591.153077
731.080305	2528.138654
731.411442	2477.727115
731.742530	2510.494615
732.073570	2487.809423
732.404562	2515.535769
732.735506	2558.385577
733.066401	2538.220962
733.397249	2475.206538
733.728048	2553.344423
734.058798	2528.138654
734.389501	2553.344423
734.720156	2402.109808
735.050762	2558.385577
735.381320	2535.700385
735.711831	2477.727115
736.042293	2475.206538
736.372707	2500.412308
736.703073	2457.562500
737.033391	2538.220962
737.363661	2437.397885
737.693883	2437.397885
738.024056	2490.330000
738.354182	2543.262115
738.684260	2497.891731
739.014290	2507.974038
739.344272	2437.397885
739.674207	2485.288846
740.004093	2530.659231
740.333931	2558.385577
740.663722	2518.056346
740.993464	2482.768269
741.323159	2427.315577
741.652806	2500.412308
741.982405	2538.220962
742.311956	2528.138654
742.641460	2510.494615
742.970915	2462.603654
743.300323	2424.795000
743.629683	2543.262115
743.958996	2427.315577
744.288260	2475.206538
744.617477	2510.494615
744.946647	2487.809423
745.275768	2470.165385
745.604842	2432.356731
745.933869	2608.797115
746.262847	2429.836154
746.591778	2513.015192
746.920662	2455.041923
747.249498	2530.659231
747.578286	2548.303269
747.907027	2495.371154
748.235720	2525.618077
748.564365	2437.397885
748.892963	2500.412308
749.221514	2593.673654
749.550017	2467.644808
749.878473	2487.809423
750.206881	2573.509038
750.535242	2465.124231
750.863555	2414.712692
751.191821	2502.932885
751.520039	2528.138654
751.848210	2515.535769
752.176334	2568.467885
752.504411	2533.179808
752.832440	2565.947308
753.160421	2447.480192
753.488356	2528.138654
753.816243	2487.809423
754.144082	2505.453462
754.471875	2528.138654
754.799620	2523.097500
755.127318	2447.480192
755.454969	2452.521346
755.782572	2437.397885
756.110129	2472.685962
756.437638	2460.083077
756.765100	2477.727115
757.092515	2510.494615
757.419882	2507.974038
757.747203	2515.535769
758.074477	2475.206538
758.401703	2558.385577
758.728882	2636.523462
759.056014	2518.056346
759.383099	2543.262115
759.710138	2422.274423
760.037129	2548.303269
760.364073	2447.480192
760.690970	2502.932885
761.017820	2455.041923
761.344623	2525.618077
761.671379	2487.809423
761.998088	2442.439038
762.324751	2485.288846
762.651366	2472.685962
762.977935	2563.426731
763.304456	2452.521346
763.630931	2465.124231
763.957359	2457.562500
764.283740	2535.700385
764.610074	2480.247692
764.936362	2465.124231
765.262602	2482.768269
765.588796	2558.385577
765.914943	2437.397885
766.241044	2545.782692
766.567097	2492.850577
766.893104	2480.247692
767.219064	2447.480192
767.544978	2533.179808
767.870845	2487.809423
768.196665	2485.288846
768.522438	2414.712692
768.848165	2492.850577
769.173846	2419.753846
769.499479	2558.385577
769.825066	2482.768269
770.150607	2528.138654
770.476101	2560.906154
770.801548	2500.412308
771.126949	2573.509038
771.452303	2480.247692
771.777611	2543.262115
772.102872	2434.877308
772.428087	2470.165385
772.753256	2460.083077
773.078378	2434.877308
773.403453	2460.083077
773.728482	2452.521346
774.053465	2450.000769
774.378401	2475.206538
774.703291	2497.891731
775.028135	2500.412308
775.352932	2465.124231
775.677683	2560.906154
776.002388	2513.015192
776.327046	2573.509038
776.651658	2455.041923
776.976224	2538.220962
777.300743	2500.412308
777.625216	2450.000769
777.949643	2495.371154
778.274024	2513.015192
778.598359	2427.315577
778.922647	2555.865000
779.246889	2490.330000
779.571086	2497.891731
779.895236	2535.700385
780.219339	2548.303269
780.543397	2507.974038
780.867409	2515.535769
781.191374	2543.262115
781.515294	2432.356731
781.839167	2502.932885
782.162995	2417.233269
782.486776	2467.644808
782.810511	2540.741538
783.134201	2555.865000
783.457844	2530.659231
783.781441	2502.932885
784.104993	2523.097500
784.428498	2414.712692
784.751958	2462.603654
785.075372	2505.453462
785.398739	2495.371154
785.722061	2429.836154
786.045337	2518.056346
786.368568	2434.877308
786.691752	2528.138654
787.014891	2457.562500
787.337983	2570.988462
787.661030	2447.480192
787.984031	2507.974038
788.306987	2533.179808
788.629897	2593.673654
788.952760	2439.918462
789.275579	2502.932885
789.598351	2472.685962
789.921078	2545.782692
790.243759	2505.453462
790.566395	2500.412308
790.888984	2455.041923
791.211529	2470.165385
791.534027	2422.274423
791.856480	2457.562500
792.178888	2460.083077
792.501249	2467.644808
792.823566	2515.535769
793.145836	2515.535769
793.468062	2437.397885
793.790241	2550.823846
794.112375	2477.727115
794.434464	2482.768269
794.756507	2528.138654
795.078505	2457.562500
795.400457	2525.618077
795.722364	2523.097500
796.044226	2460.083077
796.366042	2507.974038
796.687812	2487.809423
797.009538	2533.179808
797.331218	2560.906154
797.652852	2444.959615
797.974442	2487.809423
798.295986	2573.509038
798.617484	2545.782692
798.938938	2444.959615
799.260346	2538.220962
799.581709	2513.015192
799.903026	2596.194231
800.224299	2462.603654
800.545526	2518.056346
800.866708	2513.015192
801.187845	2414.712692
801.508936	2563.426731
801.829983	2510.494615
802.150984	2548.303269
802.471940	2480.247692
802.792851	2482.768269
803.113717	2500.412308
803.434538	2515.535769
803.755314	2593.673654
804.076045	2525.618077
804.396731	2480.247692
804.717372	2525.618077
805.037967	2513.015192
805.358518	2525.618077
805.679024	2457.562500
805.999485	2465.124231
806.319901	2482.768269
806.640272	2601.235385
806.960598	2538.220962
807.280879	2442.439038
807.601115	2563.426731
807.921306	2490.330000
808.241453	2439.918462
808.561554	2492.850577
808.881611	2475.206538
809.201623	2475.206538
809.521590	2444.959615
809.841513	2576.029615
810.161390	2560.906154
810.481223	2513.015192
810.801011	2467.644808
811.120755	2462.603654
811.440453	2553.344423
811.760107	2490.330000
812.079716	2490.330000
812.399281	2513.015192
812.718801	2475.206538
813.038276	2581.070769
813.357707	2450.000769
813.677093	2530.659231
813.996434	2596.194231
814.315731	2497.891731
814.634983	2434.877308
814.954191	2470.165385
815.273354	2616.358846
815.592473	2437.397885
815.911547	2573.509038
816.230577	2543.262115
816.549562	2520.576923
816.868502	2457.562500
817.187399	2543.262115
817.506250	2550.823846
817.825058	2455.041923
818.143821	2495.371154
818.462539	2487.809423
818.781213	2510.494615
819.099843	2465.124231
819.418429	2497.891731
819.736970	2452.521346
820.055466	2417.233269
820.373919	2586.111923
820.692327	2482.768269
821.010691	2563.426731
821.329011	2500.412308
821.647286	2492.850577
821.965517	2462.603654
822.283704	2444.959615
822.601847	2515.535769
822.919945	2525.618077
823.237999	2500.412308
823.556010	2399.589231
823.873976	2472.685962
824.191897	2467.644808
824.509775	2538.220962
824.827609	2505.453462
825.145398	2581.070769
825.463144	2530.659231
825.780845	2442.439038
826.098502	2447.480192
826.416116	2477.727115
826.733685	2465.124231
827.051210	2505.453462
827.368692	2535.700385
827.686129	2477.727115
828.003522	2553.344423
828.320872	2513.015192
828.638177	2497.891731
828.955439	2518.056346
829.272656	2523.097500
829.589830	2480.247692
829.906960	2409.671538
830.224046	2533.179808
830.541088	2513.015192
830.858086	2520.576923
831.175041	2470.165385
831.491952	2450.000769
831.808819	2490.330000
832.125642	2500.412308
832.442421	2530.659231
832.759157	2550.823846
833.075849	2520.576923
833.392497	2500.412308
833.709101	2510.494615
834.025662	2535.700385
834.342179	2515.535769
834.658653	2414.712692
834.975083	2490.330000
835.291469	2520.576923
835.607811	2528.138654
835.924110	2502.932885
836.240366	2507.974038
836.556578	2530.659231
836.872746	2460.083077
837.188871	2447.480192
837.504952	2465.124231
837.820990	2558.385577
838.136984	2565.947308
838.452935	2495.371154
838.768842	2528.138654
839.084706	2518.056346
839.400526	2487.809423
839.716303	2457.562500
840.032037	2467.644808
840.347727	2477.727115
840.663373	2538.220962
840.978977	2472.685962
841.294537	2492.850577
841.610054	2402.109808
841.925527	2502.932885
842.240957	2482.768269
842.556344	2525.618077
842.871687	2576.029615
843.186987	2490.330000
843.502244	2520.576923
843.817458	2455.041923
844.132629	2437.397885
844.447756	2573.509038
844.762840	2450.000769
845.077881	2485.288846
845.392879	2518.056346
845.707833	2558.385577
846.022745	2444.959615
846.337613	2485.288846
846.652438	2548.303269
846.967221	2497.891731
847.281960	2477.727115
847.596656	2467.644808
847.911309	2432.356731
848.225919	2533.179808
848.540485	2482.768269
848.855009	2528.138654
849.169490	2457.562500
849.483928	2439.918462
849.798323	2500.412308
850.112675	2515.535769
850.426984	2442.439038
850.741251	2407.150962
851.055474	2530.659231
851.369654	2485.288846
851.683792	2472.685962
851.997887	2545.782692
852.311938	2482.768269
852.625947	2470.165385
852.939914	2507.974038
853.253837	2565.947308
853.567718	2548.303269
853.881555	2495.371154
854.195350	2465.124231
854.509103	2507.974038
854.822812	2412.192115
855.136479	2492.850577
855.450103	2573.509038
855.763685	2462.603654
856.077224	2513.015192
856.390720	2515.535769
856.704173	2500.412308
857.017584	2455.041923
857.330953	2485.288846
857.644278	2460.083077
857.957561	2462.603654
858.270802	2560.906154
858.584000	2442.439038
858.897155	2563.426731
859.210268	2550.823846
859.523339	2485.288846
859.836367	2465.124231
860.149352	2550.823846
860.462295	2520.576923
860.775195	2515.535769
861.088054	2447.480192
861.400869	2477.727115
861.713642	2490.330000
862.026373	2520.576923
862.339062	2432.356731
862.651708	2528.138654
862.964312	2427.315577
863.276873	2450.000769
863.589392	2455.041923
863.901869	2520.576923
864.214303	2477.727115
864.526696	2467.644808
864.839045	2500.412308
865.151353	2412.192115
865.463619	2535.700385
865.775842	2457.562500
866.088023	2528.138654
866.400162	2450.000769
866.712258	2439.918462
867.024313	2528.138654
867.336325	2412.192115
867.648296	2528.138654
867.960224	2429.836154
868.272110	2450.000769
868.583954	2422.274423
868.895755	2480.247692
869.207515	2472.685962
869.519233	2510.494615
869.830909	2460.083077
870.142542	2485.288846
870.454134	2495.371154
870.765684	2490.330000
871.077191	2490.330000
871.388657	2525.618077
871.700081	2497.891731
872.011463	2492.850577
872.322803	2495.371154
872.634101	2510.494615
872.945357	2563.426731
873.256571	2502.932885
873.567744	2520.576923
873.878874	2497.891731
874.189963	2515.535769
874.501010	2490.330000
874.812015	2500.412308
875.122979	2495.371154
875.433900	2533.179808
875.744780	2518.056346
876.055618	2515.535769
876.366415	2576.029615
876.677169	2427.315577
876.987882	2631.482308
877.298554	2492.850577
877.609183	2528.138654
877.919771	2563.426731
878.230317	2528.138654
878.540822	2510.494615
878.851285	2535.700385
879.161707	2507.974038
879.472087	2570.988462
879.782425	2518.056346
880.092722	2439.918462
880.402977	2447.480192
880.713191	2482.768269
881.023363	2439.918462
881.333494	2518.056346
881.643583	2490.330000
881.953631	2477.727115
882.263637	2455.041923
882.573602	2530.659231
882.883526	2427.315577
883.193408	2480.247692
883.503248	2437.397885
883.813048	2472.685962
884.122806	2591.153077
884.432522	2467.644808
884.742197	2545.782692
885.051831	2502.932885
885.361424	2480.247692
885.670975	2409.671538
885.980485	2407.150962
886.289954	2487.809423
886.599382	2455.041923
886.908768	2490.330000
887.218113	2591.153077
887.527417	2573.509038
887.836680	2507.974038
888.145901	2548.303269
888.455082	2485.288846
888.764221	2429.836154
889.073319	2535.700385
889.382376	2477.727115
889.691392	2447.480192
890.000366	2432.356731
890.309300	2530.659231
890.618193	2482.768269
890.927044	2558.385577
891.235855	2447.480192
891.544625	2530.659231
891.853353	2515.535769
892.162041	2530.659231
892.470687	2543.262115
892.779293	2442.439038
893.087858	2510.494615
893.396381	2472.685962
893.704864	2530.659231
894.013306	2450.000769
894.321707	2570.988462
894.630068	2500.412308
894.938387	2611.317692
895.246665	2500.412308
895.554903	2460.083077
895.863100	2545.782692
896.171256	2475.206538
896.479371	2510.494615
896.787446	2550.823846
897.095480	2490.330000
897.403473	2583.591346
897.711425	2513.015192
898.019336	2520.576923
898.327207	2545.782692
898.635038	2505.453462
898.942827	2500.412308
899.250576	2414.712692
899.558284	2480.247692
899.865952	2437.397885
900.173579	2417.233269
900.481165	2455.041923
900.788711	2397.068654
901.096216	2444.959615
901.403681	2548.303269
901.711105	2427.315577
902.018489	2477.727115
902.325832	2487.809423
902.633135	2462.603654
902.940397	2533.179808
903.247619	2507.974038
903.554800	2482.768269
903.861941	2462.603654
904.169041	2465.124231
904.476101	2515.535769
904.783121	2538.220962
905.090100	2439.918462
905.397039	2490.330000
905.703938	2568.467885
906.010796	2558.385577
906.317614	2482.768269
906.624391	2429.836154
906.931129	2515.535769
907.237826	2533.179808
907.544483	2548.303269
907.851099	2515.535769
908.157675	2555.865000
908.464211	2507.974038
908.770707	2475.206538
909.077163	2487.809423
909.383578	2432.356731
909.689954	2502.932885
909.996289	2507.974038
910.302584	2507.974038
910.608839	2467.644808
910.915054	2515.535769
911.221229	2460.083077
911.527363	2482.768269
911.833458	2523.097500
912.139513	2462.603654
912.445527	2558.385577
912.751502	2490.330000
913.057436	2535.700385
913.363331	2601.235385
913.669186	2485.288846
913.975000	2507.974038
914.280775	2439.918462
914.586510	2467.644808
914.892205	2500.412308
915.197859	2477.727115
915.503475	2487.809423
915.809050	2455.041923
916.114585	2502.932885
916.420081	2470.165385
916.725536	2497.891731
917.030952	2452.521346
917.336328	2381.945192
917.641665	2525.618077
917.946961	2419.753846
918.252218	2523.097500
918.557435	2460.083077
918.862612	2475.206538
919.167750	2462.603654
919.472848	2465.124231
919.777906	2510.494615
920.082925	2510.494615
920.387904	2533.179808
920.692843	2485.288846
920.997743	2447.480192
921.302603	2495.371154
921.607423	2450.000769
921.912204	2520.576923
922.216946	2507.974038
922.521647	2583.591346
922.826310	2482.768269
923.130932	2520.576923
923.435516	2455.041923
923.740059	2366.821731
924.044564	2545.782692
924.349028	2455.041923
924.653454	2465.124231
924.957840	2386.986346
925.262186	2533.179808
925.566493	2462.603654
925.870761	2447.480192
926.174989	2533.179808
926.479178	2553.344423
926.783328	2404.630385
927.087438	2530.659231
927.391509	2523.097500
927.695541	2429.836154
927.999533	2500.412308
928.303486	2432.356731
928.607400	2429.836154
928.911275	2475.206538
929.215110	2555.865000
929.518906	2505.453462
929.822663	2480.247692
930.126381	2560.906154
930.430060	2543.262115
930.733699	2502.932885
931.037299	2457.562500
931.340861	2495.371154
931.644383	2515.535769
931.947866	2540.741538
932.251309	2530.659231
932.554714	2568.467885
932.858080	2457.562500
933.161407	2487.809423
933.464694	2434.877308
933.767943	2545.782692
934.071153	2548.303269
934.374323	2482.768269
934.677455	2376.904038
934.980548	2427.315577
935.283602	2487.809423
935.586617	2513.015192
935.889593	2450.000769
936.192530	2482.768269
936.495428	2432.356731
936.798287	2402.109808
937.101108	2450.000769
937.403890	2495.371154
937.706632	2450.000769
938.009336	2429.836154
938.312002	2470.165385
938.614628	2520.576923
938.917216	2523.097500
939.219765	2444.959615
939.522275	2439.918462
939.824747	2470.165385
940.127179	2485.288846
940.429573	2465.124231
940.731929	2427.315577
941.034246	2450.000769
941.336524	2576.029615
941.638763	2467.644808
941.940964	2432.356731
942.243126	2513.015192
942.545250	2439.918462
942.847335	2492.850577
943.149381	2487.809423
943.451389	2495.371154
943.753359	2505.453462
944.055290	2480.247692
944.357182	2525.618077
944.659036	2467.644808
944.960851	2543.262115
945.262628	2447.480192
945.564367	2505.453462
945.866067	2553.344423
946.167729	2467.644808
946.469352	2414.712692
946.770937	2497.891731
947.072484	2523.097500
947.373992	2550.823846
947.675462	2462.603654
947.976893	2588.632500
948.278286	2487.809423
948.579641	2465.124231
948.880958	2520.576923
949.182236	2530.659231
949.483476	2487.809423
949.784678	2482.768269
950.085841	2452.521346
950.386967	2520.576923
950.688054	2510.494615
950.989103	2417.233269
951.290114	2505.453462
951.591087	2495.371154
951.892021	2495.371154
952.192917	2515.535769
952.493776	2457.562500
952.794596	2467.644808
953.095378	2457.562500
953.396122	2513.015192
953.696828	2482.768269
953.997496	2543.262115
954.298126	2442.439038
954.598718	2412.192115
954.899272	2480.247692
955.199788	2540.741538
955.500266	2490.330000
955.800706	2439.918462
956.101108	2465.124231
956.401472	2535.700385
956.701798	2495.371154
957.002087	2510.494615
957.302337	2485.288846
957.602550	2502.932885
957.902724	2523.097500
958.202861	2452.521346
958.502960	2455.041923
958.803022	2497.891731
959.103045	2465.124231
959.403031	2475.206538
959.702979	2596.194231
960.002889	2452.521346
960.302762	2513.015192
960.602596	2452.521346
960.902393	2507.974038
961.202153	2417.233269
961.501875	2424.795000
961.801559	2515.535769
962.101205	2535.700385
962.400814	2497.891731
962.700385	2553.344423
962.999918	2442.439038
963.299414	2472.685962
963.598873	2442.439038
963.898293	2467.644808
964.197677	2500.412308
964.497022	2404.630385
964.796331	2500.412308
965.095601	2460.083077
965.394835	2563.426731
965.694030	2480.247692
965.993189	2507.974038
966.292309	2434.877308
966.591393	2591.153077
966.890439	2560.906154
967.189447	2460.083077
967.488419	2533.179808
967.787353	2492.850577
968.086249	2570.988462
968.385108	2515.535769
968.683930	2495.371154
968.982714	2505.453462
969.281462	2540.741538
969.580172	2540.741538
969.878844	2492.850577
970.177480	2497.891731
970.476078	2533.179808
970.774639	2555.865000
971.073162	2470.165385
971.371649	2490.330000
971.670098	2598.714808
971.968510	2530.659231
972.266885	2467.644808
972.565223	2490.330000
972.863524	2450.000769
973.161788	2467.644808
973.460014	2429.836154
973.758204	2442.439038
974.056356	2465.124231
974.354471	2444.959615
974.652550	2558.385577
974.950591	2470.165385
975.248595	2389.506923
975.546563	2482.768269
975.844493	2482.768269
976.142386	2543.262115
976.440243	2540.741538
976.738062	2460.083077
977.035845	2455.041923
977.333590	2550.823846
977.631299	2429.836154
977.928971	2475.206538
978.226606	2535.700385
978.524204	2427.315577
978.821765	2460.083077
979.119290	2530.659231
979.416777	2467.644808
979.714228	2507.974038
980.011642	2538.220962
980.309020	2444.959615
980.606360	2515.535769
980.903664	2472.685962
981.200931	2482.768269
981.498162	2513.015192
981.795356	2513.015192
982.092513	2442.439038
982.389633	2434.877308
982.686717	2515.535769
982.983764	2374.383462
983.280775	2515.535769
983.577749	2480.247692
983.874686	2467.644808
984.171587	2518.056346
984.468451	2477.727115
984.765279	2513.015192
985.062070	2399.589231
985.358824	2452.521346
985.655543	2492.850577
985.952224	2427.315577
986.248869	2540.741538
986.545478	2510.494615
986.842050	2475.206538
987.138586	2515.535769
987.435086	2533.179808
987.731549	2460.083077
988.027975	2550.823846
988.324366	2507.974038
988.620719	2417.233269
988.917037	2480.247692
989.213318	2500.412308
989.509563	2470.165385
989.805772	2487.809423
990.101944	2513.015192
990.398080	2465.124231
990.694180	2525.618077
990.990244	2470.165385
991.286271	2492.850577
991.582262	2429.836154
991.878217	2502.932885
992.174136	2588.632500
992.470019	2470.165385
992.765865	2525.618077
993.061676	2515.535769
993.357450	2485.288846
993.653188	2573.509038
993.948890	2465.124231
994.244556	2573.509038
994.540186	2462.603654
994.835780	2502.932885
995.131337	2490.330000
995.426859	2397.068654
995.722345	2500.412308
996.017795	2500.412308
996.313208	2480.247692
996.608586	2565.947308
996.903928	2533.179808
997.199234	2555.865000
997.494504	2495.371154
997.789738	2520.576923
998.084936	2432.356731
998.380099	2535.700385
998.675225	2482.768269
998.970316	2417.233269
999.265371	2480.247692
999.560390	2525.618077
999.855373	2472.685962
1000.150320	2510.494615
1000.445232	2507.974038
1000.740108	2510.494615
1001.034948	2518.056346
1001.329752	2510.494615
1001.624521	2455.041923
1001.919254	2523.097500
1002.213951	2565.947308
1002.508613	2487.809423
1002.803239	2480.247692
1003.097829	2472.685962
1003.392384	2525.618077
1003.686903	2502.932885
1003.981386	2487.809423
1004.275834	2555.865000
1004.570246	2570.988462
1004.864623	2588.632500
1005.158964	2505.453462
1005.453270	2371.862885
1005.747540	2482.768269
1006.041775	2470.165385
1006.335974	2482.768269
1006.630138	2518.056346
1006.924266	2555.865000
1007.218359	2465.124231
1007.512416	2560.906154
1007.806438	2470.165385
1008.100425	2523.097500
1008.394376	2482.768269
1008.688292	2492.850577
1008.982172	2555.865000
1009.276017	2485.288846
1009.569827	2530.659231
1009.863602	2525.618077
1010.157341	2535.700385
1010.451045	2472.685962
1010.744714	2487.809423
1011.038347	2475.206538
1011.331945	2487.809423
1011.625508	2528.138654
1011.919036	2535.700385
1012.212528	2513.015192
1012.505986	2563.426731
1012.799408	2397.068654
1013.092795	2482.768269
1013.386147	2422.274423
1013.679464	2520.576923
1013.972745	2439.918462
1014.265992	2402.109808
1014.559204	2560.906154
1014.852380	2555.865000
1015.145521	2465.124231
1015.438628	2540.741538
1015.731699	2581.070769
1016.024736	2424.795000
1016.317737	2518.056346
1016.610703	2507.974038
1016.903635	2434.877308
1017.196531	2434.877308
1017.489393	2427.315577
1017.782219	2492.850577
1018.075011	2447.480192
1018.367768	2507.974038
1018.660490	2553.344423
1018.953177	2553.344423
1019.245829	2553.344423
