Dividing Wavelength (nm)	Counts (n)	Blue Motor Position (mm): 0.000000	Red Motor Position (mm): 35.500000	
326.493990	2127.629063
326.888308	2127.629063
327.282561	2127.629063
327.676750	2094.181007
328.070874	2092.850143
328.464933	2094.790987
328.858929	2102.047728
329.252859	2113.249172
329.646726	2126.028497
330.040528	2136.907307
330.434265	2155.436068
330.827938	2172.553306
331.221547	2188.609381
331.615091	2206.397092
332.008571	2226.392829
332.401986	2246.161713
332.795338	2266.301123
333.188625	2285.318876
333.581847	2304.576084
333.975006	2324.486121
334.368100	2341.051352
334.761129	2360.129599
335.154095	2374.454038
335.546996	2393.872562
335.939833	2413.613721
336.332606	2430.063006
336.725315	2444.173195
337.117960	2450.532611
337.510540	2459.944445
337.903056	2470.666979
338.295508	2478.223669
338.687896	2485.929073
339.080220	2492.918633
339.472480	2504.344408
339.864676	2506.184429
340.256807	2510.071158
340.648875	2509.617455
341.040879	2516.748167
341.432818	2518.454597
341.824694	2520.067767
342.216506	2520.392921
342.608253	2522.326203
342.999937	2518.744464
343.391557	2518.943589
343.783113	2519.654392
344.174605	2518.711696
344.566033	2513.345388
344.957397	2515.187930
345.348697	2513.443690
345.739934	2513.471417
346.131106	2507.855571
346.522215	2507.900942
346.913260	2505.534120
347.304241	2502.728718
347.695159	2501.954901
348.086012	2501.498676
348.476802	2498.108500
348.867528	2497.858963
349.258191	2495.865187
349.648789	2496.714621
350.039324	2493.697491
350.429796	2496.999447
350.820203	2488.631131
351.210548	2493.092552
351.600828	2489.500730
351.991045	2489.646924
352.381198	2491.383601
352.771288	2490.287150
353.161314	2490.317397
353.551276	2486.594505
353.941175	2488.767242
354.331010	2487.149032
354.720782	2489.031903
355.110490	2488.522746
355.500135	2487.509474
355.889717	2488.984012
356.279235	2487.509474
356.668689	2490.453508
357.058080	2489.530977
357.447408	2487.338075
357.836672	2489.107520
358.225873	2491.512151
358.615010	2486.385297
359.004084	2492.568272
359.393095	2492.354023
359.782043	2492.805207
360.170927	2493.755464
360.559748	2494.128509
360.948505	2494.448623
361.337199	2498.179077
361.725830	2497.120434
362.114398	2496.848212
362.502903	2498.161432
362.891344	2495.933243
363.279722	2498.534478
363.668037	2498.443737
364.056289	2498.554642
364.444478	2499.794766
364.832603	2498.879797
365.220665	2501.682678
365.608665	2502.214520
365.996601	2501.400374
366.384474	2502.867350
366.772284	2504.843482
367.160031	2507.343894
367.547715	2508.672238
367.935336	2510.802126
368.322893	2513.572240
368.710388	2518.310924
369.097820	2525.734023
369.485189	2527.145547
369.872495	2534.442617
370.259738	2540.411343
370.646918	2546.569112
371.034035	2554.093034
371.421090	2563.651062
371.808081	2573.078020
372.195010	2583.157807
372.581875	2595.453181
372.968678	2610.027157
373.355418	2621.352109
373.742096	2638.522279
374.128710	2656.118427
374.515262	2667.985303
374.901751	2681.596418
375.288177	2697.791125
375.674540	2718.684187
376.060841	2737.691857
376.447079	2759.754467
376.833254	2778.696603
377.219367	2792.844601
377.605417	2828.097390
377.991404	2837.269769
378.377329	2860.466639
378.763191	2875.824514
379.148991	2910.409350
379.534727	2941.074689
379.920402	2968.322125
380.306013	2979.455514
380.691563	3027.785056
381.077049	3048.257181
381.462474	3066.329718
381.847835	3104.420676
382.233134	3129.465129
382.618371	3130.082670
383.003545	3197.409800
383.388657	3204.684185
383.773706	3235.193248
384.158693	3253.283429
384.543618	3279.242851
384.928480	3316.265084
385.313280	3361.665716
385.698017	3359.210674
386.082692	3413.692944
386.467305	3416.112698
386.851856	3450.821042
387.236344	3473.680154
387.620770	3505.434382
388.005133	3533.531253
388.389435	3559.465469
388.773674	3570.424938
389.157851	3612.735342
389.541965	3625.665902
389.926018	3589.815736
390.310008	3666.587468
390.693936	3683.006506
391.077802	3722.138463
391.461606	3710.808470
391.845348	3773.444806
392.229027	3775.105866
392.612645	3788.172537
392.996200	3866.630535
393.379694	3903.209147
393.763125	3970.470742
394.146494	3938.260290
394.529801	3998.595340
394.913047	4049.188360
395.296230	4009.635467
395.679351	4066.166966
396.062410	4091.649999
396.445408	4071.240887
396.828343	4107.209520
397.211217	4131.235659
397.594028	4046.945046
397.976778	4114.146148
398.359466	4143.538595
398.742092	4170.947349
399.124656	4092.370884
399.507158	4171.345600
399.889598	4199.054302
400.271977	4264.548973
400.654294	4229.588571
401.036549	4241.437803
401.418742	4211.142989
401.800874	4314.302641
402.182944	4333.764015
402.564952	4402.343872
402.946898	4382.030542
403.328783	4379.734297
403.710606	4294.228766
404.092367	4491.592460
404.474067	4452.175678
404.855705	4457.894867
405.237282	4390.096389
405.618797	4496.605887
406.000250	4532.332544
406.381642	4612.070995
406.762972	4574.537084
407.144240	4584.576542
407.525447	4582.784412
407.906593	4641.304647
408.287677	4688.709137
408.668700	4615.128455
409.049661	4667.511085
409.430560	4709.629925
409.811399	4637.816168
410.192176	4793.434067
410.572891	4733.827464
410.953545	4839.674050
411.334138	4719.518148
411.714669	4784.201193
412.095139	4681.480122
412.475547	4823.398685
412.855894	4805.510151
413.236180	4812.834947
413.616405	4765.677474
413.996568	4856.075444
414.376670	4792.791320
414.756711	4752.126852
415.136691	4783.253457
415.516609	4858.782544
415.896466	4897.125560
416.276262	4931.687711
416.655997	4909.783898
417.035670	5095.946147
417.415283	5187.929561
417.794834	5128.078462
418.174324	5087.368624
418.553753	4987.944467
418.933121	5174.714176
419.312428	5241.423765
419.691674	5179.893962
420.070859	5305.237211
420.449983	5218.962904
420.829045	5335.942879
421.208047	5244.312346
421.586988	5309.683509
421.965867	5323.377803
422.344686	5459.471313
422.723444	5308.934897
423.102141	5132.791941
423.480777	5430.323361
423.859352	5201.928845
424.237866	5455.158606
424.616319	5451.687771
424.994712	5560.332198
425.373044	5431.901243
425.751314	5579.760805
426.129524	5381.862749
426.507673	5581.074026
426.885762	5659.610162
427.263789	5587.211631
427.641756	5476.127285
428.019662	5593.964256
428.397508	5600.295946
428.775292	5549.234098
429.153016	5648.819572
429.530679	5574.802831
429.908282	5656.865253
430.285824	5527.194174
430.663305	5804.346730
431.040726	5535.698600
431.418086	5538.377973
431.795385	5643.022245
432.172624	5654.816024
432.549802	5646.097349
432.926920	5662.924720
433.303977	5667.635679
433.680974	5710.107400
434.057910	5727.040636
434.434786	5733.856276
434.811601	5699.896543
435.188355	5936.823212
435.565050	5809.695394
435.941683	5793.142765
436.318257	6007.709397
436.694770	5988.868084
437.071222	6023.236150
437.447614	5958.041428
437.823946	5867.494743
438.200218	6025.199680
438.576429	5884.254059
438.952580	5985.825748
439.328670	6030.765114
439.704700	5939.459735
440.080670	5925.122694
440.456580	6199.328695
440.832429	6080.433082
441.208218	5924.787457
441.583947	6081.315284
441.959616	6085.451551
442.335224	6011.210478
442.710773	6151.271376
443.086261	6178.354975
443.461689	5968.872347
443.837057	6120.353979
444.212365	6276.302073
444.587612	6166.790568
444.962800	6322.564742
445.337927	6300.761752
445.712995	5915.297485
446.088002	6486.510627
446.462949	6318.131047
446.837837	6248.303505
447.212664	6422.979486
447.587431	6569.712351
447.962139	7101.967456
448.336786	8033.187039
448.711374	7778.165148
449.085901	6846.489341
449.460369	6768.416991
449.834776	6702.420726
450.209124	7099.091478
450.583412	7247.946669
450.957640	7389.237608
451.331808	7163.716550
451.705917	6711.709052
452.079965	6635.383462
452.453954	6844.624114
452.827883	6726.131793
453.201752	6818.150495
453.575562	6612.562158
453.949311	6821.316339
454.323001	6701.399892
454.696632	6782.769156
455.070202	6916.763026
455.443713	7076.759166
455.817164	7172.586460
456.190556	7253.479335
456.563888	7329.063875
456.937160	7375.865948
457.310373	7033.138062
457.683526	7053.688326
458.056619	6947.967768
458.429653	6935.614420
458.802628	6871.238886
459.175542	6978.368446
459.548398	7337.159968
459.921194	7491.048751
460.293930	7493.655028
460.666607	8025.640431
461.039224	8337.352618
461.411782	8466.335580
461.784280	8485.035740
462.156719	8376.908031
462.529099	8252.517560
462.901419	7837.746545
463.273680	7730.722849
463.645882	7739.562512
464.018024	7609.611648
464.390106	7780.358050
464.762130	8163.730238
465.134094	8632.698698
465.505999	9647.041866
465.877845	10877.950483
466.249631	11535.788293
466.621358	11143.231122
466.993026	10512.706284
467.364634	10259.622717
467.736184	9897.546883
468.107674	9563.734278
468.479105	9595.513712
468.850477	9359.723823
469.221790	9132.009863
469.593043	8802.005850
469.964238	8669.151282
470.335373	8675.808125
470.706449	8734.320798
471.077467	8717.516112
471.448425	10022.948106
471.819324	11101.354257
472.190164	11124.790581
472.560945	9879.502073
472.931667	9084.522194
473.302330	8950.361967
473.672934	8591.991381
474.043479	8953.474879
474.413965	8892.050940
474.784393	8773.659442
475.154761	8933.693391
475.525070	9019.312348
475.895321	8838.544133
476.265513	9021.386783
476.635645	9195.621663
477.005719	9191.457670
477.375734	9310.234816
477.745691	9541.351555
478.115588	9667.456019
478.485427	9917.393906
478.855207	10453.339136
479.224928	11270.391707
479.594591	11894.897407
479.964194	11709.032586
480.333739	11657.222127
480.703226	11567.093858
481.072653	11659.067189
481.442022	11901.960064
481.811333	12085.964700
482.180584	11896.223231
482.549777	11601.020823
482.918912	11418.813359
483.287988	11444.861001
483.657005	11459.457662
484.025964	11148.158850
484.394864	11272.375401
484.763706	11241.692418
485.132489	11002.124185
485.501213	10955.798502
485.869879	11039.317818
486.238487	10877.269928
486.607036	10988.079530
486.975527	10770.901581
487.343959	10958.253543
487.712333	10999.822898
488.080648	10934.562641
488.448905	10976.520164
488.817104	10923.971177
489.185244	11188.414984
489.553326	11334.389155
489.921350	11874.689942
490.289315	12937.985235
490.657222	13285.484573
491.025070	13191.197352
491.392861	13067.525245
491.760593	12684.947038
492.128267	12336.817557
492.495883	12004.890343
492.863440	11670.334168
493.230939	11329.859679
493.598380	11268.171079
493.965763	11135.321552
494.333088	11031.567044
494.700354	10956.738677
495.067563	11013.842347
495.434713	10845.752634
495.801805	10976.958745
496.168839	10900.063505
496.535815	10831.919708
496.902733	10832.040695
497.269593	10758.512946
497.636395	10860.503050
498.003139	10853.228665
498.369825	10714.289424
498.736453	10871.245749
499.103023	10799.588267
499.469535	10830.876189
499.835989	10816.773561
500.202385	10778.591862
500.568723	10626.848090
500.935003	10850.186328
501.301226	10657.742801
501.667390	10915.086143
502.033497	11006.356233
502.399546	10867.822805
502.765537	10779.186718
503.131470	10849.462923
503.497345	11025.505056
503.863163	10642.596654
504.228923	10944.904568
504.594625	11012.425783
504.960269	10757.292987
505.325856	10982.990485
505.691385	10762.984449
506.056856	10920.056721
506.422270	10946.979003
506.787625	10830.425005
507.152924	10949.076123
507.518164	10925.622155
507.883347	10842.455719
508.248472	10761.961095
508.613540	10990.630354
508.978550	10876.743127
509.343503	10845.097284
509.708398	10955.556526
510.073236	11066.456870
510.438016	11075.762840
510.802738	11019.095229
511.167403	11067.901160
511.532010	10963.738319
511.896561	11190.292814
512.261053	11257.503997
512.625488	11122.718667
512.989866	11100.666140
513.354186	11085.845147
513.718449	10981.457975
514.082655	11170.788590
514.446803	11051.587986
514.810894	11177.069867
515.174927	11033.883454
515.538904	11052.676876
515.902822	11195.104595
516.266684	11079.727707
516.630488	11012.060299
516.994235	11059.411857
517.357925	11117.042328
517.721558	11202.308404
518.085133	11194.219873
518.448651	11199.429905
518.812112	11084.272307
519.175516	11081.965979
519.538863	11184.238388
519.902152	11103.988260
520.265385	11239.096224
520.628560	11146.795218
520.991678	11111.549991
521.354739	11162.221149
521.717743	11085.630898
522.080690	11058.824563
522.443580	11173.306646
522.806413	11110.360278
523.169189	11130.214863
523.531908	11171.771615
523.894569	10981.263890
524.257174	10970.533794
524.619722	11063.260778
524.982213	11010.540391
525.344647	11028.663339
525.707025	10975.247273
526.069345	11035.814216
526.431608	10934.303022
526.793815	11027.899604
527.155964	10805.367950
527.518057	10836.728968
527.880093	10768.872517
528.242072	10812.813734
528.603995	10705.200223
528.965860	10609.042734
529.327669	10627.505960
529.689421	10560.042719
530.051117	10511.365337
530.412755	10582.128014
530.774337	10464.827926
531.135862	10408.119986
531.497331	10411.729452
531.858743	10243.919523
532.220098	10369.676147
532.581396	10224.619465
532.942638	10183.849134
533.303824	10120.272622
533.664953	10094.880330
534.026025	9998.566565
534.387040	10052.776613
534.747999	10022.794351
535.108902	10042.522906
535.469748	9793.361357
535.830537	9859.385349
536.191270	9803.012646
536.551947	9790.283732
536.912567	9751.194625
537.273131	9660.302622
537.633638	9598.399773
537.994089	9548.822545
538.354483	9472.133993
538.714821	9561.201099
539.075103	9533.318477
539.435328	9458.638824
539.795497	9283.229355
540.155609	9367.492242
540.515665	9404.401049
540.875665	9147.808839
541.235609	9163.086056
541.595496	9124.458215
541.955328	9197.645686
542.315102	9070.109535
542.674821	8994.414089
543.034483	8954.861196
543.394090	8916.487933
543.753640	8815.672418
544.113134	8936.776057
544.472571	8788.155280
544.831953	8843.260132
545.191278	8660.203233
545.550548	8637.959142
545.909761	8698.556332
546.268918	8630.150395
546.628019	8642.080285
546.987064	8492.577306
547.346053	8398.032987
547.704986	8410.376252
548.063863	8362.984364
548.422684	8324.921132
548.781449	8215.633958
549.140158	8232.100887
549.498811	8100.602389
549.857408	7970.679252
550.215949	8064.623674
550.574434	7922.503465
550.932864	7925.049247
551.291237	7932.646266
551.649555	7831.460226
552.007817	7803.083571
552.366022	7732.701502
552.724173	7675.234869
553.082267	7623.747044
553.440305	7635.361862
553.798288	7489.856518
554.156215	7517.043461
554.514086	7463.335008
554.871902	7323.931981
555.229661	7295.963659
555.587365	7230.489153
555.945014	7135.874257
556.302606	7143.597305
556.660143	7045.458642
557.017625	7065.489667
557.375050	6972.452652
557.732421	6990.774726
558.089735	6891.332925
558.446994	6848.457912
558.804197	6820.572769
559.161345	6771.429081
559.518437	6659.207955
559.875474	6639.108875
560.232455	6608.652744
560.589381	6547.228805
560.946251	6474.643751
561.303065	6497.341546
561.659825	6401.509212
562.016528	6328.682182
562.373177	6233.842955
562.729770	6225.840123
563.086307	6145.479090
563.442789	6148.463453
563.799216	6031.652357
564.155587	6014.567886
564.511904	5947.139933
564.868164	5905.323562
565.224370	5870.320310
565.580520	5775.128202
565.936615	5759.644298
566.292654	5643.896885
566.648638	5663.461603
567.004567	5594.733032
567.360441	5552.352052
567.716260	5471.403724
568.072023	5466.831397
568.427732	5394.528648
568.783385	5340.001008
569.138982	5308.534126
569.494525	5276.600937
569.850013	5193.779820
570.205445	5174.777191
570.560823	5116.660248
570.916145	5039.417169
571.271412	5021.057286
571.626625	4967.636179
571.981782	4923.369807
572.336884	4870.772928
572.691931	4845.625132
573.046923	4781.957880
573.401860	4737.189913
573.756743	4679.365358
574.111570	4654.572963
574.466342	4620.227582
574.821059	4589.128704
575.175722	4526.993962
575.530330	4487.776306
575.884882	4459.024085
576.239380	4401.779263
576.593823	4363.411041
576.948211	4334.570600
577.302544	4280.539513
577.656823	4244.613730
578.011047	4218.714802
578.365216	4181.566539
578.719330	4137.998367
579.073389	4106.700363
579.427394	4072.780960
579.781344	4038.433058
580.135239	3994.532170
580.489080	3974.975013
580.842866	3922.342847
581.196597	3898.599012
581.550273	3886.681724
581.903895	3848.431970
582.257463	3842.546422
582.610975	3788.749749
582.964434	3778.664921
583.317837	3733.468456
583.671186	3715.942885
584.024481	3687.878781
584.377721	3655.486847
584.730906	3626.643886
585.084037	3606.688478
585.437113	3580.940785
585.790135	3558.469842
586.143103	3524.215201
586.496016	3501.348527
586.848874	3485.252123
587.201679	3470.811738
587.554428	3430.452260
587.907124	3422.285591
588.259765	3398.839184
588.612352	3382.520969
588.964884	3354.328317
589.317362	3338.224351
589.669786	3321.028975
590.022155	3312.632933
590.374470	3291.386990
590.726731	3273.672376
591.078937	3237.265162
591.431090	3232.995305
591.783188	3207.035883
592.135232	3187.980322
592.487222	3176.330215
592.839157	3169.073474
593.191038	3147.754435
593.542866	3127.448667
593.894639	3105.638115
594.246358	3094.439192
594.598022	3086.990887
594.949633	3063.471384
595.301190	3048.978066
595.652692	3038.245450
596.004141	3033.771426
596.355535	3006.095491
596.706876	2994.962103
597.058162	2978.742190
597.409395	2975.394864
597.760573	2966.139306
598.111698	2952.684466
598.462768	2941.593928
598.813785	2930.742844
599.164748	2917.935793
599.515657	2909.675862
599.866511	2890.610218
600.217312	2894.885117
600.568060	2877.029350
600.918753	2876.449617
601.269392	2867.541898
601.619978	2851.253930
601.970510	2848.912314
602.320988	2843.026767
602.671412	2836.579131
603.021783	2827.426917
603.372100	2821.682522
603.722363	2812.215235
604.072572	2806.059986
604.422728	2802.387505
604.772830	2791.609518
605.122878	2781.859927
605.472872	2776.443207
605.822813	2770.900458
606.172701	2768.092536
606.522534	2764.919129
606.872314	2766.020622
607.222041	2756.258427
607.571714	2753.851276
607.921333	2746.266860
608.270899	2743.209400
608.620411	2742.105388
608.969870	2735.879563
609.319276	2731.115672
609.668627	2731.052658
610.017926	2730.082236
610.367171	2728.181721
610.716362	2725.509909
611.065500	2719.773076
611.414585	2713.043136
611.763616	2709.123639
612.112594	2707.596169
612.461518	2705.095757
612.810389	2701.279603
613.159207	2698.900179
613.507971	2692.903726
613.856682	2690.483972
614.205340	2689.470700
614.553945	2688.260823
614.902496	2682.148424
615.250994	2683.383507
615.599439	2679.395954
615.947830	2677.747497
616.296169	2675.864626
616.644454	2671.521672
616.992686	2670.248781
617.340864	2668.658297
617.688990	2664.985816
618.037063	2668.559994
618.385082	2665.119407
618.733048	2665.772236
619.080961	2661.320897
619.428821	2659.680002
619.776628	2658.757471
620.124382	2658.535660
620.472083	2653.179434
620.819731	2655.256389
621.167326	2647.354381
621.514868	2652.491316
621.862357	2641.269708
622.209793	2643.087044
622.557176	2639.525469
622.904506	2636.702422
623.251783	2633.934829
623.599007	2631.653707
623.946179	2628.878552
624.293297	2629.299488
624.640363	2626.715897
624.987376	2628.192955
625.334336	2626.090794
625.681243	2622.468725
626.028097	2623.608025
626.374899	2625.115330
626.721647	2620.290946
627.068343	2618.435802
627.414987	2617.470421
627.761577	2616.810029
628.108115	2616.487396
628.454600	2615.418671
628.801032	2613.883640
629.147412	2615.655605
629.493739	2616.744494
629.840014	2614.440687
630.186236	2612.653598
630.532405	2608.882815
630.878521	2610.765686
631.224585	2612.479678
631.570597	2609.306272
631.916556	2607.297372
632.262462	2609.747373
632.608316	2609.482712
632.954117	2607.569594
633.299866	2608.784512
633.645562	2604.519696
633.991206	2603.934922
634.336797	2603.493822
634.682336	2603.045159
635.027823	2600.612802
635.373257	2600.592637
635.718639	2598.324118
636.063968	2599.667586
636.409245	2596.842019
636.754470	2596.703387
637.099642	2598.004005
637.444762	2594.770105
637.789829	2597.477204
638.134845	2591.654672
638.479808	2595.019642
638.824719	2594.094590
639.169577	2591.258941
639.514383	2591.964703
639.859137	2589.338262
640.203839	2591.853797
640.548489	2591.858838
640.893086	2587.740216
641.237632	2585.469176
641.582125	2588.970257
641.926566	2583.009093
642.270955	2590.681729
642.615292	2587.876327
642.959576	2589.073601
643.303809	2590.409507
643.647990	2590.323807
643.992118	2587.896492
644.336195	2590.021338
644.680219	2585.743919
645.024192	2586.545462
645.368112	2588.831626
645.711981	2587.858683
646.055797	2590.096955
646.399562	2591.047213
646.743274	2592.597367
647.086935	2590.285998
647.430544	2594.190372
647.774101	2592.347830
648.117606	2590.507809
648.461059	2592.766246
648.804460	2593.368664
649.147810	2589.020669
649.491108	2589.698704
649.834354	2586.232911
650.177548	2583.601428
650.520690	2586.933631
650.863781	2584.891964
651.206820	2588.085535
651.549807	2585.716192
651.892742	2582.376428
652.235626	2582.948599
652.578458	2585.265009
652.921238	2584.655030
653.263967	2583.936665
653.606644	2581.955492
653.949269	2580.009606
654.291843	2579.558423
654.634365	2582.585636
654.976836	2581.002714
655.319255	2580.296952
655.661622	2580.042374
656.003938	2582.091603
656.346203	2579.303845
656.688416	2579.165213
657.030577	2581.698393
657.372687	2579.752507
657.714746	2578.761921
658.056753	2577.857034
658.398708	2572.314285
658.740612	2577.892322
659.082465	2577.438618
659.424266	2575.727146
659.766016	2576.962229
660.107715	2577.115984
660.449362	2579.049267
660.790958	2578.373752
661.132503	2580.014647
661.473996	2582.131932
661.815438	2577.428536
662.156829	2577.975501
662.498168	2579.704617
662.839456	2579.762590
663.180693	2579.082034
663.521879	2578.041036
663.863013	2578.766962
664.204097	2579.210583
664.545129	2580.748135
664.886110	2580.244020
665.227040	2577.809143
665.567918	2580.435584
665.908746	2578.779565
666.249522	2578.033474
666.590248	2579.034143
666.930922	2580.606983
667.271545	2578.744277
667.612118	2579.941551
667.952639	2581.015317
668.293109	2581.176633
668.633528	2580.430543
668.973896	2579.409709
669.314213	2577.408371
669.654480	2577.110943
669.994695	2580.523804
670.334859	2579.906263
670.674973	2576.632033
671.015035	2580.390213
671.355047	2578.472054
671.695008	2579.515573
672.034918	2576.090109
672.374777	2577.476427
672.714585	2579.497929
673.054342	2579.185378
673.394049	2577.418453
673.733705	2581.390882
674.073310	2579.024061
674.412864	2580.816191
674.752368	2578.398958
675.091820	2579.240830
675.431223	2577.058011
675.770574	2575.573391
676.109875	2571.583318
676.449125	2573.803946
676.788324	2575.033987
677.127473	2575.175140
677.466571	2572.173133
677.805619	2572.664645
678.144616	2576.301838
678.483562	2574.948288
678.822458	2574.413926
679.161303	2574.880232
679.500098	2574.305541
679.838842	2575.351580
680.177535	2573.869481
680.516179	2577.234451
680.854771	2573.511559
681.193314	2575.391909
681.531805	2578.716550
681.870247	2577.184040
682.208638	2580.115471
682.546978	2581.166551
682.885268	2579.994483
683.223508	2577.882239
683.561697	2575.646488
683.899836	2579.515573
684.237925	2578.686303
684.575963	2577.383165
684.913951	2578.048597
685.251889	2576.352249
685.589776	2577.297466
685.927614	2579.424832
686.265401	2576.901735
686.603137	2577.955336
686.940824	2578.981211
687.278460	2580.037333
687.616046	2580.861561
687.953582	2581.206880
688.291068	2578.524987
688.628504	2578.862744
688.965889	2580.158320
689.303224	2579.656726
689.640510	2577.113463
689.977745	2578.615727
690.314930	2573.173802
690.652065	2578.010789
690.989150	2575.858216
691.326185	2574.764286
691.663170	2570.103739
692.000105	2571.232957
692.336990	2570.575087
692.673825	2570.005437
693.010610	2571.064079
693.347345	2566.723645
693.684030	2564.651731
694.020665	2565.707853
694.357251	2561.647203
694.693786	2567.696588
695.030272	2565.828841
695.366707	2566.075857
695.703093	2567.101732
696.039429	2566.590055
696.375716	2568.019222
696.711952	2565.748182
697.048139	2569.168605
697.384276	2562.751216
697.720363	2566.340518
698.056400	2567.847823
698.392388	2566.597617
698.728326	2566.670713
699.064214	2565.667524
699.400053	2567.104252
699.735842	2564.394632
700.071581	2567.094170
700.407270	2563.217523
700.742910	2563.330949
701.078501	2566.330435
701.414042	2564.225754
701.749533	2562.181566
702.084974	2564.082081
702.420366	2563.920764
702.755709	2561.367419
703.091002	2560.875907
703.426246	2559.666030
703.761440	2560.933880
704.096584	2563.903120
704.431679	2562.219374
704.766725	2563.416648
705.101721	2560.712069
705.436668	2560.079405
705.771565	2559.550083
706.106413	2561.301884
706.441212	2561.311967
706.775961	2564.689540
707.110661	2563.459498
707.445311	2562.080743
707.779913	2564.777760
708.114465	2563.688871
708.448967	2564.099725
708.783421	2563.658624
709.117825	2561.798438
709.452180	2566.547205
709.786485	2565.506207
710.120742	2564.881104
710.454949	2566.274983
710.789107	2565.917061
711.123216	2562.100907
711.457275	2566.438820
711.791286	2565.617112
712.125247	2565.460836
712.459159	2568.543502
712.793023	2570.355797
713.126837	2568.679613
713.460602	2568.528378
713.794318	2568.238512
714.127985	2569.276990
714.461602	2567.177349
714.795171	2566.801783
715.128691	2564.871021
715.462162	2563.842626
715.795584	2563.227605
716.128957	2561.894220
716.462281	2562.922615
716.795556	2563.857749
717.128782	2558.932542
717.461960	2561.881617
717.795088	2558.269630
718.128167	2562.602502
718.461198	2560.061761
718.794180	2560.681823
719.127113	2558.473797
719.459997	2560.318859
719.792833	2558.645196
720.125619	2559.086297
720.458357	2559.492110
720.791046	2557.876420
721.123686	2556.303580
721.456278	2561.004456
721.788821	2557.594116
722.121315	2559.262738
722.453761	2557.190823
722.786158	2559.083777
723.118506	2556.490103
723.450805	2557.213509
723.783056	2556.613611
724.115259	2560.543191
724.447412	2556.200237
724.779518	2558.307439
725.111574	2557.964641
725.443582	2559.797100
725.775542	2556.560679
726.107453	2559.718962
726.439315	2560.139898
726.771129	2563.976217
727.102895	2559.721483
727.434612	2560.540670
727.766281	2562.529405
728.097901	2557.883982
728.429473	2557.856256
728.760996	2560.402038
729.092471	2557.281564
729.423897	2557.231153
729.755276	2559.471946
730.086606	2560.591082
730.417887	2558.617470
730.749120	2560.147460
731.080305	2561.480845
731.411442	2565.216340
731.742530	2560.951524
732.073570	2563.189797
732.404562	2564.175342
732.735506	2564.366906
733.066401	2561.942111
733.397249	2564.198027
733.728048	2561.773232
734.058798	2559.988664
734.389501	2559.129147
734.720156	2560.490259
735.050762	2557.543704
735.381320	2556.497665
735.711831	2556.074208
736.042293	2555.260062
736.372707	2554.536656
736.703073	2555.940617
737.033391	2556.452294
737.363661	2556.679146
737.693883	2557.115206
738.024056	2561.349775
738.354182	2556.255689
738.684260	2557.720145
739.014290	2556.532953
739.344272	2559.247614
739.674207	2560.853222
740.004093	2560.570917
740.333931	2558.897254
740.663722	2559.355999
740.993464	2558.110834
741.323159	2560.833057
741.652806	2556.301060
741.982405	2559.144271
742.311956	2556.853066
742.641460	2559.408931
742.970915	2560.316339
743.300323	2554.534135
743.629683	2559.731565
743.958996	2554.032541
744.288260	2555.020607
744.617477	2556.187634
744.946647	2553.319217
745.275768	2553.225956
745.604842	2552.573127
745.933869	2551.282591
746.262847	2549.782848
746.591778	2555.393652
746.920662	2555.328117
747.249498	2556.041440
747.578286	2555.252500
747.907027	2555.744012
748.235720	2554.640000
748.564365	2554.554300
748.892963	2553.450287
749.221514	2552.810061
749.550017	2554.950031
749.878473	2555.181924
750.206881	2551.597663
750.535242	2553.314176
750.863555	2554.498847
751.191821	2557.374826
751.520039	2554.980277
751.848210	2551.902653
752.176334	2553.810730
752.504411	2552.058929
752.832440	2553.939279
753.160421	2555.502037
753.488356	2549.296377
753.816243	2551.587581
754.144082	2553.573796
754.471875	2553.125133
754.799620	2550.929710
755.127318	2553.014227
755.454969	2551.695966
755.782572	2551.269988
756.110129	2552.542880
756.437638	2551.146480
756.765100	2549.782848
757.092515	2551.688404
757.419882	2553.488096
757.747203	2552.323589
758.074477	2553.669577
758.401703	2554.256872
758.728882	2553.735113
759.056014	2553.263765
759.383099	2552.336192
759.710138	2553.846018
760.037129	2553.737633
760.364073	2555.933056
760.690970	2552.759649
761.017820	2557.389949
761.344623	2553.074721
761.671379	2556.371636
761.998088	2552.560524
762.324751	2554.755946
762.651366	2560.888510
762.977935	2570.567525
763.304456	2572.069789
763.630931	2579.810481
763.957359	2576.140521
764.283740	2571.086764
764.610074	2567.502504
764.936362	2561.052347
765.262602	2560.316339
765.588796	2555.343241
765.914943	2554.287119
766.241044	2554.239228
766.567097	2555.023127
766.893104	2549.669422
767.219064	2552.628579
767.544978	2551.466593
767.870845	2549.021634
768.196665	2549.172868
768.522438	2550.123126
768.848165	2549.964329
769.173846	2550.672612
769.499479	2551.794268
769.825066	2549.235883
770.150607	2546.513660
770.476101	2545.371838
770.801548	2551.063301
771.126949	2546.743032
771.452303	2547.859648
771.777611	2546.879143
772.102872	2546.916952
772.428087	2547.484082
772.753256	2548.605738
773.078378	2546.296890
773.403453	2547.312683
773.728482	2547.947868
774.053465	2547.194215
774.378401	2546.748073
774.703291	2546.248999
775.028135	2547.584905
775.352932	2543.158772
775.677683	2546.949719
776.002388	2545.223124
776.327046	2545.442414
776.651658	2547.287477
776.976224	2545.578526
777.300743	2547.093392
777.625216	2545.323947
777.949643	2545.860830
778.274024	2545.507949
778.598359	2542.553833
778.922647	2541.311189
779.246889	2541.187681
779.571086	2539.801363
779.895236	2542.528627
780.219339	2543.635161
780.543397	2545.777651
780.867409	2543.783875
781.191374	2543.574667
781.515294	2543.902342
781.839167	2543.947712
782.162995	2544.363607
782.486776	2543.156251
782.810511	2543.408309
783.134201	2545.291180
783.457844	2542.294214
783.781441	2543.816642
784.104993	2546.364946
784.428498	2545.457538
784.751958	2542.231199
785.075372	2542.964687
785.398739	2543.078113
785.722061	2543.007537
786.045337	2546.420398
786.368568	2545.858310
786.691752	2543.746066
787.014891	2544.827394
787.337983	2544.252702
787.661030	2547.161448
787.984031	2548.444422
788.306987	2549.256047
788.629897	2547.799154
788.952760	2549.555996
789.275579	2548.305790
789.598351	2547.390820
789.921078	2546.952240
790.243759	2543.695655
790.566395	2544.250182
790.888984	2544.819832
791.211529	2542.556354
791.534027	2545.850748
791.856480	2541.243133
792.178888	2544.056097
792.501249	2544.058618
792.823566	2545.288659
793.145836	2543.073072
793.468062	2543.289842
793.790241	2540.507125
794.112375	2545.752445
794.434464	2542.019471
794.756507	2544.232538
795.078505	2543.935109
795.400457	2542.100129
795.722364	2542.599204
796.044226	2542.211035
796.366042	2541.908566
796.687812	2543.579708
797.009538	2544.852599
797.331218	2547.156407
797.652852	2545.429812
797.974442	2543.972918
798.295986	2544.905532
798.617484	2545.724719
798.938938	2544.771941
799.260346	2544.923176
799.581709	2542.765562
799.903026	2541.681714
800.224299	2544.925696
800.545526	2542.881508
800.866708	2543.466282
801.187845	2541.359080
801.508936	2541.391847
801.829983	2544.235058
802.150984	2539.937474
802.471940	2541.648946
802.792851	2541.880839
803.113717	2542.510983
803.434538	2541.275901
803.755314	2542.422763
804.076045	2541.810263
804.396731	2543.216745
804.717372	2543.211704
805.037967	2543.022661
805.358518	2540.512166
805.679024	2542.281611
805.999485	2542.518545
806.319901	2542.866385
806.640272	2543.211704
806.960598	2543.801519
807.280879	2542.760521
807.601115	2543.539379
807.921306	2540.892773
808.241453	2544.040974
808.561554	2540.986034
808.881611	2540.073586
809.201623	2542.389996
809.521590	2541.588452
809.841513	2540.862526
810.161390	2542.205994
810.481223	2543.811601
810.801011	2540.391178
811.120755	2544.199770
811.440453	2542.490819
811.760107	2537.905889
812.079716	2539.448483
812.399281	2538.001671
812.718801	2537.810108
813.038276	2536.088553
813.357707	2539.481250
813.677093	2538.536034
813.996434	2541.676672
814.315731	2539.753472
814.634983	2542.006868
814.954191	2539.929913
815.273354	2542.934440
815.592473	2541.747249
815.911547	2540.229861
816.230577	2541.626261
816.549562	2541.681714
816.868502	2544.010727
817.187399	2543.526776
817.506250	2543.529297
817.825058	2546.803526
818.143821	2543.390665
818.462539	2543.705737
818.781213	2544.325799
819.099843	2549.898794
819.418429	2548.784699
819.736970	2552.638662
820.055466	2555.328117
820.373919	2558.151163
820.692327	2560.704508
821.010691	2568.495611
821.329011	2584.029927
821.647286	2618.403034
821.965517	2658.066832
822.283704	2680.628517
822.601847	2687.250072
822.919945	2670.649552
823.237999	2650.414361
823.556010	2629.082718
823.873976	2609.492795
824.191897	2596.784046
824.509775	2584.929772
824.827609	2581.005234
825.145398	2573.665314
825.463144	2573.635067
825.780845	2572.412587
826.098502	2575.676735
826.416116	2588.589650
826.733685	2598.124993
827.051210	2600.670775
827.368692	2598.119952
827.686129	2587.069742
828.003522	2576.962229
828.320872	2563.898079
828.638177	2559.527398
828.955439	2550.476007
829.272656	2548.711603
829.589830	2543.494008
829.906960	2545.540717
830.224046	2546.682538
830.541088	2547.494164
830.858086	2545.492826
831.175041	2548.159596
831.491952	2545.008875
831.808819	2547.416026
832.125642	2546.271684
832.442421	2547.574823
832.759157	2552.600853
833.075849	2560.815413
833.392497	2569.226578
833.709101	2573.940057
834.025662	2572.546178
834.342179	2568.777916
834.658653	2559.958417
834.975083	2559.570248
835.291469	2559.335834
835.607811	2551.900132
835.924110	2547.421067
836.240366	2547.842004
836.556578	2546.314534
836.872746	2543.307486
837.188871	2545.160110
837.504952	2541.933771
837.820990	2539.251878
838.136984	2541.492670
838.452935	2541.175078
838.768842	2540.391178
839.084706	2540.527289
839.400526	2544.466951
839.716303	2549.208156
840.032037	2552.618497
840.347727	2552.482386
840.663373	2551.912735
840.978977	2546.649771
841.294537	2543.856972
841.610054	2542.730274
841.925527	2540.086188
842.240957	2538.024357
842.556344	2537.850437
842.871687	2537.248019
843.186987	2538.417567
843.502244	2539.793802
843.817458	2539.249357
844.132629	2537.474871
844.447756	2533.961187
844.762840	2533.015970
845.077881	2531.493542
845.392879	2533.656197
845.707833	2532.494211
846.022745	2531.377595
846.337613	2535.332380
846.652438	2536.859850
846.967221	2536.151568
847.281960	2536.809438
847.596656	2537.996630
847.911309	2537.197607
848.225919	2533.578059
848.540485	2535.455889
848.855009	2534.939170
849.169490	2534.525796
849.483928	2536.093595
849.798323	2534.530837
850.112675	2537.797505
850.426984	2534.351876
850.741251	2535.876825
851.055474	2535.327339
851.369654	2534.702236
851.683792	2537.200128
851.997887	2534.377082
852.311938	2536.267514
852.625947	2536.741383
852.939914	2535.448327
853.253837	2537.406815
853.567718	2536.340611
853.881555	2536.194418
854.195350	2538.079809
854.509103	2533.510003
854.822812	2539.146013
855.136479	2536.340611
855.450103	2538.523431
855.763685	2533.512524
856.077224	2534.359438
856.390720	2533.736855
856.704173	2537.590817
857.017584	2534.898841
857.330953	2533.046217
857.644278	2534.954294
857.957561	2537.298430
858.270802	2538.248688
858.584000	2534.377082
858.897155	2534.740045
859.210268	2535.244160
859.523339	2534.072092
859.836367	2533.762061
860.149352	2536.607792
860.462295	2535.450848
860.775195	2531.899355
861.088054	2529.865249
861.400869	2534.200641
861.713642	2530.182842
862.026373	2534.188038
862.339062	2534.145189
862.651708	2532.784077
862.964312	2533.472195
863.276873	2537.038811
863.589392	2537.011085
863.901869	2533.694005
864.214303	2535.604603
864.526696	2537.716846
864.839045	2537.616023
865.151353	2537.646270
865.463619	2539.826569
865.775842	2536.761547
866.088023	2532.665610
866.400162	2536.464119
866.712258	2536.244829
867.024313	2539.080478
867.336325	2536.060827
867.648296	2537.447144
867.960224	2535.833975
868.272110	2538.699871
868.583954	2536.378420
868.895755	2538.147865
869.207515	2534.424973
869.519233	2538.926723
869.830909	2534.021680
870.142542	2540.010571
870.454134	2537.129552
870.765684	2538.281455
871.077191	2537.961342
871.388657	2539.234233
871.700081	2535.619726
872.011463	2537.298430
872.322803	2538.399922
872.634101	2534.775333
872.945357	2538.311702
873.256571	2535.599562
873.567744	2540.542413
873.878874	2535.939839
874.189963	2539.995448
874.501010	2539.216589
874.812015	2540.025695
875.122979	2541.066693
875.433900	2540.444110
875.744780	2540.161806
876.055618	2537.641229
876.366415	2540.098791
876.677169	2541.580891
876.987882	2540.030736
877.298554	2533.010929
877.609183	2540.141641
877.919771	2535.052596
878.230317	2538.399922
878.540822	2543.670449
878.851285	2541.943854
879.161707	2545.230686
879.472087	2550.065152
879.782425	2550.622200
880.092722	2558.423386
880.402977	2568.598955
880.713191	2587.752819
881.023363	2607.945160
881.333494	2624.691873
881.643583	2625.284209
881.953631	2625.001904
882.263637	2617.722478
882.573602	2608.802157
882.883526	2602.296547
883.193408	2589.809609
883.503248	2582.121850
883.813048	2575.097002
884.122806	2571.447207
884.432522	2565.692729
884.742197	2561.564024
885.051831	2556.888354
885.361424	2551.413661
885.670975	2549.140101
885.980485	2550.975081
886.289954	2547.584905
886.599382	2545.094575
886.908768	2546.009544
887.218113	2542.498381
887.527417	2542.044677
887.836680	2540.900335
888.145901	2542.092568
888.455082	2538.704912
888.764221	2541.333874
889.073319	2538.228523
889.382376	2540.537372
889.691392	2542.490819
890.000366	2537.903369
890.309300	2540.824718
890.618193	2541.192722
890.927044	2541.454862
891.235855	2540.071065
891.544625	2537.265663
891.853353	2539.607279
892.162041	2540.537372
892.470687	2543.330171
892.779293	2541.306148
893.087858	2542.357228
893.396381	2539.488812
893.704864	2547.632796
894.013306	2548.701520
894.321707	2560.003787
894.630068	2569.271949
894.938387	2567.648697
895.246665	2568.026784
895.554903	2565.700291
895.863100	2559.754250
896.171256	2557.147974
896.479371	2550.438198
896.787446	2551.320400
897.095480	2549.472817
897.403473	2544.625748
897.711425	2545.760007
898.019336	2545.281097
898.327207	2544.184647
898.635038	2542.024512
898.942827	2544.862682
899.250576	2542.480737
899.558284	2539.587114
899.865952	2542.949564
900.173579	2541.653987
900.481165	2540.499563
900.788711	2539.821528
901.096216	2539.201466
901.403681	2539.645088
901.711105	2538.949408
902.018489	2539.030067
902.325832	2542.074924
902.633135	2538.004192
902.940397	2540.307999
903.247619	2544.776982
903.554800	2551.574978
903.861941	2560.147460
904.169041	2573.761096
904.476101	2579.835687
904.783121	2577.922569
905.090100	2574.524831
905.397039	2566.476629
905.703938	2556.046482
906.010796	2556.333827
906.317614	2549.500543
906.624391	2547.645399
906.931129	2546.629606
907.237826	2540.020653
907.544483	2541.601055
907.851099	2536.645601
908.157675	2537.860519
908.464211	2538.634336
908.770707	2532.549663
909.077163	2533.638553
909.383578	2533.535209
909.689954	2535.738193
909.996289	2531.087729
910.302584	2534.445137
910.608839	2535.072761
910.915054	2534.982020
911.221229	2534.631660
911.527363	2536.869932
911.833458	2535.339942
912.139513	2534.712318
912.445527	2534.765251
912.751502	2537.810107
913.057436	2537.482433
913.363331	2537.442103
913.669186	2537.973945
913.975000	2537.053934
914.280775	2543.589790
914.586510	2544.005686
914.892205	2547.715975
915.197859	2554.556821
915.503475	2559.330793
915.809050	2568.893862
916.114585	2574.378637
916.420081	2576.264029
916.725536	2577.526838
917.030952	2571.147258
917.336328	2564.601320
917.641665	2563.782132
917.946961	2556.263251
918.252218	2551.012889
918.557435	2551.615307
918.862612	2548.439380
919.167750	2545.780172
919.472848	2543.231868
919.777906	2543.541899
920.082925	2541.573329
920.387904	2540.295396
920.692843	2541.149872
920.997743	2540.174409
921.302603	2538.157947
921.607423	2537.152237
921.912204	2538.823379
922.216946	2538.992258
922.521647	2537.968904
922.826310	2536.391023
923.130932	2536.522093
923.435516	2533.862884
923.740059	2535.443286
924.044564	2536.575025
924.349028	2535.808769
924.653454	2530.928932
924.957840	2531.367513
925.262186	2530.409694
925.566493	2532.267359
925.870761	2529.837523
926.174989	2532.388347
926.479178	2529.406504
926.783328	2534.795498
927.087438	2533.091588
927.391509	2533.273069
927.695541	2532.673172
927.999533	2534.949253
928.303486	2530.850795
928.607400	2533.149561
928.911275	2529.814837
929.215110	2534.293903
929.518906	2529.532533
929.822663	2530.528161
930.126381	2531.806093
930.430060	2532.756351
930.733699	2531.987575
931.037299	2532.388347
931.340861	2532.285003
931.644383	2531.501103
931.947866	2530.820548
932.251309	2532.169056
932.554714	2531.644776
932.858080	2531.483459
933.161407	2530.177801
933.464694	2529.290557
933.767943	2529.144364
934.071153	2530.326515
934.374323	2530.311391
934.677455	2528.771319
934.980548	2529.502286
935.283602	2533.015970
935.586617	2530.833151
935.889593	2531.773326
936.192530	2530.818027
936.495428	2533.283151
936.798287	2532.965559
937.101108	2532.637884
937.403890	2530.928933
937.706632	2534.639222
938.009336	2530.923891
938.312002	2535.803728
938.614628	2529.751823
938.917216	2534.717360
939.219765	2533.338604
939.522275	2536.640560
939.824747	2538.624254
940.127179	2529.303160
940.429573	2530.855836
940.731929	2531.115455
941.034246	2527.682429
941.336524	2534.072092
941.638763	2530.092101
941.940964	2532.164015
942.243126	2531.274252
942.545250	2533.147040
942.847335	2531.677544
943.149381	2531.289375
943.451389	2532.249715
943.753359	2531.642256
944.055290	2529.484642
944.357182	2532.660569
944.659036	2532.267359
944.960851	2533.043697
945.262628	2532.290044
945.564367	2531.982534
945.866067	2527.619415
946.167729	2531.528830
946.469352	2531.556556
946.770937	2530.838192
947.072484	2532.592513
947.373992	2533.515044
947.675462	2526.865762
947.976893	2533.628470
948.278286	2531.919519
948.579641	2530.966741
948.880958	2531.511186
949.182236	2532.227030
949.483476	2528.710825
949.784678	2531.848943
950.085841	2534.132586
950.386967	2533.754499
950.688054	2531.682585
950.989103	2532.058151
951.290114	2532.388347
951.591087	2531.546474
951.892021	2530.424817
952.192917	2533.565456
952.493776	2532.353058
952.794596	2532.842050
953.095378	2531.417924
953.396122	2531.957328
953.696828	2530.623943
953.997496	2530.918850
954.298126	2530.276103
954.598718	2530.772657
954.899272	2529.466998
955.199788	2532.894983
955.500266	2534.666948
955.800706	2527.095135
956.101108	2527.309384
956.401472	2529.348531
956.701798	2527.311905
957.002087	2526.104548
957.302337	2530.533202
957.602550	2530.444982
957.902724	2528.189065
958.202861	2530.286185
958.502960	2527.619415
958.803022	2528.640249
959.103045	2529.116638
959.403031	2530.515558
959.702979	2528.491535
960.002889	2530.656710
960.302762	2528.980527
960.602596	2528.829292
960.902393	2530.137471
961.202153	2527.717717
961.501875	2526.827954
961.801559	2530.026566
962.101205	2528.836854
962.400814	2527.137985
962.700385	2528.138654
962.999918	2527.599250
963.299414	2529.550177
963.598873	2527.926925
963.898293	2529.575383
964.197677	2531.100332
964.497022	2529.794673
964.796331	2524.609846
965.095601	2527.258972
965.394835	2530.782739
965.694030	2529.005732
965.993189	2527.642100
966.292309	2529.340969
966.591393	2528.892306
966.890439	2525.257634
967.189447	2528.400794
967.488419	2523.485669
967.787353	2529.003212
968.086249	2527.513551
968.385108	2528.178983
968.683930	2527.347193
968.982714	2529.063706
969.281462	2527.137985
969.580172	2529.285516
969.878844	2529.623274
970.177480	2527.992460
970.476078	2528.899868
970.774639	2530.203006
971.073162	2529.376257
971.371649	2526.792666
971.670098	2523.601615
971.968510	2526.520443
972.266885	2525.073632
972.565223	2530.830630
972.863524	2527.750485
973.161788	2528.569673
973.460014	2527.432892
973.758204	2529.653521
974.056356	2526.618746
974.354471	2526.772501
974.652550	2525.209743
974.950591	2527.523633
975.248595	2527.455577
975.546563	2526.790145
975.844493	2527.848788
976.142386	2528.635208
976.440243	2528.899868
976.738062	2528.610002
977.035845	2527.198479
977.333590	2529.101514
977.631299	2527.652183
977.928971	2529.524971
978.226606	2526.023890
978.524204	2526.396935
978.821765	2528.410876
979.119290	2527.689991
979.416777	2525.260155
979.714228	2529.885414
980.011642	2528.521782
980.309020	2528.176463
980.606360	2528.032790
980.903664	2527.584127
981.200931	2526.154960
981.498162	2525.610515
981.795356	2528.196627
982.092513	2530.142513
982.389633	2528.025228
982.686717	2529.892975
982.983764	2527.707635
983.280775	2529.126720
983.577749	2533.658717
983.874686	2529.242667
984.171587	2529.535053
984.468451	2528.796524
984.765279	2530.218130
985.062070	2529.585465
985.358824	2525.219826
985.655543	2529.139323
985.952224	2527.657224
986.248869	2527.082532
986.545478	2521.065915
986.842050	2525.812161
987.138586	2520.856707
987.435086	2523.793179
987.731549	2523.304187
988.027975	2526.482635
988.324366	2525.171935
988.620719	2528.415917
988.917037	2528.395753
989.213318	2528.226874
989.509563	2527.286699
989.805772	2526.538088
990.101944	2527.962213
990.398080	2528.811648
990.694180	2525.275278
990.990244	2528.478932
991.286271	2525.983561
991.582262	2528.506658
991.878217	2527.626977
992.174136	2528.688140
992.470019	2526.986750
992.765865	2528.126051
993.061676	2527.737882
993.357450	2527.614374
993.653188	2528.884745
993.948890	2525.058509
994.244556	2525.091276
994.540186	2528.224353
994.835780	2525.529857
995.131337	2527.679909
995.426859	2529.104035
995.722345	2526.641431
996.017795	2528.410876
996.313208	2526.961544
996.608586	2526.855680
996.903928	2528.156298
997.199234	2527.763088
997.494504	2527.122861
997.789738	2523.520957
998.084936	2527.261493
998.380099	2526.263345
998.675225	2524.708149
998.970316	2525.489527
999.265371	2526.863242
999.560390	2527.551359
999.855373	2527.591689
1000.150320	2527.092614
1000.445232	2527.339631
1000.740108	2528.821730
1001.034948	2527.644621
1001.329752	2526.311236
1001.624521	2528.413397
1001.919254	2524.965248
1002.213951	2523.901564
1002.508613	2523.793179
1002.803239	2524.246883
1003.097829	2521.290246
1003.392384	2526.810310
1003.686903	2526.434744
1003.981386	2528.562111
1004.275834	2526.286030
1004.570246	2527.521113
1004.864623	2525.933149
1005.158964	2527.722759
1005.453270	2525.978519
1005.747540	2525.411390
1006.041775	2526.041534
1006.335974	2523.994825
1006.630138	2524.713190
1006.924266	2526.903571
1007.218359	2524.766122
1007.512416	2526.714528
1007.806438	2526.041534
1008.100425	2528.799045
1008.394376	2525.555062
1008.688292	2525.920546
1008.982172	2527.374919
1009.276017	2525.771832
1009.569827	2526.787625
1009.863602	2527.773170
1010.157341	2525.819723
1010.451045	2525.187058
1010.744714	2524.640093
1011.038347	2525.091276
1011.331945	2525.852491
1011.625508	2528.577234
1011.919036	2524.695546
1012.212528	2526.936339
1012.505986	2524.597243
1012.799408	2526.245701
1013.092795	2526.215454
1013.386147	2525.255114
1013.679464	2524.887110
1013.972745	2525.421472
1014.265992	2524.640093
1014.559204	2528.088242
1014.852380	2527.226205
1015.145521	2528.657893
1015.438628	2525.539939
1015.731699	2524.861904
1016.024736	2523.031965
1016.317737	2527.916843
1016.610703	2525.086235
1016.903635	2523.538601
1017.196531	2521.839732
1017.489393	2524.007428
1017.782219	2520.118178
1018.075011	2524.998015
1018.367768	2524.224198
1018.660490	2525.688653
1018.953177	2525.688653
1019.245829	2525.688653
