Dividing Wavelength (nm)	Counts (n)	Blue Motor Position (mm): 0.000000	Red Motor Position (mm): 35.700000	
326.493990	2127.810545
326.888308	2127.810545
327.282561	2127.810545
327.676750	2098.007243
328.070874	2095.796697
328.464933	2096.699064
328.858929	2105.805908
329.252859	2114.627927
329.646726	2124.911881
330.040528	2139.634571
330.434265	2154.321973
330.827938	2172.908707
331.221547	2190.603157
331.615091	2208.020343
332.008571	2228.192521
332.401986	2246.960736
332.795338	2266.346493
333.188625	2287.105965
333.581847	2305.523821
333.975006	2326.346307
334.368100	2339.843996
334.761129	2360.434589
335.154095	2378.867568
335.546996	2394.167470
335.939833	2416.449370
336.332606	2428.797676
336.725315	2442.938113
337.117960	2452.450770
337.510540	2462.386884
337.903056	2470.314099
338.295508	2477.170068
338.687896	2487.605256
339.080220	2496.303767
339.472480	2503.920951
339.864676	2508.097547
340.256807	2510.978566
340.648875	2514.116684
341.040879	2517.544669
341.432818	2517.290091
341.824694	2519.324196
342.216506	2519.407375
342.608253	2521.323014
342.999937	2519.314114
343.391557	2519.198167
343.783113	2517.559793
344.174605	2516.367560
344.566033	2517.821933
344.957397	2515.886129
345.348697	2516.480986
345.739934	2511.893536
346.131106	2511.981756
346.522215	2509.362876
346.913260	2504.498163
347.304241	2505.294665
347.695159	2503.676455
348.086012	2502.012874
348.476802	2502.479181
348.867528	2499.625888
349.258191	2497.627070
349.648789	2495.850063
350.039324	2495.744199
350.429796	2495.471977
350.820203	2492.636328
351.210548	2491.917963
351.600828	2490.309835
351.991045	2489.505771
352.381198	2490.307315
352.771288	2490.655154
353.161314	2488.182468
353.551276	2489.044506
353.941175	2487.822026
354.331010	2488.540390
354.720782	2489.173055
355.110490	2488.333703
355.500135	2490.153560
355.889717	2489.440236
356.279235	2490.561893
356.668689	2491.005515
357.058080	2490.357726
357.447408	2490.292191
357.836672	2488.192551
358.225873	2490.279588
358.615010	2487.189361
359.004084	2491.033241
359.393095	2492.938797
359.782043	2492.386791
360.170927	2494.015083
360.559748	2493.586585
360.948505	2494.935094
361.337199	2496.911226
361.725830	2497.163284
362.114398	2496.896103
362.502903	2496.449961
362.891344	2500.709736
363.279722	2500.445075
363.668037	2498.352996
364.056289	2499.666217
364.444478	2501.692761
364.832603	2501.188645
365.220665	2503.931033
365.608665	2505.418173
365.996601	2504.145282
366.384474	2506.214676
366.772284	2507.149810
367.160031	2507.643843
367.547715	2510.774399
367.935336	2511.596108
368.322893	2516.785975
368.710388	2519.838394
369.097820	2526.719569
369.485189	2527.470701
369.872495	2533.928419
370.259738	2541.767413
370.646918	2549.220759
371.034035	2552.560524
371.421090	2566.574931
371.808081	2575.933833
372.195010	2586.240472
372.581875	2597.550301
372.968678	2612.993876
373.355418	2622.788838
373.742096	2642.013278
374.128710	2655.266472
374.515262	2667.307267
374.901751	2683.990966
375.288177	2698.431351
375.674540	2719.742829
376.060841	2737.646487
376.447079	2757.077615
376.833254	2781.252468
377.219367	2788.962913
377.605417	2828.878769
377.991404	2837.642815
378.377329	2856.136288
378.763191	2877.052035
379.148991	2914.606111
379.534727	2940.268104
379.920402	2971.745069
380.306013	2982.376862
380.691563	3030.303112
381.077049	3052.708520
381.462474	3070.160995
381.847835	3106.232971
382.233134	3130.909419
382.618371	3132.020994
383.003545	3199.045655
383.388657	3208.512942
383.773706	3238.197776
384.158693	3255.393152
384.543618	3281.032460
384.928480	3318.639468
385.313280	3366.011191
385.698017	3364.987836
386.082692	3415.648912
386.467305	3420.180909
386.851856	3452.872792
387.236344	3475.890700
387.620770	3508.345649
388.005133	3537.160884
388.389435	3562.180131
388.773674	3571.997778
389.157851	3616.054942
389.541965	3629.940800
389.926018	3594.173814
390.310008	3664.228208
390.693936	3680.811084
391.077802	3723.381107
391.461606	3713.833162
391.845348	3777.790281
392.229027	3779.136269
392.612645	3790.073052
392.996200	3870.131616
393.379694	3904.242584
393.763125	3971.859580
394.146494	3937.680557
394.529801	4002.482069
394.913047	4052.888567
395.296230	4018.598638
395.679351	4072.591917
396.062410	4094.057150
396.445408	4076.453440
396.828343	4106.977627
397.211217	4131.384373
397.594028	4048.641395
397.976778	4118.403402
398.359466	4143.646980
398.742092	4173.626722
399.124656	4098.130402
399.507158	4179.008154
399.889598	4203.707287
400.271977	4264.415382
400.654294	4232.406576
401.036549	4244.467536
401.418742	4211.579049
401.800874	4316.039318
402.182944	4337.910364
402.564952	4401.126433
402.946898	4387.742170
403.328783	4382.801839
403.710606	4297.162718
404.092367	4492.109178
404.474067	4457.022747
404.855705	4462.971309
405.237282	4391.409609
405.618797	4500.134695
406.000250	4533.423954
406.381642	4616.489567
406.762972	4577.440789
407.144240	4588.594342
407.525447	4593.138942
407.906593	4647.265811
408.287677	4689.881205
408.668700	4619.373107
409.049661	4669.673740
409.430560	4710.834761
409.811399	4639.630983
410.192176	4798.558400
410.572891	4737.898195
410.953545	4841.438454
411.334138	4722.807501
411.714669	4789.333088
412.095139	4683.398281
412.475547	4826.693079
412.855894	4807.148526
413.236180	4815.340401
413.616405	4768.233339
413.996568	4857.691134
414.376670	4799.019665
414.756711	4753.135083
415.136691	4785.884939
415.516609	4863.579202
415.896466	4901.433226
416.276262	4936.912867
416.655997	4916.178601
417.035670	5098.875058
417.415283	5189.943502
417.794834	5136.131705
418.174324	5087.514818
418.553753	4991.889170
418.933121	5179.193241
419.312428	5244.231688
419.691674	5184.819169
420.070859	5315.478315
420.449983	5223.648657
420.829045	5340.162325
421.208047	5249.287965
421.586988	5313.587882
421.965867	5327.831663
422.344686	5461.006344
422.723444	5316.836906
423.102141	5134.364781
423.480777	5434.545328
423.859352	5204.106624
424.237866	5462.410306
424.616319	5452.340601
424.994712	5563.659360
425.373044	5439.818375
425.751314	5586.137865
426.129524	5388.537237
426.507673	5577.192337
426.885762	5666.007386
427.263789	5592.787147
427.641756	5474.045289
428.019662	5596.885605
428.397508	5607.030927
428.775292	5557.594852
429.153016	5652.484491
429.530679	5578.258542
429.908282	5660.963712
430.285824	5533.901429
430.663305	5809.203882
431.040726	5538.546852
431.418086	5537.679774
431.795385	5650.331918
432.172624	5661.145193
432.549802	5652.265201
432.926920	5670.935114
433.303977	5678.685888
433.680974	5712.759047
434.057910	5734.796451
434.434786	5737.838787
434.811601	5708.867276
435.188355	5942.993584
435.565050	5815.265869
435.941683	5793.994720
436.318257	6010.358523
436.694770	5994.015102
437.071222	6027.437952
437.447614	5960.211645
437.823946	5871.641093
438.200218	6025.867633
438.576429	5895.720164
438.952580	5994.456203
439.328670	6035.307193
439.704700	5940.231032
440.080670	5929.707623
440.456580	6204.241300
440.832429	6085.645635
441.208218	5932.303817
441.583947	6086.999185
441.959616	6090.762406
442.335224	6016.722980
442.710773	6154.744731
443.086261	6181.326735
443.461689	5975.282174
443.837057	6126.690710
444.212365	6279.873731
444.587612	6173.260889
444.962800	6327.021122
445.337927	6309.903884
445.712995	5917.495428
446.088002	6498.758110
446.462949	6323.782181
446.837837	6249.049596
447.212664	6428.194559
447.587431	6572.285860
447.962139	7114.265351
448.336786	8044.748925
448.711374	7781.746888
449.085901	6852.952100
449.460369	6774.000069
449.834776	6709.780810
450.209124	7100.268587
450.583412	7247.666885
450.957640	7399.856799
451.331808	7163.298134
451.705917	6717.506379
452.079965	6641.180789
452.453954	6851.848087
452.827883	6727.790333
453.201752	6821.628891
453.575562	6615.329752
453.949311	6819.660320
454.323001	6713.541511
454.696632	6791.654190
455.070202	6925.872391
455.443713	7079.809064
455.817164	7178.340937
456.190556	7260.725994
456.563888	7337.487643
456.937160	7381.113789
457.310373	7039.094185
457.683526	7060.221661
458.056619	6952.986237
458.429653	6942.246058
458.802628	6876.930348
459.175542	6987.046792
459.548398	7337.222983
459.921194	7504.959815
460.293930	7502.308168
460.666607	8031.276441
461.039224	8342.373607
461.411782	8467.948749
461.784280	8488.060433
462.156719	8378.478351
462.529099	8254.279443
462.901419	7844.423553
463.273680	7740.585867
463.645882	7750.262361
464.018024	7622.179245
464.390106	7787.342568
464.762130	8175.471085
465.134094	8645.157910
465.505999	9660.400924
465.877845	10880.970134
466.249631	11536.748633
466.621358	11152.481639
466.993026	10524.099292
467.364634	10270.738461
467.736184	9906.792359
468.107674	9577.947812
468.479105	9604.209703
468.850477	9370.952994
469.221790	9142.084609
469.593043	8810.885842
469.964238	8675.558588
470.335373	8683.160648
470.706449	8737.852126
471.077467	8727.505158
471.448425	10031.553355
471.819324	11106.728127
472.190164	11133.776438
472.560945	9888.213187
472.931667	9100.691695
473.302330	8959.751116
473.672934	8606.668700
474.043479	8960.819840
474.413965	8902.728104
474.784393	8784.029095
475.154761	8937.953166
475.525070	9031.484214
475.895321	8853.163479
476.265513	9028.744347
476.635645	9197.552425
477.005719	9197.857415
477.375734	9319.349222
477.745691	9551.532166
478.115588	9682.652577
478.485427	9929.553169
478.855207	10462.443460
479.224928	11284.050714
479.594591	11910.935838
479.964194	11720.735624
480.333739	11667.037254
480.703226	11578.552401
481.072653	11668.436174
481.442022	11904.384859
481.811333	12095.595824
482.180584	11901.826473
482.549777	11611.519026
482.918912	11436.152408
483.287988	11458.572939
483.657005	11469.073663
484.025964	11155.251753
484.394864	11281.532657
484.763706	11255.946281
485.132489	11009.446461
485.501213	10972.608229
485.869879	11052.850795
486.238487	10887.150589
486.607036	10998.207208
486.975527	10783.406163
487.343959	10966.742847
487.712333	11015.216061
488.080648	10945.862387
488.448905	10989.901907
488.817104	10928.752711
489.185244	11188.898935
489.553326	11338.457367
489.921350	11882.395346
490.289315	12950.572996
490.657222	13290.417342
491.025070	13205.362994
491.392861	13076.309455
491.760593	12693.794263
492.128267	12349.135616
492.495883	12010.075170
492.863440	11680.935715
493.230939	11344.093377
493.598380	11279.039807
493.965763	11146.593572
494.333088	11046.834178
494.700354	10966.102620
495.067563	11019.564057
495.434713	10859.893070
495.801805	10979.139044
496.168839	10904.298074
496.535815	10843.708446
496.902733	10839.945224
497.269593	10776.290575
497.636395	10873.909998
498.003139	10863.290808
498.369825	10727.451876
498.736453	10885.106401
499.103023	10806.532457
499.469535	10834.997332
499.835989	10832.736374
500.202385	10791.590477
500.568723	10636.204471
500.935003	10862.637978
501.301226	10672.094966
501.667390	10920.583521
502.033497	11023.385251
502.399546	10886.611186
502.765537	10784.205186
503.131470	10867.026303
503.497345	11039.476614
503.863163	10650.506225
504.228923	10954.976793
504.594625	11022.641681
504.960269	10770.447877
505.325856	10985.014509
505.691385	10781.001533
506.056856	10939.707138
506.422270	10957.250354
506.787625	10847.912768
507.152924	10965.215377
507.518164	10940.117993
507.883347	10860.739984
508.248472	10787.418922
508.613540	11008.851605
508.978550	10889.706454
509.343503	10868.193330
509.708398	10979.927984
510.073236	11098.160686
510.438016	11099.012641
510.802738	11044.427027
511.167403	11089.552916
511.532010	10991.971301
511.896561	11216.494211
512.261053	11284.625405
512.625488	11151.281845
512.989866	11136.113013
513.354186	11112.923705
513.718449	11013.870073
514.082655	11199.092148
514.446803	11095.763617
514.810894	11211.435413
515.174927	11075.288971
515.538904	11096.691190
515.902822	11242.728376
516.266684	11118.496701
516.630488	11059.048894
516.994235	11111.101328
517.357925	11166.801037
517.721558	11250.527041
518.085133	11257.362845
518.448651	11255.898390
518.812112	11135.603856
519.175516	11149.154478
519.538863	11255.779923
519.902152	11166.561582
520.265385	11321.362814
520.628560	11217.565456
520.991678	11189.309789
521.354739	11242.146122
521.717743	11165.470172
522.080690	11134.920780
522.443580	11255.757238
522.806413	11195.437311
523.169189	11222.215921
523.531908	11259.049111
523.894569	11074.313508
524.257174	11066.043495
524.619722	11167.290029
524.982213	11097.643968
525.344647	11136.110492
525.707025	11074.835267
526.069345	11158.077320
526.431608	11058.592670
526.793815	11149.862760
527.155964	10925.990159
527.518057	10960.665736
527.880093	10901.338917
528.242072	10949.066041
528.603995	10834.410037
528.965860	10748.231513
529.327669	10781.309043
529.689421	10703.498834
530.051117	10660.996866
530.412755	10735.883206
530.774337	10622.797523
531.135862	10573.333721
531.497331	10584.477192
531.858743	10412.785574
532.220098	10544.775584
532.581396	10400.858204
532.942638	10364.133398
533.303824	10313.938629
533.664953	10289.115988
534.026025	10190.082520
534.387040	10250.289021
534.747999	10227.397141
535.108902	10247.281972
535.469748	10005.805662
535.830537	10068.752030
536.191270	10020.646819
536.551947	10008.374130
536.912567	9981.013267
537.273131	9884.596159
537.633638	9833.171349
537.994089	9787.004462
538.354483	9716.839162
538.714821	9812.905910
539.075103	9785.749214
539.435328	9721.658505
539.795497	9539.483808
540.155609	9636.765474
540.515665	9678.218882
540.875665	9414.556454
541.235609	9441.322460
541.595496	9401.086491
541.955328	9485.616558
542.315102	9356.840283
542.674821	9281.752297
543.034483	9238.537006
543.394090	9206.752531
543.753640	9108.639074
544.113134	9241.947346
544.472571	9084.267616
544.831953	9157.263523
545.191278	8961.210530
545.550548	8950.399775
545.909761	9019.844190
546.268918	8942.782592
546.628019	8970.461047
546.987064	8821.379004
547.346053	8730.154284
547.704986	8745.595338
548.063863	8704.764513
548.422684	8670.220006
548.781449	8546.477323
549.140158	8583.519722
549.498811	8448.610883
549.857408	8304.106208
550.215949	8405.289728
550.574434	8266.519365
550.932864	8283.747508
551.291237	8287.341851
551.649555	8187.685801
552.007817	8165.774426
552.366022	8097.791946
552.724173	8040.784057
553.082267	7991.060637
553.440305	8014.970829
553.798288	7856.030810
554.156215	7895.674444
554.514086	7832.125659
554.871902	7697.579783
555.229661	7669.921493
555.587365	7606.687779
555.945014	7502.424115
556.302606	7511.455342
556.660143	7421.891682
557.017625	7450.089376
557.375050	7343.468972
557.732421	7380.705455
558.089735	7267.539113
558.446994	7233.677683
558.804197	7203.851696
559.161345	7156.164901
559.518437	7034.007661
559.875474	7030.115890
560.232455	6985.932697
560.589381	6924.385250
560.946251	6858.583069
561.303065	6887.395784
561.659825	6791.502955
562.016528	6710.191664
562.373177	6614.077025
562.729770	6607.387414
563.086307	6529.675507
563.442789	6526.401277
563.799216	6404.838894
564.155587	6391.464712
564.511904	6320.611295
564.868164	6274.958606
565.224370	6244.179841
565.580520	6138.703779
565.936615	6125.551409
566.292654	6001.503736
566.648638	6019.359503
567.004567	5951.011539
567.360441	5907.692904
567.716260	5819.026570
568.072023	5819.082023
568.427732	5747.603502
568.783385	5688.843813
569.138982	5654.508514
569.494525	5624.276714
569.850013	5535.872520
570.205445	5523.055386
570.560823	5454.450324
570.916145	5376.509044
571.271412	5358.928020
571.626625	5299.724709
571.981782	5253.197380
572.336884	5199.632600
572.691931	5173.242159
573.046923	5105.118527
573.401860	5057.459458
573.756743	4999.294625
574.111570	4972.200944
574.466342	4933.988998
574.821059	4905.234256
575.175722	4833.085262
575.530330	4793.842400
575.884882	4761.694962
576.239380	4700.444943
576.593823	4657.910207
576.948211	4629.326865
577.302544	4572.165222
577.656823	4529.585116
578.011047	4503.595447
578.365216	4464.284529
578.719330	4415.760903
579.073389	4376.792784
579.427394	4338.863142
579.781344	4303.154129
580.135239	4255.207715
580.489080	4234.816247
580.842866	4173.939273
581.196597	4148.690654
581.550273	4136.244046
581.903895	4094.568827
582.257463	4084.703289
582.610975	4026.114999
582.964434	4009.885004
583.317837	3966.074856
583.671186	3940.012091
584.024481	3908.877925
584.377721	3873.307543
584.730906	3840.318233
585.084037	3820.088082
585.437113	3790.254534
585.790135	3763.049947
586.143103	3726.178948
586.496016	3701.391594
586.848874	3684.339891
587.201679	3667.804907
587.554428	3618.613328
587.907124	3607.890793
588.259765	3582.896752
588.612352	3562.890933
588.964884	3530.892209
589.317362	3509.346318
589.669786	3489.453925
590.022155	3483.311279
590.374470	3460.278247
590.726731	3436.037859
591.078937	3395.706107
591.431090	3391.274933
591.783188	3360.435674
592.135232	3337.758044
592.487222	3325.397135
592.839157	3311.428097
593.191038	3289.584778
593.542866	3266.080398
593.894639	3239.190883
594.246358	3229.501786
594.598022	3214.136349
594.949633	3191.612473
595.301190	3173.444155
595.652692	3163.520643
596.004141	3155.933707
596.355535	3125.901033
596.706876	3107.357148
597.058162	3088.805702
597.409395	3082.290011
597.760573	3077.581573
598.111698	3057.608522
598.462768	3040.632436
598.813785	3031.467618
599.164748	3013.914321
599.515657	3006.876870
599.866511	2985.996411
600.217312	2990.125116
600.568060	2966.020839
600.918753	2963.588482
601.269392	2952.298818
601.619978	2937.558484
601.970510	2932.945828
602.320988	2923.440733
602.671412	2917.834970
603.021783	2906.552867
603.372100	2895.681619
603.722363	2885.317007
604.072572	2879.214690
604.422728	2869.702033
604.772830	2856.000177
605.122878	2847.435256
605.472872	2844.518949
605.822813	2830.938080
606.172701	2829.042606
606.522534	2822.826864
606.872314	2819.812254
607.222041	2816.028868
607.571714	2809.137610
607.921333	2803.577218
608.270899	2794.404838
608.620411	2797.285858
608.969870	2787.876544
609.319276	2781.920421
609.668627	2780.445883
610.017926	2777.874895
610.367171	2774.330964
610.716362	2770.177053
611.065500	2763.638676
611.414585	2758.794127
611.763616	2753.337078
612.112594	2747.164186
612.461518	2744.830131
612.810389	2743.663104
613.159207	2738.795870
613.507971	2732.489387
613.856682	2730.548542
614.205340	2724.824312
614.553945	2727.450753
614.902496	2716.912221
615.250994	2716.937427
615.599439	2712.924669
615.947830	2709.995758
616.296169	2705.168853
616.644454	2704.011909
616.992686	2700.397401
617.340864	2699.873121
617.688990	2695.348686
618.037063	2695.865404
618.385082	2692.933973
618.733048	2692.288705
619.080961	2687.005576
619.428821	2685.510874
619.776628	2683.522139
620.124382	2679.736232
620.472083	2678.506191
620.819731	2676.827487
621.167326	2669.220385
621.514868	2668.663338
621.862357	2662.351813
622.209793	2663.677637
622.557176	2659.284271
622.904506	2654.336379
623.251783	2649.002838
623.599007	2648.793630
623.946179	2645.741211
624.293297	2645.058135
624.640363	2645.063176
624.987376	2642.071251
625.334336	2639.711991
625.681243	2635.611013
626.028097	2634.811990
626.374899	2632.853502
626.721647	2632.341824
627.068343	2633.592031
627.414987	2632.087246
627.761577	2630.605147
628.108115	2629.619601
628.454600	2626.799076
628.801032	2625.826133
629.147412	2624.558283
629.493739	2620.883282
629.840014	2622.960237
630.186236	2622.592233
630.532405	2619.686008
630.878521	2620.860597
631.224585	2619.121398
631.570597	2617.069649
631.916556	2616.189967
632.262462	2618.647530
632.608316	2615.199381
632.954117	2613.245934
633.299866	2614.322220
633.645562	2612.109153
633.991206	2609.187805
634.336797	2608.189656
634.682336	2610.546396
635.027823	2604.416353
635.373257	2606.657146
635.718639	2604.552464
636.063968	2604.386106
636.409245	2599.884355
636.754470	2600.771598
637.099642	2600.290168
637.444762	2602.160436
637.789829	2598.946701
638.134845	2600.552308
638.479808	2598.026690
638.824719	2598.828234
639.169577	2597.157091
639.514383	2595.707759
639.859137	2596.688264
640.203839	2596.592482
640.548489	2591.712645
640.893086	2590.699373
641.237632	2590.714497
641.582125	2591.536205
641.926566	2588.514033
642.270955	2595.523757
642.615292	2591.715166
642.959576	2593.860177
643.303809	2591.364805
643.647990	2592.690629
643.992118	2593.807244
644.336195	2591.959662
644.680219	2590.737182
645.024192	2589.592840
645.368112	2592.534353
645.711981	2592.388160
646.055797	2593.683736
646.399562	2593.424117
646.743274	2593.323294
647.086935	2595.740527
647.430544	2594.245825
647.774101	2593.759353
648.117606	2591.695001
648.461059	2594.591144
648.804460	2596.310177
649.147810	2590.094435
649.491108	2589.804568
649.834354	2593.023345
650.177548	2590.646441
650.520690	2587.531008
650.863781	2589.035792
651.206820	2592.254569
651.549807	2587.621749
651.892742	2584.216449
652.235626	2585.383476
652.578458	2586.308528
652.921238	2584.347519
653.263967	2584.995308
653.606644	2584.183682
653.949269	2585.055801
654.291843	2583.341809
654.634365	2583.883733
654.976836	2583.929103
655.319255	2586.003538
655.661622	2583.992118
656.003938	2582.812488
656.346203	2578.918197
656.688416	2582.046232
657.030577	2580.609504
657.372687	2582.084041
657.714746	2580.599421
658.056753	2578.721592
658.398708	2577.420974
658.740612	2577.284863
659.082465	2576.468196
659.424266	2578.086406
659.766016	2575.953998
660.107715	2580.780903
660.449362	2578.988773
660.790958	2579.679411
661.132503	2581.547158
661.473996	2581.022878
661.815438	2581.499267
662.156829	2581.244689
662.498168	2580.977508
662.839456	2580.647312
663.180693	2577.489029
663.521879	2577.342836
663.863013	2579.324009
664.204097	2579.074472
664.545129	2578.111612
664.886110	2583.687128
665.227040	2581.206880
665.567918	2582.807447
665.908746	2581.393403
666.249522	2582.086562
666.590248	2581.085893
666.930922	2581.181675
667.271545	2580.632189
667.612118	2581.910121
667.952639	2581.191757
668.293109	2582.179823
668.633528	2580.702765
668.973896	2579.818042
669.314213	2578.030953
669.654480	2579.124884
669.994695	2580.304514
670.334859	2579.412230
670.674973	2579.654205
671.015035	2579.538258
671.355047	2579.354256
671.695008	2576.974832
672.034918	2579.586149
672.374777	2577.902404
672.714585	2578.167065
673.054342	2580.135635
673.394049	2577.904925
673.733705	2581.526994
674.073310	2578.406519
674.412864	2580.980028
674.752368	2581.471541
675.091820	2580.301993
675.431223	2575.197825
675.770574	2577.491550
676.109875	2574.686148
676.449125	2576.596745
676.788324	2577.511715
677.127473	2574.572722
677.466571	2573.662794
677.805619	2578.288052
678.144616	2576.614389
678.483562	2578.424163
678.822458	2574.817218
679.161303	2575.805284
679.500098	2574.529872
679.838842	2577.809143
680.177535	2573.088102
680.516179	2573.327557
680.854771	2575.865778
681.193314	2577.121025
681.531805	2576.750500
681.870247	2579.306365
682.208638	2581.842066
682.546978	2580.223855
682.885268	2580.057497
683.223508	2577.514235
683.561697	2578.252764
683.899836	2579.187898
684.237925	2577.405850
684.575963	2577.463824
684.913951	2578.509863
685.251889	2580.733012
685.589776	2576.236303
685.927614	2575.427197
686.265401	2576.566498
686.603137	2578.235120
686.940824	2580.004565
687.278460	2579.389544
687.616046	2580.546489
687.953582	2580.579257
688.291068	2578.779565
688.628504	2580.339802
688.965889	2579.825604
689.303224	2578.809812
689.640510	2578.956005
689.977745	2578.323340
690.314930	2578.595563
690.652065	2577.907445
690.989150	2576.125397
691.326185	2574.388720
691.663170	2574.721436
692.000105	2571.943760
692.336990	2571.752196
692.673825	2573.060376
693.010610	2574.640778
693.347345	2567.971331
693.684030	2565.854046
694.020665	2567.673903
694.357251	2562.998233
694.693786	2568.477967
695.030272	2568.213306
695.366707	2565.670044
695.703093	2567.822617
696.039429	2567.741958
696.375716	2567.598286
696.711952	2566.718604
697.048139	2566.937894
697.384276	2568.241033
697.720363	2565.601989
698.056400	2567.258008
698.392388	2563.235167
698.728326	2570.648184
699.064214	2563.648542
699.400053	2567.537792
699.735842	2563.663665
700.071581	2567.663821
700.407270	2567.963769
700.742910	2564.082081
701.078501	2564.523182
701.414042	2563.265414
701.749533	2564.886145
702.084974	2565.183573
702.420366	2562.070660
702.755709	2563.290620
703.091002	2561.591751
703.426246	2561.679971
703.761440	2564.790363
704.096584	2563.608212
704.431679	2563.807338
704.766725	2558.836760
705.101721	2561.745506
705.436668	2558.040258
705.771565	2562.715928
706.106413	2561.853891
706.441212	2563.845147
706.775961	2561.992522
707.110661	2564.699622
707.445311	2563.988819
707.779913	2563.036041
708.114465	2564.823130
708.448967	2563.850188
708.783421	2566.582493
709.117825	2566.096022
709.452180	2565.665003
709.786485	2565.473439
710.120742	2568.672051
710.454949	2567.689026
710.789107	2565.178532
711.123216	2563.746844
711.457275	2567.232802
711.791286	2567.570559
712.125247	2567.494942
712.459159	2568.853533
712.793023	2571.880746
713.126837	2569.050138
713.460602	2569.982751
713.794318	2567.381516
714.127985	2567.568039
714.461602	2566.660631
714.795171	2566.332956
715.128691	2564.813048
715.462162	2565.365054
715.795584	2564.467729
716.128957	2564.119889
716.462281	2563.686350
716.795556	2560.170145
717.128782	2564.868501
717.461960	2560.210475
717.795088	2562.037893
718.128167	2562.325239
718.461198	2560.931360
718.794180	2560.631411
719.127113	2558.186451
719.459997	2561.785835
719.792833	2559.119065
720.125619	2561.032183
720.458357	2559.819785
720.791046	2559.066133
721.123686	2559.784497
721.456278	2559.892882
721.788821	2561.339693
722.121315	2558.567058
722.453761	2558.574620
722.786158	2561.460681
723.118506	2558.546894
723.450805	2558.509085
723.783056	2556.036399
724.115259	2558.730896
724.447412	2556.865669
724.779518	2561.654765
725.111574	2555.882644
725.443582	2558.967830
725.775542	2557.059753
726.107453	2558.093190
726.439315	2558.990515
726.771129	2564.336659
727.102895	2561.238870
727.434612	2561.352296
727.766281	2561.556463
728.097901	2559.144271
728.429473	2558.861966
728.760996	2555.882644
729.092471	2557.221070
729.423897	2561.140567
729.755276	2560.389436
730.086606	2559.716442
730.417887	2560.452450
730.749120	2561.591751
731.080305	2560.149981
731.411442	2564.034190
731.742530	2563.633418
732.073570	2564.427400
732.404562	2563.698953
732.735506	2563.527554
733.066401	2561.357337
733.397249	2563.000753
733.728048	2562.955383
734.058798	2564.694581
734.389501	2559.439178
734.720156	2562.673078
735.050762	2557.465566
735.381320	2558.856925
735.711831	2558.677964
736.042293	2555.993549
736.372707	2559.471946
736.703073	2557.362223
737.033391	2555.446584
737.363661	2557.584033
737.693883	2556.129661
738.024056	2562.637790
738.354182	2558.017573
738.684260	2559.376164
739.014290	2558.062943
739.344272	2561.594271
739.674207	2560.470094
740.004093	2560.699467
740.333931	2559.368602
740.663722	2562.385732
740.993464	2557.707542
741.323159	2560.563355
741.652806	2559.023283
741.982405	2560.054199
742.311956	2557.987326
742.641460	2557.415155
742.970915	2559.391287
743.300323	2555.270144
743.629683	2554.529094
743.958996	2555.854918
744.288260	2557.768036
744.617477	2554.733261
744.946647	2551.219577
745.275768	2554.597150
745.604842	2549.734957
745.933869	2552.225287
746.262847	2551.269988
746.591778	2555.207129
746.920662	2552.830225
747.249498	2558.052861
747.578286	2553.180586
747.907027	2555.859959
748.235720	2556.996739
748.564365	2556.328786
748.892963	2554.226625
749.221514	2555.181924
749.550017	2553.662016
749.878473	2554.453477
750.206881	2554.793755
750.535242	2555.139074
750.863555	2554.526574
751.191821	2555.933056
751.520039	2555.600339
751.848210	2554.385421
752.176334	2554.032541
752.504411	2555.587737
752.832440	2554.733261
753.160421	2553.755277
753.488356	2555.461708
753.816243	2555.040771
754.144082	2553.460370
754.471875	2552.666388
754.799620	2554.080432
755.127318	2550.365101
755.454969	2551.577499
755.782572	2556.185113
756.110129	2557.140412
756.437638	2552.653785
756.765100	2550.939793
757.092515	2553.021789
757.419882	2554.332489
757.747203	2553.616645
758.074477	2554.103117
758.401703	2552.704197
758.728882	2553.478014
759.056014	2551.711089
759.383099	2554.271995
759.710138	2557.480690
760.037129	2556.112017
760.364073	2553.702345
760.690970	2552.794937
761.017820	2555.774259
761.344623	2554.183775
761.671379	2555.600339
761.998088	2553.357026
762.324751	2555.597819
762.651366	2559.787018
762.977935	2571.505180
763.304456	2575.848134
763.630931	2580.836356
763.957359	2574.348391
764.283740	2571.714388
764.610074	2566.577452
764.936362	2562.549570
765.262602	2561.619477
765.588796	2558.637635
765.914943	2557.344579
766.241044	2554.738302
766.567097	2553.722510
766.893104	2554.302242
767.219064	2553.752757
767.544978	2548.414175
767.870845	2549.571119
768.196665	2548.015923
768.522438	2550.271840
768.848165	2549.913918
769.173846	2550.730585
769.499479	2550.569268
769.825066	2547.584905
770.150607	2549.397200
770.476101	2549.286294
770.801548	2551.874927
771.126949	2546.367466
771.452303	2550.339895
771.777611	2549.651778
772.102872	2549.006510
772.428087	2546.410316
772.753256	2551.126315
773.078378	2544.403937
773.403453	2546.564071
773.728482	2547.663043
774.053465	2545.946530
774.378401	2545.190357
774.703291	2546.594318
775.028135	2547.232024
775.352932	2544.779503
775.677683	2544.555171
776.002388	2545.903680
776.327046	2546.213711
776.651658	2545.787733
776.976224	2543.115922
777.300743	2543.930068
777.625216	2545.094575
777.949643	2548.368804
778.274024	2546.664894
778.598359	2541.704399
778.922647	2539.536703
779.246889	2541.969059
779.571086	2538.868750
779.895236	2545.588608
780.219339	2545.565923
780.543397	2541.853113
780.867409	2544.406457
781.191374	2545.439894
781.515294	2543.738504
781.839167	2546.211190
782.162995	2544.567774
782.486776	2544.832435
782.810511	2542.992414
783.134201	2543.879657
783.457844	2543.582229
783.781441	2541.495191
784.104993	2544.708927
784.428498	2545.777651
784.751958	2542.478216
785.075372	2546.553989
785.398739	2541.827907
785.722061	2545.452497
786.045337	2545.202960
786.368568	2544.000644
786.691752	2543.849410
787.014891	2548.240255
787.337983	2545.679349
787.661030	2548.555327
787.984031	2546.097764
788.306987	2549.220759
788.629897	2547.678166
788.952760	2548.419216
789.275579	2546.090203
789.598351	2551.156562
789.921078	2546.148176
790.243759	2549.223280
790.566395	2545.444935
790.888984	2544.139276
791.211529	2548.613300
791.534027	2543.738504
791.856480	2543.862013
792.178888	2544.910573
792.501249	2543.032743
792.823566	2545.152548
793.145836	2543.488967
793.468062	2544.608103
793.790241	2544.724050
794.112375	2546.531304
794.434464	2546.322096
794.756507	2546.531304
795.078505	2544.063659
795.400457	2545.810419
795.722364	2543.216745
796.044226	2542.049718
796.366042	2543.105840
796.687812	2543.609955
797.009538	2543.940151
797.331218	2543.562064
797.652852	2546.508618
797.974442	2544.872764
798.295986	2546.281767
798.617484	2544.696324
798.938938	2540.081147
799.260346	2546.228834
799.581709	2542.551313
799.903026	2543.776313
800.224299	2544.109029
800.545526	2544.091385
800.866708	2543.836807
801.187845	2545.089534
801.508936	2543.070552
801.829983	2544.141797
802.150984	2541.505273
802.471940	2543.335212
802.792851	2541.792619
803.113717	2546.057435
803.434538	2541.596014
803.755314	2545.071890
804.076045	2543.241951
804.396731	2542.140459
804.717372	2541.028884
805.037967	2544.910573
805.358518	2542.664739
805.679024	2543.526776
805.999485	2542.836138
806.319901	2542.427804
806.640272	2542.579039
806.960598	2543.609955
807.280879	2542.760521
807.601115	2541.354039
807.921306	2542.299255
808.241453	2542.130376
808.561554	2542.266487
808.881611	2541.903524
809.201623	2544.547610
809.521590	2544.832435
809.841513	2541.417053
810.161390	2541.548123
810.481223	2543.781354
810.801011	2542.639533
811.120755	2541.974101
811.440453	2542.904193
811.760107	2544.693803
812.079716	2540.106353
812.399281	2538.830941
812.718801	2537.300951
813.038276	2536.353214
813.357707	2543.120963
813.677093	2540.751621
813.996434	2544.136756
814.315731	2540.882691
814.634983	2543.075593
814.954191	2542.410160
815.273354	2540.282793
815.592473	2541.507794
815.911547	2543.602393
816.230577	2545.386962
816.549562	2546.256561
816.868502	2543.269677
817.187399	2544.391334
817.506250	2544.918134
817.825058	2545.946530
818.143821	2544.484595
818.462539	2546.377548
818.781213	2546.460727
819.099843	2548.814946
819.418429	2550.415513
819.736970	2552.011038
820.055466	2552.111861
820.373919	2557.221070
820.692327	2558.529250
821.010691	2567.575600
821.329011	2588.904722
821.647286	2621.369753
821.965517	2660.259734
822.283704	2682.750842
822.601847	2688.951462
822.919945	2673.018895
823.237999	2649.532159
823.556010	2628.003912
823.873976	2612.215018
824.191897	2597.799838
824.509775	2586.941193
824.827609	2578.464493
825.145398	2573.319995
825.463144	2572.084912
825.780845	2574.734039
826.098502	2578.822415
826.416116	2586.681573
826.733685	2597.293202
827.051210	2602.218410
827.368692	2599.218923
827.686129	2588.365319
828.003522	2579.051787
828.320872	2565.115517
828.638177	2561.417831
828.955439	2556.548076
829.272656	2551.837118
829.589830	2546.533824
829.906960	2549.251006
830.224046	2547.388300
830.541088	2548.308310
830.858086	2545.023999
831.175041	2544.996272
831.491952	2546.662374
831.808819	2544.552651
832.125642	2545.223124
832.442421	2548.383928
832.759157	2554.997922
833.075849	2561.387584
833.392497	2568.616599
833.709101	2575.722105
834.025662	2574.350911
834.342179	2570.630540
834.658653	2562.665517
834.975083	2555.514640
835.291469	2561.722821
835.607811	2551.688404
835.924110	2547.970553
836.240366	2548.454504
836.556578	2543.894780
836.872746	2543.773792
837.188871	2542.100129
837.504952	2544.421581
837.820990	2539.740869
838.136984	2539.937474
838.452935	2540.441590
838.768842	2543.995603
839.084706	2540.726415
839.400526	2544.988711
839.716303	2550.309648
840.032037	2554.072870
840.347727	2555.176882
840.663373	2552.124464
840.978977	2546.652291
841.294537	2546.410316
841.610054	2541.880839
841.925527	2542.881508
842.240957	2540.786909
842.556344	2541.086857
842.871687	2539.090561
843.186987	2540.953267
843.502244	2538.089892
843.817458	2537.164840
844.132629	2537.154757
844.447756	2536.585107
844.762840	2535.770961
845.077881	2535.004705
845.392879	2532.073274
845.707833	2534.283820
846.022745	2533.525127
846.337613	2538.518390
846.652438	2537.089223
846.967221	2536.025539
847.281960	2539.476209
847.596656	2539.486291
847.911309	2535.377751
848.225919	2535.513862
848.540485	2535.019829
848.855009	2536.350693
849.169490	2536.418749
849.483928	2539.080478
849.798323	2535.791125
850.112675	2536.678368
850.426984	2537.734490
850.741251	2538.084850
851.055474	2536.988399
851.369654	2535.097967
851.683792	2535.188707
851.997887	2535.934798
852.311938	2535.140817
852.625947	2537.132072
852.939914	2535.617206
853.253837	2538.026877
853.567718	2535.420601
853.881555	2537.142155
854.195350	2536.063348
854.509103	2537.613502
854.822812	2536.806918
855.136479	2534.556043
855.450103	2536.733821
855.763685	2537.469830
856.077224	2535.551671
856.390720	2535.546629
856.704173	2536.935467
857.017584	2537.870601
857.330953	2536.784233
857.644278	2539.536703
857.957561	2538.727598
858.270802	2537.963863
858.584000	2539.095602
858.897155	2537.111908
859.210268	2536.146527
859.523339	2537.789943
859.836367	2537.061496
860.149352	2538.389840
860.462295	2538.142824
860.775195	2533.812472
861.088054	2532.169056
861.400869	2533.855322
861.713642	2531.589324
862.026373	2537.555529
862.339062	2537.915972
862.651708	2535.617206
862.964312	2536.680889
863.276873	2536.433873
863.589392	2536.063348
863.901869	2535.539068
864.214303	2536.489325
864.526696	2538.483102
864.839045	2534.954294
865.151353	2536.270035
865.463619	2537.028729
865.775842	2537.820190
866.088023	2536.590148
866.400162	2537.797505
866.712258	2533.522606
867.024313	2536.975797
867.336325	2537.409336
867.648296	2535.496218
867.960224	2538.014274
868.272110	2535.738193
868.583954	2537.237937
868.895755	2537.971424
869.207515	2533.726773
869.519233	2538.478060
869.830909	2537.850437
870.142542	2538.679707
870.454134	2536.217103
870.765684	2540.416384
871.077191	2539.032587
871.388657	2540.368493
871.700081	2538.846065
872.011463	2537.391692
872.322803	2536.685930
872.634101	2539.508976
872.945357	2538.344470
873.256571	2541.787578
873.567744	2541.253216
873.878874	2541.505273
874.189963	2539.551826
874.501010	2541.333874
874.812015	2538.397402
875.122979	2541.873277
875.433900	2539.508976
875.744780	2542.316899
876.055618	2536.638039
876.366415	2539.491332
876.677169	2539.627443
876.987882	2537.260622
877.298554	2537.023687
877.609183	2540.605427
877.919771	2539.793802
878.230317	2541.096940
878.540822	2542.125335
878.851285	2545.785213
879.161707	2544.146838
879.472087	2550.599515
879.782425	2551.363250
880.092722	2560.366750
880.402977	2568.447720
880.713191	2590.215422
881.023363	2609.233175
881.333494	2625.952162
881.643583	2627.255300
881.953631	2626.272275
882.263637	2618.183744
882.573602	2611.975563
882.883526	2599.851588
883.193408	2591.558890
883.503248	2581.572364
883.813048	2576.768144
884.122806	2569.876887
884.432522	2563.129303
884.742197	2560.192831
885.051831	2557.881462
885.361424	2553.820812
885.670975	2549.515667
885.980485	2550.556665
886.289954	2547.088351
886.599382	2547.337888
886.908768	2545.931406
887.218113	2546.571633
887.527417	2543.831766
887.836680	2541.958977
888.145901	2539.188863
888.455082	2539.140972
888.764221	2539.672814
889.073319	2539.798843
889.382376	2542.228679
889.691392	2539.924872
890.000366	2541.142310
890.309300	2541.008720
890.618193	2541.971580
890.927044	2542.279090
891.235855	2541.606096
891.544625	2541.054090
891.853353	2541.469985
892.162041	2541.787578
892.470687	2545.273536
892.779293	2542.011909
893.087858	2544.696324
893.396381	2541.079296
893.704864	2549.566078
894.013306	2548.547765
894.321707	2564.886145
894.630068	2565.508727
894.938387	2570.905282
895.246665	2571.384192
895.554903	2566.126269
895.863100	2560.099569
896.171256	2554.203940
896.479371	2553.848538
896.787446	2549.561037
897.095480	2550.319731
897.403473	2546.614483
897.711425	2544.847558
898.019336	2543.289842
898.327207	2541.527958
898.635038	2545.543238
898.942827	2543.534338
899.250576	2543.872095
899.558284	2541.414532
899.865952	2544.023330
900.173579	2540.968390
900.481165	2540.018133
900.788711	2540.025695
901.096216	2539.952598
901.403681	2539.115766
901.711105	2538.452855
902.018489	2537.358924
902.325832	2539.428318
902.633135	2540.244985
902.940397	2542.737835
903.247619	2545.296221
903.554800	2552.263096
903.861941	2561.322049
904.169041	2575.187743
904.476101	2581.327868
904.783121	2578.371231
905.090100	2578.061200
905.397039	2566.441341
905.703938	2561.488407
906.010796	2555.824671
906.317614	2552.789896
906.624391	2546.075079
906.931129	2544.023330
907.237826	2540.741538
907.544483	2542.773123
907.851099	2540.285314
908.157675	2533.734335
908.464211	2535.715508
908.770707	2532.128727
909.077163	2534.929088
909.383578	2532.663089
909.689954	2533.613347
909.996289	2533.961187
910.302584	2535.297092
910.608839	2535.839016
910.915054	2537.285827
911.221229	2537.018646
911.527363	2535.755837
911.833458	2537.232895
912.139513	2538.407484
912.445527	2537.142155
912.751502	2539.456044
913.057436	2538.064686
913.363331	2539.574511
913.669186	2537.515200
913.975000	2542.823535
914.280775	2544.260264
914.586510	2548.497354
914.892205	2550.077755
915.197859	2553.984650
915.503475	2561.838767
915.809050	2568.170457
916.114585	2575.623803
916.420081	2579.954154
916.725536	2575.580953
917.030952	2572.468040
917.336328	2566.262380
917.641665	2562.698284
917.946961	2557.274003
918.252218	2553.568754
918.557435	2552.106820
918.862612	2549.429967
919.167750	2547.058104
919.472848	2544.471992
919.777906	2543.846889
920.082925	2541.918648
920.387904	2543.045346
920.692843	2541.613658
920.997743	2539.922351
921.302603	2537.558050
921.607423	2540.202135
921.912204	2539.834131
922.216946	2537.583256
922.521647	2540.232382
922.826310	2533.888090
923.130932	2535.476053
923.435516	2536.552340
923.740059	2534.041845
924.044564	2534.596372
924.349028	2534.946732
924.653454	2530.699560
924.957840	2529.978675
925.262186	2531.843902
925.566493	2531.218799
925.870761	2529.184693
926.174989	2534.614016
926.479178	2532.194262
926.783328	2535.032432
927.087438	2533.149561
927.391509	2535.176105
927.695541	2533.457071
927.999533	2534.407329
928.303486	2532.816845
928.607400	2535.728111
928.911275	2534.656866
929.215110	2533.835158
929.518906	2531.790970
929.822663	2533.018491
930.126381	2531.052441
930.430060	2532.521937
930.733699	2534.230888
931.037299	2533.152081
931.340861	2530.069416
931.644383	2533.109232
931.947866	2530.974303
932.251309	2531.990095
932.554714	2529.875331
932.858080	2534.266176
933.161407	2532.698378
933.464694	2533.225178
933.767943	2530.369364
934.071153	2533.978831
934.374323	2530.787780
934.677455	2531.488501
934.980548	2531.627132
935.283602	2532.451361
935.586617	2534.513193
935.889593	2534.606454
936.192530	2534.772812
936.495428	2533.804911
936.798287	2532.484128
937.101108	2531.738038
937.403890	2532.204344
937.706632	2536.101156
938.009336	2534.533357
938.312002	2536.010416
938.614628	2533.310878
938.917216	2536.577545
939.219765	2533.570497
939.522275	2536.436393
939.824747	2536.680889
940.127179	2533.676361
940.429573	2530.835671
940.731929	2532.816845
941.034246	2530.606299
941.336524	2533.124355
941.638763	2533.323481
941.940964	2532.731145
942.243126	2536.219623
942.545250	2534.556043
942.847335	2532.063192
943.149381	2533.288192
943.451389	2531.929602
943.753359	2533.089067
944.055290	2536.615354
944.357182	2532.516896
944.659036	2533.494880
944.960851	2532.534540
945.262628	2530.949097
945.564367	2534.261135
945.866067	2534.117462
946.167729	2534.747607
946.469352	2533.812473
946.770937	2533.058820
947.072484	2533.930940
947.373992	2532.466484
947.675462	2529.963552
947.976893	2532.408511
948.278286	2533.031094
948.579641	2530.722245
948.880958	2533.416742
949.182236	2531.866587
949.483476	2531.659900
949.784678	2533.096629
950.085841	2531.571680
950.386967	2532.133768
950.688054	2533.557894
950.989103	2534.160312
951.290114	2531.675023
951.591087	2533.893131
951.892021	2534.440096
952.192917	2533.366330
952.493776	2533.341125
952.794596	2532.133768
953.095378	2532.302647
953.396122	2535.594520
953.696828	2534.858512
953.997496	2529.595547
954.298126	2530.497914
954.598718	2533.346166
954.899272	2530.286185
955.199788	2532.653007
955.500266	2530.795342
955.800706	2527.649662
956.101108	2525.809641
956.401472	2527.344672
956.701798	2528.882224
957.002087	2530.089580
957.302337	2529.547656
957.602550	2529.104035
957.902724	2530.477749
958.202861	2529.865249
958.502960	2530.197965
958.803022	2531.216278
959.103045	2528.423479
959.403031	2529.497245
959.702979	2530.785260
960.002889	2531.163346
960.302762	2528.972965
960.602596	2531.259128
960.902393	2530.029087
961.202153	2529.267872
961.501875	2529.777029
961.801559	2531.770805
962.101205	2529.046062
962.400814	2529.464477
962.700385	2528.050434
962.999918	2530.812986
963.299414	2527.440454
963.598873	2529.187214
963.898293	2528.400794
964.197677	2531.410363
964.497022	2528.481452
964.796331	2528.667975
965.095601	2527.256452
965.394835	2528.882224
965.694030	2529.121679
965.993189	2527.679909
966.292309	2529.371216
966.591393	2531.382636
966.890439	2529.444313
967.189447	2528.839374
967.488419	2527.619415
967.787353	2529.552698
968.086249	2528.718387
968.385108	2528.937677
968.683930	2528.189065
968.982714	2529.600588
969.281462	2529.172090
969.580172	2530.419776
969.878844	2531.841381
970.177480	2530.389529
970.476078	2528.917512
970.774639	2530.465146
971.073162	2527.942049
971.371649	2528.622605
971.670098	2527.488345
971.968510	2528.761236
972.266885	2523.515916
972.565223	2531.657379
972.863524	2526.475073
973.161788	2530.737369
973.460014	2528.476411
973.758204	2530.908768
974.056356	2528.206709
974.354471	2532.678213
974.652550	2524.524147
974.950591	2529.572862
975.248595	2529.714014
975.546563	2531.143182
975.844493	2529.361134
976.142386	2527.299302
976.440243	2528.000022
976.738062	2529.275434
977.035845	2529.746782
977.333590	2528.688140
977.631299	2527.117820
977.928971	2527.914322
978.226606	2526.306194
978.524204	2526.699404
978.821765	2527.261493
979.119290	2526.611184
979.416777	2529.986237
979.714228	2527.032121
980.011642	2529.968593
980.309020	2529.547656
980.606360	2529.651000
980.903664	2529.199817
981.200931	2528.519261
981.498162	2528.501617
981.795356	2532.438758
982.092513	2529.272913
982.389633	2528.557070
982.686717	2528.138654
982.983764	2529.870290
983.280775	2533.053779
983.577749	2528.413397
983.874686	2531.826258
984.171587	2531.995137
984.468451	2531.372554
984.765279	2530.303829
985.062070	2529.872811
985.358824	2528.529343
985.655543	2526.890968
985.952224	2531.173428
986.248869	2527.606812
986.545478	2523.480628
986.842050	2528.733510
987.138586	2524.758560
987.435086	2523.886441
987.731549	2525.008097
988.027975	2530.492873
988.324366	2527.309384
988.620719	2527.526154
988.917037	2525.512213
989.213318	2526.374250
989.509563	2525.580268
989.805772	2527.805938
990.101944	2527.974816
990.398080	2525.275278
990.694180	2527.856349
990.990244	2528.375588
991.286271	2527.281658
991.582262	2526.006246
991.878217	2527.926925
992.174136	2526.959024
992.470019	2526.212933
992.765865	2526.349044
993.061676	2530.071936
993.357450	2529.711494
993.653188	2526.525485
993.948890	2526.815351
994.244556	2527.432892
994.540186	2526.104548
994.835780	2528.365506
995.131337	2527.314425
995.426859	2528.652852
995.722345	2528.312574
996.017795	2525.855011
996.313208	2527.826102
996.608586	2528.272244
996.903928	2528.604961
997.199234	2526.490197
997.494504	2527.354754
997.789738	2526.409538
998.084936	2529.892975
998.380099	2528.673016
998.675225	2528.148736
998.970316	2526.424662
999.265371	2528.123530
999.560390	2529.593027
999.855373	2528.768798
1000.150320	2528.849457
1000.445232	2527.180835
1000.740108	2526.056657
1001.034948	2527.077491
1001.329752	2526.376771
1001.624521	2529.199817
1001.919254	2522.968951
1002.213951	2523.775535
1002.508613	2524.935001
1002.803239	2525.577748
1003.097829	2520.244207
1003.392384	2526.165042
1003.686903	2525.870135
1003.981386	2527.977337
1004.275834	2526.709487
1004.570246	2526.490197
1004.864623	2527.415248
1005.158964	2529.444313
1005.453270	2525.950793
1005.747540	2525.834847
1006.041775	2525.272758
1006.335974	2525.955834
1006.630138	2525.829805
1006.924266	2527.788294
1007.218359	2527.735362
1007.512416	2526.845598
1007.806438	2525.393746
1008.100425	2526.981709
1008.394376	2527.846267
1008.688292	2527.034641
1008.982172	2525.557583
1009.276017	2526.104548
1009.569827	2522.515247
1009.863602	2527.689991
1010.157341	2525.643283
1010.451045	2525.890299
1010.744714	2523.954496
1011.038347	2527.357275
1011.331945	2526.255783
1011.625508	2527.248890
1011.919036	2528.874662
1012.212528	2524.778725
1012.505986	2523.684794
1012.799408	2527.024559
1013.092795	2523.309228
1013.386147	2528.990609
1013.679464	2524.957686
1013.972745	2529.885414
1014.265992	2526.701925
1014.559204	2524.798889
1014.852380	2527.485824
1015.145521	2527.556401
1015.438628	2526.028931
1015.731699	2526.442306
1016.024736	2525.877696
1016.317737	2527.654703
1016.610703	2529.330887
1016.903635	2524.284692
1017.196531	2520.128260
1017.489393	2524.665299
1017.782219	2522.091790
1018.075011	2525.469363
1018.367768	2526.701925
1018.660490	2526.853160
1018.953177	2526.853160
1019.245829	2526.853160
