Dividing Wavelength (nm)	Counts (n)	Blue Motor Position (mm): 0.000000	Red Motor Position (mm): 3.700000	
326.493990	2049.229038
326.888308	2049.229038
327.282561	2049.229038
327.676750	2092.078846
328.070874	2071.914231
328.464933	2117.284615
328.858929	2104.681731
329.252859	2094.599423
329.646726	2024.023269
330.040528	2049.229038
330.434265	2102.161154
330.827938	2139.969808
331.221547	2114.764038
331.615091	2155.093269
332.008571	2228.190000
332.401986	2205.504808
332.795338	2202.984231
333.188625	2134.928654
333.581847	2245.834038
333.975006	2283.642692
334.368100	2301.286731
334.761129	2286.163269
335.154095	2311.369038
335.546996	2220.628269
335.939833	2392.027500
336.332606	2439.918462
336.725315	2316.410192
337.117960	2450.000769
337.510540	2334.054231
337.903056	2374.383462
338.295508	2429.836154
338.687896	2412.192115
339.080220	2455.041923
339.472480	2472.685962
339.864676	2502.932885
340.256807	2535.700385
340.648875	2475.206538
341.040879	2457.562500
341.432818	2485.288846
341.824694	2510.494615
342.216506	2487.809423
342.608253	2397.068654
342.999937	2462.603654
343.391557	2477.727115
343.783113	2490.330000
344.174605	2386.986346
344.566033	2442.439038
344.957397	2525.618077
345.348697	2442.439038
345.739934	2485.288846
346.131106	2422.274423
346.522215	2455.041923
346.913260	2497.891731
347.304241	2399.589231
347.695159	2467.644808
348.086012	2475.206538
348.476802	2457.562500
348.867528	2417.233269
349.258191	2490.330000
349.648789	2402.109808
350.039324	2437.397885
350.429796	2462.603654
350.820203	2417.233269
351.210548	2505.453462
351.600828	2404.630385
351.991045	2497.891731
352.381198	2490.330000
352.771288	2432.356731
353.161314	2492.850577
353.551276	2422.274423
353.941175	2422.274423
354.331010	2369.342308
354.720782	2500.412308
355.110490	2399.589231
355.500135	2434.877308
355.889717	2394.548077
356.279235	2354.218846
356.668689	2424.795000
357.058080	2480.247692
357.447408	2477.727115
357.836672	2422.274423
358.225873	2462.603654
358.615010	2376.904038
359.004084	2515.535769
359.393095	2341.615962
359.782043	2434.877308
360.170927	2409.671538
360.559748	2457.562500
360.948505	2583.591346
361.337199	2470.165385
361.725830	2462.603654
362.114398	2485.288846
362.502903	2407.150962
362.891344	2485.288846
363.279722	2535.700385
363.668037	2414.712692
364.056289	2502.932885
364.444478	2402.109808
364.832603	2462.603654
365.220665	2386.986346
365.608665	2381.945192
365.996601	2424.795000
366.384474	2520.576923
366.772284	2455.041923
367.160031	2376.904038
367.547715	2460.083077
367.935336	2417.233269
368.322893	2424.795000
368.710388	2422.274423
369.097820	2422.274423
369.485189	2439.918462
369.872495	2518.056346
370.259738	2462.603654
370.646918	2409.671538
371.034035	2520.576923
371.421090	2460.083077
371.808081	2417.233269
372.195010	2414.712692
372.581875	2429.836154
372.968678	2480.247692
373.355418	2409.671538
373.742096	2371.862885
374.128710	2507.974038
374.515262	2439.918462
374.901751	2500.412308
375.288177	2460.083077
375.674540	2515.535769
376.060841	2417.233269
376.447079	2424.795000
376.833254	2495.371154
377.219367	2485.288846
377.605417	2432.356731
377.991404	2442.439038
378.377329	2523.097500
378.763191	2417.233269
379.148991	2386.986346
379.534727	2480.247692
379.920402	2424.795000
380.306013	2429.836154
380.691563	2351.698269
381.077049	2467.644808
381.462474	2480.247692
381.847835	2502.932885
382.233134	2485.288846
382.618371	2389.506923
383.003545	2487.809423
383.388657	2374.383462
383.773706	2540.741538
384.158693	2402.109808
384.543618	2500.412308
384.928480	2462.603654
385.313280	2497.891731
385.698017	2394.548077
386.082692	2520.576923
386.467305	2460.083077
386.851856	2439.918462
387.236344	2563.426731
387.620770	2402.109808
388.005133	2485.288846
388.389435	2475.206538
388.773674	2460.083077
389.157851	2455.041923
389.541965	2485.288846
389.926018	2538.220962
390.310008	2417.233269
390.693936	2485.288846
391.077802	2417.233269
391.461606	2442.439038
391.845348	2487.809423
392.229027	2397.068654
392.612645	2482.768269
392.996200	2432.356731
393.379694	2444.959615
393.763125	2462.603654
394.146494	2492.850577
394.529801	2465.124231
394.913047	2419.753846
395.296230	2462.603654
395.679351	2424.795000
396.062410	2344.136538
396.445408	2533.179808
396.828343	2540.741538
397.211217	2444.959615
397.594028	2437.397885
397.976778	2407.150962
398.359466	2540.741538
398.742092	2455.041923
399.124656	2467.644808
399.507158	2386.986346
399.889598	2492.850577
400.271977	2475.206538
400.654294	2467.644808
401.036549	2467.644808
401.418742	2392.027500
401.800874	2475.206538
402.182944	2407.150962
402.564952	2538.220962
402.946898	2407.150962
403.328783	2374.383462
403.710606	2467.644808
404.092367	2467.644808
404.474067	2462.603654
404.855705	2568.467885
405.237282	2452.521346
405.618797	2558.385577
406.000250	2502.932885
406.381642	2389.506923
406.762972	2492.850577
407.144240	2394.548077
407.525447	2447.480192
407.906593	2540.741538
408.287677	2439.918462
408.668700	2485.288846
409.049661	2487.809423
409.430560	2472.685962
409.811399	2490.330000
410.192176	2485.288846
410.572891	2447.480192
410.953545	2533.179808
411.334138	2434.877308
411.714669	2485.288846
412.095139	2477.727115
412.475547	2487.809423
412.855894	2470.165385
413.236180	2487.809423
413.616405	2492.850577
413.996568	2502.932885
414.376670	2422.274423
414.756711	2535.700385
415.136691	2472.685962
415.516609	2460.083077
415.896466	2439.918462
416.276262	2495.371154
416.655997	2482.768269
417.035670	2475.206538
417.415283	2460.083077
417.794834	2555.865000
418.174324	2523.097500
418.553753	2545.782692
418.933121	2422.274423
419.312428	2495.371154
419.691674	2447.480192
420.070859	2545.782692
420.449983	2442.439038
420.829045	2565.947308
421.208047	2412.192115
421.586988	2417.233269
421.965867	2452.521346
422.344686	2505.453462
422.723444	2472.685962
423.102141	2540.741538
423.480777	2568.467885
423.859352	2434.877308
424.237866	2462.603654
424.616319	2470.165385
424.994712	2525.618077
425.373044	2472.685962
425.751314	2462.603654
426.129524	2439.918462
426.507673	2550.823846
426.885762	2523.097500
427.263789	2520.576923
427.641756	2480.247692
428.019662	2475.206538
428.397508	2510.494615
428.775292	2570.988462
429.153016	2465.124231
429.530679	2530.659231
429.908282	2593.673654
430.285824	2439.918462
430.663305	2470.165385
431.040726	2361.780577
431.418086	2495.371154
431.795385	2444.959615
432.172624	2490.330000
432.549802	2485.288846
432.926920	2510.494615
433.303977	2467.644808
433.680974	2427.315577
434.057910	2545.782692
434.434786	2502.932885
434.811601	2505.453462
435.188355	2548.303269
435.565050	2497.891731
435.941683	2447.480192
436.318257	2419.753846
436.694770	2427.315577
437.071222	2507.974038
437.447614	2467.644808
437.823946	2538.220962
438.200218	2495.371154
438.576429	2573.509038
438.952580	2407.150962
439.328670	2538.220962
439.704700	2462.603654
440.080670	2472.685962
440.456580	2505.453462
440.832429	2477.727115
441.208218	2482.768269
441.583947	2510.494615
441.959616	2434.877308
442.335224	2381.945192
442.710773	2573.509038
443.086261	2455.041923
443.461689	2495.371154
443.837057	2593.673654
444.212365	2495.371154
444.587612	2490.330000
444.962800	2538.220962
445.337927	2417.233269
445.712995	2510.494615
446.088002	2457.562500
446.462949	2495.371154
446.837837	2482.768269
447.212664	2538.220962
447.587431	2505.453462
447.962139	2447.480192
448.336786	2513.015192
448.711374	2404.630385
449.085901	2502.932885
449.460369	2487.809423
449.834776	2563.426731
450.209124	2545.782692
450.583412	2437.397885
450.957640	2505.453462
451.331808	2477.727115
451.705917	2429.836154
452.079965	2528.138654
452.453954	2477.727115
452.827883	2472.685962
453.201752	2523.097500
453.575562	2495.371154
453.949311	2507.974038
454.323001	2568.467885
454.696632	2586.111923
455.070202	2525.618077
455.443713	2538.220962
455.817164	2528.138654
456.190556	2543.262115
456.563888	2462.603654
456.937160	2518.056346
457.310373	2482.768269
457.683526	2442.439038
458.056619	2490.330000
458.429653	2460.083077
458.802628	2487.809423
459.175542	2500.412308
459.548398	2535.700385
459.921194	2520.576923
460.293930	2555.865000
460.666607	2507.974038
461.039224	2545.782692
461.411782	2442.439038
461.784280	2586.111923
462.156719	2472.685962
462.529099	2563.426731
462.901419	2427.315577
463.273680	2495.371154
463.645882	2507.974038
464.018024	2535.700385
464.390106	2460.083077
464.762130	2452.521346
465.134094	2447.480192
465.505999	2548.303269
465.877845	2558.385577
466.249631	2490.330000
466.621358	2485.288846
466.993026	2573.509038
467.364634	2487.809423
467.736184	2533.179808
468.107674	2480.247692
468.479105	2533.179808
468.850477	2495.371154
469.221790	2533.179808
469.593043	2530.659231
469.964238	2505.453462
470.335373	2419.753846
470.706449	2427.315577
471.077467	2384.465769
471.448425	2560.906154
471.819324	2492.850577
472.190164	2555.865000
472.560945	2452.521346
472.931667	2422.274423
473.302330	2505.453462
473.672934	2520.576923
474.043479	2502.932885
474.413965	2450.000769
474.784393	2515.535769
475.154761	2513.015192
475.525070	2550.823846
475.895321	2510.494615
476.265513	2515.535769
476.635645	2432.356731
477.005719	2490.330000
477.375734	2495.371154
477.745691	2434.877308
478.115588	2417.233269
478.485427	2515.535769
478.855207	2409.671538
479.224928	2518.056346
479.594591	2518.056346
479.964194	2513.015192
480.333739	2457.562500
480.703226	2586.111923
481.072653	2497.891731
481.442022	2437.397885
481.811333	2485.288846
482.180584	2467.644808
482.549777	2502.932885
482.918912	2553.344423
483.287988	2507.974038
483.657005	2507.974038
484.025964	2553.344423
484.394864	2480.247692
484.763706	2455.041923
485.132489	2568.467885
485.501213	2548.303269
485.869879	2470.165385
486.238487	2510.494615
486.607036	2528.138654
486.975527	2492.850577
487.343959	2558.385577
487.712333	2515.535769
488.080648	2515.535769
488.448905	2467.644808
488.817104	2565.947308
489.185244	2502.932885
489.553326	2518.056346
489.921350	2487.809423
490.289315	2528.138654
490.657222	2462.603654
491.025070	2581.070769
491.392861	2538.220962
491.760593	2533.179808
492.128267	2598.714808
492.495883	2460.083077
492.863440	2485.288846
493.230939	2513.015192
493.598380	2429.836154
493.965763	2472.685962
494.333088	2450.000769
494.700354	2518.056346
495.067563	2475.206538
495.434713	2550.823846
495.801805	2505.453462
496.168839	2570.988462
496.535815	2487.809423
496.902733	2497.891731
497.269593	2480.247692
497.636395	2497.891731
498.003139	2424.795000
498.369825	2502.932885
498.736453	2502.932885
499.103023	2550.823846
499.469535	2507.974038
499.835989	2487.809423
500.202385	2510.494615
500.568723	2490.330000
500.935003	2540.741538
501.301226	2543.262115
501.667390	2497.891731
502.033497	2550.823846
502.399546	2535.700385
502.765537	2419.753846
503.131470	2500.412308
503.497345	2457.562500
503.863163	2515.535769
504.228923	2462.603654
504.594625	2560.906154
504.960269	2475.206538
505.325856	2548.303269
505.691385	2578.550192
506.056856	2535.700385
506.422270	2565.947308
506.787625	2553.344423
507.152924	2543.262115
507.518164	2442.439038
507.883347	2502.932885
508.248472	2447.480192
508.613540	2550.823846
508.978550	2540.741538
509.343503	2495.371154
509.708398	2581.070769
510.073236	2467.644808
510.438016	2510.494615
510.802738	2550.823846
511.167403	2477.727115
511.532010	2384.465769
511.896561	2543.262115
512.261053	2515.535769
512.625488	2450.000769
512.989866	2487.809423
513.354186	2523.097500
513.718449	2490.330000
514.082655	2558.385577
514.446803	2455.041923
514.810894	2533.179808
515.174927	2591.153077
515.538904	2480.247692
515.902822	2477.727115
516.266684	2472.685962
516.630488	2424.795000
516.994235	2485.288846
517.357925	2495.371154
517.721558	2487.809423
518.085133	2621.400000
518.448651	2482.768269
518.812112	2477.727115
519.175516	2487.809423
519.538863	2492.850577
519.902152	2515.535769
520.265385	2475.206538
520.628560	2563.426731
520.991678	2513.015192
521.354739	2540.741538
521.717743	2447.480192
522.080690	2477.727115
522.443580	2520.576923
522.806413	2555.865000
523.169189	2530.659231
523.531908	2553.344423
523.894569	2462.603654
524.257174	2465.124231
524.619722	2422.274423
524.982213	2525.618077
525.344647	2450.000769
525.707025	2565.947308
526.069345	2492.850577
526.431608	2540.741538
526.793815	2437.397885
527.155964	2601.235385
527.518057	2558.385577
527.880093	2525.618077
528.242072	2565.947308
528.603995	2467.644808
528.965860	2530.659231
529.327669	2422.274423
529.689421	2502.932885
530.051117	2583.591346
530.412755	2467.644808
530.774337	2475.206538
531.135862	2470.165385
531.497331	2515.535769
531.858743	2500.412308
532.220098	2492.850577
532.581396	2467.644808
532.942638	2460.083077
533.303824	2553.344423
533.664953	2500.412308
534.026025	2540.741538
534.387040	2548.303269
534.747999	2485.288846
535.108902	2424.795000
535.469748	2439.918462
535.830537	2444.959615
536.191270	2583.591346
536.551947	2487.809423
536.912567	2442.439038
537.273131	2560.906154
537.633638	2482.768269
537.994089	2455.041923
538.354483	2462.603654
538.714821	2490.330000
539.075103	2525.618077
539.435328	2485.288846
539.795497	2492.850577
540.155609	2505.453462
540.515665	2555.865000
540.875665	2507.974038
541.235609	2487.809423
541.595496	2490.330000
541.955328	2518.056346
542.315102	2452.521346
542.674821	2482.768269
543.034483	2452.521346
543.394090	2520.576923
543.753640	2447.480192
544.113134	2540.741538
544.472571	2530.659231
544.831953	2550.823846
545.191278	2414.712692
545.550548	2533.179808
545.909761	2450.000769
546.268918	2485.288846
546.628019	2495.371154
546.987064	2548.303269
547.346053	2460.083077
547.704986	2525.618077
548.063863	2467.644808
548.422684	2487.809423
548.781449	2513.015192
549.140158	2576.029615
549.498811	2533.179808
549.857408	2548.303269
550.215949	2432.356731
550.574434	2495.371154
550.932864	2492.850577
551.291237	2465.124231
551.649555	2563.426731
552.007817	2586.111923
552.366022	2568.467885
552.724173	2470.165385
553.082267	2553.344423
553.440305	2515.535769
553.798288	2417.233269
554.156215	2487.809423
554.514086	2540.741538
554.871902	2540.741538
555.229661	2472.685962
555.587365	2487.809423
555.945014	2457.562500
556.302606	2490.330000
556.660143	2460.083077
557.017625	2485.288846
557.375050	2573.509038
557.732421	2442.439038
558.089735	2470.165385
558.446994	2439.918462
558.804197	2412.192115
559.161345	2530.659231
559.518437	2439.918462
559.875474	2570.988462
560.232455	2424.795000
560.589381	2535.700385
560.946251	2460.083077
561.303065	2505.453462
561.659825	2520.576923
562.016528	2543.262115
562.373177	2513.015192
562.729770	2470.165385
563.086307	2543.262115
563.442789	2520.576923
563.799216	2510.494615
564.155587	2555.865000
564.511904	2510.494615
564.868164	2495.371154
565.224370	2515.535769
565.580520	2515.535769
565.936615	2452.521346
566.292654	2545.782692
566.648638	2538.220962
567.004567	2507.974038
567.360441	2507.974038
567.716260	2525.618077
568.072023	2543.262115
568.427732	2472.685962
568.783385	2447.480192
569.138982	2497.891731
569.494525	2623.920577
569.850013	2495.371154
570.205445	2500.412308
570.560823	2518.056346
570.916145	2548.303269
571.271412	2505.453462
571.626625	2528.138654
571.981782	2490.330000
572.336884	2487.809423
572.691931	2502.932885
573.046923	2578.550192
573.401860	2502.932885
573.756743	2399.589231
574.111570	2548.303269
574.466342	2525.618077
574.821059	2583.591346
575.175722	2485.288846
575.530330	2515.535769
575.884882	2492.850577
576.239380	2422.274423
576.593823	2475.206538
576.948211	2523.097500
577.302544	2487.809423
577.656823	2465.124231
578.011047	2460.083077
578.365216	2422.274423
578.719330	2545.782692
579.073389	2533.179808
579.427394	2467.644808
579.781344	2480.247692
580.135239	2535.700385
580.489080	2462.603654
580.842866	2450.000769
581.196597	2462.603654
581.550273	2565.947308
581.903895	2447.480192
582.257463	2530.659231
582.610975	2414.712692
582.964434	2485.288846
583.317837	2568.467885
583.671186	2487.809423
584.024481	2490.330000
584.377721	2477.727115
584.730906	2628.961731
585.084037	2442.439038
585.437113	2457.562500
585.790135	2495.371154
586.143103	2513.015192
586.496016	2518.056346
586.848874	2545.782692
587.201679	2563.426731
587.554428	2432.356731
587.907124	2560.906154
588.259765	2533.179808
588.612352	2457.562500
588.964884	2510.494615
589.317362	2470.165385
589.669786	2520.576923
590.022155	2434.877308
590.374470	2457.562500
590.726731	2525.618077
591.078937	2480.247692
591.431090	2475.206538
591.783188	2563.426731
592.135232	2487.809423
592.487222	2518.056346
592.839157	2545.782692
593.191038	2467.644808
593.542866	2495.371154
593.894639	2457.562500
594.246358	2437.397885
594.598022	2477.727115
594.949633	2477.727115
595.301190	2502.932885
595.652692	2482.768269
596.004141	2487.809423
596.355535	2523.097500
596.706876	2447.480192
597.058162	2485.288846
597.409395	2530.659231
597.760573	2462.603654
598.111698	2470.165385
598.462768	2543.262115
598.813785	2543.262115
599.164748	2444.959615
599.515657	2470.165385
599.866511	2510.494615
600.217312	2414.712692
600.568060	2540.741538
600.918753	2477.727115
601.269392	2586.111923
601.619978	2414.712692
601.970510	2528.138654
602.320988	2545.782692
602.671412	2507.974038
603.021783	2523.097500
603.372100	2472.685962
603.722363	2497.891731
604.072572	2538.220962
604.422728	2513.015192
604.772830	2576.029615
605.122878	2555.865000
605.472872	2442.439038
605.822813	2402.109808
606.172701	2525.618077
606.522534	2457.562500
606.872314	2492.850577
607.222041	2485.288846
607.571714	2565.947308
607.921333	2487.809423
608.270899	2558.385577
608.620411	2510.494615
608.969870	2457.562500
609.319276	2432.356731
609.668627	2518.056346
610.017926	2528.138654
610.367171	2525.618077
610.716362	2573.509038
611.065500	2490.330000
611.414585	2427.315577
611.763616	2563.426731
612.112594	2528.138654
612.461518	2455.041923
612.810389	2515.535769
613.159207	2538.220962
613.507971	2500.412308
613.856682	2507.974038
614.205340	2452.521346
614.553945	2477.727115
614.902496	2558.385577
615.250994	2545.782692
615.599439	2472.685962
615.947830	2545.782692
616.296169	2533.179808
616.644454	2518.056346
616.992686	2593.673654
617.340864	2460.083077
617.688990	2507.974038
618.037063	2439.918462
618.385082	2623.920577
618.733048	2540.741538
619.080961	2535.700385
619.428821	2427.315577
619.776628	2460.083077
620.124382	2586.111923
620.472083	2500.412308
620.819731	2487.809423
621.167326	2513.015192
621.514868	2455.041923
621.862357	2492.850577
622.209793	2419.753846
622.557176	2507.974038
622.904506	2530.659231
623.251783	2472.685962
623.599007	2465.124231
623.946179	2560.906154
624.293297	2472.685962
624.640363	2490.330000
624.987376	2444.959615
625.334336	2507.974038
625.681243	2465.124231
626.028097	2525.618077
626.374899	2460.083077
626.721647	2482.768269
627.068343	2442.439038
627.414987	2528.138654
627.761577	2447.480192
628.108115	2520.576923
628.454600	2490.330000
628.801032	2530.659231
629.147412	2482.768269
629.493739	2412.192115
629.840014	2515.535769
630.186236	2475.206538
630.532405	2525.618077
630.878521	2455.041923
631.224585	2535.700385
631.570597	2528.138654
631.916556	2507.974038
632.262462	2422.274423
632.608316	2472.685962
632.954117	2502.932885
633.299866	2492.850577
633.645562	2518.056346
633.991206	2480.247692
634.336797	2540.741538
634.682336	2450.000769
635.027823	2460.083077
635.373257	2432.356731
635.718639	2525.618077
636.063968	2439.918462
636.409245	2540.741538
636.754470	2515.535769
637.099642	2475.206538
637.444762	2472.685962
637.789829	2460.083077
638.134845	2470.165385
638.479808	2507.974038
638.824719	2417.233269
639.169577	2485.288846
639.514383	2404.630385
639.859137	2439.918462
640.203839	2482.768269
640.548489	2563.426731
640.893086	2518.056346
641.237632	2462.603654
641.582125	2515.535769
641.926566	2404.630385
642.270955	2520.576923
642.615292	2578.550192
642.959576	2424.795000
643.303809	2462.603654
643.647990	2497.891731
643.992118	2424.795000
644.336195	2477.727115
644.680219	2523.097500
645.024192	2475.206538
645.368112	2412.192115
645.711981	2533.179808
646.055797	2533.179808
646.399562	2490.330000
646.743274	2472.685962
647.086935	2555.865000
647.430544	2570.988462
647.774101	2429.836154
648.117606	2450.000769
648.461059	2500.412308
648.804460	2528.138654
649.147810	2399.589231
649.491108	2505.453462
649.834354	2404.630385
650.177548	2576.029615
650.520690	2477.727115
650.863781	2565.947308
651.206820	2518.056346
651.549807	2467.644808
651.892742	2523.097500
652.235626	2472.685962
652.578458	2507.974038
652.921238	2422.274423
653.263967	2427.315577
653.606644	2439.918462
653.949269	2535.700385
654.291843	2497.891731
654.634365	2510.494615
654.976836	2497.891731
655.319255	2495.371154
655.661622	2482.768269
656.003938	2497.891731
656.346203	2480.247692
656.688416	2467.644808
657.030577	2452.521346
657.372687	2465.124231
657.714746	2543.262115
658.056753	2475.206538
658.398708	2548.303269
658.740612	2465.124231
659.082465	2588.632500
659.424266	2439.918462
659.766016	2472.685962
660.107715	2467.644808
660.449362	2447.480192
660.790958	2523.097500
661.132503	2560.906154
661.473996	2409.671538
661.815438	2558.385577
662.156829	2447.480192
662.498168	2565.947308
662.839456	2495.371154
663.180693	2475.206538
663.521879	2548.303269
663.863013	2543.262115
664.204097	2513.015192
664.545129	2442.439038
664.886110	2492.850577
665.227040	2533.179808
665.567918	2581.070769
665.908746	2576.029615
666.249522	2460.083077
666.590248	2505.453462
666.930922	2480.247692
667.271545	2510.494615
667.612118	2457.562500
667.952639	2581.070769
668.293109	2518.056346
668.633528	2490.330000
668.973896	2510.494615
669.314213	2462.603654
669.654480	2460.083077
669.994695	2513.015192
670.334859	2424.795000
670.674973	2555.865000
671.015035	2455.041923
671.355047	2520.576923
671.695008	2470.165385
672.034918	2452.521346
672.374777	2518.056346
672.714585	2467.644808
673.054342	2505.453462
673.394049	2550.823846
673.733705	2434.877308
674.073310	2482.768269
674.412864	2533.179808
674.752368	2598.714808
675.091820	2485.288846
675.431223	2518.056346
675.770574	2480.247692
676.109875	2500.412308
676.449125	2397.068654
676.788324	2543.262115
677.127473	2568.467885
677.466571	2434.877308
677.805619	2520.576923
678.144616	2502.932885
678.483562	2429.836154
678.822458	2523.097500
679.161303	2523.097500
679.500098	2540.741538
679.838842	2480.247692
680.177535	2490.330000
680.516179	2490.330000
680.854771	2581.070769
681.193314	2515.535769
681.531805	2530.659231
681.870247	2515.535769
682.208638	2515.535769
682.546978	2530.659231
682.885268	2492.850577
683.223508	2490.330000
683.561697	2543.262115
683.899836	2497.891731
684.237925	2495.371154
684.575963	2409.671538
684.913951	2515.535769
685.251889	2505.453462
685.589776	2472.685962
685.927614	2412.192115
686.265401	2465.124231
686.603137	2497.891731
686.940824	2417.233269
687.278460	2465.124231
687.616046	2434.877308
687.953582	2407.150962
688.291068	2548.303269
688.628504	2553.344423
688.965889	2588.632500
689.303224	2492.850577
689.640510	2548.303269
689.977745	2467.644808
690.314930	2480.247692
690.652065	2462.603654
690.989150	2505.453462
691.326185	2402.109808
691.663170	2482.768269
692.000105	2424.795000
692.336990	2495.371154
692.673825	2477.727115
693.010610	2525.618077
693.347345	2490.330000
693.684030	2528.138654
694.020665	2553.344423
694.357251	2533.179808
694.693786	2427.315577
695.030272	2545.782692
695.366707	2507.974038
695.703093	2515.535769
696.039429	2419.753846
696.375716	2467.644808
696.711952	2472.685962
697.048139	2412.192115
697.384276	2528.138654
697.720363	2485.288846
698.056400	2573.509038
698.392388	2394.548077
698.728326	2525.618077
699.064214	2487.809423
699.400053	2507.974038
699.735842	2530.659231
700.071581	2472.685962
700.407270	2518.056346
700.742910	2502.932885
701.078501	2507.974038
701.414042	2490.330000
701.749533	2515.535769
702.084974	2518.056346
702.420366	2500.412308
702.755709	2442.439038
703.091002	2465.124231
703.426246	2502.932885
703.761440	2528.138654
704.096584	2510.494615
704.431679	2465.124231
704.766725	2528.138654
705.101721	2510.494615
705.436668	2487.809423
705.771565	2475.206538
706.106413	2558.385577
706.441212	2573.509038
706.775961	2475.206538
707.110661	2573.509038
707.445311	2502.932885
707.779913	2528.138654
708.114465	2565.947308
708.448967	2472.685962
708.783421	2490.330000
709.117825	2490.330000
709.452180	2497.891731
709.786485	2457.562500
710.120742	2520.576923
710.454949	2535.700385
710.789107	2525.618077
711.123216	2472.685962
711.457275	2452.521346
711.791286	2570.988462
712.125247	2467.644808
712.459159	2538.220962
712.793023	2475.206538
713.126837	2515.535769
713.460602	2470.165385
713.794318	2523.097500
714.127985	2528.138654
714.461602	2482.768269
714.795171	2518.056346
715.128691	2535.700385
715.462162	2450.000769
715.795584	2518.056346
716.128957	2550.823846
716.462281	2472.685962
716.795556	2593.673654
717.128782	2520.576923
717.461960	2548.303269
717.795088	2545.782692
718.128167	2545.782692
718.461198	2424.795000
718.794180	2500.412308
719.127113	2482.768269
719.459997	2502.932885
719.792833	2513.015192
720.125619	2442.439038
720.458357	2475.206538
720.791046	2510.494615
721.123686	2560.906154
721.456278	2515.535769
721.788821	2465.124231
722.121315	2543.262115
722.453761	2465.124231
722.786158	2515.535769
723.118506	2538.220962
723.450805	2492.850577
723.783056	2535.700385
724.115259	2492.850577
724.447412	2417.233269
724.779518	2513.015192
725.111574	2520.576923
725.443582	2553.344423
725.775542	2444.959615
726.107453	2523.097500
726.439315	2560.906154
726.771129	2520.576923
727.102895	2475.206538
727.434612	2477.727115
727.766281	2490.330000
728.097901	2475.206538
728.429473	2465.124231
728.760996	2477.727115
729.092471	2543.262115
729.423897	2455.041923
729.755276	2507.974038
730.086606	2447.480192
730.417887	2502.932885
730.749120	2450.000769
731.080305	2447.480192
731.411442	2513.015192
731.742530	2513.015192
732.073570	2470.165385
732.404562	2455.041923
732.735506	2553.344423
733.066401	2510.494615
733.397249	2414.712692
733.728048	2455.041923
734.058798	2472.685962
734.389501	2510.494615
734.720156	2490.330000
735.050762	2477.727115
735.381320	2507.974038
735.711831	2485.288846
736.042293	2560.906154
736.372707	2510.494615
736.703073	2467.644808
737.033391	2497.891731
737.363661	2523.097500
737.693883	2510.494615
738.024056	2480.247692
738.354182	2487.809423
738.684260	2548.303269
739.014290	2434.877308
739.344272	2530.659231
739.674207	2419.753846
740.004093	2518.056346
740.333931	2407.150962
740.663722	2497.891731
740.993464	2460.083077
741.323159	2555.865000
741.652806	2462.603654
741.982405	2492.850577
742.311956	2472.685962
742.641460	2530.659231
742.970915	2492.850577
743.300323	2540.741538
743.629683	2450.000769
743.958996	2404.630385
744.288260	2510.494615
744.617477	2515.535769
744.946647	2520.576923
745.275768	2500.412308
745.604842	2533.179808
745.933869	2520.576923
746.262847	2583.591346
746.591778	2439.918462
746.920662	2369.342308
747.249498	2465.124231
747.578286	2419.753846
747.907027	2540.741538
748.235720	2470.165385
748.564365	2596.194231
748.892963	2402.109808
749.221514	2495.371154
749.550017	2470.165385
749.878473	2465.124231
750.206881	2528.138654
750.535242	2576.029615
750.863555	2487.809423
751.191821	2439.918462
751.520039	2558.385577
751.848210	2492.850577
752.176334	2553.344423
752.504411	2518.056346
752.832440	2520.576923
753.160421	2507.974038
753.488356	2525.618077
753.816243	2455.041923
754.144082	2487.809423
754.471875	2480.247692
754.799620	2437.397885
755.127318	2507.974038
755.454969	2533.179808
755.782572	2502.932885
756.110129	2444.959615
756.437638	2533.179808
756.765100	2492.850577
757.092515	2510.494615
757.419882	2444.959615
757.747203	2462.603654
758.074477	2565.947308
758.401703	2530.659231
758.728882	2495.371154
759.056014	2492.850577
759.383099	2495.371154
759.710138	2507.974038
760.037129	2465.124231
760.364073	2502.932885
760.690970	2444.959615
761.017820	2462.603654
761.344623	2518.056346
761.671379	2563.426731
761.998088	2455.041923
762.324751	2518.056346
762.651366	2525.618077
762.977935	2422.274423
763.304456	2545.782692
763.630931	2487.809423
763.957359	2538.220962
764.283740	2502.932885
764.610074	2510.494615
764.936362	2507.974038
765.262602	2533.179808
765.588796	2492.850577
765.914943	2540.741538
766.241044	2460.083077
766.567097	2482.768269
766.893104	2475.206538
767.219064	2450.000769
767.544978	2480.247692
767.870845	2495.371154
768.196665	2510.494615
768.522438	2563.426731
768.848165	2560.906154
769.173846	2480.247692
769.499479	2487.809423
769.825066	2500.412308
770.150607	2490.330000
770.476101	2465.124231
770.801548	2535.700385
771.126949	2402.109808
771.452303	2460.083077
771.777611	2470.165385
772.102872	2467.644808
772.428087	2467.644808
772.753256	2434.877308
773.078378	2439.918462
773.403453	2434.877308
773.728482	2447.480192
774.053465	2502.932885
774.378401	2457.562500
774.703291	2555.865000
775.028135	2558.385577
775.352932	2447.480192
775.677683	2495.371154
776.002388	2533.179808
776.327046	2457.562500
776.651658	2452.521346
776.976224	2477.727115
777.300743	2447.480192
777.625216	2424.795000
777.949643	2412.192115
778.274024	2475.206538
778.598359	2462.603654
778.922647	2462.603654
779.246889	2492.850577
779.571086	2500.412308
779.895236	2523.097500
780.219339	2490.330000
780.543397	2465.124231
780.867409	2444.959615
781.191374	2434.877308
781.515294	2485.288846
781.839167	2565.947308
782.162995	2492.850577
782.486776	2507.974038
782.810511	2568.467885
783.134201	2523.097500
783.457844	2477.727115
783.781441	2480.247692
784.104993	2553.344423
784.428498	2467.644808
784.751958	2530.659231
785.075372	2502.932885
785.398739	2525.618077
785.722061	2460.083077
786.045337	2518.056346
786.368568	2460.083077
786.691752	2485.288846
787.014891	2467.644808
787.337983	2344.136538
787.661030	2553.344423
787.984031	2439.918462
788.306987	2492.850577
788.629897	2548.303269
788.952760	2477.727115
789.275579	2540.741538
789.598351	2515.535769
789.921078	2414.712692
790.243759	2568.467885
790.566395	2477.727115
790.888984	2460.083077
791.211529	2447.480192
791.534027	2467.644808
791.856480	2568.467885
792.178888	2457.562500
792.501249	2535.700385
792.823566	2447.480192
793.145836	2543.262115
793.468062	2492.850577
793.790241	2472.685962
794.112375	2538.220962
794.434464	2482.768269
794.756507	2500.412308
795.078505	2540.741538
795.400457	2470.165385
795.722364	2543.262115
796.044226	2520.576923
796.366042	2505.453462
796.687812	2475.206538
797.009538	2495.371154
797.331218	2480.247692
797.652852	2424.795000
797.974442	2523.097500
798.295986	2558.385577
798.617484	2427.315577
798.938938	2480.247692
799.260346	2538.220962
799.581709	2495.371154
799.903026	2588.632500
800.224299	2513.015192
800.545526	2419.753846
800.866708	2502.932885
801.187845	2422.274423
801.508936	2558.385577
801.829983	2394.548077
802.150984	2460.083077
802.471940	2485.288846
802.792851	2495.371154
803.113717	2507.974038
803.434538	2452.521346
803.755314	2439.918462
804.076045	2502.932885
804.396731	2472.685962
804.717372	2487.809423
805.037967	2560.906154
805.358518	2450.000769
805.679024	2576.029615
805.999485	2565.947308
806.319901	2457.562500
806.640272	2515.535769
806.960598	2540.741538
807.280879	2492.850577
807.601115	2523.097500
807.921306	2462.603654
808.241453	2507.974038
808.561554	2530.659231
808.881611	2500.412308
809.201623	2475.206538
809.521590	2515.535769
809.841513	2538.220962
810.161390	2510.494615
810.481223	2490.330000
810.801011	2472.685962
811.120755	2462.603654
811.440453	2528.138654
811.760107	2611.317692
812.079716	2535.700385
812.399281	2485.288846
812.718801	2444.959615
813.038276	2452.521346
813.357707	2500.412308
813.677093	2467.644808
813.996434	2502.932885
814.315731	2472.685962
814.634983	2490.330000
814.954191	2475.206538
815.273354	2513.015192
815.592473	2465.124231
815.911547	2555.865000
816.230577	2515.535769
816.549562	2422.274423
816.868502	2470.165385
817.187399	2543.262115
817.506250	2502.932885
817.825058	2553.344423
818.143821	2515.535769
818.462539	2560.906154
818.781213	2535.700385
819.099843	2560.906154
819.418429	2465.124231
819.736970	2502.932885
820.055466	2500.412308
820.373919	2422.274423
820.692327	2565.947308
821.010691	2457.562500
821.329011	2495.371154
821.647286	2570.988462
821.965517	2490.330000
822.283704	2497.891731
822.601847	2472.685962
822.919945	2538.220962
823.237999	2419.753846
823.556010	2520.576923
823.873976	2533.179808
824.191897	2500.412308
824.509775	2497.891731
824.827609	2465.124231
825.145398	2439.918462
825.463144	2495.371154
825.780845	2439.918462
826.098502	2543.262115
826.416116	2482.768269
826.733685	2450.000769
827.051210	2497.891731
827.368692	2480.247692
827.686129	2460.083077
828.003522	2570.988462
828.320872	2450.000769
828.638177	2523.097500
828.955439	2450.000769
829.272656	2485.288846
829.589830	2485.288846
829.906960	2570.988462
830.224046	2540.741538
830.541088	2485.288846
830.858086	2472.685962
831.175041	2568.467885
831.491952	2510.494615
831.808819	2560.906154
832.125642	2457.562500
832.442421	2485.288846
832.759157	2553.344423
833.075849	2535.700385
833.392497	2540.741538
833.709101	2477.727115
834.025662	2442.439038
834.342179	2515.535769
834.658653	2447.480192
834.975083	2500.412308
835.291469	2467.644808
835.607811	2404.630385
835.924110	2467.644808
836.240366	2513.015192
836.556578	2450.000769
836.872746	2487.809423
837.188871	2613.838269
837.504952	2457.562500
837.820990	2505.453462
838.136984	2480.247692
838.452935	2402.109808
838.768842	2525.618077
839.084706	2487.809423
839.400526	2523.097500
839.716303	2535.700385
840.032037	2505.453462
840.347727	2462.603654
840.663373	2432.356731
840.978977	2520.576923
841.294537	2462.603654
841.610054	2487.809423
841.925527	2606.276538
842.240957	2535.700385
842.556344	2424.795000
842.871687	2530.659231
843.186987	2452.521346
843.502244	2402.109808
843.817458	2467.644808
844.132629	2487.809423
844.447756	2510.494615
844.762840	2465.124231
845.077881	2586.111923
845.392879	2452.521346
845.707833	2518.056346
846.022745	2510.494615
846.337613	2467.644808
846.652438	2487.809423
846.967221	2424.795000
847.281960	2507.974038
847.596656	2500.412308
847.911309	2462.603654
848.225919	2507.974038
848.540485	2502.932885
848.855009	2412.192115
849.169490	2560.906154
849.483928	2535.700385
849.798323	2502.932885
850.112675	2550.823846
850.426984	2480.247692
850.741251	2601.235385
851.055474	2523.097500
851.369654	2555.865000
851.683792	2525.618077
851.997887	2535.700385
852.311938	2525.618077
852.625947	2555.865000
852.939914	2492.850577
853.253837	2482.768269
853.567718	2507.974038
853.881555	2533.179808
854.195350	2497.891731
854.509103	2450.000769
854.822812	2490.330000
855.136479	2507.974038
855.450103	2444.959615
855.763685	2467.644808
856.077224	2500.412308
856.390720	2570.988462
856.704173	2477.727115
857.017584	2457.562500
857.330953	2472.685962
857.644278	2505.453462
857.957561	2535.700385
858.270802	2412.192115
858.584000	2553.344423
858.897155	2450.000769
859.210268	2528.138654
859.523339	2467.644808
859.836367	2510.494615
860.149352	2480.247692
860.462295	2465.124231
860.775195	2487.809423
861.088054	2442.439038
861.400869	2500.412308
861.713642	2565.947308
862.026373	2457.562500
862.339062	2543.262115
862.651708	2490.330000
862.964312	2480.247692
863.276873	2573.509038
863.589392	2397.068654
863.901869	2480.247692
864.214303	2384.465769
864.526696	2495.371154
864.839045	2495.371154
865.151353	2538.220962
865.463619	2470.165385
865.775842	2492.850577
866.088023	2462.603654
866.400162	2513.015192
866.712258	2558.385577
867.024313	2470.165385
867.336325	2505.453462
867.648296	2450.000769
867.960224	2495.371154
868.272110	2543.262115
868.583954	2434.877308
868.895755	2563.426731
869.207515	2475.206538
869.519233	2472.685962
869.830909	2500.412308
870.142542	2477.727115
870.454134	2480.247692
870.765684	2467.644808
871.077191	2510.494615
871.388657	2515.535769
871.700081	2523.097500
872.011463	2535.700385
872.322803	2513.015192
872.634101	2581.070769
872.945357	2472.685962
873.256571	2525.618077
873.567744	2482.768269
873.878874	2555.865000
874.189963	2560.906154
874.501010	2520.576923
874.812015	2533.179808
875.122979	2429.836154
875.433900	2462.603654
875.744780	2540.741538
876.055618	2570.988462
876.366415	2450.000769
876.677169	2495.371154
876.987882	2586.111923
877.298554	2485.288846
877.609183	2601.235385
877.919771	2460.083077
878.230317	2523.097500
878.540822	2492.850577
878.851285	2442.439038
879.161707	2439.918462
879.472087	2434.877308
879.782425	2450.000769
880.092722	2460.083077
880.402977	2495.371154
880.713191	2570.988462
881.023363	2472.685962
881.333494	2565.947308
881.643583	2490.330000
881.953631	2487.809423
882.263637	2545.782692
882.573602	2495.371154
882.883526	2518.056346
883.193408	2555.865000
883.503248	2543.262115
883.813048	2533.179808
884.122806	2442.439038
884.432522	2432.356731
884.742197	2482.768269
885.051831	2560.906154
885.361424	2465.124231
885.670975	2485.288846
885.980485	2505.453462
886.289954	2510.494615
886.599382	2495.371154
886.908768	2447.480192
887.218113	2417.233269
887.527417	2518.056346
887.836680	2444.959615
888.145901	2497.891731
888.455082	2447.480192
888.764221	2482.768269
889.073319	2457.562500
889.382376	2452.521346
889.691392	2528.138654
890.000366	2497.891731
890.309300	2540.741538
890.618193	2513.015192
890.927044	2460.083077
891.235855	2467.644808
891.544625	2528.138654
891.853353	2414.712692
892.162041	2470.165385
892.470687	2540.741538
892.779293	2553.344423
893.087858	2442.439038
893.396381	2578.550192
893.704864	2515.535769
894.013306	2450.000769
894.321707	2525.618077
894.630068	2565.947308
894.938387	2578.550192
895.246665	2518.056346
895.554903	2490.330000
895.863100	2447.480192
896.171256	2442.439038
896.479371	2523.097500
896.787446	2487.809423
897.095480	2475.206538
897.403473	2502.932885
897.711425	2560.906154
898.019336	2510.494615
898.327207	2553.344423
898.635038	2533.179808
898.942827	2510.494615
899.250576	2530.659231
899.558284	2581.070769
899.865952	2535.700385
900.173579	2480.247692
900.481165	2490.330000
900.788711	2485.288846
901.096216	2505.453462
901.403681	2467.644808
901.711105	2510.494615
902.018489	2455.041923
902.325832	2513.015192
902.633135	2487.809423
902.940397	2513.015192
903.247619	2424.795000
903.554800	2497.891731
903.861941	2460.083077
904.169041	2568.467885
904.476101	2439.918462
904.783121	2523.097500
905.090100	2497.891731
905.397039	2505.453462
905.703938	2447.480192
906.010796	2475.206538
906.317614	2525.618077
906.624391	2543.262115
906.931129	2568.467885
907.237826	2447.480192
907.544483	2538.220962
907.851099	2442.439038
908.157675	2530.659231
908.464211	2432.356731
908.770707	2538.220962
909.077163	2452.521346
909.383578	2470.165385
909.689954	2409.671538
909.996289	2560.906154
910.302584	2598.714808
910.608839	2475.206538
910.915054	2414.712692
911.221229	2490.330000
911.527363	2505.453462
911.833458	2467.644808
912.139513	2523.097500
912.445527	2573.509038
912.751502	2424.795000
913.057436	2497.891731
913.363331	2472.685962
913.669186	2495.371154
913.975000	2444.959615
914.280775	2452.521346
914.586510	2472.685962
914.892205	2480.247692
915.197859	2482.768269
915.503475	2482.768269
915.809050	2525.618077
916.114585	2515.535769
916.420081	2520.576923
916.725536	2414.712692
917.030952	2480.247692
917.336328	2482.768269
917.641665	2482.768269
917.946961	2510.494615
918.252218	2477.727115
918.557435	2485.288846
918.862612	2535.700385
919.167750	2530.659231
919.472848	2455.041923
919.777906	2533.179808
920.082925	2578.550192
920.387904	2497.891731
920.692843	2535.700385
920.997743	2447.480192
921.302603	2520.576923
921.607423	2502.932885
921.912204	2447.480192
922.216946	2548.303269
922.521647	2422.274423
922.826310	2530.659231
923.130932	2434.877308
923.435516	2518.056346
923.740059	2523.097500
924.044564	2465.124231
924.349028	2480.247692
924.653454	2497.891731
924.957840	2432.356731
925.262186	2470.165385
925.566493	2452.521346
925.870761	2399.589231
926.174989	2518.056346
926.479178	2560.906154
926.783328	2439.918462
927.087438	2475.206538
927.391509	2470.165385
927.695541	2437.397885
927.999533	2419.753846
928.303486	2500.412308
928.607400	2447.480192
928.911275	2530.659231
929.215110	2528.138654
929.518906	2570.988462
929.822663	2444.959615
930.126381	2502.932885
930.430060	2505.453462
930.733699	2467.644808
931.037299	2480.247692
931.340861	2482.768269
931.644383	2510.494615
931.947866	2497.891731
932.251309	2462.603654
932.554714	2535.700385
932.858080	2470.165385
933.161407	2576.029615
933.464694	2497.891731
933.767943	2525.618077
934.071153	2467.644808
934.374323	2500.412308
934.677455	2502.932885
934.980548	2528.138654
935.283602	2487.809423
935.586617	2487.809423
935.889593	2520.576923
936.192530	2450.000769
936.495428	2452.521346
936.798287	2502.932885
937.101108	2412.192115
937.403890	2525.618077
937.706632	2505.453462
938.009336	2540.741538
938.312002	2490.330000
938.614628	2530.659231
938.917216	2487.809423
939.219765	2533.179808
939.522275	2429.836154
939.824747	2510.494615
940.127179	2394.548077
940.429573	2452.521346
940.731929	2465.124231
941.034246	2601.235385
941.336524	2480.247692
941.638763	2588.632500
941.940964	2560.906154
942.243126	2432.356731
942.545250	2500.412308
942.847335	2480.247692
943.149381	2513.015192
943.451389	2434.877308
943.753359	2424.795000
944.055290	2460.083077
944.357182	2450.000769
944.659036	2565.947308
944.960851	2513.015192
945.262628	2502.932885
945.564367	2490.330000
945.866067	2515.535769
946.167729	2336.574808
946.469352	2510.494615
946.770937	2490.330000
947.072484	2505.453462
947.373992	2452.521346
947.675462	2492.850577
947.976893	2444.959615
948.278286	2626.441154
948.579641	2477.727115
948.880958	2444.959615
949.182236	2500.412308
949.483476	2427.315577
949.784678	2437.397885
950.085841	2452.521346
950.386967	2462.603654
950.688054	2505.453462
950.989103	2513.015192
951.290114	2558.385577
951.591087	2475.206538
951.892021	2535.700385
952.192917	2482.768269
952.493776	2490.330000
952.794596	2472.685962
953.095378	2457.562500
953.396122	2533.179808
953.696828	2495.371154
953.997496	2525.618077
954.298126	2455.041923
954.598718	2457.562500
954.899272	2520.576923
955.199788	2492.850577
955.500266	2457.562500
955.800706	2543.262115
956.101108	2437.397885
956.401472	2515.535769
956.701798	2475.206538
957.002087	2492.850577
957.302337	2535.700385
957.602550	2507.974038
957.902724	2543.262115
958.202861	2528.138654
958.502960	2480.247692
958.803022	2533.179808
959.103045	2513.015192
959.403031	2530.659231
959.702979	2412.192115
960.002889	2495.371154
960.302762	2510.494615
960.602596	2515.535769
960.902393	2429.836154
961.202153	2485.288846
961.501875	2523.097500
961.801559	2550.823846
962.101205	2417.233269
962.400814	2414.712692
962.700385	2412.192115
962.999918	2515.535769
963.299414	2540.741538
963.598873	2452.521346
963.898293	2487.809423
964.197677	2515.535769
964.497022	2548.303269
964.796331	2455.041923
965.095601	2460.083077
965.394835	2578.550192
965.694030	2361.780577
965.993189	2548.303269
966.292309	2538.220962
966.591393	2500.412308
966.890439	2487.809423
967.189447	2520.576923
967.488419	2452.521346
967.787353	2472.685962
968.086249	2460.083077
968.385108	2497.891731
968.683930	2515.535769
968.982714	2510.494615
969.281462	2565.947308
969.580172	2495.371154
969.878844	2543.262115
970.177480	2487.809423
970.476078	2455.041923
970.774639	2472.685962
971.073162	2523.097500
971.371649	2414.712692
971.670098	2452.521346
971.968510	2548.303269
972.266885	2560.906154
972.565223	2450.000769
972.863524	2558.385577
973.161788	2495.371154
973.460014	2497.891731
973.758204	2480.247692
974.056356	2545.782692
974.354471	2492.850577
974.652550	2497.891731
974.950591	2523.097500
975.248595	2470.165385
975.546563	2497.891731
975.844493	2465.124231
976.142386	2477.727115
976.440243	2384.465769
976.738062	2505.453462
977.035845	2427.315577
977.333590	2518.056346
977.631299	2533.179808
977.928971	2568.467885
978.226606	2437.397885
978.524204	2623.920577
978.821765	2593.673654
979.119290	2515.535769
979.416777	2477.727115
979.714228	2502.932885
980.011642	2510.494615
980.309020	2520.576923
980.606360	2447.480192
980.903664	2523.097500
981.200931	2460.083077
981.498162	2490.330000
981.795356	2535.700385
982.092513	2467.644808
982.389633	2490.330000
982.686717	2450.000769
982.983764	2485.288846
983.280775	2457.562500
983.577749	2507.974038
983.874686	2485.288846
984.171587	2510.494615
984.468451	2477.727115
984.765279	2548.303269
985.062070	2497.891731
985.358824	2482.768269
985.655543	2505.453462
985.952224	2502.932885
986.248869	2528.138654
986.545478	2482.768269
986.842050	2450.000769
987.138586	2442.439038
987.435086	2475.206538
987.731549	2507.974038
988.027975	2581.070769
988.324366	2429.836154
988.620719	2540.741538
988.917037	2497.891731
989.213318	2502.932885
989.509563	2555.865000
989.805772	2470.165385
990.101944	2500.412308
990.398080	2447.480192
990.694180	2399.589231
990.990244	2487.809423
991.286271	2434.877308
991.582262	2450.000769
991.878217	2533.179808
992.174136	2586.111923
992.470019	2432.356731
992.765865	2472.685962
993.061676	2450.000769
993.357450	2505.453462
993.653188	2583.591346
993.948890	2439.918462
994.244556	2530.659231
994.540186	2525.618077
994.835780	2523.097500
995.131337	2450.000769
995.426859	2500.412308
995.722345	2576.029615
996.017795	2543.262115
996.313208	2460.083077
996.608586	2565.947308
996.903928	2434.877308
997.199234	2528.138654
997.494504	2490.330000
997.789738	2555.865000
998.084936	2386.986346
998.380099	2502.932885
998.675225	2437.397885
998.970316	2515.535769
999.265371	2497.891731
999.560390	2472.685962
999.855373	2540.741538
1000.150320	2507.974038
1000.445232	2518.056346
1000.740108	2502.932885
1001.034948	2500.412308
1001.329752	2495.371154
1001.624521	2457.562500
1001.919254	2442.439038
1002.213951	2429.836154
1002.508613	2444.959615
1002.803239	2477.727115
1003.097829	2417.233269
1003.392384	2500.412308
1003.686903	2450.000769
1003.981386	2502.932885
1004.275834	2497.891731
1004.570246	2518.056346
1004.864623	2444.959615
1005.158964	2515.535769
1005.453270	2485.288846
1005.747540	2502.932885
1006.041775	2553.344423
1006.335974	2472.685962
1006.630138	2447.480192
1006.924266	2462.603654
1007.218359	2535.700385
1007.512416	2460.083077
1007.806438	2485.288846
1008.100425	2573.509038
1008.394376	2475.206538
1008.688292	2523.097500
1008.982172	2444.959615
1009.276017	2452.521346
1009.569827	2490.330000
1009.863602	2482.768269
1010.157341	2530.659231
1010.451045	2543.262115
1010.744714	2470.165385
1011.038347	2480.247692
1011.331945	2520.576923
1011.625508	2424.795000
1011.919036	2465.124231
1012.212528	2409.671538
1012.505986	2520.576923
1012.799408	2450.000769
1013.092795	2402.109808
1013.386147	2497.891731
1013.679464	2530.659231
1013.972745	2540.741538
1014.265992	2550.823846
1014.559204	2470.165385
1014.852380	2502.932885
1015.145521	2450.000769
1015.438628	2530.659231
1015.731699	2500.412308
1016.024736	2505.453462
1016.317737	2419.753846
1016.610703	2495.371154
1016.903635	2515.535769
1017.196531	2505.453462
1017.489393	2467.644808
1017.782219	2505.453462
1018.075011	2442.439038
1018.367768	2502.932885
1018.660490	2518.056346
1018.953177	2518.056346
1019.245829	2518.056346
