Dividing Wavelength (nm)	Counts (n)	Blue Motor Position (mm): 0.000000	Red Motor Position (mm): 13.500000	
326.493990	2127.412293
326.888308	2127.412293
327.282561	2127.412293
327.676750	2095.710998
328.070874	2093.525657
328.464933	2095.337952
328.858929	2102.927409
329.252859	2114.466610
329.646726	2125.589916
330.040528	2136.788840
330.434265	2155.574699
330.827938	2171.824859
331.221547	2190.832529
331.615091	2208.809284
332.008571	2228.699157
332.401986	2245.813874
332.795338	2265.746596
333.188625	2286.591767
333.581847	2302.153809
333.975006	2323.382108
334.368100	2342.430108
334.761129	2360.290916
335.154095	2374.935468
335.546996	2396.410783
335.939833	2408.396127
336.332606	2421.369536
336.725315	2435.116763
337.117960	2441.269491
337.510540	2451.324072
337.903056	2463.969807
338.295508	2472.580097
338.687896	2478.619400
339.080220	2490.085504
339.472480	2496.018942
339.864676	2500.314005
340.256807	2503.991527
340.648875	2505.629902
341.040879	2509.130983
341.432818	2513.123577
341.824694	2510.913031
342.216506	2512.304390
342.608253	2512.848834
342.999937	2511.984276
343.391557	2512.090141
343.783113	2512.795902
344.174605	2510.877743
344.566033	2508.062259
344.957397	2511.507887
345.348697	2506.315499
345.739934	2503.709222
346.131106	2500.941629
346.522215	2500.490446
346.913260	2497.170846
347.304241	2499.204951
347.695159	2494.002481
348.086012	2492.555669
348.476802	2490.856801
348.867528	2493.896616
349.258191	2487.907726
349.648789	2487.375884
350.039324	2484.762046
350.429796	2488.646255
350.820203	2485.538383
351.210548	2483.824391
351.600828	2481.918835
351.991045	2483.552169
352.381198	2485.382107
352.771288	2482.256592
353.161314	2479.380614
353.551276	2481.339102
353.941175	2482.627117
354.331010	2482.165851
354.720782	2479.068062
355.110490	2480.774493
355.500135	2480.635861
355.889717	2479.912456
356.279235	2481.079483
356.668689	2480.638382
357.058080	2482.475882
357.447408	2480.182157
357.836672	2480.136787
358.225873	2480.582929
358.615010	2478.957157
359.004084	2484.615852
359.393095	2486.042499
359.782043	2486.367653
360.170927	2485.966881
360.559748	2485.329175
360.948505	2486.589464
361.337199	2485.319093
361.725830	2488.759681
362.114398	2492.094404
362.502903	2493.165649
362.891344	2491.673468
363.279722	2492.278406
363.668037	2490.519043
364.056289	2491.567603
364.444478	2492.908550
364.832603	2492.434682
365.220665	2493.674806
365.608665	2493.861328
365.996601	2494.161277
366.384474	2494.047851
366.772284	2499.154540
367.160031	2497.826196
367.547715	2498.957935
367.935336	2503.719305
368.322893	2506.552433
368.710388	2506.617968
369.097820	2516.773372
369.485189	2517.658095
369.872495	2523.014321
370.259738	2528.373068
370.646918	2541.265818
371.034035	2544.025850
371.421090	2556.273333
371.808081	2563.404046
372.195010	2570.812021
372.581875	2587.568817
372.968678	2601.406784
373.355418	2611.237034
373.742096	2629.359982
374.128710	2644.861530
374.515262	2656.685556
374.901751	2674.075017
375.288177	2686.687983
375.674540	2708.289328
376.060841	2728.675754
376.447079	2742.612024
376.833254	2765.476177
377.219367	2776.276849
377.605417	2814.035091
377.991404	2825.798624
378.377329	2847.200843
378.763191	2860.305322
379.148991	2900.947104
379.534727	2926.188162
379.920402	2953.448201
380.306013	2964.942032
380.691563	3016.099661
381.077049	3034.845192
381.462474	3050.999569
381.847835	3091.124633
382.233134	3116.315279
382.618371	3114.354270
383.003545	3180.844569
383.388657	3190.299253
383.773706	3222.063563
384.158693	3240.451172
384.543618	3263.995881
384.928480	3298.061478
385.313280	3344.724918
385.698017	3345.216431
386.082692	3397.384812
386.467305	3401.876480
386.851856	3432.062909
387.236344	3453.848255
387.620770	3485.761280
388.005133	3509.537882
388.389435	3537.828837
388.773674	3543.676576
389.157851	3583.174016
389.541965	3594.083073
389.926018	3555.808112
390.310008	3620.438225
390.693936	3631.223774
391.077802	3664.311387
391.461606	3640.673417
391.845348	3694.606201
392.229027	3682.855272
392.612645	3681.816794
392.996200	3740.183273
393.379694	3759.800923
393.763125	3801.733241
394.146494	3756.630038
394.529801	3791.282929
394.913047	3808.400167
395.296230	3760.773866
395.679351	3784.311013
396.062410	3779.106022
396.445408	3739.248139
396.828343	3740.682347
397.211217	3725.823546
397.594028	3638.568735
397.976778	3657.548679
398.359466	3649.177843
398.742092	3634.319042
399.124656	3548.495919
399.507158	3570.283786
399.889598	3557.159142
400.271977	3559.004204
400.654294	3510.021833
401.036549	3473.861636
401.418742	3422.036054
401.800874	3439.057510
402.182944	3414.239909
402.564952	3405.387643
402.946898	3363.770398
403.328783	3322.112823
403.710606	3243.982500
404.092367	3287.134777
404.474067	3237.953280
404.855705	3204.570759
405.237282	3148.026657
405.618797	3146.176554
406.000250	3123.022534
406.381642	3109.852520
406.762972	3063.917526
407.144240	3033.650438
407.525447	3001.681961
407.906593	2981.242603
408.287677	2959.958851
408.668700	2916.158786
409.049661	2897.105745
409.430560	2873.747559
409.811399	2840.493587
410.192176	2836.632063
410.572891	2805.134934
410.953545	2792.126237
411.334138	2758.915115
411.714669	2745.230903
412.095139	2715.697303
412.475547	2709.237065
412.855894	2692.694518
413.236180	2673.893535
413.616405	2658.349137
413.996568	2649.849752
414.376670	2632.674541
414.756711	2620.908488
415.136691	2608.996241
415.516609	2603.032556
415.896466	2595.107862
416.276262	2589.524784
416.655997	2577.935172
417.035670	2574.396282
417.415283	2572.934347
417.794834	2561.392625
418.174324	2559.769374
418.553753	2554.912222
418.933121	2554.284598
419.312428	2548.562889
419.691674	2543.975439
420.070859	2543.599873
420.449983	2539.682896
420.829045	2541.268339
421.208047	2539.544264
421.586988	2537.502597
421.965867	2536.736342
422.344686	2535.866743
422.723444	2534.296423
423.102141	2530.911288
423.480777	2532.615198
423.859352	2530.805424
424.237866	2532.726104
424.616319	2531.851464
424.994712	2529.915661
425.373044	2532.204344
425.751314	2533.139478
426.129524	2528.947759
426.507673	2530.056813
426.885762	2530.553367
427.263789	2530.906247
427.641756	2531.959848
428.019662	2528.670496
428.397508	2528.186545
428.775292	2531.538912
429.153016	2530.659231
429.530679	2529.114117
429.908282	2529.658562
430.285824	2530.281144
430.663305	2530.172759
431.040726	2529.565300
431.418086	2527.173273
431.795385	2533.320960
432.172624	2530.818027
432.549802	2529.303160
432.926920	2529.149405
433.303977	2532.910106
433.680974	2530.903727
434.057910	2530.944056
434.434786	2528.945238
434.811601	2531.939684
435.188355	2530.306350
435.565050	2531.014632
435.941683	2531.180990
436.318257	2529.270393
436.694770	2525.918026
437.071222	2529.744261
437.447614	2528.403314
437.823946	2525.981040
438.200218	2527.952131
438.576429	2530.502955
438.952580	2528.652852
439.328670	2531.821217
439.704700	2531.604447
440.080670	2532.148892
440.456580	2531.649818
440.832429	2532.779036
441.208218	2529.093952
441.583947	2531.279293
441.959616	2531.760723
442.335224	2529.545136
442.710773	2533.751979
443.086261	2531.004550
443.461689	2533.187369
443.837057	2533.751979
444.212365	2532.814324
444.587612	2532.935312
444.962800	2533.633512
445.337927	2535.216434
445.712995	2534.253573
446.088002	2533.010929
446.462949	2533.852802
446.837837	2534.462781
447.212664	2535.952442
447.587431	2536.716177
447.962139	2536.055786
448.336786	2541.091899
448.711374	2535.297092
449.085901	2535.337422
449.460369	2537.903369
449.834776	2536.141486
450.209124	2536.436393
450.583412	2536.771630
450.957640	2537.008564
451.331808	2537.071578
451.705917	2534.946732
452.079965	2537.394212
452.453954	2536.532175
452.827883	2537.636188
453.201752	2538.672145
453.575562	2534.719880
453.949311	2537.240457
454.323001	2537.855478
454.696632	2537.260622
455.070202	2538.258770
455.443713	2536.721218
455.817164	2534.974458
456.190556	2534.480425
456.563888	2534.845909
456.937160	2534.911444
457.310373	2536.927906
457.683526	2539.080478
458.056619	2540.915458
458.429653	2535.770961
458.802628	2541.964018
459.175542	2538.568801
459.548398	2540.232382
459.921194	2541.285983
460.293930	2539.246836
460.666607	2539.985365
461.039224	2543.153731
461.411782	2543.027702
461.784280	2544.958464
462.156719	2543.909904
462.529099	2543.660367
462.901419	2542.510983
463.273680	2542.516025
463.645882	2543.020140
464.018024	2542.745397
464.390106	2544.872764
464.762130	2546.322096
465.134094	2544.676159
465.505999	2548.492313
465.877845	2550.395348
466.249631	2555.764177
466.621358	2553.185627
466.993026	2555.668395
467.364634	2555.912891
467.736184	2550.400389
468.107674	2548.814946
468.479105	2548.890564
468.850477	2548.031047
469.221790	2549.324103
469.593043	2548.540203
469.964238	2548.063814
470.335373	2550.360060
470.706449	2545.946530
471.077467	2548.008362
471.448425	2550.523897
471.819324	2554.977757
472.190164	2556.996739
472.560945	2553.684701
472.931667	2547.809236
473.302330	2548.827549
473.672934	2546.700182
474.043479	2548.883002
474.413965	2549.041798
474.784393	2545.323947
475.154761	2548.474668
475.525070	2544.575336
475.895321	2544.746735
476.265513	2543.708257
476.635645	2549.891233
477.005719	2546.831252
477.375734	2548.020965
477.745691	2550.342416
478.115588	2551.098589
478.485427	2549.298897
478.855207	2554.269475
479.224928	2552.563044
479.594591	2555.091183
479.964194	2554.602191
480.333739	2556.394321
480.703226	2555.038251
481.072653	2554.403065
481.442022	2558.050340
481.811333	2555.040771
482.180584	2556.328786
482.549777	2554.093034
482.918912	2552.799978
483.287988	2555.991029
483.657005	2555.381049
484.025964	2555.121430
484.394864	2551.688404
484.763706	2554.965154
485.132489	2551.360729
485.501213	2550.851573
485.869879	2554.193857
486.238487	2550.281922
486.607036	2555.343241
486.975527	2555.965823
487.343959	2552.631100
487.712333	2552.411810
488.080648	2553.525905
488.448905	2551.237221
488.817104	2553.755277
489.185244	2555.474311
489.553326	2552.374001
489.921350	2556.709393
490.289315	2556.227963
490.657222	2558.052861
491.025070	2556.885834
491.392861	2557.316852
491.760593	2557.238714
492.128267	2556.406924
492.495883	2555.418858
492.863440	2555.922973
493.230939	2552.542880
493.598380	2553.641851
493.965763	2550.113043
494.333088	2550.264278
494.700354	2550.889381
495.067563	2550.160934
495.434713	2548.817467
495.801805	2552.777293
496.168839	2552.295863
496.535815	2551.557334
496.902733	2551.466593
497.269593	2554.108158
497.636395	2552.701676
498.003139	2552.129505
498.369825	2554.975236
498.736453	2553.533466
499.103023	2553.898950
499.469535	2554.065308
499.835989	2553.609084
500.202385	2556.419527
500.568723	2554.677808
500.935003	2553.999773
501.301226	2553.775442
501.667390	2554.360216
502.033497	2553.256203
502.399546	2553.541028
502.765537	2553.319217
503.131470	2553.639331
503.497345	2553.485575
503.863163	2556.497665
504.228923	2555.202088
504.594625	2555.222253
504.960269	2553.697304
505.325856	2552.343754
505.691385	2552.704197
506.056856	2552.293342
506.422270	2553.606563
506.787625	2553.989691
507.152924	2554.806358
507.518164	2552.389124
507.883347	2550.980122
508.248472	2554.816440
508.613540	2553.946841
508.978550	2552.560524
509.343503	2551.733774
509.708398	2555.481872
510.073236	2555.065977
510.438016	2554.576985
510.802738	2553.644372
511.167403	2554.181255
511.532010	2553.248641
511.896561	2554.859290
512.261053	2555.285267
512.625488	2551.905174
512.989866	2550.271840
513.354186	2550.949875
513.718449	2550.055070
514.082655	2551.542211
514.446803	2554.032541
514.810894	2553.969526
515.174927	2555.454146
515.538904	2553.755277
515.902822	2555.370967
516.266684	2554.680329
516.630488	2553.021789
516.994235	2555.761656
517.357925	2555.711245
517.721558	2554.324927
518.085133	2553.238559
518.448651	2555.910370
518.812112	2554.919784
519.175516	2558.040258
519.538863	2554.944989
519.902152	2552.442057
520.265385	2556.948848
520.628560	2555.504557
520.991678	2554.524053
521.354739	2556.041440
521.717743	2556.616132
522.080690	2557.321893
522.443580	2556.578323
522.806413	2557.989846
523.169189	2557.659651
523.531908	2556.646379
523.894569	2555.749053
524.257174	2558.080587
524.619722	2554.748384
524.982213	2557.248797
525.344647	2558.428427
525.707025	2556.114537
526.069345	2557.077397
526.431608	2555.575134
526.793815	2556.389280
527.155964	2557.263920
527.518057	2555.181924
527.880093	2555.509599
528.242072	2557.601677
528.603995	2554.881975
528.965860	2558.340207
529.327669	2558.491441
529.689421	2551.688404
530.051117	2558.335165
530.412755	2552.893240
530.774337	2555.741492
531.135862	2554.206460
531.497331	2553.921635
531.858743	2552.479865
532.220098	2553.992211
532.581396	2550.937272
532.942638	2554.335010
533.303824	2553.213353
533.664953	2554.075390
534.026025	2555.638148
534.387040	2556.994218
534.747999	2553.442726
535.108902	2556.404403
535.469748	2553.878785
535.830537	2554.874413
536.191270	2555.754095
536.551947	2556.537994
536.912567	2553.770401
537.273131	2556.502706
537.633638	2553.866182
537.994089	2555.749053
538.354483	2555.474311
538.714821	2556.348951
539.075103	2554.876934
539.435328	2554.745864
539.795497	2555.128992
540.155609	2555.812068
540.515665	2552.810061
540.875665	2557.831050
541.235609	2556.099414
541.595496	2554.839125
541.955328	2555.998591
542.315102	2556.953889
542.674821	2554.687891
543.034483	2556.933725
543.394090	2555.915412
543.753640	2552.941131
544.113134	2556.737120
544.472571	2554.002294
544.831953	2555.219732
545.191278	2557.934394
545.550548	2553.460370
545.909761	2555.282747
546.268918	2555.159238
546.628019	2555.600339
546.987064	2555.678477
547.346053	2555.968344
547.704986	2556.948848
548.063863	2552.893240
548.422684	2556.495144
548.781449	2555.486913
549.140158	2554.423230
549.498811	2555.378529
549.857408	2556.008673
550.215949	2554.511450
550.574434	2550.415513
550.932864	2553.674619
551.291237	2551.358208
551.649555	2555.993549
552.007817	2556.051523
552.366022	2557.122768
552.724173	2556.001111
553.082267	2555.217212
553.440305	2553.024310
553.798288	2556.749722
554.156215	2554.511450
554.514086	2556.714434
554.871902	2554.012376
555.229661	2557.919270
555.587365	2554.168652
555.945014	2557.969682
556.302606	2557.934394
556.660143	2555.950700
557.017625	2556.109496
557.375050	2557.117727
557.732421	2556.094372
558.089735	2556.003632
558.446994	2555.454146
558.804197	2557.513457
559.161345	2554.410627
559.518437	2556.890875
559.875474	2557.309291
560.232455	2555.791903
560.589381	2554.077911
560.946251	2556.911039
561.303065	2557.417675
561.659825	2556.527912
562.016528	2555.970864
562.373177	2555.295350
562.729770	2554.876934
563.086307	2557.326935
563.442789	2554.992880
563.799216	2556.641338
564.155587	2558.889692
564.511904	2558.277192
564.868164	2557.427758
565.224370	2555.411296
565.580520	2561.861453
565.936615	2553.268806
566.292654	2554.463559
566.648638	2556.790052
567.004567	2555.214691
567.360441	2557.967161
567.716260	2556.175031
568.072023	2556.525391
568.427732	2550.339895
568.783385	2552.714279
569.138982	2552.081614
569.494525	2554.781152
569.850013	2550.846531
570.205445	2558.279713
570.560823	2555.121430
570.916145	2556.041440
571.271412	2554.009855
571.626625	2555.315514
571.981782	2556.958930
572.336884	2557.319373
572.691931	2556.611091
573.046923	2554.670247
573.401860	2552.926007
573.756743	2555.189485
574.111570	2557.679815
574.466342	2555.209650
574.821059	2554.781152
575.175722	2555.214691
575.530330	2553.772921
575.884882	2556.081770
576.239380	2553.425082
576.593823	2555.887685
576.948211	2556.205278
577.302544	2554.927345
577.656823	2553.034392
578.011047	2556.603529
578.365216	2554.672767
578.719330	2552.363919
579.073389	2552.749567
579.427394	2553.130174
579.781344	2553.359547
580.135239	2556.921122
580.489080	2558.113355
580.842866	2554.755946
581.196597	2555.796944
581.550273	2556.585885
581.903895	2554.519012
582.257463	2553.137736
582.610975	2553.586398
582.964434	2556.490103
583.317837	2554.251831
583.671186	2554.261913
584.024481	2554.130843
584.377721	2554.521532
584.730906	2553.578837
585.084037	2557.624363
585.437113	2554.231666
585.790135	2554.629917
586.143103	2553.987170
586.496016	2555.310473
586.848874	2550.085317
587.201679	2552.079093
587.554428	2547.332847
587.907124	2553.785524
588.259765	2550.876778
588.612352	2552.023641
588.964884	2555.754095
589.317362	2552.391645
589.669786	2552.159752
590.022155	2553.523384
590.374470	2551.393497
590.726731	2554.327448
591.078937	2552.684032
591.431090	2554.307283
591.783188	2553.520863
592.135232	2553.956923
592.487222	2553.840977
592.839157	2553.299053
593.191038	2552.923487
593.542866	2552.454659
593.894639	2552.132026
594.246358	2553.500699
594.598022	2553.493137
594.949633	2555.998591
595.301190	2553.765359
595.652692	2553.868703
596.004141	2552.812581
596.355535	2553.936759
596.706876	2550.584391
597.058162	2549.747560
597.409395	2553.198230
597.760573	2552.479865
598.111698	2549.699669
598.462768	2552.961295
598.813785	2553.452808
599.164748	2548.605738
599.515657	2552.794937
599.866511	2552.207643
600.217312	2551.819474
600.568060	2550.319731
600.918753	2553.929197
601.269392	2552.704197
601.619978	2553.135215
601.970510	2551.673281
602.320988	2551.736295
602.671412	2552.179917
603.021783	2549.808054
603.372100	2550.765873
603.722363	2551.791748
604.072572	2550.163455
604.422728	2552.565565
604.772830	2549.170348
605.122878	2548.860317
605.472872	2547.955430
605.822813	2545.079451
606.172701	2550.239072
606.522534	2549.266130
606.872314	2550.218908
607.222041	2549.689587
607.571714	2551.726213
607.921333	2552.600853
608.270899	2551.070863
608.620411	2553.972047
608.969870	2550.907025
609.319276	2552.011038
609.668627	2557.465566
610.017926	2558.990515
610.367171	2560.500341
610.716362	2556.565720
611.065500	2558.347768
611.414585	2554.423230
611.763616	2557.021945
612.112594	2554.887016
612.461518	2556.197716
612.810389	2555.786862
613.159207	2554.007335
613.507971	2555.398693
613.856682	2554.082952
614.205340	2551.474155
614.553945	2553.583878
614.902496	2552.613456
615.250994	2554.902140
615.599439	2549.495502
615.947830	2553.535987
616.296169	2552.747046
616.644454	2550.823846
616.992686	2550.987684
617.340864	2550.294525
617.688990	2548.699000
618.037063	2552.447098
618.385082	2550.629762
618.733048	2552.076573
619.080961	2549.228321
619.428821	2551.723692
619.776628	2551.285112
620.124382	2552.270657
620.472083	2552.331151
620.819731	2553.205791
621.167326	2551.234700
621.514868	2552.376522
621.862357	2550.191181
622.209793	2551.000287
622.557176	2552.918446
622.904506	2546.927034
623.251783	2547.849565
623.599007	2547.748742
623.946179	2545.860830
624.293297	2549.596325
624.640363	2547.005172
624.987376	2550.922149
625.334336	2550.866696
625.681243	2550.791079
626.028097	2547.973074
626.374899	2550.062632
626.721647	2547.423588
627.068343	2550.113043
627.414987	2550.294525
627.761577	2550.574309
628.108115	2548.638506
628.454600	2548.762014
628.801032	2547.710934
629.147412	2552.447098
629.493739	2550.057591
629.840014	2549.737478
630.186236	2549.127498
630.532405	2548.915769
630.878521	2549.220759
631.224585	2550.050029
631.570597	2544.792106
631.916556	2548.633465
632.262462	2550.584391
632.608316	2552.038764
632.954117	2547.451314
633.299866	2547.516849
633.645562	2547.224462
633.991206	2546.758156
634.336797	2548.217570
634.682336	2550.165976
635.027823	2545.172713
635.373257	2549.165307
635.718639	2547.191695
636.063968	2549.281253
636.409245	2547.753783
636.754470	2547.524411
637.099642	2546.715306
637.444762	2548.141952
637.789829	2546.203629
638.134845	2546.334699
638.479808	2545.986859
638.824719	2547.496685
639.169577	2547.295038
639.514383	2547.221942
639.859137	2545.545758
640.203839	2544.071221
640.548489	2546.798485
640.893086	2543.138607
641.237632	2542.263967
641.582125	2542.866385
641.926566	2542.742877
642.270955	2543.743546
642.615292	2546.309493
642.959576	2546.987528
643.303809	2546.201108
643.647990	2546.029709
643.992118	2545.429812
644.336195	2546.352343
644.680219	2543.574667
645.024192	2544.194729
645.368112	2544.144317
645.711981	2544.116591
646.055797	2545.729760
646.399562	2547.252189
646.743274	2545.008875
647.086935	2545.248330
647.430544	2548.641027
647.774101	2548.421736
648.117606	2545.565923
648.461059	2548.058773
648.804460	2549.641696
649.147810	2547.027857
649.491108	2546.405275
649.834354	2543.985521
650.177548	2547.169010
650.520690	2545.732281
650.863781	2547.393341
651.206820	2548.124308
651.549807	2546.443083
651.892742	2546.629606
652.235626	2544.900490
652.578458	2545.515511
652.921238	2544.613145
653.263967	2546.617003
653.606644	2545.064328
653.949269	2544.091385
654.291843	2544.789585
654.634365	2547.025337
654.976836	2546.022147
655.319255	2546.034750
655.661622	2544.719009
656.003938	2545.114739
656.346203	2541.598535
656.688416	2548.424257
657.030577	2545.742363
657.372687	2544.537527
657.714746	2543.645243
658.056753	2544.303114
658.398708	2541.759852
658.740612	2542.805891
659.082465	2540.892773
659.424266	2543.209183
659.766016	2540.396219
660.107715	2544.744215
660.449362	2542.586601
660.790958	2545.150027
661.132503	2546.082641
661.473996	2545.875954
661.815438	2543.279759
662.156829	2545.500388
662.498168	2544.093906
662.839456	2543.337733
663.180693	2542.160623
663.521879	2546.120450
663.863013	2543.418391
664.204097	2544.149358
664.545129	2546.763197
664.886110	2544.295552
665.227040	2542.153062
665.567918	2546.344781
665.908746	2544.103988
666.249522	2545.442414
666.590248	2543.738504
666.930922	2545.941489
667.271545	2544.981149
667.612118	2544.048535
667.952639	2542.911755
668.293109	2545.495347
668.633528	2547.070707
668.973896	2543.955274
669.314213	2545.056766
669.654480	2544.454348
669.994695	2545.613814
670.334859	2543.410829
670.674973	2543.889739
671.015035	2542.838658
671.355047	2544.477033
671.695008	2545.286139
672.034918	2545.502908
672.374777	2543.176416
672.714585	2544.134235
673.054342	2545.127342
673.394049	2545.702034
673.733705	2545.946530
674.073310	2545.626417
674.412864	2546.284287
674.752368	2544.398896
675.091820	2545.376879
675.431223	2543.070552
675.770574	2546.564071
676.109875	2537.895807
676.449125	2542.198432
676.788324	2538.977135
677.127473	2542.586601
677.466571	2537.923533
677.805619	2545.059287
678.144616	2540.837320
678.483562	2546.889226
678.822458	2541.046528
679.161303	2545.364277
679.500098	2545.664225
679.838842	2545.439894
680.177535	2542.463093
680.516179	2542.563916
680.854771	2542.783206
681.193314	2545.417209
681.531805	2543.282280
681.870247	2544.761859
682.208638	2544.814791
682.546978	2546.571633
682.885268	2544.353525
683.223508	2543.204142
683.561697	2545.752445
683.899836	2543.312527
684.237925	2543.630120
684.575963	2545.533155
684.913951	2544.280428
685.251889	2542.422763
685.589776	2543.443597
685.927614	2544.459389
686.265401	2540.610468
686.603137	2547.395862
686.940824	2546.009544
687.278460	2543.299924
687.616046	2544.761859
687.953582	2545.787733
688.291068	2543.055428
688.628504	2543.428473
688.965889	2544.842517
689.303224	2545.417209
689.640510	2545.921324
689.977745	2544.504760
690.314930	2545.797816
690.652065	2542.306817
690.989150	2544.207332
691.326185	2542.715150
691.663170	2541.268339
692.000105	2546.017106
692.336990	2542.213555
692.673825	2542.321940
693.010610	2545.114739
693.347345	2539.004861
693.684030	2540.708771
694.020665	2538.377237
694.357251	2535.864222
694.693786	2540.572660
695.030272	2540.854964
695.366707	2543.423432
695.703093	2538.823379
696.039429	2544.661036
696.375716	2542.558874
696.711952	2540.149203
697.048139	2539.897145
697.384276	2539.118287
697.720363	2539.423277
698.056400	2541.764893
698.392388	2539.259439
698.728326	2540.360931
699.064214	2540.555016
699.400053	2537.076620
699.735842	2541.081816
700.071581	2540.897814
700.407270	2540.933102
700.742910	2540.658359
701.078501	2539.793802
701.414042	2540.739018
701.749533	2542.168185
702.084974	2539.798843
702.420366	2538.399922
702.755709	2539.957639
703.091002	2540.116435
703.426246	2540.151723
703.761440	2540.371014
704.096584	2541.941333
704.431679	2541.361600
704.766725	2542.725232
705.101721	2539.244316
705.436668	2542.155582
705.771565	2541.280942
706.106413	2540.857485
706.441212	2539.970242
706.775961	2542.067362
707.110661	2540.701209
707.445311	2540.963349
707.779913	2542.868905
708.114465	2541.447300
708.448967	2542.047197
708.783421	2541.112063
709.117825	2537.754655
709.452180	2541.205325
709.786485	2539.481250
710.120742	2541.969059
710.454949	2540.096271
710.789107	2542.402599
711.123216	2539.647608
711.457275	2540.892773
711.791286	2538.009233
712.125247	2537.495035
712.459159	2542.788247
712.793023	2543.708258
713.126837	2542.347146
713.460602	2539.264480
713.794318	2539.382947
714.127985	2541.422094
714.461602	2540.509645
714.795171	2541.255736
715.128691	2540.847403
715.462162	2542.843700
715.795584	2539.980324
716.128957	2539.892104
716.462281	2543.516694
716.795556	2541.331353
717.128782	2539.922351
717.461960	2540.388658
717.795088	2538.977135
718.128167	2540.008051
718.461198	2540.088709
718.794180	2540.555016
719.127113	2540.713812
719.459997	2539.990407
719.792833	2537.389171
720.125619	2539.261960
720.458357	2539.377906
720.791046	2538.951929
721.123686	2537.711805
721.456278	2539.912269
721.788821	2539.108205
722.121315	2538.954449
722.453761	2537.837834
722.786158	2538.619213
723.118506	2538.372196
723.450805	2539.186342
723.783056	2540.144162
724.115259	2539.869419
724.447412	2538.251208
724.779518	2540.446631
725.111574	2540.812115
725.443582	2538.987217
725.775542	2536.741383
726.107453	2539.945036
726.439315	2538.881353
726.771129	2540.537372
727.102895	2539.733308
727.434612	2539.829090
727.766281	2538.636857
728.097901	2537.923533
728.429473	2538.914120
728.760996	2535.392874
729.092471	2537.011085
729.423897	2538.616692
729.755276	2539.332536
730.086606	2537.545447
730.417887	2541.681714
730.749120	2536.428831
731.080305	2539.982845
731.411442	2538.659542
731.742530	2539.771116
732.073570	2539.597197
732.404562	2540.272711
732.735506	2541.260777
733.066401	2536.446475
733.397249	2539.269522
733.728048	2541.941333
734.058798	2540.988555
734.389501	2537.515200
734.720156	2539.355221
735.050762	2537.288348
735.381320	2539.178781
735.711831	2535.541588
736.042293	2539.206507
736.372707	2537.121990
736.703073	2541.306148
737.033391	2539.277083
737.363661	2537.737011
737.693883	2538.125180
738.024056	2539.950077
738.354182	2535.274407
738.684260	2537.850437
739.014290	2538.891435
739.344272	2540.008051
739.674207	2536.305323
740.004093	2540.865047
740.333931	2539.516538
740.663722	2537.837834
740.993464	2535.972607
741.323159	2537.464788
741.652806	2541.704399
741.982405	2537.590817
742.311956	2537.696682
742.641460	2537.202648
742.970915	2541.419574
743.300323	2536.484284
743.629683	2537.449665
743.958996	2539.211548
744.288260	2537.081661
744.617477	2537.051414
744.946647	2534.450178
745.275768	2534.861032
745.604842	2534.583769
745.933869	2534.104859
746.262847	2534.218285
746.591778	2538.498225
746.920662	2536.363296
747.249498	2540.149203
747.578286	2534.709798
747.907027	2537.454706
748.235720	2538.470499
748.564365	2537.721887
748.892963	2538.594007
749.221514	2536.199459
749.550017	2536.980838
749.878473	2538.074768
750.206881	2537.734490
750.535242	2537.331198
750.863555	2537.379089
751.191821	2536.154088
751.520039	2536.781712
751.848210	2540.126518
752.176334	2538.047042
752.504411	2536.514531
752.832440	2535.319777
753.160421	2538.596527
753.488356	2534.664427
753.816243	2537.280786
754.144082	2539.466127
754.471875	2539.841692
754.799620	2538.662063
755.127318	2537.603420
755.454969	2538.170550
755.782572	2536.953111
756.110129	2536.360776
756.437638	2536.690971
756.765100	2536.597710
757.092515	2536.184335
757.419882	2536.111239
757.747203	2536.943029
758.074477	2536.174253
758.401703	2536.736342
758.728882	2539.304810
759.056014	2536.753986
759.383099	2537.734490
759.710138	2537.994110
760.037129	2535.980169
760.364073	2536.017977
760.690970	2537.888245
761.017820	2537.449665
761.344623	2537.058976
761.671379	2534.818183
761.998088	2534.137627
762.324751	2537.064017
762.651366	2537.996630
762.977935	2538.488143
763.304456	2536.862371
763.630931	2541.379244
763.957359	2540.199614
764.283740	2542.032074
764.610074	2538.669624
764.936362	2540.728936
765.262602	2536.280117
765.588796	2538.261291
765.914943	2534.301464
766.241044	2539.072917
766.567097	2537.691640
766.893104	2537.086702
767.219064	2536.877494
767.544978	2533.363810
767.870845	2536.038142
768.196665	2535.672658
768.522438	2537.684079
768.848165	2534.122503
769.173846	2536.108718
769.499479	2534.056968
769.825066	2533.575538
770.150607	2534.016639
770.476101	2536.048224
770.801548	2537.192566
771.126949	2537.926054
771.452303	2536.872453
771.777611	2533.570497
772.102872	2535.927237
772.428087	2535.024870
772.753256	2535.549150
773.078378	2535.528985
773.403453	2535.241640
773.728482	2535.584438
774.053465	2533.625950
774.378401	2534.225847
774.703291	2536.953111
775.028135	2536.103677
775.352932	2532.897503
775.677683	2535.836496
776.002388	2534.419932
776.327046	2533.625950
776.651658	2535.057637
776.976224	2535.592000
777.300743	2535.085364
777.625216	2535.080323
777.949643	2534.331711
778.274024	2535.405477
778.598359	2529.139323
778.922647	2530.908768
779.246889	2535.264325
779.571086	2530.797863
779.895236	2536.610313
780.219339	2536.678368
780.543397	2532.710980
780.867409	2535.070240
781.191374	2535.571835
781.515294	2532.990764
781.839167	2536.590148
782.162995	2536.181815
782.486776	2534.523275
782.810511	2533.641073
783.134201	2534.167874
783.457844	2535.133255
783.781441	2535.022349
784.104993	2537.699202
784.428498	2535.455889
784.751958	2533.162164
785.075372	2533.840199
785.398739	2536.756506
785.722061	2533.394057
786.045337	2534.203162
786.368568	2533.996475
786.691752	2533.331042
787.014891	2534.621578
787.337983	2533.313398
787.661030	2535.662576
787.984031	2535.486136
788.306987	2536.827083
788.629897	2537.769778
788.952760	2534.871115
789.275579	2533.457071
789.598351	2532.741227
789.921078	2533.371372
790.243759	2534.230888
790.566395	2534.238450
790.888984	2535.881866
791.211529	2534.109901
791.534027	2533.058820
791.856480	2533.305837
792.178888	2535.526465
792.501249	2534.924047
792.823566	2533.068902
793.145836	2536.118800
793.468062	2533.696526
793.790241	2537.487474
794.112375	2538.800694
794.434464	2533.898172
794.756507	2535.284489
795.078505	2535.254242
795.400457	2531.627132
795.722364	2530.850795
796.044226	2533.487318
796.366042	2534.014119
796.687812	2531.548994
797.009538	2533.595703
797.331218	2534.210724
797.652852	2532.600075
797.974442	2536.597710
798.295986	2532.574869
798.617484	2534.389685
798.938938	2534.883718
799.260346	2537.610982
799.581709	2536.093595
799.903026	2534.233409
800.224299	2534.750127
800.545526	2535.995292
800.866708	2532.879859
801.187845	2534.172915
801.508936	2534.122503
801.829983	2533.401618
802.150984	2534.714839
802.471940	2532.889941
802.792851	2535.697864
803.113717	2531.377595
803.434538	2532.814324
803.755314	2535.264325
804.076045	2533.454551
804.396731	2534.646783
804.717372	2533.767102
805.037967	2534.346835
805.358518	2531.780887
805.679024	2534.288862
805.999485	2532.927750
806.319901	2533.971269
806.640272	2533.386495
806.960598	2531.521268
807.280879	2535.385313
807.601115	2532.668131
807.921306	2534.382123
808.241453	2532.683254
808.561554	2532.864736
808.881611	2533.051258
809.201623	2533.666279
809.521590	2535.072761
809.841513	2529.618232
810.161390	2537.636188
810.481223	2530.714683
810.801011	2534.687113
811.120755	2532.267359
811.440453	2534.770292
811.760107	2532.700898
812.079716	2532.393388
812.399281	2530.273583
812.718801	2531.034797
813.038276	2528.352903
813.357707	2532.068233
813.677093	2533.653676
813.996434	2531.964890
814.315731	2533.777184
814.634983	2532.088398
814.954191	2532.889941
815.273354	2531.753161
815.592473	2532.635363
815.911547	2533.194931
816.230577	2531.470857
816.549562	2533.028573
816.868502	2531.244005
817.187399	2535.995292
817.506250	2530.691998
817.825058	2533.328522
818.143821	2531.238963
818.462539	2534.432534
818.781213	2531.450692
819.099843	2534.843388
819.418429	2535.957483
819.736970	2534.472864
820.055466	2537.855478
820.373919	2536.214582
820.692327	2534.583769
821.010691	2537.628626
821.329011	2543.262115
821.647286	2552.913404
821.965517	2558.221739
822.283704	2563.010836
822.601847	2565.107956
822.919945	2563.303222
823.237999	2556.752243
823.556010	2551.055739
823.873976	2546.831252
824.191897	2542.659697
824.509775	2544.227496
824.827609	2540.688606
825.145398	2541.303627
825.463144	2538.906558
825.780845	2540.234902
826.098502	2542.450490
826.416116	2543.461241
826.733685	2545.886036
827.051210	2546.067517
827.368692	2546.422919
827.686129	2542.571477
828.003522	2541.795140
828.320872	2534.258615
828.638177	2534.505631
828.955439	2528.778880
829.272656	2530.833151
829.589830	2531.032276
829.906960	2533.880528
830.224046	2531.508665
830.541088	2534.170394
830.858086	2531.896834
831.175041	2534.966897
831.491952	2533.933460
831.808819	2533.973789
832.125642	2533.623429
832.442421	2533.494880
832.759157	2534.233409
833.075849	2534.886238
833.392497	2535.143337
833.709101	2540.771785
834.025662	2536.030580
834.342179	2538.904038
834.658653	2539.110725
834.975083	2539.423277
835.291469	2539.561908
835.607811	2534.576207
835.924110	2533.920857
836.240366	2534.205682
836.556578	2529.782070
836.872746	2531.496062
837.188871	2533.991433
837.504952	2532.002698
837.820990	2532.632843
838.136984	2530.644107
838.452935	2533.023532
838.768842	2534.041845
839.084706	2531.841381
839.400526	2535.776002
839.716303	2533.963707
840.032037	2535.894469
840.347727	2533.633512
840.663373	2533.164684
840.978977	2531.571680
841.294537	2531.183511
841.610054	2532.133768
841.925527	2532.690816
842.240957	2531.896834
842.556344	2533.167205
842.871687	2533.081505
843.186987	2532.758871
843.502244	2531.924560
843.817458	2532.378264
844.132629	2532.158974
844.447756	2533.394057
844.762840	2528.675537
845.077881	2530.024045
845.392879	2527.344672
845.707833	2529.230064
846.022745	2526.754857
846.337613	2531.007070
846.652438	2529.799714
846.967221	2531.460774
847.281960	2531.536392
847.596656	2533.757020
847.911309	2530.308871
848.225919	2531.193593
848.540485	2532.552184
848.855009	2531.632173
849.169490	2533.434386
849.483928	2532.519417
849.798323	2531.009591
850.112675	2531.007070
850.426984	2531.256608
850.741251	2530.439941
851.055474	2529.671165
851.369654	2531.775846
851.683792	2531.352389
851.997887	2529.925743
852.311938	2531.969931
852.625947	2530.447502
852.939914	2534.064530
853.253837	2532.395908
853.567718	2529.217461
853.881555	2532.269879
854.195350	2527.982378
854.509103	2532.605116
854.822812	2528.388191
855.136479	2532.211906
855.450103	2530.659231
855.763685	2531.669982
856.077224	2527.047244
856.390720	2532.053110
856.704173	2530.792821
857.017584	2533.625950
857.330953	2532.622760
857.644278	2531.904396
857.957561	2535.700385
858.270802	2530.744930
858.584000	2532.307688
858.897155	2530.540764
859.210268	2529.134282
859.523339	2531.876669
859.836367	2528.627646
860.149352	2530.928933
860.462295	2533.013450
860.775195	2527.100176
861.088054	2526.371729
861.400869	2529.817358
861.713642	2526.313756
862.026373	2529.706453
862.339062	2530.573531
862.651708	2531.087729
862.964312	2530.893644
863.276873	2531.831299
863.589392	2531.627132
863.901869	2530.240815
864.214303	2531.072605
864.526696	2532.637884
864.839045	2529.048582
865.151353	2531.327184
865.463619	2531.506145
865.775842	2531.014632
866.088023	2530.823068
866.400162	2531.629653
866.712258	2529.381298
867.024313	2531.309540
867.336325	2534.528316
867.648296	2527.715197
867.960224	2529.131761
868.272110	2528.844415
868.583954	2532.232071
868.895755	2533.187369
869.207515	2533.194931
869.519233	2530.860877
869.830909	2531.594365
870.142542	2530.555887
870.454134	2533.623429
870.765684	2532.350538
871.077191	2530.656710
871.388657	2533.545291
871.700081	2531.700229
872.011463	2530.369364
872.322803	2528.675537
872.634101	2529.535053
872.945357	2531.949766
873.256571	2530.636546
873.567744	2533.300795
873.878874	2533.283151
874.189963	2530.220650
874.501010	2532.380785
874.812015	2531.072605
875.122979	2528.730989
875.433900	2529.656041
875.744780	2534.906403
876.055618	2530.664272
876.366415	2532.363141
876.677169	2531.475898
876.987882	2526.154960
877.298554	2528.385670
877.609183	2529.237625
877.919771	2527.034641
878.230317	2527.485824
878.540822	2531.848943
878.851285	2532.847092
879.161707	2532.302647
879.472087	2534.049407
879.782425	2532.839530
880.092722	2534.515713
880.402977	2536.527134
880.713191	2543.012578
881.023363	2543.617517
881.333494	2548.749411
881.643583	2551.033054
881.953631	2551.098589
882.263637	2550.549103
882.573602	2547.801674
882.883526	2544.383772
883.193408	2539.813966
883.503248	2540.083668
883.813048	2539.453524
884.122806	2538.321785
884.432522	2536.834644
884.742197	2534.281300
885.051831	2531.382636
885.361424	2530.860877
885.670975	2535.413039
885.980485	2530.313912
886.289954	2531.987575
886.599382	2532.698377
886.908768	2531.047400
887.218113	2533.842719
887.527417	2532.216947
887.836680	2531.387677
888.145901	2532.164015
888.455082	2530.598737
888.764221	2530.180321
889.073319	2532.141330
889.382376	2532.514375
889.691392	2529.151926
890.000366	2531.397760
890.309300	2533.532688
890.618193	2530.840712
890.927044	2532.211906
891.235855	2531.211237
891.544625	2531.314581
891.853353	2531.584283
892.162041	2530.825589
892.470687	2533.666279
892.779293	2534.828265
893.087858	2526.865763
893.396381	2530.066895
893.704864	2528.494055
894.013306	2529.993798
894.321707	2536.302802
894.630068	2533.338604
894.938387	2537.142155
895.246665	2535.695343
895.554903	2537.684079
895.863100	2532.658048
896.171256	2536.552340
896.479371	2534.798018
896.787446	2534.321629
897.095480	2531.969931
897.403473	2531.259128
897.711425	2530.026566
898.019336	2533.600744
898.327207	2531.934643
898.635038	2531.548994
898.942827	2531.533871
899.250576	2532.501772
899.558284	2530.354241
899.865952	2531.170908
900.173579	2531.193593
900.481165	2527.944569
900.788711	2533.358769
901.096216	2529.802235
901.403681	2532.605116
901.711105	2530.921371
902.018489	2529.769467
902.325832	2535.402957
902.633135	2531.417924
902.940397	2531.803573
903.247619	2529.971113
903.554800	2529.177132
903.861941	2533.850281
904.169041	2537.676517
904.476101	2540.101312
904.783121	2537.789943
905.090100	2537.968904
905.397039	2537.585776
905.703938	2536.259953
906.010796	2533.595703
906.317614	2530.770136
906.624391	2532.529499
906.931129	2529.532533
907.237826	2532.090918
907.544483	2529.726617
907.851099	2531.037317
908.157675	2528.478932
908.464211	2527.228726
908.770707	2528.413397
909.077163	2528.844415
909.383578	2525.136647
909.689954	2527.868952
909.996289	2524.314939
910.302584	2529.668644
910.608839	2531.052441
910.915054	2530.636546
911.221229	2529.429189
911.527363	2531.317101
911.833458	2528.703263
912.139513	2533.633512
912.445527	2529.446833
912.751502	2530.172759
913.057436	2528.657893
913.363331	2533.946063
913.669186	2530.704601
913.975000	2531.990095
914.280775	2531.909437
914.586510	2531.387678
914.892205	2530.263500
915.197859	2537.154758
915.503475	2535.496218
915.809050	2537.628626
916.114585	2536.476722
916.420081	2540.706250
916.725536	2535.571835
917.030952	2539.385468
917.336328	2535.874304
917.641665	2533.043697
917.946961	2533.923378
918.252218	2532.703419
918.557435	2531.780888
918.862612	2534.596372
919.167750	2530.820548
919.472848	2531.049920
919.777906	2528.284847
920.082925	2529.663603
920.387904	2529.280475
920.692843	2532.695857
920.997743	2528.199148
921.302603	2527.385001
921.607423	2531.639735
921.912204	2532.093439
922.216946	2529.046062
922.521647	2529.696370
922.826310	2527.011956
923.130932	2529.915661
923.435516	2528.799045
923.740059	2529.479601
924.044564	2530.964221
924.349028	2529.189734
924.653454	2525.363499
924.957840	2528.546987
925.262186	2525.645803
925.566493	2526.008766
925.870761	2522.888292
926.174989	2529.696370
926.479178	2529.217461
926.783328	2529.280475
927.087438	2526.782583
927.391509	2530.946577
927.695541	2528.010104
927.999533	2528.612522
928.303486	2529.477080
928.607400	2529.169570
928.911275	2530.082019
929.215110	2529.235105
929.518906	2529.797193
929.822663	2527.546318
930.126381	2528.153777
930.430060	2526.926256
930.733699	2527.745444
931.037299	2529.219981
931.340861	2528.216792
931.644383	2532.239633
931.947866	2530.266021
932.251309	2528.990609
932.554714	2526.764939
932.858080	2529.895496
933.161407	2527.571524
933.464694	2526.943900
933.767943	2530.069416
934.071153	2529.182173
934.374323	2531.067564
934.677455	2529.867770
934.980548	2526.815351
935.283602	2527.674868
935.586617	2527.712676
935.889593	2527.901720
936.192530	2525.524816
936.495428	2529.595547
936.798287	2527.405166
937.101108	2525.363499
937.403890	2528.635208
937.706632	2530.772657
938.009336	2529.444313
938.312002	2529.860208
938.614628	2529.472039
938.917216	2532.461443
939.219765	2527.735362
939.522275	2526.769981
939.824747	2529.240146
940.127179	2524.017511
940.429573	2526.694363
940.731929	2526.880886
941.034246	2525.169414
941.336524	2526.021369
941.638763	2529.840043
941.940964	2527.090094
942.243126	2527.344672
942.545250	2528.947759
942.847335	2530.102183
943.149381	2526.986750
943.451389	2528.418438
943.753359	2529.817358
944.055290	2528.398273
944.357182	2526.918695
944.659036	2527.909281
944.960851	2528.370547
945.262628	2526.752337
945.564367	2528.680578
945.866067	2525.247552
946.167729	2530.034128
946.469352	2527.937008
946.770937	2529.038500
947.072484	2529.721576
947.373992	2526.243180
947.675462	2529.961031
947.976893	2527.677388
948.278286	2527.634538
948.579641	2529.892975
948.880958	2526.517923
949.182236	2527.402645
949.483476	2528.373067
949.784678	2527.563962
950.085841	2527.100176
950.386967	2529.038500
950.688054	2523.480628
950.989103	2528.453726
951.290114	2526.245701
951.591087	2531.861546
951.892021	2528.849457
952.192917	2528.577234
952.493776	2526.008766
952.794596	2529.716535
953.095378	2526.870804
953.396122	2529.106555
953.696828	2526.379291
953.997496	2528.471370
954.298126	2527.911802
954.598718	2529.673685
954.899272	2528.320135
955.199788	2527.919364
955.500266	2528.688140
955.800706	2524.882068
956.101108	2525.625639
956.401472	2522.222860
956.701798	2523.692356
957.002087	2523.253776
957.302337	2526.903571
957.602550	2526.512882
957.902724	2527.937008
958.202861	2528.857018
958.502960	2526.674199
958.803022	2526.800228
959.103045	2528.703263
959.403031	2529.681247
959.702979	2528.257121
960.002889	2528.751154
960.302762	2528.022707
960.602596	2527.495907
960.902393	2529.383819
961.202153	2527.163191
961.501875	2525.396266
961.801559	2527.621936
962.101205	2526.401976
962.400814	2525.880217
962.700385	2525.129085
962.999918	2528.589837
963.299414	2526.313756
963.598873	2527.047244
963.898293	2526.165042
964.197677	2527.586648
964.497022	2526.354085
964.796331	2524.980371
965.095601	2526.631349
965.394835	2527.500948
965.694030	2522.777387
965.993189	2528.005063
966.292309	2527.019518
966.591393	2528.241997
966.890439	2527.024559
967.189447	2528.098325
967.488419	2528.594878
967.787353	2526.916174
968.086249	2526.991791
968.385108	2528.473891
968.683930	2525.552542
968.982714	2526.812830
969.281462	2527.763088
969.580172	2527.770650
969.878844	2526.117151
970.177480	2526.225536
970.476078	2524.529188
970.774639	2528.504138
971.073162	2526.361647
971.371649	2525.058509
971.670098	2524.042716
971.968510	2525.701256
972.266885	2521.635565
972.565223	2525.439116
972.863524	2526.089425
973.161788	2530.351720
973.460014	2525.943231
973.758204	2527.155629
974.056356	2528.567152
974.354471	2526.144878
974.652550	2527.526154
974.950591	2527.160670
975.248595	2525.282840
975.546563	2529.552697
975.844493	2525.416431
976.142386	2526.530526
976.440243	2523.813344
976.738062	2528.204189
977.035845	2524.151101
977.333590	2525.812161
977.631299	2528.330218
977.928971	2525.401307
978.226606	2529.504807
978.524204	2526.349044
978.821765	2526.011287
979.119290	2525.436595
979.416777	2527.730320
979.714228	2526.812830
980.011642	2527.740403
980.309020	2527.354754
980.606360	2526.379291
980.903664	2527.236287
981.200931	2525.182017
981.498162	2525.295443
981.795356	2526.752337
982.092513	2527.448016
982.389633	2527.195958
982.686717	2529.466998
982.983764	2529.073788
983.280775	2526.656555
983.577749	2526.853160
983.874686	2528.131092
984.171587	2528.577234
984.468451	2525.693694
984.765279	2528.357944
985.062070	2525.930628
985.358824	2528.723428
985.655543	2526.293592
985.952224	2524.161183
986.248869	2525.648324
986.545478	2520.491223
986.842050	2525.076153
987.138586	2523.677233
987.435086	2525.527336
987.731549	2520.546676
988.027975	2529.343490
988.324366	2521.943076
988.620719	2528.887265
988.917037	2524.635052
989.213318	2524.067922
989.509563	2525.968437
989.805772	2525.834847
990.101944	2526.437264
990.398080	2526.192768
990.694180	2526.096987
990.990244	2525.406348
991.286271	2525.355937
991.582262	2526.036493
991.878217	2525.345855
992.174136	2526.593540
992.470019	2526.167563
992.765865	2525.073632
993.061676	2525.829805
993.357450	2525.040865
993.653188	2528.698222
993.948890	2525.613036
994.244556	2525.544980
994.540186	2526.066740
994.835780	2524.287212
995.131337	2524.929959
995.426859	2525.970958
995.722345	2525.454239
996.017795	2524.826616
996.313208	2527.942049
996.608586	2525.744106
996.903928	2526.361647
997.199234	2524.599764
997.494504	2524.561955
997.789738	2523.868797
998.084936	2526.177645
998.380099	2525.360978
998.675225	2525.373581
998.970316	2525.023221
999.265371	2525.229908
999.560390	2524.990453
999.855373	2525.333252
1000.150320	2526.948942
1000.445232	2525.335772
1000.740108	2526.016328
1001.034948	2525.088756
1001.329752	2525.239990
1001.624521	2527.790814
1001.919254	2522.114475
1002.213951	2524.647655
1002.508613	2519.606501
1002.803239	2526.228057
1003.097829	2522.999197
1003.392384	2526.054137
1003.686903	2527.543798
1003.981386	2524.042716
1004.275834	2527.500948
1004.570246	2523.228570
1004.864623	2528.040351
1005.158964	2524.103210
1005.453270	2522.411903
1005.747540	2524.614887
1006.041775	2526.495238
1006.335974	2524.410721
1006.630138	2525.345855
1006.924266	2526.568334
1007.218359	2528.312574
1007.512416	2525.471883
1007.806438	2527.039682
1008.100425	2525.678571
1008.394376	2526.364168
1008.688292	2527.143026
1008.982172	2522.641276
1009.276017	2528.400794
1009.569827	2524.897192
1009.863602	2527.805938
1010.157341	2524.604805
1010.451045	2526.061698
1010.744714	2522.210257
1011.038347	2526.772501
1011.331945	2526.364168
1011.625508	2529.686288
1011.919036	2524.569517
1012.212528	2527.470701
1012.505986	2524.960206
1012.799408	2524.486338
1013.092795	2524.609846
1013.386147	2526.346524
1013.679464	2525.360978
1013.972745	2525.542460
1014.265992	2523.649506
1014.559204	2527.067409
1014.852380	2525.466842
1015.145521	2524.773684
1015.438628	2525.212264
1015.731699	2526.197810
1016.024736	2523.972140
1016.317737	2524.183869
1016.610703	2525.814682
1016.903635	2522.916018
1017.196531	2521.317973
1017.489393	2523.127747
1017.782219	2520.526512
1018.075011	2523.747809
1018.367768	2527.135464
1018.660490	2525.061029
1018.953177	2525.061029
1019.245829	2525.061029
