Dividing Wavelength (nm)	Counts (n)	Blue Motor Position (mm): 0.000000	Red Motor Position (mm): 3.600000	
326.493990	2122.325769
326.888308	2122.325769
327.282561	2122.325769
327.676750	2094.599423
328.070874	2109.722885
328.464933	2054.270192
328.858929	2029.064423
329.252859	2097.120000
329.646726	2034.105577
330.040528	2041.667308
330.434265	2099.640577
330.827938	2092.078846
331.221547	2122.325769
331.615091	2139.969808
332.008571	2114.764038
332.401986	2192.901923
332.795338	2175.257885
333.188625	2245.834038
333.581847	2213.066538
333.975006	2301.286731
334.368100	2200.463654
334.761129	2316.410192
335.154095	2361.780577
335.546996	2336.574808
335.939833	2369.342308
336.332606	2384.465769
336.725315	2371.862885
337.117960	2369.342308
337.510540	2361.780577
337.903056	2434.877308
338.295508	2417.233269
338.687896	2439.918462
339.080220	2455.041923
339.472480	2525.618077
339.864676	2397.068654
340.256807	2346.657115
340.648875	2545.782692
341.040879	2467.644808
341.432818	2502.932885
341.824694	2477.727115
342.216506	2558.385577
342.608253	2502.932885
342.999937	2502.932885
343.391557	2465.124231
343.783113	2386.986346
344.174605	2492.850577
344.566033	2409.671538
344.957397	2419.753846
345.348697	2492.850577
345.739934	2447.480192
346.131106	2500.412308
346.522215	2470.165385
346.913260	2480.247692
347.304241	2465.124231
347.695159	2477.727115
348.086012	2485.288846
348.476802	2460.083077
348.867528	2444.959615
349.258191	2457.562500
349.648789	2518.056346
350.039324	2472.685962
350.429796	2495.371154
350.820203	2417.233269
351.210548	2397.068654
351.600828	2442.439038
351.991045	2424.795000
352.381198	2442.439038
352.771288	2477.727115
353.161314	2583.591346
353.551276	2379.424615
353.941175	2457.562500
354.331010	2419.753846
354.720782	2507.974038
355.110490	2414.712692
355.500135	2450.000769
355.889717	2472.685962
356.279235	2490.330000
356.668689	2422.274423
357.058080	2472.685962
357.447408	2414.712692
357.836672	2515.535769
358.225873	2480.247692
358.615010	2419.753846
359.004084	2444.959615
359.393095	2427.315577
359.782043	2513.015192
360.170927	2460.083077
360.559748	2495.371154
360.948505	2381.945192
361.337199	2452.521346
361.725830	2439.918462
362.114398	2374.383462
362.502903	2507.974038
362.891344	2485.288846
363.279722	2510.494615
363.668037	2374.383462
364.056289	2437.397885
364.444478	2543.262115
364.832603	2513.015192
365.220665	2475.206538
365.608665	2497.891731
365.996601	2452.521346
366.384474	2480.247692
366.772284	2444.959615
367.160031	2492.850577
367.547715	2548.303269
367.935336	2500.412308
368.322893	2394.548077
368.710388	2432.356731
369.097820	2444.959615
369.485189	2497.891731
369.872495	2455.041923
370.259738	2392.027500
370.646918	2429.836154
371.034035	2472.685962
371.421090	2412.192115
371.808081	2412.192115
372.195010	2475.206538
372.581875	2565.947308
372.968678	2444.959615
373.355418	2470.165385
373.742096	2576.029615
374.128710	2533.179808
374.515262	2447.480192
374.901751	2513.015192
375.288177	2434.877308
375.674540	2447.480192
376.060841	2480.247692
376.447079	2422.274423
376.833254	2460.083077
377.219367	2422.274423
377.605417	2492.850577
377.991404	2394.548077
378.377329	2510.494615
378.763191	2550.823846
379.148991	2480.247692
379.534727	2490.330000
379.920402	2467.644808
380.306013	2465.124231
380.691563	2550.823846
381.077049	2540.741538
381.462474	2480.247692
381.847835	2392.027500
382.233134	2538.220962
382.618371	2480.247692
383.003545	2419.753846
383.388657	2389.506923
383.773706	2490.330000
384.158693	2437.397885
384.543618	2455.041923
384.928480	2439.918462
385.313280	2419.753846
385.698017	2384.465769
386.082692	2477.727115
386.467305	2472.685962
386.851856	2434.877308
387.236344	2414.712692
387.620770	2412.192115
388.005133	2366.821731
388.389435	2470.165385
388.773674	2482.768269
389.157851	2407.150962
389.541965	2500.412308
389.926018	2412.192115
390.310008	2414.712692
390.693936	2450.000769
391.077802	2477.727115
391.461606	2455.041923
391.845348	2500.412308
392.229027	2467.644808
392.612645	2540.741538
392.996200	2502.932885
393.379694	2528.138654
393.763125	2510.494615
394.146494	2497.891731
394.529801	2470.165385
394.913047	2465.124231
395.296230	2507.974038
395.679351	2434.877308
396.062410	2518.056346
396.445408	2444.959615
396.828343	2432.356731
397.211217	2437.397885
397.594028	2578.550192
397.976778	2477.727115
398.359466	2417.233269
398.742092	2535.700385
399.124656	2447.480192
399.507158	2452.521346
399.889598	2457.562500
400.271977	2548.303269
400.654294	2518.056346
401.036549	2462.603654
401.418742	2444.959615
401.800874	2427.315577
402.182944	2507.974038
402.564952	2462.603654
402.946898	2510.494615
403.328783	2462.603654
403.710606	2487.809423
404.092367	2513.015192
404.474067	2525.618077
404.855705	2424.795000
405.237282	2450.000769
405.618797	2548.303269
406.000250	2485.288846
406.381642	2452.521346
406.762972	2487.809423
407.144240	2444.959615
407.525447	2467.644808
407.906593	2402.109808
408.287677	2495.371154
408.668700	2457.562500
409.049661	2502.932885
409.430560	2432.356731
409.811399	2444.959615
410.192176	2518.056346
410.572891	2402.109808
410.953545	2470.165385
411.334138	2570.988462
411.714669	2452.521346
412.095139	2513.015192
412.475547	2505.453462
412.855894	2460.083077
413.236180	2555.865000
413.616405	2414.712692
413.996568	2465.124231
414.376670	2407.150962
414.756711	2495.371154
415.136691	2538.220962
415.516609	2477.727115
415.896466	2472.685962
416.276262	2513.015192
416.655997	2437.397885
417.035670	2397.068654
417.415283	2447.480192
417.794834	2480.247692
418.174324	2485.288846
418.553753	2533.179808
418.933121	2528.138654
419.312428	2543.262115
419.691674	2429.836154
420.070859	2507.974038
420.449983	2505.453462
420.829045	2442.439038
421.208047	2495.371154
421.586988	2550.823846
421.965867	2568.467885
422.344686	2492.850577
422.723444	2505.453462
423.102141	2447.480192
423.480777	2485.288846
423.859352	2518.056346
424.237866	2510.494615
424.616319	2533.179808
424.994712	2528.138654
425.373044	2583.591346
425.751314	2513.015192
426.129524	2470.165385
426.507673	2555.865000
426.885762	2462.603654
427.263789	2510.494615
427.641756	2419.753846
428.019662	2505.453462
428.397508	2507.974038
428.775292	2510.494615
429.153016	2465.124231
429.530679	2535.700385
429.908282	2462.603654
430.285824	2422.274423
430.663305	2409.671538
431.040726	2523.097500
431.418086	2497.891731
431.795385	2520.576923
432.172624	2515.535769
432.549802	2439.918462
432.926920	2480.247692
433.303977	2568.467885
433.680974	2465.124231
434.057910	2507.974038
434.434786	2460.083077
434.811601	2520.576923
435.188355	2558.385577
435.565050	2477.727115
435.941683	2513.015192
436.318257	2439.918462
436.694770	2540.741538
437.071222	2487.809423
437.447614	2457.562500
437.823946	2465.124231
438.200218	2515.535769
438.576429	2460.083077
438.952580	2513.015192
439.328670	2507.974038
439.704700	2472.685962
440.080670	2518.056346
440.456580	2419.753846
440.832429	2470.165385
441.208218	2538.220962
441.583947	2485.288846
441.959616	2593.673654
442.335224	2611.317692
442.710773	2470.165385
443.086261	2523.097500
443.461689	2518.056346
443.837057	2540.741538
444.212365	2505.453462
444.587612	2570.988462
444.962800	2520.576923
445.337927	2523.097500
445.712995	2490.330000
446.088002	2492.850577
446.462949	2404.630385
446.837837	2480.247692
447.212664	2510.494615
447.587431	2505.453462
447.962139	2485.288846
448.336786	2533.179808
448.711374	2490.330000
449.085901	2545.782692
449.460369	2507.974038
449.834776	2442.439038
450.209124	2475.206538
450.583412	2500.412308
450.957640	2472.685962
451.331808	2427.315577
451.705917	2601.235385
452.079965	2457.562500
452.453954	2500.412308
452.827883	2560.906154
453.201752	2618.879423
453.575562	2510.494615
453.949311	2528.138654
454.323001	2495.371154
454.696632	2470.165385
455.070202	2447.480192
455.443713	2465.124231
455.817164	2417.233269
456.190556	2472.685962
456.563888	2505.453462
456.937160	2442.439038
457.310373	2487.809423
457.683526	2492.850577
458.056619	2555.865000
458.429653	2528.138654
458.802628	2520.576923
459.175542	2477.727115
459.548398	2495.371154
459.921194	2507.974038
460.293930	2502.932885
460.666607	2429.836154
461.039224	2447.480192
461.411782	2366.821731
461.784280	2558.385577
462.156719	2480.247692
462.529099	2555.865000
462.901419	2497.891731
463.273680	2497.891731
463.645882	2497.891731
464.018024	2500.412308
464.390106	2502.932885
464.762130	2487.809423
465.134094	2513.015192
465.505999	2502.932885
465.877845	2460.083077
466.249631	2470.165385
466.621358	2437.397885
466.993026	2495.371154
467.364634	2545.782692
467.736184	2505.453462
468.107674	2550.823846
468.479105	2462.603654
468.850477	2482.768269
469.221790	2538.220962
469.593043	2523.097500
469.964238	2490.330000
470.335373	2470.165385
470.706449	2455.041923
471.077467	2407.150962
471.448425	2480.247692
471.819324	2495.371154
472.190164	2460.083077
472.560945	2432.356731
472.931667	2558.385577
473.302330	2434.877308
473.672934	2507.974038
474.043479	2530.659231
474.413965	2485.288846
474.784393	2442.439038
475.154761	2543.262115
475.525070	2482.768269
475.895321	2545.782692
476.265513	2452.521346
476.635645	2570.988462
477.005719	2510.494615
477.375734	2480.247692
477.745691	2477.727115
478.115588	2424.795000
478.485427	2510.494615
478.855207	2500.412308
479.224928	2560.906154
479.594591	2467.644808
479.964194	2477.727115
480.333739	2480.247692
480.703226	2465.124231
481.072653	2455.041923
481.442022	2492.850577
481.811333	2573.509038
482.180584	2520.576923
482.549777	2487.809423
482.918912	2523.097500
483.287988	2545.782692
483.657005	2460.083077
484.025964	2500.412308
484.394864	2578.550192
484.763706	2495.371154
485.132489	2452.521346
485.501213	2515.535769
485.869879	2510.494615
486.238487	2533.179808
486.607036	2518.056346
486.975527	2510.494615
487.343959	2462.603654
487.712333	2470.165385
488.080648	2419.753846
488.448905	2437.397885
488.817104	2455.041923
489.185244	2455.041923
489.553326	2535.700385
489.921350	2520.576923
490.289315	2462.603654
490.657222	2573.509038
491.025070	2528.138654
491.392861	2442.439038
491.760593	2369.342308
492.128267	2485.288846
492.495883	2495.371154
492.863440	2533.179808
493.230939	2455.041923
493.598380	2515.535769
493.965763	2472.685962
494.333088	2487.809423
494.700354	2465.124231
495.067563	2538.220962
495.434713	2427.315577
495.801805	2490.330000
496.168839	2487.809423
496.535815	2543.262115
496.902733	2472.685962
497.269593	2482.768269
497.636395	2545.782692
498.003139	2533.179808
498.369825	2540.741538
498.736453	2500.412308
499.103023	2439.918462
499.469535	2507.974038
499.835989	2565.947308
500.202385	2455.041923
500.568723	2429.836154
500.935003	2444.959615
501.301226	2447.480192
501.667390	2507.974038
502.033497	2538.220962
502.399546	2515.535769
502.765537	2497.891731
503.131470	2523.097500
503.497345	2497.891731
503.863163	2492.850577
504.228923	2578.550192
504.594625	2462.603654
504.960269	2576.029615
505.325856	2492.850577
505.691385	2591.153077
506.056856	2407.150962
506.422270	2404.630385
506.787625	2452.521346
507.152924	2535.700385
507.518164	2450.000769
507.883347	2422.274423
508.248472	2513.015192
508.613540	2581.070769
508.978550	2548.303269
509.343503	2596.194231
509.708398	2470.165385
510.073236	2495.371154
510.438016	2515.535769
510.802738	2457.562500
511.167403	2462.603654
511.532010	2444.959615
511.896561	2412.192115
512.261053	2533.179808
512.625488	2543.262115
512.989866	2480.247692
513.354186	2442.439038
513.718449	2555.865000
514.082655	2444.959615
514.446803	2500.412308
514.810894	2495.371154
515.174927	2535.700385
515.538904	2472.685962
515.902822	2497.891731
516.266684	2500.412308
516.630488	2487.809423
516.994235	2482.768269
517.357925	2429.836154
517.721558	2407.150962
518.085133	2465.124231
518.448651	2497.891731
518.812112	2560.906154
519.175516	2530.659231
519.538863	2608.797115
519.902152	2442.439038
520.265385	2427.315577
520.628560	2500.412308
520.991678	2465.124231
521.354739	2487.809423
521.717743	2439.918462
522.080690	2492.850577
522.443580	2424.795000
522.806413	2507.974038
523.169189	2507.974038
523.531908	2455.041923
523.894569	2565.947308
524.257174	2513.015192
524.619722	2482.768269
524.982213	2482.768269
525.344647	2538.220962
525.707025	2417.233269
526.069345	2530.659231
526.431608	2450.000769
526.793815	2510.494615
527.155964	2422.274423
527.518057	2497.891731
527.880093	2465.124231
528.242072	2450.000769
528.603995	2510.494615
528.965860	2500.412308
529.327669	2487.809423
529.689421	2437.397885
530.051117	2510.494615
530.412755	2525.618077
530.774337	2460.083077
531.135862	2553.344423
531.497331	2558.385577
531.858743	2434.877308
532.220098	2492.850577
532.581396	2510.494615
532.942638	2540.741538
533.303824	2452.521346
533.664953	2392.027500
534.026025	2525.618077
534.387040	2570.988462
534.747999	2540.741538
535.108902	2586.111923
535.469748	2530.659231
535.830537	2492.850577
536.191270	2515.535769
536.551947	2500.412308
536.912567	2482.768269
537.273131	2460.083077
537.633638	2500.412308
537.994089	2467.644808
538.354483	2475.206538
538.714821	2510.494615
539.075103	2455.041923
539.435328	2505.453462
539.795497	2523.097500
540.155609	2528.138654
540.515665	2520.576923
540.875665	2543.262115
541.235609	2397.068654
541.595496	2505.453462
541.955328	2432.356731
542.315102	2475.206538
542.674821	2495.371154
543.034483	2477.727115
543.394090	2477.727115
543.753640	2525.618077
544.113134	2487.809423
544.472571	2518.056346
544.831953	2437.397885
545.191278	2533.179808
545.550548	2477.727115
545.909761	2492.850577
546.268918	2482.768269
546.628019	2447.480192
546.987064	2444.959615
547.346053	2467.644808
547.704986	2475.206538
548.063863	2495.371154
548.422684	2442.439038
548.781449	2417.233269
549.140158	2497.891731
549.498811	2482.768269
549.857408	2507.974038
550.215949	2535.700385
550.574434	2568.467885
550.932864	2482.768269
551.291237	2505.453462
551.649555	2538.220962
552.007817	2518.056346
552.366022	2578.550192
552.724173	2384.465769
553.082267	2502.932885
553.440305	2427.315577
553.798288	2563.426731
554.156215	2558.385577
554.514086	2507.974038
554.871902	2480.247692
555.229661	2533.179808
555.587365	2545.782692
555.945014	2558.385577
556.302606	2472.685962
556.660143	2485.288846
557.017625	2485.288846
557.375050	2548.303269
557.732421	2507.974038
558.089735	2525.618077
558.446994	2502.932885
558.804197	2502.932885
559.161345	2507.974038
559.518437	2467.644808
559.875474	2462.603654
560.232455	2505.453462
560.589381	2465.124231
560.946251	2583.591346
561.303065	2427.315577
561.659825	2490.330000
562.016528	2492.850577
562.373177	2518.056346
562.729770	2505.453462
563.086307	2533.179808
563.442789	2475.206538
563.799216	2429.836154
564.155587	2497.891731
564.511904	2467.644808
564.868164	2545.782692
565.224370	2502.932885
565.580520	2535.700385
565.936615	2528.138654
566.292654	2492.850577
566.648638	2442.439038
567.004567	2465.124231
567.360441	2482.768269
567.716260	2417.233269
568.072023	2414.712692
568.427732	2525.618077
568.783385	2487.809423
569.138982	2535.700385
569.494525	2442.439038
569.850013	2528.138654
570.205445	2457.562500
570.560823	2563.426731
570.916145	2548.303269
571.271412	2444.959615
571.626625	2543.262115
571.981782	2482.768269
572.336884	2535.700385
572.691931	2533.179808
573.046923	2502.932885
573.401860	2505.453462
573.756743	2555.865000
574.111570	2518.056346
574.466342	2510.494615
574.821059	2495.371154
575.175722	2447.480192
575.530330	2462.603654
575.884882	2447.480192
576.239380	2520.576923
576.593823	2447.480192
576.948211	2548.303269
577.302544	2520.576923
577.656823	2538.220962
578.011047	2465.124231
578.365216	2457.562500
578.719330	2487.809423
579.073389	2475.206538
579.427394	2417.233269
579.781344	2533.179808
580.135239	2497.891731
580.489080	2507.974038
580.842866	2477.727115
581.196597	2427.315577
581.550273	2450.000769
581.903895	2502.932885
582.257463	2523.097500
582.610975	2528.138654
582.964434	2548.303269
583.317837	2465.124231
583.671186	2525.618077
584.024481	2530.659231
584.377721	2543.262115
584.730906	2447.480192
585.084037	2497.891731
585.437113	2598.714808
585.790135	2424.795000
586.143103	2560.906154
586.496016	2487.809423
586.848874	2467.644808
587.201679	2568.467885
587.554428	2482.768269
587.907124	2576.029615
588.259765	2447.480192
588.612352	2533.179808
588.964884	2477.727115
589.317362	2581.070769
589.669786	2422.274423
590.022155	2543.262115
590.374470	2460.083077
590.726731	2462.603654
591.078937	2460.083077
591.431090	2505.453462
591.783188	2480.247692
592.135232	2550.823846
592.487222	2434.877308
592.839157	2591.153077
593.191038	2543.262115
593.542866	2555.865000
593.894639	2611.317692
594.246358	2467.644808
594.598022	2495.371154
594.949633	2520.576923
595.301190	2492.850577
595.652692	2565.947308
596.004141	2477.727115
596.355535	2538.220962
596.706876	2475.206538
597.058162	2500.412308
597.409395	2427.315577
597.760573	2553.344423
598.111698	2477.727115
598.462768	2518.056346
598.813785	2434.877308
599.164748	2553.344423
599.515657	2535.700385
599.866511	2487.809423
600.217312	2467.644808
600.568060	2578.550192
600.918753	2535.700385
601.269392	2497.891731
601.619978	2548.303269
601.970510	2472.685962
602.320988	2497.891731
602.671412	2477.727115
603.021783	2543.262115
603.372100	2467.644808
603.722363	2500.412308
604.072572	2513.015192
604.422728	2578.550192
604.772830	2500.412308
605.122878	2518.056346
605.472872	2439.918462
605.822813	2470.165385
606.172701	2467.644808
606.522534	2470.165385
606.872314	2523.097500
607.222041	2444.959615
607.571714	2495.371154
607.921333	2452.521346
608.270899	2465.124231
608.620411	2485.288846
608.969870	2457.562500
609.319276	2578.550192
609.668627	2460.083077
610.017926	2477.727115
610.367171	2528.138654
610.716362	2518.056346
611.065500	2538.220962
611.414585	2530.659231
611.763616	2457.562500
612.112594	2538.220962
612.461518	2467.644808
612.810389	2513.015192
613.159207	2439.918462
613.507971	2528.138654
613.856682	2538.220962
614.205340	2497.891731
614.553945	2505.453462
614.902496	2455.041923
615.250994	2523.097500
615.599439	2457.562500
615.947830	2548.303269
616.296169	2518.056346
616.644454	2523.097500
616.992686	2414.712692
617.340864	2523.097500
617.688990	2518.056346
618.037063	2507.974038
618.385082	2480.247692
618.733048	2457.562500
619.080961	2500.412308
619.428821	2528.138654
619.776628	2548.303269
620.124382	2550.823846
620.472083	2543.262115
620.819731	2470.165385
621.167326	2507.974038
621.514868	2502.932885
621.862357	2540.741538
622.209793	2565.947308
622.557176	2404.630385
622.904506	2543.262115
623.251783	2505.453462
623.599007	2525.618077
623.946179	2452.521346
624.293297	2492.850577
624.640363	2495.371154
624.987376	2563.426731
625.334336	2553.344423
625.681243	2495.371154
626.028097	2565.947308
626.374899	2447.480192
626.721647	2550.823846
627.068343	2581.070769
627.414987	2457.562500
627.761577	2507.974038
628.108115	2513.015192
628.454600	2490.330000
628.801032	2490.330000
629.147412	2487.809423
629.493739	2528.138654
629.840014	2485.288846
630.186236	2510.494615
630.532405	2565.947308
630.878521	2407.150962
631.224585	2497.891731
631.570597	2437.397885
631.916556	2500.412308
632.262462	2528.138654
632.608316	2487.809423
632.954117	2487.809423
633.299866	2477.727115
633.645562	2470.165385
633.991206	2462.603654
634.336797	2492.850577
634.682336	2452.521346
635.027823	2558.385577
635.373257	2520.576923
635.718639	2485.288846
636.063968	2460.083077
636.409245	2490.330000
636.754470	2533.179808
637.099642	2530.659231
637.444762	2472.685962
637.789829	2601.235385
638.134845	2444.959615
638.479808	2515.535769
638.824719	2560.906154
639.169577	2565.947308
639.514383	2520.576923
639.859137	2487.809423
640.203839	2497.891731
640.548489	2510.494615
640.893086	2497.891731
641.237632	2581.070769
641.582125	2523.097500
641.926566	2492.850577
642.270955	2505.453462
642.615292	2472.685962
642.959576	2535.700385
643.303809	2540.741538
643.647990	2601.235385
643.992118	2507.974038
644.336195	2581.070769
644.680219	2487.809423
645.024192	2485.288846
645.368112	2495.371154
645.711981	2502.932885
646.055797	2560.906154
646.399562	2427.315577
646.743274	2598.714808
647.086935	2482.768269
647.430544	2540.741538
647.774101	2465.124231
648.117606	2437.397885
648.461059	2437.397885
648.804460	2500.412308
649.147810	2495.371154
649.491108	2502.932885
649.834354	2502.932885
650.177548	2568.467885
650.520690	2510.494615
650.863781	2502.932885
651.206820	2455.041923
651.549807	2434.877308
651.892742	2407.150962
652.235626	2510.494615
652.578458	2525.618077
652.921238	2543.262115
653.263967	2502.932885
653.606644	2442.439038
653.949269	2525.618077
654.291843	2472.685962
654.634365	2505.453462
654.976836	2490.330000
655.319255	2455.041923
655.661622	2533.179808
656.003938	2570.988462
656.346203	2533.179808
656.688416	2485.288846
657.030577	2523.097500
657.372687	2515.535769
657.714746	2525.618077
658.056753	2545.782692
658.398708	2477.727115
658.740612	2555.865000
659.082465	2472.685962
659.424266	2442.439038
659.766016	2573.509038
660.107715	2477.727115
660.449362	2452.521346
660.790958	2576.029615
661.132503	2500.412308
661.473996	2409.671538
661.815438	2437.397885
662.156829	2570.988462
662.498168	2523.097500
662.839456	2530.659231
663.180693	2470.165385
663.521879	2467.644808
663.863013	2439.918462
664.204097	2470.165385
664.545129	2455.041923
664.886110	2460.083077
665.227040	2417.233269
665.567918	2530.659231
665.908746	2424.795000
666.249522	2447.480192
666.590248	2540.741538
666.930922	2442.439038
667.271545	2540.741538
667.612118	2533.179808
667.952639	2548.303269
668.293109	2490.330000
668.633528	2570.988462
668.973896	2475.206538
669.314213	2596.194231
669.654480	2457.562500
669.994695	2505.453462
670.334859	2450.000769
670.674973	2528.138654
671.015035	2472.685962
671.355047	2467.644808
671.695008	2467.644808
672.034918	2444.959615
672.374777	2548.303269
672.714585	2500.412308
673.054342	2553.344423
673.394049	2533.179808
673.733705	2427.315577
674.073310	2568.467885
674.412864	2450.000769
674.752368	2419.753846
675.091820	2515.535769
675.431223	2543.262115
675.770574	2467.644808
676.109875	2495.371154
676.449125	2515.535769
676.788324	2482.768269
677.127473	2399.589231
677.466571	2518.056346
677.805619	2442.439038
678.144616	2467.644808
678.483562	2540.741538
678.822458	2490.330000
679.161303	2588.632500
679.500098	2500.412308
679.838842	2538.220962
680.177535	2450.000769
680.516179	2500.412308
680.854771	2543.262115
681.193314	2581.070769
681.531805	2492.850577
681.870247	2576.029615
682.208638	2510.494615
682.546978	2565.947308
682.885268	2495.371154
683.223508	2490.330000
683.561697	2528.138654
683.899836	2490.330000
684.237925	2452.521346
684.575963	2452.521346
684.913951	2555.865000
685.251889	2578.550192
685.589776	2500.412308
685.927614	2510.494615
686.265401	2444.959615
686.603137	2558.385577
686.940824	2518.056346
687.278460	2510.494615
687.616046	2429.836154
687.953582	2417.233269
688.291068	2543.262115
688.628504	2528.138654
688.965889	2455.041923
689.303224	2520.576923
689.640510	2528.138654
689.977745	2510.494615
690.314930	2477.727115
690.652065	2487.809423
690.989150	2485.288846
691.326185	2513.015192
691.663170	2515.535769
692.000105	2543.262115
692.336990	2533.179808
692.673825	2472.685962
693.010610	2545.782692
693.347345	2513.015192
693.684030	2535.700385
694.020665	2560.906154
694.357251	2470.165385
694.693786	2543.262115
695.030272	2460.083077
695.366707	2487.809423
695.703093	2535.700385
696.039429	2570.988462
696.375716	2535.700385
696.711952	2485.288846
697.048139	2487.809423
697.384276	2553.344423
697.720363	2480.247692
698.056400	2518.056346
698.392388	2482.768269
698.728326	2513.015192
699.064214	2545.782692
699.400053	2591.153077
699.735842	2467.644808
700.071581	2460.083077
700.407270	2520.576923
700.742910	2518.056346
701.078501	2530.659231
701.414042	2603.755962
701.749533	2596.194231
702.084974	2470.165385
702.420366	2477.727115
702.755709	2500.412308
703.091002	2409.671538
703.426246	2528.138654
703.761440	2434.877308
704.096584	2507.974038
704.431679	2500.412308
704.766725	2510.494615
705.101721	2482.768269
705.436668	2457.562500
705.771565	2467.644808
706.106413	2586.111923
706.441212	2465.124231
706.775961	2485.288846
707.110661	2543.262115
707.445311	2513.015192
707.779913	2578.550192
708.114465	2487.809423
708.448967	2487.809423
708.783421	2555.865000
709.117825	2525.618077
709.452180	2477.727115
709.786485	2543.262115
710.120742	2533.179808
710.454949	2558.385577
710.789107	2578.550192
711.123216	2482.768269
711.457275	2550.823846
711.791286	2510.494615
712.125247	2513.015192
712.459159	2523.097500
712.793023	2581.070769
713.126837	2520.576923
713.460602	2500.412308
713.794318	2465.124231
714.127985	2505.453462
714.461602	2429.836154
714.795171	2460.083077
715.128691	2495.371154
715.462162	2603.755962
715.795584	2452.521346
716.128957	2515.535769
716.462281	2515.535769
716.795556	2578.550192
717.128782	2419.753846
717.461960	2550.823846
717.795088	2417.233269
718.128167	2533.179808
718.461198	2487.809423
718.794180	2510.494615
719.127113	2520.576923
719.459997	2548.303269
719.792833	2545.782692
720.125619	2467.644808
720.458357	2475.206538
720.791046	2545.782692
721.123686	2412.192115
721.456278	2513.015192
721.788821	2457.562500
722.121315	2513.015192
722.453761	2427.315577
722.786158	2475.206538
723.118506	2555.865000
723.450805	2487.809423
723.783056	2500.412308
724.115259	2502.932885
724.447412	2492.850577
724.779518	2603.755962
725.111574	2467.644808
725.443582	2545.782692
725.775542	2470.165385
726.107453	2591.153077
726.439315	2495.371154
726.771129	2477.727115
727.102895	2452.521346
727.434612	2500.412308
727.766281	2505.453462
728.097901	2518.056346
728.429473	2513.015192
728.760996	2490.330000
729.092471	2465.124231
729.423897	2477.727115
729.755276	2462.603654
730.086606	2444.959615
730.417887	2480.247692
730.749120	2497.891731
731.080305	2492.850577
731.411442	2500.412308
731.742530	2462.603654
732.073570	2495.371154
732.404562	2472.685962
732.735506	2510.494615
733.066401	2525.618077
733.397249	2520.576923
733.728048	2467.644808
734.058798	2530.659231
734.389501	2434.877308
734.720156	2533.179808
735.050762	2455.041923
735.381320	2492.850577
735.711831	2545.782692
736.042293	2492.850577
736.372707	2475.206538
736.703073	2472.685962
737.033391	2485.288846
737.363661	2477.727115
737.693883	2520.576923
738.024056	2583.591346
738.354182	2450.000769
738.684260	2417.233269
739.014290	2583.591346
739.344272	2399.589231
739.674207	2515.535769
740.004093	2545.782692
740.333931	2447.480192
740.663722	2555.865000
740.993464	2470.165385
741.323159	2543.262115
741.652806	2472.685962
741.982405	2523.097500
742.311956	2482.768269
742.641460	2530.659231
742.970915	2439.918462
743.300323	2429.836154
743.629683	2490.330000
743.958996	2550.823846
744.288260	2530.659231
744.617477	2495.371154
744.946647	2505.453462
745.275768	2530.659231
745.604842	2520.576923
745.933869	2570.988462
746.262847	2518.056346
746.591778	2477.727115
746.920662	2565.947308
747.249498	2570.988462
747.578286	2460.083077
747.907027	2467.644808
748.235720	2533.179808
748.564365	2412.192115
748.892963	2500.412308
749.221514	2444.959615
749.550017	2538.220962
749.878473	2515.535769
750.206881	2444.959615
750.535242	2444.959615
750.863555	2507.974038
751.191821	2487.809423
751.520039	2457.562500
751.848210	2502.932885
752.176334	2513.015192
752.504411	2497.891731
752.832440	2432.356731
753.160421	2533.179808
753.488356	2480.247692
753.816243	2530.659231
754.144082	2523.097500
754.471875	2550.823846
754.799620	2480.247692
755.127318	2485.288846
755.454969	2495.371154
755.782572	2505.453462
756.110129	2550.823846
756.437638	2460.083077
756.765100	2482.768269
757.092515	2523.097500
757.419882	2528.138654
757.747203	2495.371154
758.074477	2465.124231
758.401703	2485.288846
758.728882	2495.371154
759.056014	2482.768269
759.383099	2472.685962
759.710138	2497.891731
760.037129	2487.809423
760.364073	2487.809423
760.690970	2540.741538
761.017820	2465.124231
761.344623	2457.562500
761.671379	2497.891731
761.998088	2407.150962
762.324751	2399.589231
762.651366	2603.755962
762.977935	2523.097500
763.304456	2543.262115
763.630931	2462.603654
763.957359	2510.494615
764.283740	2535.700385
764.610074	2530.659231
764.936362	2490.330000
765.262602	2581.070769
765.588796	2414.712692
765.914943	2477.727115
766.241044	2550.823846
766.567097	2460.083077
766.893104	2515.535769
767.219064	2452.521346
767.544978	2513.015192
767.870845	2460.083077
768.196665	2505.453462
768.522438	2518.056346
768.848165	2520.576923
769.173846	2465.124231
769.499479	2460.083077
769.825066	2462.603654
770.150607	2442.439038
770.476101	2455.041923
770.801548	2427.315577
771.126949	2515.535769
771.452303	2480.247692
771.777611	2414.712692
772.102872	2507.974038
772.428087	2482.768269
772.753256	2462.603654
773.078378	2450.000769
773.403453	2568.467885
773.728482	2482.768269
774.053465	2465.124231
774.378401	2495.371154
774.703291	2545.782692
775.028135	2543.262115
775.352932	2399.589231
775.677683	2462.603654
776.002388	2518.056346
776.327046	2477.727115
776.651658	2450.000769
776.976224	2444.959615
777.300743	2510.494615
777.625216	2381.945192
777.949643	2533.179808
778.274024	2500.412308
778.598359	2533.179808
778.922647	2515.535769
779.246889	2455.041923
779.571086	2505.453462
779.895236	2439.918462
780.219339	2480.247692
780.543397	2583.591346
780.867409	2417.233269
781.191374	2422.274423
781.515294	2505.453462
781.839167	2520.576923
782.162995	2419.753846
782.486776	2432.356731
782.810511	2520.576923
783.134201	2543.262115
783.457844	2530.659231
783.781441	2515.535769
784.104993	2465.124231
784.428498	2560.906154
784.751958	2475.206538
785.075372	2530.659231
785.398739	2497.891731
785.722061	2477.727115
786.045337	2550.823846
786.368568	2533.179808
786.691752	2520.576923
787.014891	2583.591346
787.337983	2563.426731
787.661030	2581.070769
787.984031	2419.753846
788.306987	2535.700385
788.629897	2510.494615
788.952760	2581.070769
789.275579	2434.877308
789.598351	2480.247692
789.921078	2548.303269
790.243759	2525.618077
790.566395	2424.795000
790.888984	2543.262115
791.211529	2570.988462
791.534027	2447.480192
791.856480	2528.138654
792.178888	2543.262115
792.501249	2450.000769
792.823566	2414.712692
793.145836	2497.891731
793.468062	2523.097500
793.790241	2540.741538
794.112375	2404.630385
794.434464	2518.056346
794.756507	2497.891731
795.078505	2475.206538
795.400457	2510.494615
795.722364	2417.233269
796.044226	2447.480192
796.366042	2447.480192
796.687812	2467.644808
797.009538	2581.070769
797.331218	2467.644808
797.652852	2472.685962
797.974442	2452.521346
798.295986	2492.850577
798.617484	2424.795000
798.938938	2523.097500
799.260346	2535.700385
799.581709	2439.918462
799.903026	2565.947308
800.224299	2482.768269
800.545526	2434.877308
800.866708	2492.850577
801.187845	2505.453462
801.508936	2513.015192
801.829983	2470.165385
802.150984	2497.891731
802.471940	2510.494615
802.792851	2507.974038
803.113717	2475.206538
803.434538	2460.083077
803.755314	2497.891731
804.076045	2439.918462
804.396731	2548.303269
804.717372	2502.932885
805.037967	2465.124231
805.358518	2523.097500
805.679024	2450.000769
805.999485	2447.480192
806.319901	2570.988462
806.640272	2502.932885
806.960598	2470.165385
807.280879	2661.729231
807.601115	2452.521346
807.921306	2429.836154
808.241453	2510.494615
808.561554	2550.823846
808.881611	2495.371154
809.201623	2535.700385
809.521590	2586.111923
809.841513	2530.659231
810.161390	2525.618077
810.481223	2397.068654
810.801011	2467.644808
811.120755	2452.521346
811.440453	2460.083077
811.760107	2543.262115
812.079716	2432.356731
812.399281	2472.685962
812.718801	2465.124231
813.038276	2515.535769
813.357707	2515.535769
813.677093	2414.712692
813.996434	2409.671538
814.315731	2497.891731
814.634983	2437.397885
814.954191	2548.303269
815.273354	2538.220962
815.592473	2414.712692
815.911547	2553.344423
816.230577	2563.426731
816.549562	2472.685962
816.868502	2533.179808
817.187399	2437.397885
817.506250	2505.453462
817.825058	2540.741538
818.143821	2530.659231
818.462539	2550.823846
818.781213	2533.179808
819.099843	2487.809423
819.418429	2485.288846
819.736970	2490.330000
820.055466	2490.330000
820.373919	2480.247692
820.692327	2578.550192
821.010691	2432.356731
821.329011	2545.782692
821.647286	2485.288846
821.965517	2510.494615
822.283704	2588.632500
822.601847	2525.618077
822.919945	2492.850577
823.237999	2482.768269
823.556010	2500.412308
823.873976	2538.220962
824.191897	2543.262115
824.509775	2490.330000
824.827609	2535.700385
825.145398	2470.165385
825.463144	2553.344423
825.780845	2465.124231
826.098502	2520.576923
826.416116	2452.521346
826.733685	2545.782692
827.051210	2560.906154
827.368692	2533.179808
827.686129	2460.083077
828.003522	2465.124231
828.320872	2472.685962
828.638177	2485.288846
828.955439	2475.206538
829.272656	2525.618077
829.589830	2578.550192
829.906960	2565.947308
830.224046	2472.685962
830.541088	2472.685962
830.858086	2452.521346
831.175041	2407.150962
831.491952	2457.562500
831.808819	2475.206538
832.125642	2475.206538
832.442421	2444.959615
832.759157	2548.303269
833.075849	2568.467885
833.392497	2376.904038
833.709101	2507.974038
834.025662	2477.727115
834.342179	2487.809423
834.658653	2482.768269
834.975083	2462.603654
835.291469	2487.809423
835.607811	2482.768269
835.924110	2528.138654
836.240366	2399.589231
836.556578	2465.124231
836.872746	2538.220962
837.188871	2510.494615
837.504952	2422.274423
837.820990	2470.165385
838.136984	2462.603654
838.452935	2422.274423
838.768842	2530.659231
839.084706	2545.782692
839.400526	2485.288846
839.716303	2475.206538
840.032037	2404.630385
840.347727	2505.453462
840.663373	2518.056346
840.978977	2538.220962
841.294537	2427.315577
841.610054	2472.685962
841.925527	2533.179808
842.240957	2548.303269
842.556344	2518.056346
842.871687	2543.262115
843.186987	2510.494615
843.502244	2460.083077
843.817458	2447.480192
844.132629	2427.315577
844.447756	2490.330000
844.762840	2510.494615
845.077881	2465.124231
845.392879	2497.891731
845.707833	2477.727115
846.022745	2540.741538
846.337613	2530.659231
846.652438	2533.179808
846.967221	2548.303269
847.281960	2518.056346
847.596656	2495.371154
847.911309	2434.877308
848.225919	2576.029615
848.540485	2513.015192
848.855009	2573.509038
849.169490	2477.727115
849.483928	2492.850577
849.798323	2467.644808
850.112675	2520.576923
850.426984	2470.165385
850.741251	2462.603654
851.055474	2460.083077
851.369654	2447.480192
851.683792	2470.165385
851.997887	2555.865000
852.311938	2510.494615
852.625947	2470.165385
852.939914	2472.685962
853.253837	2510.494615
853.567718	2513.015192
853.881555	2450.000769
854.195350	2520.576923
854.509103	2460.083077
854.822812	2505.453462
855.136479	2434.877308
855.450103	2480.247692
855.763685	2439.918462
856.077224	2525.618077
856.390720	2588.632500
856.704173	2513.015192
857.017584	2470.165385
857.330953	2475.206538
857.644278	2472.685962
857.957561	2507.974038
858.270802	2490.330000
858.584000	2545.782692
858.897155	2462.603654
859.210268	2500.412308
859.523339	2467.644808
859.836367	2560.906154
860.149352	2528.138654
860.462295	2485.288846
860.775195	2475.206538
861.088054	2548.303269
861.400869	2545.782692
861.713642	2472.685962
862.026373	2452.521346
862.339062	2518.056346
862.651708	2533.179808
862.964312	2407.150962
863.276873	2540.741538
863.589392	2505.453462
863.901869	2482.768269
864.214303	2485.288846
864.526696	2548.303269
864.839045	2460.083077
865.151353	2482.768269
865.463619	2480.247692
865.775842	2523.097500
866.088023	2507.974038
866.400162	2465.124231
866.712258	2535.700385
867.024313	2480.247692
867.336325	2465.124231
867.648296	2492.850577
867.960224	2507.974038
868.272110	2568.467885
868.583954	2450.000769
868.895755	2543.262115
869.207515	2525.618077
869.519233	2477.727115
869.830909	2523.097500
870.142542	2500.412308
870.454134	2490.330000
870.765684	2492.850577
871.077191	2452.521346
871.388657	2444.959615
871.700081	2535.700385
872.011463	2480.247692
872.322803	2550.823846
872.634101	2475.206538
872.945357	2502.932885
873.256571	2472.685962
873.567744	2510.494615
873.878874	2439.918462
874.189963	2497.891731
874.501010	2540.741538
874.812015	2419.753846
875.122979	2515.535769
875.433900	2444.959615
875.744780	2422.274423
876.055618	2495.371154
876.366415	2490.330000
876.677169	2548.303269
876.987882	2573.509038
877.298554	2470.165385
877.609183	2467.644808
877.919771	2444.959615
878.230317	2523.097500
878.540822	2419.753846
878.851285	2455.041923
879.161707	2452.521346
879.472087	2497.891731
879.782425	2535.700385
880.092722	2505.453462
880.402977	2482.768269
880.713191	2565.947308
881.023363	2543.262115
881.333494	2639.044038
881.643583	2487.809423
881.953631	2495.371154
882.263637	2543.262115
882.573602	2565.947308
882.883526	2507.974038
883.193408	2543.262115
883.503248	2482.768269
883.813048	2450.000769
884.122806	2467.644808
884.432522	2558.385577
884.742197	2460.083077
885.051831	2485.288846
885.361424	2490.330000
885.670975	2477.727115
885.980485	2507.974038
886.289954	2429.836154
886.599382	2477.727115
886.908768	2500.412308
887.218113	2523.097500
887.527417	2497.891731
887.836680	2460.083077
888.145901	2563.426731
888.455082	2455.041923
888.764221	2460.083077
889.073319	2543.262115
889.382376	2525.618077
889.691392	2475.206538
890.000366	2487.809423
890.309300	2389.506923
890.618193	2439.918462
890.927044	2523.097500
891.235855	2482.768269
891.544625	2518.056346
891.853353	2485.288846
892.162041	2480.247692
892.470687	2439.918462
892.779293	2475.206538
893.087858	2477.727115
893.396381	2487.809423
893.704864	2540.741538
894.013306	2535.700385
894.321707	2558.385577
894.630068	2507.974038
894.938387	2528.138654
895.246665	2465.124231
895.554903	2477.727115
895.863100	2457.562500
896.171256	2457.562500
896.479371	2482.768269
896.787446	2462.603654
897.095480	2543.262115
897.403473	2422.274423
897.711425	2573.509038
898.019336	2465.124231
898.327207	2480.247692
898.635038	2560.906154
898.942827	2495.371154
899.250576	2490.330000
899.558284	2477.727115
899.865952	2591.153077
900.173579	2490.330000
900.481165	2392.027500
900.788711	2495.371154
901.096216	2477.727115
901.403681	2510.494615
901.711105	2525.618077
902.018489	2535.700385
902.325832	2397.068654
902.633135	2447.480192
902.940397	2495.371154
903.247619	2472.685962
903.554800	2422.274423
903.861941	2452.521346
904.169041	2568.467885
904.476101	2548.303269
904.783121	2470.165385
905.090100	2545.782692
905.397039	2475.206538
905.703938	2518.056346
906.010796	2568.467885
906.317614	2550.823846
906.624391	2563.426731
906.931129	2457.562500
907.237826	2492.850577
907.544483	2543.262115
907.851099	2460.083077
908.157675	2444.959615
908.464211	2558.385577
908.770707	2515.535769
909.077163	2510.494615
909.383578	2535.700385
909.689954	2457.562500
909.996289	2502.932885
910.302584	2533.179808
910.608839	2510.494615
910.915054	2482.768269
911.221229	2502.932885
911.527363	2515.535769
911.833458	2465.124231
912.139513	2424.795000
912.445527	2480.247692
912.751502	2475.206538
913.057436	2523.097500
913.363331	2523.097500
913.669186	2507.974038
913.975000	2485.288846
914.280775	2487.809423
914.586510	2520.576923
914.892205	2470.165385
915.197859	2523.097500
915.503475	2412.192115
915.809050	2462.603654
916.114585	2465.124231
916.420081	2586.111923
916.725536	2485.288846
917.030952	2500.412308
917.336328	2500.412308
917.641665	2366.821731
917.946961	2518.056346
918.252218	2492.850577
918.557435	2490.330000
918.862612	2429.836154
919.167750	2502.932885
919.472848	2447.480192
919.777906	2429.836154
920.082925	2434.877308
920.387904	2525.618077
920.692843	2450.000769
920.997743	2543.262115
921.302603	2570.988462
921.607423	2472.685962
921.912204	2543.262115
922.216946	2424.795000
922.521647	2545.782692
922.826310	2510.494615
923.130932	2399.589231
923.435516	2510.494615
923.740059	2442.439038
924.044564	2412.192115
924.349028	2555.865000
924.653454	2429.836154
924.957840	2495.371154
925.262186	2439.918462
925.566493	2560.906154
925.870761	2467.644808
926.174989	2530.659231
926.479178	2407.150962
926.783328	2570.988462
927.087438	2485.288846
927.391509	2497.891731
927.695541	2490.330000
927.999533	2513.015192
928.303486	2515.535769
928.607400	2437.397885
928.911275	2513.015192
929.215110	2500.412308
929.518906	2495.371154
929.822663	2482.768269
930.126381	2381.945192
930.430060	2444.959615
930.733699	2545.782692
931.037299	2543.262115
931.340861	2525.618077
931.644383	2450.000769
931.947866	2533.179808
932.251309	2487.809423
932.554714	2475.206538
932.858080	2568.467885
933.161407	2419.753846
933.464694	2429.836154
933.767943	2462.603654
934.071153	2467.644808
934.374323	2518.056346
934.677455	2439.918462
934.980548	2485.288846
935.283602	2560.906154
935.586617	2487.809423
935.889593	2513.015192
936.192530	2475.206538
936.495428	2538.220962
936.798287	2434.877308
937.101108	2457.562500
937.403890	2490.330000
937.706632	2518.056346
938.009336	2457.562500
938.312002	2492.850577
938.614628	2507.974038
938.917216	2444.959615
939.219765	2452.521346
939.522275	2492.850577
939.824747	2560.906154
940.127179	2583.591346
940.429573	2492.850577
940.731929	2530.659231
941.034246	2550.823846
941.336524	2495.371154
941.638763	2515.535769
941.940964	2480.247692
942.243126	2470.165385
942.545250	2480.247692
942.847335	2543.262115
943.149381	2548.303269
943.451389	2480.247692
943.753359	2495.371154
944.055290	2480.247692
944.357182	2535.700385
944.659036	2507.974038
944.960851	2394.548077
945.262628	2366.821731
945.564367	2414.712692
945.866067	2518.056346
946.167729	2452.521346
946.469352	2573.509038
946.770937	2457.562500
947.072484	2487.809423
947.373992	2497.891731
947.675462	2515.535769
947.976893	2439.918462
948.278286	2533.179808
948.579641	2366.821731
948.880958	2502.932885
949.182236	2482.768269
949.483476	2515.535769
949.784678	2429.836154
950.085841	2467.644808
950.386967	2490.330000
950.688054	2490.330000
950.989103	2553.344423
951.290114	2444.959615
951.591087	2432.356731
951.892021	2505.453462
952.192917	2525.618077
952.493776	2424.795000
952.794596	2502.932885
953.095378	2581.070769
953.396122	2538.220962
953.696828	2523.097500
953.997496	2513.015192
954.298126	2525.618077
954.598718	2490.330000
954.899272	2543.262115
955.199788	2455.041923
955.500266	2485.288846
955.800706	2437.397885
956.101108	2465.124231
956.401472	2616.358846
956.701798	2482.768269
957.002087	2462.603654
957.302337	2507.974038
957.602550	2563.426731
957.902724	2563.426731
958.202861	2545.782692
958.502960	2530.659231
958.803022	2457.562500
959.103045	2530.659231
959.403031	2429.836154
959.702979	2482.768269
960.002889	2535.700385
960.302762	2467.644808
960.602596	2565.947308
960.902393	2495.371154
961.202153	2535.700385
961.501875	2477.727115
961.801559	2518.056346
962.101205	2553.344423
962.400814	2502.932885
962.700385	2518.056346
962.999918	2518.056346
963.299414	2502.932885
963.598873	2470.165385
963.898293	2495.371154
964.197677	2548.303269
964.497022	2518.056346
964.796331	2555.865000
965.095601	2505.453462
965.394835	2523.097500
965.694030	2452.521346
965.993189	2558.385577
966.292309	2462.603654
966.591393	2502.932885
966.890439	2460.083077
967.189447	2480.247692
967.488419	2457.562500
967.787353	2475.206538
968.086249	2535.700385
968.385108	2485.288846
968.683930	2540.741538
968.982714	2442.439038
969.281462	2548.303269
969.580172	2452.521346
969.878844	2427.315577
970.177480	2490.330000
970.476078	2434.877308
970.774639	2442.439038
971.073162	2480.247692
971.371649	2467.644808
971.670098	2515.535769
971.968510	2472.685962
972.266885	2530.659231
972.565223	2414.712692
972.863524	2417.233269
973.161788	2477.727115
973.460014	2460.083077
973.758204	2455.041923
974.056356	2523.097500
974.354471	2523.097500
974.652550	2432.356731
974.950591	2465.124231
975.248595	2533.179808
975.546563	2601.235385
975.844493	2475.206538
976.142386	2515.535769
976.440243	2513.015192
976.738062	2450.000769
977.035845	2581.070769
977.333590	2543.262115
977.631299	2467.644808
977.928971	2525.618077
978.226606	2500.412308
978.524204	2505.453462
978.821765	2450.000769
979.119290	2487.809423
979.416777	2472.685962
979.714228	2581.070769
980.011642	2543.262115
980.309020	2515.535769
980.606360	2553.344423
980.903664	2424.795000
981.200931	2530.659231
981.498162	2419.753846
981.795356	2538.220962
982.092513	2475.206538
982.389633	2528.138654
982.686717	2490.330000
982.983764	2515.535769
983.280775	2452.521346
983.577749	2502.932885
983.874686	2497.891731
984.171587	2510.494615
984.468451	2462.603654
984.765279	2525.618077
985.062070	2485.288846
985.358824	2402.109808
985.655543	2450.000769
985.952224	2349.177692
986.248869	2457.562500
986.545478	2533.179808
986.842050	2460.083077
987.138586	2465.124231
987.435086	2510.494615
987.731549	2452.521346
988.027975	2465.124231
988.324366	2465.124231
988.620719	2513.015192
988.917037	2470.165385
989.213318	2429.836154
989.509563	2447.480192
989.805772	2392.027500
990.101944	2444.959615
990.398080	2535.700385
990.694180	2455.041923
990.990244	2507.974038
991.286271	2525.618077
991.582262	2432.356731
991.878217	2568.467885
992.174136	2502.932885
992.470019	2472.685962
992.765865	2523.097500
993.061676	2475.206538
993.357450	2427.315577
993.653188	2515.535769
993.948890	2475.206538
994.244556	2565.947308
994.540186	2578.550192
994.835780	2452.521346
995.131337	2558.385577
995.426859	2523.097500
995.722345	2462.603654
996.017795	2573.509038
996.313208	2444.959615
996.608586	2392.027500
996.903928	2535.700385
997.199234	2429.836154
997.494504	2495.371154
997.789738	2548.303269
998.084936	2500.412308
998.380099	2538.220962
998.675225	2480.247692
998.970316	2457.562500
999.265371	2492.850577
999.560390	2490.330000
999.855373	2402.109808
1000.150320	2500.412308
1000.445232	2437.397885
1000.740108	2515.535769
1001.034948	2404.630385
1001.329752	2470.165385
1001.624521	2434.877308
1001.919254	2482.768269
1002.213951	2528.138654
1002.508613	2523.097500
1002.803239	2480.247692
1003.097829	2497.891731
1003.392384	2490.330000
1003.686903	2462.603654
1003.981386	2510.494615
1004.275834	2495.371154
1004.570246	2477.727115
1004.864623	2495.371154
1005.158964	2570.988462
1005.453270	2470.165385
1005.747540	2523.097500
1006.041775	2497.891731
1006.335974	2553.344423
1006.630138	2384.465769
1006.924266	2389.506923
1007.218359	2450.000769
1007.512416	2513.015192
1007.806438	2429.836154
1008.100425	2528.138654
1008.394376	2460.083077
1008.688292	2490.330000
1008.982172	2490.330000
1009.276017	2555.865000
1009.569827	2507.974038
1009.863602	2495.371154
1010.157341	2565.947308
1010.451045	2510.494615
1010.744714	2462.603654
1011.038347	2472.685962
1011.331945	2502.932885
1011.625508	2543.262115
1011.919036	2550.823846
1012.212528	2530.659231
1012.505986	2490.330000
1012.799408	2485.288846
1013.092795	2601.235385
1013.386147	2450.000769
1013.679464	2505.453462
1013.972745	2470.165385
1014.265992	2558.385577
1014.559204	2520.576923
1014.852380	2455.041923
1015.145521	2477.727115
1015.438628	2318.930769
1015.731699	2513.015192
1016.024736	2490.330000
1016.317737	2502.932885
1016.610703	2558.385577
1016.903635	2560.906154
1017.196531	2581.070769
1017.489393	2429.836154
1017.782219	2505.453462
1018.075011	2548.303269
1018.367768	2596.194231
1018.660490	2455.041923
1018.953177	2455.041923
1019.245829	2455.041923
