Dividing Wavelength (nm)	Counts (n)	Blue Motor Position (mm): 0.000000	Red Motor Position (mm): 36.500000	
326.493990	2128.193672
326.888308	2128.193672
327.282561	2128.193672
327.676750	2096.804928
328.070874	2095.695874
328.464933	2097.208220
328.858929	2104.182657
329.252859	2112.951744
329.646726	2122.761829
330.040528	2139.543830
330.434265	2157.530667
330.827938	2172.780158
331.221547	2187.860769
331.615091	2208.905066
332.008571	2227.050699
332.401986	2246.696076
332.795338	2268.632657
333.188625	2286.990018
333.581847	2306.257308
333.975006	2322.762046
334.368100	2340.781651
334.761129	2359.096163
335.154095	2376.087372
335.546996	2397.814745
335.939833	2416.104051
336.332606	2429.153078
336.725315	2442.607917
337.117960	2454.154680
337.510540	2461.164404
337.903056	2471.007257
338.295508	2478.947075
338.687896	2488.195071
339.080220	2498.239570
339.472480	2503.477329
339.864676	2507.850530
340.256807	2512.647188
340.648875	2514.429236
341.040879	2516.801099
341.432818	2519.679598
341.824694	2520.213960
342.216506	2520.410565
342.608253	2522.227901
342.999937	2520.574402
343.391557	2521.083559
343.783113	2516.095337
344.174605	2518.633558
344.566033	2516.848990
344.957397	2515.805471
345.348697	2515.729854
345.739934	2509.632578
346.131106	2512.102743
346.522215	2507.437156
346.913260	2506.255005
347.304241	2508.715088
347.695159	2502.277535
348.086012	2502.413646
348.476802	2499.005826
348.867528	2499.227637
349.258191	2497.652276
349.648789	2496.845691
350.039324	2492.679178
350.429796	2494.340238
350.820203	2493.037100
351.210548	2494.360402
351.600828	2492.601040
351.991045	2489.193220
352.381198	2488.058960
352.771288	2487.622900
353.161314	2490.743375
353.551276	2487.675833
353.941175	2489.866214
354.331010	2490.599702
354.720782	2489.248673
355.110490	2488.081645
355.500135	2488.031234
355.889717	2489.513333
356.279235	2490.352685
356.668689	2488.646255
357.058080	2491.907881
357.447408	2489.135247
357.836672	2485.805564
358.225873	2486.481079
358.615010	2487.900164
359.004084	2492.417038
359.393095	2491.814620
359.782043	2494.683036
360.170927	2493.808396
360.559748	2496.880979
360.948505	2497.619508
361.337199	2498.473984
361.725830	2499.114211
362.114398	2498.995743
362.502903	2497.982472
362.891344	2501.972545
363.279722	2499.182266
363.668037	2501.763337
364.056289	2498.710918
364.444478	2498.872235
364.832603	2499.915754
365.220665	2504.057062
365.608665	2502.847185
365.996601	2506.383554
366.384474	2506.645694
366.772284	2505.778616
367.160031	2507.409429
367.547715	2510.431601
367.935336	2510.565192
368.322893	2516.692714
368.710388	2518.207581
369.097820	2525.471883
369.485189	2527.989940
369.872495	2533.953625
370.259738	2541.991745
370.646918	2549.155224
371.034035	2553.795606
371.421090	2566.698440
371.808081	2575.827969
372.195010	2588.425813
372.581875	2597.832606
372.968678	2611.224431
373.355418	2619.078549
373.742096	2639.258287
374.128710	2654.921153
374.515262	2669.134686
374.901751	2684.689166
375.288177	2699.273224
375.674540	2722.331462
376.060841	2737.563308
376.447079	2755.930752
376.833254	2777.179216
377.219367	2792.711011
377.605417	2827.663851
377.991404	2838.456961
378.377329	2858.125023
378.763191	2876.437014
379.148991	2913.224834
379.534727	2939.022939
379.920402	2966.018318
380.306013	2979.654639
380.691563	3028.596681
381.077049	3050.482851
381.462474	3067.327866
381.847835	3105.449072
382.233134	3129.742392
382.618371	3129.805407
383.003545	3198.251673
383.388657	3202.458516
383.773706	3237.791963
384.158693	3253.805188
384.543618	3282.373407
384.928480	3314.810712
385.313280	3363.462887
385.698017	3358.182279
386.082692	3414.865013
386.467305	3419.230652
386.851856	3451.486475
387.236344	3474.585042
387.620770	3504.461440
388.005133	3528.215357
388.389435	3555.389697
388.773674	3568.589958
389.157851	3610.471864
389.541965	3631.460708
389.926018	3591.708689
390.310008	3664.379443
390.693936	3684.032381
391.077802	3721.972105
391.461606	3712.104046
391.845348	3771.687964
392.229027	3776.908079
392.612645	3787.207156
392.996200	3863.225236
393.379694	3904.131678
393.763125	3970.707677
394.146494	3938.088891
394.529801	3997.380422
394.913047	4048.215417
395.296230	4013.885159
395.679351	4068.052357
396.062410	4094.505812
396.445408	4072.196186
396.828343	4107.068368
397.211217	4130.323210
397.594028	4047.285324
397.976778	4115.330819
398.359466	4145.683606
398.742092	4169.964324
399.124656	4090.601439
399.507158	4174.781146
399.889598	4197.567162
400.271977	4261.383128
400.654294	4232.192327
401.036549	4236.348758
401.418742	4211.954615
401.800874	4313.029749
402.182944	4333.282585
402.564952	4396.982605
402.946898	4382.892580
403.328783	4379.799832
403.710606	4293.961585
404.092367	4483.385461
404.474067	4447.132003
404.855705	4458.482161
405.237282	4388.427767
405.618797	4494.324765
406.000250	4534.701887
406.381642	4610.422538
406.762972	4571.434254
407.144240	4585.531841
407.525447	4582.834824
407.906593	4642.968227
408.287677	4680.734031
408.668700	4610.258701
409.049661	4666.250796
409.430560	4708.553639
409.811399	4636.248369
410.192176	4795.838697
410.572891	4735.702773
410.953545	4835.502496
411.334138	4717.297520
411.714669	4786.205052
412.095139	4679.687992
412.475547	4821.286442
412.855894	4804.287671
413.236180	4811.859484
413.616405	4764.412144
413.996568	4852.723077
414.376670	4796.383142
414.756711	4749.238271
415.136691	4782.028456
415.516609	4859.203480
415.896466	4899.888113
416.276262	4929.139408
416.655997	4908.521088
417.035670	5094.030509
417.415283	5182.046534
417.794834	5130.515860
418.174324	5080.794959
418.553753	4989.507225
418.933121	5174.383981
419.312428	5241.950566
419.691674	5180.516544
420.070859	5305.436337
420.449983	5217.001895
420.829045	5331.231921
421.208047	5241.867387
421.586988	5310.217871
421.965867	5321.240354
422.344686	5451.700374
422.723444	5306.923477
423.102141	5132.978463
423.480777	5425.080561
423.859352	5197.563206
424.237866	5453.621054
424.616319	5446.760043
424.994712	5553.839192
425.373044	5435.656902
425.751314	5576.229477
426.129524	5379.518613
426.507673	5572.115896
426.885762	5655.909955
427.263789	5585.018729
427.641756	5471.229804
428.019662	5588.068627
428.397508	5598.007262
428.775292	5544.286206
429.153016	5641.398993
429.530679	5572.572120
429.908282	5652.035828
430.285824	5524.151837
430.663305	5803.668695
431.040726	5535.013003
431.418086	5538.216657
431.795385	5640.816740
432.172624	5656.106560
432.549802	5647.574407
432.926920	5653.888452
433.303977	5670.625083
433.680974	5706.749991
434.057910	5726.218927
434.434786	5731.794444
434.811601	5701.005597
435.188355	5935.394045
435.565050	5809.690353
435.941683	5790.090347
436.318257	6004.268809
436.694770	5988.550491
437.071222	6022.853023
437.447614	5952.760820
437.823946	5870.526998
438.200218	6016.289440
438.576429	5882.840016
438.952580	5982.211240
439.328670	6025.053486
439.704700	5936.951761
440.080670	5923.323002
440.456580	6193.848961
440.832429	6073.279685
441.208218	5925.478095
441.583947	6079.450057
441.959616	6081.821920
442.335224	6008.435323
442.710773	6140.639582
443.086261	6174.407751
443.461689	5970.054498
443.837057	6113.377022
444.212365	6273.733606
444.587612	6163.554147
444.962800	6312.043854
445.337927	6300.925589
445.712995	5905.230301
446.088002	6485.792263
446.462949	6310.692825
446.837837	6243.408545
447.212664	6421.015956
447.587431	6561.911165
447.962139	7100.757579
448.336786	8025.584979
448.711374	7767.830783
449.085901	6847.137129
449.460369	6766.960098
449.834776	6697.586259
450.209124	7088.137051
450.583412	7236.223465
450.957640	7388.289871
451.331808	7149.681977
451.705917	6702.972732
452.079965	6629.712164
452.453954	6841.491037
452.827883	6715.552932
453.201752	6806.576005
453.575562	6604.224090
453.949311	6815.665206
454.323001	6698.226486
454.696632	6776.951665
455.070202	6911.212715
455.443713	7068.098464
455.817164	7169.990266
456.190556	7248.972543
456.563888	7329.237795
456.937160	7368.321861
457.310373	7027.035745
457.683526	7050.754374
458.056619	6938.369411
458.429653	6933.862619
458.802628	6863.982145
459.175542	6971.189843
459.548398	7321.476939
459.921194	7489.876683
460.293930	7492.041858
460.666607	8024.024742
461.039224	8334.073347
461.411782	8457.518602
461.784280	8473.403278
462.156719	8359.332048
462.529099	8248.093948
462.901419	7834.585742
463.273680	7727.047848
463.645882	7736.061431
464.018024	7603.889939
464.390106	7765.653004
464.762130	8161.776791
465.134094	8625.028582
465.505999	9644.266711
465.877845	10875.316480
466.249631	11523.011488
466.621358	11136.279371
466.993026	10502.813020
467.364634	10247.579401
467.736184	9886.821828
468.107674	9550.712978
468.479105	9586.943751
468.850477	9351.272329
469.221790	9123.601218
469.593043	8790.900188
469.964238	8654.446236
470.335373	8670.237650
470.706449	8727.653872
471.077467	8702.954739
471.448425	10018.222024
471.819324	11089.562998
472.190164	11110.493869
472.560945	9863.244352
472.931667	9077.197397
473.302330	8942.056666
473.672934	8588.676822
474.043479	8952.728788
474.413965	8881.726657
474.784393	8765.026466
475.154761	8921.932379
475.525070	9011.339763
475.895321	8839.544802
476.265513	9016.746401
476.635645	9180.276391
477.005719	9181.904683
477.375734	9298.766191
477.745691	9533.936018
478.115588	9669.192696
478.485427	9908.960056
478.855207	10447.589700
479.224928	11263.487847
479.594591	11893.105277
479.964194	11702.995804
480.333739	11635.930814
480.703226	11559.282590
481.072653	11645.027576
481.442022	11885.205789
481.811333	12073.152607
482.180584	11876.033410
482.549777	11584.377454
482.918912	11413.263048
483.287988	11434.516553
483.657005	11449.408122
484.025964	11126.708740
484.394864	11256.997362
484.763706	11231.521891
485.132489	10991.504994
485.501213	10951.299272
485.869879	11029.356498
486.238487	10871.066788
486.607036	10980.124589
486.975527	10759.995045
487.343959	10948.413211
487.712333	10997.420788
488.080648	10925.307082
488.448905	10969.089504
488.817104	10905.933928
489.185244	11169.175420
489.553326	11332.634834
489.921350	11861.502284
490.289315	12925.831013
490.657222	13272.427984
491.025070	13178.360053
491.392861	13057.382443
491.760593	12674.083352
492.128267	12327.345228
492.495883	11994.089671
492.863440	11659.777992
493.230939	11327.286170
493.598380	11254.827145
493.965763	11131.790223
494.333088	11028.552434
494.700354	10945.000350
495.067563	11008.385298
495.434713	10838.516057
495.801805	10966.763011
496.168839	10885.502132
496.535815	10828.491723
496.902733	10820.156175
497.269593	10748.271842
497.636395	10852.543068
498.003139	10840.555204
498.369825	10717.498118
498.736453	10864.717454
499.103023	10790.471341
499.469535	10820.940074
499.835989	10808.057406
500.202385	10770.710017
500.568723	10621.547316
500.935003	10847.978303
501.301226	10649.331636
501.667390	10906.740513
502.033497	11010.210196
502.399546	10859.033553
502.765537	10776.986254
503.131470	10850.284631
503.497345	11021.812411
503.863163	10635.468463
504.228923	10942.479773
504.594625	11006.872952
504.960269	10757.660991
505.325856	10977.031842
505.691385	10767.455953
506.056856	10920.391957
506.422270	10948.042686
506.787625	10837.754843
507.152924	10955.198604
507.518164	10932.299163
507.883347	10855.406443
508.248472	10776.333425
508.613540	11000.871458
508.978550	10889.431711
509.343503	10864.057063
509.708398	10981.916720
510.073236	11097.013824
510.438016	11097.394431
510.802738	11043.237315
511.167403	11101.019020
511.532010	10993.687814
511.896561	11222.795653
512.261053	11299.481686
512.625488	11166.732981
512.989866	11144.599795
513.354186	11134.023455
513.718449	11041.157839
514.082655	11220.270035
514.446803	11125.128339
514.810894	11242.917419
515.174927	11108.643766
515.538904	11130.625717
515.902822	11286.480550
516.266684	11163.458752
516.630488	11113.649631
516.994235	11161.999338
517.357925	11223.561909
517.721558	11308.402007
518.085133	11324.677372
518.448651	11336.781183
518.812112	11213.456916
519.175516	11229.833104
519.538863	11338.734630
519.902152	11258.981056
520.265385	11407.705176
520.628560	11322.585294
520.991678	11298.201233
521.354739	11362.793537
521.717743	11296.207456
522.080690	11265.181675
522.443580	11392.314534
522.806413	11343.622029
523.169189	11371.285360
523.531908	11418.614233
523.894569	11244.255845
524.257174	11242.022614
524.619722	11354.147958
524.982213	11298.218877
525.344647	11340.345279
525.707025	11286.520879
526.069345	11375.721576
526.431608	11287.269490
526.793815	11388.384954
527.155964	11177.437872
527.518057	11225.109543
527.880093	11171.567448
528.242072	11226.110212
528.603995	11130.396344
528.965860	11045.420135
529.327669	11084.489077
529.689421	11031.231807
530.051117	10994.645633
530.412755	11085.789695
530.774337	10971.020266
531.135862	10941.080853
531.497331	10956.680703
531.858743	10804.528598
532.220098	10962.939296
532.581396	10820.201545
532.942638	10793.606938
533.303824	10751.843499
533.664953	10747.185473
534.026025	10647.859619
534.387040	10736.087373
534.747999	10729.029757
535.108902	10764.839594
535.469748	10519.887408
535.830537	10615.140010
536.191270	10570.785418
536.551947	10578.377395
536.912567	10570.107383
537.273131	10486.381379
537.633638	10441.005953
537.994089	10411.812631
538.354483	10349.201500
538.714821	10475.774791
539.075103	10457.745104
539.435328	10415.316233
539.795497	10234.679088
540.155609	10354.555206
540.515665	10419.036605
540.875665	10157.196553
541.235609	10200.978974
541.595496	10175.185911
541.955328	10302.149891
542.315102	10173.610550
542.674821	10100.297050
543.034483	10091.981667
543.394090	10064.063757
543.753640	9985.920831
544.113134	10152.596500
544.472571	9996.650927
544.831953	10102.079098
545.191278	9905.978213
545.550548	9905.786649
545.909761	10004.857925
546.268918	9956.747673
546.628019	9999.330300
546.987064	9852.811684
547.346053	9756.845759
547.704986	9808.878028
548.063863	9768.427810
548.422684	9743.295137
548.781449	9637.667841
549.140158	9689.392600
549.498811	9551.726250
549.857408	9406.823324
550.215949	9555.839832
550.574434	9402.107324
550.932864	9447.946536
551.291237	9474.180701
551.649555	9385.305159
552.007817	9374.106235
552.366022	9306.174167
552.724173	9261.960727
553.082267	9221.838183
553.440305	9279.027553
553.798288	9105.637067
554.156215	9172.122324
554.514086	9124.745560
554.871902	8972.734607
555.229661	8962.848905
555.587365	8905.225996
555.945014	8792.155435
556.302606	8842.965225
556.660143	8736.402794
557.017625	8795.301115
557.375050	8691.942338
557.732421	8753.293180
558.089735	8637.182804
558.446994	8603.633926
558.804197	8593.244107
559.161345	8551.457983
559.518437	8415.636696
559.875474	8427.445599
560.232455	8406.265191
560.589381	8338.116353
560.946251	8278.245089
561.303065	8336.077206
561.659825	8230.926298
562.016528	8143.716857
562.373177	8036.897328
562.729770	8053.417189
563.086307	7961.625339
563.442789	7987.151222
563.799216	7845.270467
564.155587	7840.889705
564.511904	7769.385978
564.868164	7719.826395
565.224370	7698.119187
565.580520	7585.950993
565.936615	7571.356853
566.292654	7427.593227
566.648638	7474.072666
567.004567	7403.307468
567.360441	7350.987853
567.716260	7250.247955
568.072023	7271.882067
568.427732	7187.372164
568.783385	7114.935824
569.138982	7089.959428
569.494525	7069.199956
569.850013	6955.098480
570.205445	6952.081349
570.560823	6864.609768
570.916145	6770.970336
571.271412	6764.351301
571.626625	6695.249684
571.981782	6644.291181
572.336884	6582.100986
572.691931	6555.955042
573.046923	6465.269725
573.401860	6411.200830
573.756743	6340.009655
574.111570	6317.954607
574.466342	6275.480365
574.821059	6247.282671
575.175722	6158.394526
575.530330	6118.052693
575.884882	6081.378298
576.239380	5997.526266
576.593823	5952.279389
576.948211	5914.551394
577.302544	5832.511656
577.656823	5781.152381
578.011047	5757.922744
578.365216	5704.731009
578.719330	5640.910002
579.073389	5594.559112
579.427394	5549.677720
579.781344	5505.030741
580.135239	5445.275424
580.489080	5422.534779
580.842866	5340.628632
581.196597	5308.526564
581.550273	5296.037105
581.903895	5239.253548
582.257463	5233.310028
582.610975	5144.487418
582.964434	5131.534173
583.317837	5061.381476
583.671186	5031.389131
584.024481	4988.075537
584.377721	4932.572433
584.730906	4885.851020
585.084037	4867.937279
585.437113	4820.290814
585.790135	4787.906442
586.143103	4727.919231
586.496016	4692.777348
586.848874	4674.651879
587.201679	4652.306965
587.554428	4576.077157
587.907124	4567.098862
588.259765	4527.535887
588.612352	4493.518180
588.964884	4438.441054
589.317362	4414.059513
589.669786	4383.679000
590.022155	4381.844020
590.374470	4349.837734
590.726731	4314.279955
591.078937	4240.295982
591.431090	4236.651227
591.783188	4189.730688
592.135232	4148.932630
592.487222	4137.461484
592.839157	4118.615131
593.191038	4077.597782
593.542866	4041.165363
593.894639	3991.021006
594.246358	3977.392247
594.598022	3959.236531
594.949633	3910.675096
595.301190	3881.176784
595.652692	3867.381667
596.004141	3860.417313
596.355535	3796.281233
596.706876	3768.270062
597.058162	3731.441912
597.409395	3725.349678
597.760573	3716.525138
598.111698	3680.337215
598.462768	3655.292763
598.813785	3632.012714
599.164748	3602.431224
599.515657	3583.471444
599.866511	3543.636246
600.217312	3554.376425
600.568060	3511.642563
600.918753	3508.811956
601.269392	3489.577433
601.619978	3461.016776
601.970510	3452.295580
602.320988	3435.904268
602.671412	3424.188627
603.021783	3400.303640
603.372100	3383.536762
603.722363	3357.421064
604.072572	3344.485464
604.422728	3329.346879
604.772830	3302.054072
605.122878	3288.150569
605.472872	3275.910648
605.822813	3260.792227
606.172701	3245.671287
606.522534	3239.241295
606.872314	3227.492886
607.222041	3210.514280
607.571714	3201.183104
607.921333	3187.060311
608.270899	3168.614729
608.620411	3171.102539
608.969870	3149.234013
609.319276	3137.460399
609.668627	3130.642238
610.017926	3125.974130
610.367171	3120.880044
610.716362	3106.190121
611.065500	3091.986670
611.414585	3082.048036
611.763616	3073.704926
612.112594	3059.120868
612.461518	3046.636450
612.810389	3042.699309
613.159207	3031.371837
613.507971	3016.475227
613.856682	3016.704599
614.205340	3003.141375
614.553945	3001.162722
614.902496	2984.201760
615.250994	2980.216728
615.599439	2969.746251
615.947830	2963.969089
616.296169	2953.526339
616.644454	2947.948302
616.992686	2943.186932
617.340864	2937.470264
617.688990	2924.857297
618.037063	2923.511309
618.385082	2915.977304
618.733048	2916.599887
619.080961	2906.169740
619.428821	2900.684964
619.776628	2891.603326
620.124382	2884.470093
620.472083	2875.088506
620.819731	2869.104656
621.167326	2856.892461
621.514868	2849.771831
621.862357	2834.146775
622.209793	2830.570076
622.557176	2821.561534
622.904506	2807.668114
623.251783	2796.917853
623.599007	2789.872841
623.946179	2785.416461
624.293297	2778.063938
624.640363	2771.694440
624.987376	2765.123296
625.334336	2756.938983
625.681243	2752.338930
626.028097	2748.585791
626.374899	2745.266191
626.721647	2740.562795
627.068343	2737.984244
627.414987	2730.457802
627.761577	2724.494117
628.108115	2723.889178
628.454600	2716.375338
628.801032	2715.551110
629.147412	2710.542723
629.493739	2706.235057
629.840014	2703.568287
630.186236	2701.740869
630.532405	2694.282482
630.878521	2694.675692
631.224585	2692.812985
631.570597	2686.662778
631.916556	2684.732016
632.262462	2681.636747
632.608316	2679.310255
632.954117	2675.967970
633.299866	2671.940088
633.645562	2673.941426
633.991206	2665.578152
634.336797	2662.329128
634.682336	2662.152688
635.027823	2656.720844
635.373257	2655.253869
635.718639	2647.669453
636.063968	2649.648106
636.409245	2645.471510
636.754470	2642.908083
637.099642	2637.473719
637.444762	2637.501445
637.789829	2636.246198
638.134845	2631.774695
638.479808	2631.305867
638.824719	2632.571197
639.169577	2627.648510
639.514383	2625.521143
639.859137	2625.039713
640.203839	2627.164559
640.548489	2620.968981
640.893086	2620.086779
641.237632	2615.834566
641.582125	2615.481685
641.926566	2610.866509
642.270955	2616.593260
642.615292	2616.555451
642.959576	2617.021758
643.303809	2614.670060
643.647990	2612.824997
643.992118	2613.462703
644.336195	2610.871550
644.680219	2611.201746
645.024192	2611.272322
645.368112	2611.410954
645.711981	2610.337188
646.055797	2611.111005
646.399562	2609.734770
646.743274	2614.022271
647.086935	2613.205604
647.430544	2613.944133
647.774101	2609.205449
648.117606	2612.330964
648.461059	2611.461365
648.804460	2612.711571
649.147810	2609.863319
649.491108	2605.288472
649.834354	2609.076899
650.177548	2603.937443
650.520690	2603.201435
650.863781	2600.678337
651.206820	2605.606065
651.549807	2600.847216
651.892742	2596.242122
652.235626	2597.530137
652.578458	2597.220106
652.921238	2598.019128
653.263967	2595.420414
653.606644	2596.153902
653.949269	2595.218767
654.291843	2591.803386
654.634365	2596.156422
654.976836	2594.636514
655.319255	2591.629466
655.661622	2594.623911
656.003938	2592.098293
656.346203	2590.389342
656.688416	2591.931935
657.030577	2588.135946
657.372687	2592.993098
657.714746	2589.935638
658.056753	2589.398755
658.398708	2584.413054
658.740612	2586.187540
659.082465	2584.413054
659.424266	2583.712334
659.766016	2586.585792
660.107715	2589.492017
660.449362	2586.462283
660.790958	2587.278950
661.132503	2586.759711
661.473996	2590.147367
661.815438	2586.109402
662.156829	2588.685432
662.498168	2585.590164
662.839456	2586.547983
663.180693	2587.679722
663.521879	2586.991604
663.863013	2589.434043
664.204097	2585.859865
664.545129	2586.293405
664.886110	2585.690987
665.227040	2588.345154
665.567918	2585.973291
665.908746	2586.273240
666.249522	2589.713827
666.590248	2583.717375
666.930922	2587.528487
667.271545	2586.898343
667.612118	2587.556214
667.952639	2587.299115
668.293109	2586.926069
668.633528	2584.786100
668.973896	2585.310380
669.314213	2587.074783
669.654480	2587.220977
669.994695	2584.982705
670.334859	2583.656881
670.674973	2582.015986
671.015035	2584.292067
671.355047	2584.375246
671.695008	2582.794844
672.034918	2585.564958
672.374777	2582.116809
672.714585	2582.215111
673.054342	2582.157138
673.394049	2582.993969
673.733705	2586.593353
674.073310	2583.724937
674.412864	2584.886923
674.752368	2582.399113
675.091820	2584.395410
675.431223	2581.431212
675.770574	2581.285018
676.109875	2575.502815
676.449125	2579.218145
676.788324	2577.423494
677.127473	2575.646488
677.466571	2577.138669
677.805619	2580.022209
678.144616	2580.029771
678.483562	2580.188567
678.822458	2580.881726
679.161303	2577.423494
679.500098	2579.964236
679.838842	2578.126735
680.177535	2577.234451
680.516179	2579.497929
680.854771	2578.535069
681.193314	2577.494071
681.531805	2581.020358
681.870247	2581.814339
682.208638	2584.760894
682.546978	2585.063363
682.885268	2582.711665
683.223508	2583.999680
683.561697	2583.021696
683.899836	2581.050605
684.237925	2579.956674
684.575963	2579.515573
684.913951	2582.898188
685.251889	2581.461459
685.589776	2580.422981
685.927614	2582.542786
686.265401	2582.454566
686.603137	2581.111098
686.940824	2581.738722
687.278460	2582.817529
687.616046	2584.370204
687.953582	2582.968764
688.291068	2582.613362
688.628504	2585.388517
688.965889	2582.527663
689.303224	2581.632858
689.640510	2581.431212
689.977745	2577.940213
690.314930	2580.107909
690.652065	2580.531366
690.989150	2577.647826
691.326185	2575.996848
691.663170	2576.090109
692.000105	2575.548185
692.336990	2573.743452
692.673825	2576.586663
693.010610	2575.384348
693.347345	2569.282031
693.684030	2569.269428
694.020665	2569.055179
694.357251	2565.057544
694.693786	2568.372103
695.030272	2567.885631
695.366707	2570.842268
695.703093	2570.713719
696.039429	2569.224058
696.375716	2570.350756
696.711952	2566.872359
697.048139	2568.634243
697.384276	2569.637432
697.720363	2568.273800
698.056400	2569.292113
698.392388	2567.857905
698.728326	2569.322360
699.064214	2565.695250
699.400053	2567.043759
699.735842	2565.957390
700.071581	2565.269272
700.407270	2564.563511
700.742910	2567.555436
701.078501	2565.410425
701.414042	2566.116186
701.749533	2563.966134
702.084974	2565.473439
702.420366	2563.784653
702.755709	2564.760116
703.091002	2562.456309
703.426246	2563.036041
703.761440	2568.077195
704.096584	2564.082081
704.431679	2564.006463
704.766725	2564.402194
705.101721	2563.920764
705.436668	2565.571742
705.771565	2564.772719
706.106413	2562.494117
706.441212	2562.325239
706.775961	2562.839436
707.110661	2565.319684
707.445311	2565.173491
707.779913	2564.692060
708.114465	2566.456464
708.448967	2567.081567
708.783421	2565.055023
709.117825	2565.836402
709.452180	2566.695919
709.786485	2564.795404
710.120742	2570.053327
710.454949	2566.675754
710.789107	2566.852195
711.123216	2567.328584
711.457275	2568.178018
711.791286	2564.412276
712.125247	2567.671382
712.459159	2568.054510
712.793023	2571.379151
713.126837	2567.920919
713.460602	2569.924778
713.794318	2567.646177
714.127985	2570.501990
714.461602	2568.072154
714.795171	2568.845971
715.128691	2566.600137
715.462162	2564.170301
715.795584	2564.901268
716.128957	2562.599982
716.462281	2567.772205
716.795556	2564.286247
717.128782	2562.582337
717.461960	2561.649724
717.795088	2560.170145
718.128167	2562.423541
718.461198	2562.421021
718.794180	2564.681978
719.127113	2559.756771
719.459997	2559.681153
719.792833	2559.194682
720.125619	2560.533108
720.458357	2560.565876
720.791046	2559.756771
721.123686	2557.561348
721.456278	2558.284754
721.788821	2562.814231
722.121315	2557.311811
722.453761	2559.328273
722.786158	2560.623849
723.118506	2559.033365
723.450805	2559.184600
723.783056	2558.307439
724.115259	2561.233829
724.447412	2558.483879
724.779518	2561.614436
725.111574	2558.458674
725.443582	2560.994374
725.775542	2560.185269
726.107453	2559.817265
726.439315	2557.493293
726.771129	2565.420507
727.102895	2560.651576
727.434612	2561.536298
727.766281	2562.597461
728.097901	2559.577810
728.429473	2557.626883
728.760996	2559.421534
729.092471	2558.468756
729.423897	2563.383881
729.755276	2560.613767
730.086606	2565.344890
730.417887	2562.980589
730.749120	2563.610733
731.080305	2564.618964
731.411442	2564.165260
731.742530	2564.440003
732.073570	2565.352452
732.404562	2565.874211
732.735506	2567.152143
733.066401	2561.957234
733.397249	2563.968655
733.728048	2562.975548
734.058798	2563.620815
734.389501	2561.155691
734.720156	2559.540001
735.050762	2557.170659
735.381320	2557.110165
735.711831	2557.994887
736.042293	2558.073025
736.372707	2558.955227
736.703073	2557.271482
737.033391	2557.515978
737.363661	2557.261400
737.693883	2559.918088
738.024056	2557.778118
738.354182	2558.516647
738.684260	2557.649568
739.014290	2559.507234
739.344272	2561.054868
739.674207	2560.492779
740.004093	2562.584858
740.333931	2561.725341
740.663722	2561.455640
740.993464	2560.031514
741.323159	2559.292985
741.652806	2558.294836
741.982405	2560.142419
742.311956	2558.251986
742.641460	2558.756102
742.970915	2558.574620
743.300323	2560.129816
743.629683	2556.772408
743.958996	2558.267110
744.288260	2558.519167
744.617477	2557.422717
744.946647	2553.601522
745.275768	2555.139074
745.604842	2551.262427
745.933869	2552.603373
746.262847	2550.329813
746.591778	2557.178221
746.920662	2555.149156
747.249498	2556.311142
747.578286	2554.806358
747.907027	2557.836091
748.235720	2556.573282
748.564365	2555.565051
748.892963	2555.779300
749.221514	2559.852553
749.550017	2555.726368
749.878473	2553.084804
750.206881	2555.360885
750.535242	2553.019269
750.863555	2555.625545
751.191821	2553.278888
751.520039	2554.269475
751.848210	2554.342572
752.176334	2554.027499
752.504411	2553.195709
752.832440	2554.766028
753.160421	2552.744526
753.488356	2556.908519
753.816243	2554.133364
754.144082	2553.742674
754.471875	2553.553631
754.799620	2553.941800
755.127318	2552.184958
755.454969	2553.979608
755.782572	2555.297870
756.110129	2554.876934
756.437638	2553.251162
756.765100	2556.081770
757.092515	2552.913404
757.419882	2552.689073
757.747203	2552.527756
758.074477	2553.233518
758.401703	2550.985163
758.728882	2554.645041
759.056014	2557.586554
759.383099	2554.118240
759.710138	2554.755946
760.037129	2559.025803
760.364073	2555.131512
760.690970	2557.470607
761.017820	2553.195709
761.344623	2554.282078
761.671379	2556.956410
761.998088	2550.758311
762.324751	2557.019424
762.651366	2559.179559
762.977935	2570.796898
763.304456	2577.380645
763.630931	2582.540266
763.957359	2574.489543
764.283740	2572.357135
764.610074	2565.531413
764.936362	2564.485373
765.262602	2559.900444
765.588796	2560.885989
765.914943	2555.814588
766.241044	2555.156718
766.567097	2553.362067
766.893104	2553.036913
767.219064	2554.743343
767.544978	2553.621687
767.870845	2550.337375
768.196665	2552.938610
768.522438	2551.582540
768.848165	2550.304607
769.173846	2547.534493
769.499479	2550.551624
769.825066	2554.408107
770.150607	2549.739998
770.476101	2548.973743
770.801548	2548.197405
771.126949	2549.994576
771.452303	2549.823177
771.777611	2546.952240
772.102872	2547.211859
772.428087	2546.795964
772.753256	2549.525749
773.078378	2548.036088
773.403453	2548.630944
773.728482	2547.852086
774.053465	2546.780841
774.378401	2543.907383
774.703291	2546.173382
775.028135	2547.272353
775.352932	2544.124153
775.677683	2544.993752
776.002388	2547.353012
776.327046	2548.671273
776.651658	2543.975439
776.976224	2546.241437
777.300743	2546.758156
777.625216	2544.981149
777.949643	2546.271684
778.274024	2545.250851
778.598359	2540.446631
778.922647	2539.027546
779.246889	2541.049049
779.571086	2540.270191
779.895236	2543.642722
780.219339	2546.092723
780.543397	2546.458207
780.867409	2545.218083
781.191374	2546.024668
781.515294	2545.278577
781.839167	2544.819832
782.162995	2545.497867
782.486776	2542.667259
782.810511	2547.945347
783.134201	2547.259750
783.457844	2544.235058
783.781441	2547.663043
784.104993	2544.121632
784.428498	2545.825542
784.751958	2543.194060
785.075372	2547.153886
785.398739	2546.024668
785.722061	2545.291180
786.045337	2545.197918
786.368568	2545.578526
786.691752	2544.028371
787.014891	2547.065666
787.337983	2547.373176
787.661030	2547.957950
787.984031	2548.285625
788.306987	2551.068342
788.629897	2549.109854
788.952760	2552.492468
789.275579	2548.663712
789.598351	2549.886192
789.921078	2549.785368
790.243759	2546.929555
790.566395	2546.029709
790.888984	2546.982487
791.211529	2544.620706
791.534027	2546.959802
791.856480	2544.948381
792.178888	2547.252189
792.501249	2542.674821
792.823566	2545.268495
793.145836	2546.236396
793.468062	2542.538710
793.790241	2544.010727
794.112375	2544.973587
794.434464	2545.303783
794.756507	2546.737991
795.078505	2543.927548
795.400457	2543.362938
795.722364	2541.893442
796.044226	2546.380069
796.366042	2546.231355
796.687812	2542.828576
797.009538	2547.577343
797.331218	2546.196067
797.652852	2546.256561
797.974442	2543.322609
798.295986	2548.081458
798.617484	2547.473999
798.938938	2544.600542
799.260346	2547.834442
799.581709	2545.712116
799.903026	2545.785213
800.224299	2545.447456
800.545526	2544.073741
800.866708	2545.770089
801.187845	2543.032743
801.508936	2541.585932
801.829983	2545.646581
802.150984	2542.498381
802.471940	2542.979811
802.792851	2543.806560
803.113717	2547.615152
803.434538	2544.386293
803.755314	2541.853113
804.076045	2541.086857
804.396731	2543.327650
804.717372	2542.329502
805.037967	2543.821683
805.358518	2544.971067
805.679024	2543.007537
805.999485	2543.521735
806.319901	2544.779503
806.640272	2544.449307
806.960598	2542.001827
807.280879	2543.163813
807.601115	2547.007693
807.921306	2542.173226
808.241453	2547.607590
808.561554	2542.942002
808.881611	2544.116591
809.201623	2544.834955
809.521590	2542.563916
809.841513	2542.329502
810.161390	2544.320758
810.481223	2545.076931
810.801011	2544.595501
811.120755	2541.734646
811.440453	2543.846889
811.760107	2545.175233
812.079716	2539.186342
812.399281	2540.998637
812.718801	2541.606096
813.038276	2538.561239
813.357707	2542.546272
813.677093	2544.144317
813.996434	2542.291693
814.315731	2543.128525
814.634983	2541.338915
814.954191	2540.746580
815.273354	2542.175747
815.592473	2542.639533
815.911547	2542.412681
816.230577	2542.087527
816.549562	2542.873947
816.868502	2543.773792
817.187399	2544.557692
817.506250	2545.981818
817.825058	2545.931406
818.143821	2544.325799
818.462539	2544.895449
818.781213	2547.718495
819.099843	2549.651778
819.418429	2549.800492
819.736970	2554.866852
820.055466	2553.772921
820.373919	2556.273333
820.692327	2563.807338
821.010691	2570.101218
821.329011	2586.472366
821.647286	2621.523508
821.965517	2660.184117
822.283704	2686.037675
822.601847	2693.614529
822.919945	2676.567867
823.237999	2650.268167
823.556010	2631.041207
823.873976	2612.608228
824.191897	2598.477873
824.509775	2585.892633
824.827609	2576.952147
825.145398	2573.680438
825.463144	2574.948288
825.780845	2574.146744
826.098502	2578.330902
826.416116	2588.269537
826.733685	2602.299068
827.051210	2608.421549
827.368692	2601.628595
827.686129	2590.737182
828.003522	2579.397106
828.320872	2567.194993
828.638177	2560.442368
828.955439	2553.820812
829.272656	2552.661347
829.589830	2545.896118
829.906960	2547.300080
830.224046	2546.919473
830.541088	2549.782848
830.858086	2547.010213
831.175041	2544.287990
831.491952	2546.201108
831.808819	2548.958619
832.125642	2548.222611
832.442421	2548.540203
832.759157	2555.756615
833.075849	2560.722152
833.392497	2568.984603
833.709101	2574.928123
834.025662	2576.407702
834.342179	2570.217165
834.658653	2565.980075
834.975083	2559.976061
835.291469	2558.559497
835.607811	2550.700338
835.924110	2549.450132
836.240366	2546.367466
836.556578	2546.501057
836.872746	2545.986859
837.188871	2543.574667
837.504952	2542.828576
837.820990	2542.992414
838.136984	2542.062321
838.452935	2542.347146
838.768842	2543.310006
839.084706	2540.270191
839.400526	2544.976108
839.716303	2550.438198
840.032037	2555.131512
840.347727	2555.055895
840.663373	2552.815102
840.978977	2546.435522
841.294537	2544.091385
841.610054	2542.299255
841.925527	2541.036446
842.240957	2540.391178
842.556344	2541.452341
842.871687	2537.852957
843.186987	2540.698689
843.502244	2538.614172
843.817458	2538.709953
844.132629	2538.457896
844.447756	2538.989737
844.762840	2534.853471
845.077881	2535.912113
845.392879	2535.728111
845.707833	2537.142155
846.022745	2534.654345
846.337613	2539.549306
846.652438	2536.360776
846.967221	2536.708615
847.281960	2539.604758
847.596656	2536.827082
847.911309	2538.568801
848.225919	2538.790612
848.540485	2534.949253
848.855009	2535.821372
849.169490	2538.105015
849.483928	2537.600900
849.798323	2535.586959
850.112675	2535.463450
850.426984	2535.816331
850.741251	2536.965714
851.055474	2536.696013
851.369654	2535.037473
851.683792	2539.627443
851.997887	2538.674665
852.311938	2537.263142
852.625947	2537.439583
852.939914	2537.492515
853.253837	2539.597197
853.567718	2540.126518
853.881555	2535.813811
854.195350	2536.607792
854.509103	2533.933460
854.822812	2538.745242
855.136479	2534.966897
855.450103	2538.263811
855.763685	2539.279604
856.077224	2538.019315
856.390720	2538.583925
856.704173	2537.699202
857.017584	2533.986392
857.330953	2538.780530
857.644278	2537.447144
857.957561	2537.109387
858.270802	2535.254243
858.584000	2536.315405
858.897155	2538.420087
859.210268	2536.443955
859.523339	2535.085364
859.836367	2537.668955
860.149352	2539.708102
860.462295	2540.297917
860.775195	2533.678882
861.088054	2532.872297
861.400869	2532.355579
861.713642	2530.308871
862.026373	2536.015457
862.339062	2535.014788
862.651708	2536.416228
862.964312	2538.969573
863.276873	2536.262473
863.589392	2536.983358
863.901869	2533.391536
864.214303	2537.651311
864.526696	2539.158616
864.839045	2538.601569
865.151353	2537.895807
865.463619	2538.334387
865.775842	2535.579397
866.088023	2538.261291
866.400162	2539.143493
866.712258	2539.284645
867.024313	2537.411856
867.336325	2538.548637
867.648296	2538.530993
867.960224	2536.733821
868.272110	2538.425128
868.583954	2534.306506
868.895755	2537.663914
869.207515	2537.482433
869.519233	2539.408153
869.830909	2536.063348
870.142542	2541.001158
870.454134	2536.872453
870.765684	2539.156096
871.077191	2539.382948
871.388657	2537.915972
871.700081	2538.581404
872.011463	2539.246836
872.322803	2539.191384
872.634101	2537.119469
872.945357	2538.324305
873.256571	2537.774819
873.567744	2539.521579
873.878874	2541.333874
874.189963	2540.161806
874.501010	2540.310520
874.812015	2538.853626
875.122979	2540.577701
875.433900	2539.965201
875.744780	2540.129038
876.055618	2540.756662
876.366415	2541.326312
876.677169	2539.080478
876.987882	2536.789274
877.298554	2536.829603
877.609183	2537.064017
877.919771	2539.093081
878.230317	2540.796991
878.540822	2544.729091
878.851285	2545.197918
879.161707	2546.730429
879.472087	2548.893084
879.782425	2554.902140
880.092722	2562.242060
880.402977	2571.853019
880.713191	2590.830443
881.023363	2610.221241
881.333494	2624.714559
881.643583	2629.727986
881.953631	2625.707666
882.263637	2620.485031
882.573602	2615.280039
882.883526	2604.343256
883.193408	2593.361102
883.503248	2581.670667
883.813048	2576.715212
884.122806	2571.623647
884.432522	2567.232802
884.742197	2559.489590
885.051831	2557.715103
885.361424	2552.288301
885.670975	2551.292673
885.980485	2550.864175
886.289954	2547.355532
886.599382	2546.674977
886.908768	2546.659853
887.218113	2544.726571
887.527417	2546.851417
887.836680	2539.559388
888.145901	2544.134235
888.455082	2538.387320
888.764221	2545.757487
889.073319	2542.364790
889.382376	2540.030736
889.691392	2541.472506
890.000366	2542.644574
890.309300	2541.467465
890.618193	2541.500232
890.927044	2541.124666
891.235855	2538.407484
891.544625	2540.494522
891.853353	2542.027033
892.162041	2540.154244
892.470687	2542.158103
892.779293	2546.276725
893.087858	2543.617517
893.396381	2545.636499
893.704864	2548.872920
894.013306	2551.678322
894.321707	2562.443706
894.630068	2567.381516
894.938387	2570.532237
895.246665	2569.501321
895.554903	2567.058882
895.863100	2560.936401
896.171256	2556.409445
896.479371	2554.811399
896.787446	2550.155893
897.095480	2547.839483
897.403473	2547.877292
897.711425	2545.144986
898.019336	2542.637012
898.327207	2543.738504
898.635038	2543.483926
898.942827	2541.207845
899.250576	2542.309337
899.558284	2541.049049
899.865952	2544.431663
900.173579	2538.896476
900.481165	2543.499050
900.788711	2538.513348
901.096216	2540.907897
901.403681	2541.948895
901.711105	2539.370345
902.018489	2540.111394
902.325832	2544.865202
902.633135	2540.129038
902.940397	2541.124666
903.247619	2544.897970
903.554800	2550.302087
903.861941	2561.677450
904.169041	2574.227403
904.476101	2580.193608
904.783121	2583.611511
905.090100	2575.313772
905.397039	2568.505693
905.703938	2559.890361
906.010796	2554.914743
906.317614	2547.985677
906.624391	2548.759494
906.931129	2548.938455
907.237826	2540.958308
907.544483	2541.790098
907.851099	2540.716333
908.157675	2540.194573
908.464211	2537.747093
908.770707	2533.966228
909.077163	2535.839016
909.383578	2533.479756
909.689954	2532.993285
909.996289	2532.693336
910.302584	2534.919006
910.608839	2536.391023
910.915054	2537.106867
911.221229	2540.759182
911.527363	2539.143493
911.833458	2536.559901
912.139513	2537.295910
912.445527	2536.847247
912.751502	2539.201466
913.057436	2538.117618
913.363331	2538.105015
913.669186	2539.503935
913.975000	2541.865716
914.280775	2543.284801
914.586510	2547.189174
914.892205	2551.199412
915.197859	2557.367264
915.503475	2561.722821
915.809050	2571.865622
916.114585	2577.751169
916.420081	2579.034143
916.725536	2576.896694
917.030952	2572.462999
917.336328	2565.246587
917.641665	2564.457647
917.946961	2561.695094
918.252218	2555.320555
918.557435	2555.968344
918.862612	2549.568599
919.167750	2550.357539
919.472848	2547.375697
919.777906	2542.818494
920.082925	2544.661036
920.387904	2540.423946
920.692843	2543.647764
920.997743	2537.694161
921.302603	2539.448482
921.607423	2538.989737
921.912204	2537.608461
922.216946	2537.570653
922.521647	2536.242309
922.826310	2535.793646
923.130932	2538.720036
923.435516	2535.937319
923.740059	2534.944212
924.044564	2538.820859
924.349028	2535.284489
924.653454	2529.202337
924.957840	2533.290713
925.262186	2531.516227
925.566493	2532.900024
925.870761	2529.698891
926.174989	2533.273069
926.479178	2536.048224
926.783328	2533.719211
927.087438	2532.716022
927.391509	2536.630477
927.695541	2531.964890
927.999533	2531.125538
928.303486	2532.857174
928.607400	2534.545960
928.911275	2532.461443
929.215110	2534.777853
929.518906	2534.974458
929.822663	2532.267359
930.126381	2532.123686
930.430060	2531.740558
930.733699	2536.769109
931.037299	2532.799201
931.340861	2532.615198
931.644383	2532.690816
931.947866	2534.392205
932.251309	2532.713501
932.554714	2531.574200
932.858080	2536.025539
933.161407	2532.935312
933.464694	2533.056299
933.767943	2532.285003
934.071153	2533.772143
934.374323	2531.465815
934.677455	2530.535723
934.980548	2533.394057
935.283602	2532.489170
935.586617	2532.030425
935.889593	2531.284334
936.192530	2529.746782
936.495428	2534.119983
936.798287	2532.259797
937.101108	2532.582431
937.403890	2532.947915
937.706632	2534.440096
938.009336	2533.988913
938.312002	2535.337422
938.614628	2535.846578
938.917216	2535.909592
939.219765	2533.847761
939.522275	2535.014788
939.824747	2536.990920
940.127179	2532.075795
940.429573	2532.398429
940.731929	2533.517565
941.034246	2530.203006
941.336524	2532.579910
941.638763	2532.020342
941.940964	2535.150899
942.243126	2535.365148
942.545250	2533.600744
942.847335	2535.090405
943.149381	2531.664941
943.451389	2534.094777
943.753359	2533.484798
944.055290	2534.503111
944.357182	2533.247863
944.659036	2532.957997
944.960851	2532.423635
945.262628	2530.492873
945.564367	2531.531350
945.866067	2531.841381
946.167729	2535.166022
946.469352	2532.158974
946.770937	2533.721732
947.072484	2530.059333
947.373992	2531.561597
947.675462	2531.019673
947.976893	2531.727955
948.278286	2532.247194
948.579641	2531.700229
948.880958	2532.269879
949.182236	2531.866587
949.483476	2532.705939
949.784678	2532.237112
950.085841	2532.811803
950.386967	2532.784077
950.688054	2531.425486
950.989103	2532.872297
951.290114	2530.404653
951.591087	2533.343645
951.892021	2531.680064
952.192917	2532.463964
952.493776	2535.672658
952.794596	2532.479087
953.095378	2532.995806
953.396122	2533.941022
953.696828	2531.853984
953.997496	2529.225023
954.298126	2531.551515
954.598718	2532.675692
954.899272	2532.040507
955.199788	2533.658717
955.500266	2529.401463
955.800706	2530.152595
956.101108	2526.321318
956.401472	2529.003212
956.701798	2524.945083
957.002087	2529.235105
957.302337	2531.017153
957.602550	2530.870959
957.902724	2531.954807
958.202861	2529.557739
958.502960	2530.172759
958.803022	2530.782739
959.103045	2527.009435
959.403031	2528.766277
959.702979	2530.203006
960.002889	2531.579241
960.302762	2530.145033
960.602596	2526.555732
960.902393	2529.736700
961.202153	2529.872811
961.501875	2530.263500
961.801559	2528.153777
962.101205	2529.587986
962.400814	2531.150743
962.700385	2526.089425
962.999918	2528.592358
963.299414	2529.908099
963.598873	2529.464477
963.898293	2530.228212
964.197677	2528.625125
964.497022	2527.571524
964.796331	2529.164529
965.095601	2529.230064
965.394835	2529.678726
965.694030	2527.556401
965.993189	2530.956659
966.292309	2528.763757
966.591393	2528.494055
966.890439	2525.242511
967.189447	2527.264014
967.488419	2528.413397
967.787353	2528.224353
968.086249	2528.514220
968.385108	2529.545136
968.683930	2530.046731
968.982714	2528.940197
969.281462	2529.351051
969.580172	2527.924405
969.878844	2529.441792
970.177480	2529.799714
970.476078	2529.860208
970.774639	2530.838192
971.073162	2531.690147
971.371649	2529.691329
971.670098	2527.195958
971.968510	2528.713345
972.266885	2526.187727
972.565223	2526.966586
972.863524	2528.927594
973.161788	2528.068078
973.460014	2530.394570
973.758204	2532.143851
974.056356	2528.047913
974.354471	2530.581093
974.652550	2529.393901
974.950591	2528.615043
975.248595	2530.097142
975.546563	2531.543953
975.844493	2530.636546
976.142386	2528.108407
976.440243	2527.747964
976.738062	2531.153264
977.035845	2531.380116
977.333590	2528.985568
977.631299	2528.703263
977.928971	2527.889117
978.226606	2530.001360
978.524204	2529.255269
978.821765	2529.051103
979.119290	2529.714014
979.416777	2529.708973
979.714228	2527.100176
980.011642	2529.993798
980.309020	2527.327028
980.606360	2528.804086
980.903664	2529.741741
981.200931	2526.104548
981.498162	2527.626977
981.795356	2527.024559
982.092513	2532.521937
982.389633	2530.286185
982.686717	2530.792821
982.983764	2529.933305
983.280775	2531.922040
983.577749	2533.129396
983.874686	2532.889941
984.171587	2531.571680
984.468451	2529.154446
984.765279	2530.339118
985.062070	2528.962882
985.358824	2528.413397
985.655543	2529.540095
985.952224	2527.669827
986.248869	2525.945752
986.545478	2522.459794
986.842050	2525.711338
987.138586	2522.951307
987.435086	2526.318797
987.731549	2522.091790
988.027975	2529.325846
988.324366	2524.292253
988.620719	2529.802235
988.917037	2529.043541
989.213318	2528.504138
989.509563	2527.606812
989.805772	2530.797862
990.101944	2527.425331
990.398080	2530.056813
990.694180	2528.932636
990.990244	2526.759898
991.286271	2527.221164
991.582262	2526.124713
991.878217	2526.364168
992.174136	2525.968437
992.470019	2524.496420
992.765865	2528.983047
993.061676	2527.032121
993.357450	2526.386853
993.653188	2527.931967
993.948890	2529.754344
994.244556	2527.029600
994.540186	2527.369878
994.835780	2527.145547
995.131337	2528.388191
995.426859	2526.384332
995.722345	2526.331400
996.017795	2527.773170
996.313208	2526.878365
996.608586	2527.478263
996.903928	2526.807789
997.199234	2529.464477
997.494504	2528.405835
997.789738	2527.153108
998.084936	2529.590506
998.380099	2528.362985
998.675225	2529.346010
998.970316	2527.392563
999.265371	2528.418438
999.560390	2528.920033
999.855373	2525.708818
1000.150320	2527.349713
1000.445232	2526.691843
1000.740108	2524.950124
1001.034948	2529.643438
1001.329752	2527.546318
1001.624521	2527.611853
1001.919254	2523.669671
1002.213951	2524.425844
1002.508613	2521.227232
1002.803239	2526.858201
1003.097829	2520.619773
1003.392384	2528.262162
1003.686903	2528.829292
1003.981386	2529.756864
1004.275834	2529.305681
1004.570246	2527.014477
1004.864623	2526.482635
1005.158964	2526.883407
1005.453270	2523.662109
1005.747540	2526.374250
1006.041775	2526.840557
1006.335974	2528.526823
1006.630138	2527.311905
1006.924266	2526.021369
1007.218359	2526.583458
1007.512416	2526.953983
1007.806438	2524.461132
1008.100425	2527.821061
1008.394376	2527.659744
1008.688292	2527.266534
1008.982172	2526.724610
1009.276017	2528.161339
1009.569827	2524.408200
1009.863602	2527.763088
1010.157341	2526.112110
1010.451045	2526.931298
1010.744714	2528.642769
1011.038347	2526.661596
1011.331945	2526.301153
1011.625508	2526.623787
1011.919036	2525.582789
1012.212528	2527.304343
1012.505986	2528.181504
1012.799408	2524.221677
1013.092795	2524.912315
1013.386147	2528.569673
1013.679464	2524.919877
1013.972745	2525.915505
1014.265992	2527.773170
1014.559204	2525.822244
1014.852380	2525.572707
1015.145521	2529.003212
1015.438628	2526.608664
1015.731699	2529.391381
1016.024736	2526.722090
1016.317737	2527.039682
1016.610703	2523.967099
1016.903635	2524.410721
1017.196531	2523.437778
1017.489393	2524.967768
1017.782219	2521.146573
1018.075011	2526.417100
1018.367768	2526.096987
1018.660490	2527.810979
1018.953177	2527.810979
1019.245829	2527.810979
