Dividing Wavelength (nm)	Counts (n)	Blue Motor Position (mm): 0.000000	Red Motor Position (mm): 8.500000	
326.493990	2085.568196
326.888308	2085.568196
327.282561	2085.568196
327.676750	2064.501214
328.070874	2062.149516
328.464933	2070.696792
328.858929	2079.816239
329.252859	2092.885431
329.646726	2106.826742
330.040528	2123.828033
330.434265	2143.957360
330.827938	2161.888745
331.221547	2182.643175
331.615091	2202.550692
332.008571	2226.221429
332.401986	2244.974522
332.795338	2265.189549
333.188625	2282.299225
333.581847	2305.027267
333.975006	2320.695173
334.368100	2339.826352
334.761129	2355.282530
335.154095	2370.930271
335.546996	2386.429299
335.939833	2401.623336
336.332606	2414.939544
336.725315	2428.167532
337.117960	2433.465785
337.510540	2439.631116
337.903056	2451.195523
338.295508	2457.456636
338.687896	2465.953501
339.080220	2472.489357
339.472480	2476.146714
339.864676	2482.274236
340.256807	2483.090903
340.648875	2485.886223
341.040879	2485.810606
341.432818	2488.714310
341.824694	2489.009218
342.216506	2486.113075
342.608253	2488.452170
342.999937	2483.194247
343.391557	2485.409834
343.783113	2487.300267
344.174605	2483.153918
344.566033	2483.380769
344.957397	2480.333392
345.348697	2479.050418
345.739934	2476.171919
346.131106	2477.490181
346.522215	2475.236785
346.913260	2470.513224
347.304241	2469.497432
347.695159	2468.874849
348.086012	2467.622122
348.476802	2465.953501
348.867528	2466.288737
349.258191	2462.603654
349.648789	2464.642801
350.039324	2460.917388
350.429796	2462.434775
350.820203	2458.616101
351.210548	2457.320525
351.600828	2459.243725
351.991045	2459.510906
352.381198	2458.462346
352.771288	2456.655092
353.161314	2456.213991
353.551276	2460.919908
353.941175	2459.488221
354.331010	2457.396142
354.720782	2457.668364
355.110490	2459.062243
355.500135	2459.505865
355.889717	2459.742799
356.279235	2462.618777
356.668689	2461.991154
357.058080	2458.585854
357.447408	2458.636266
357.836672	2459.364713
358.225873	2459.841102
358.615010	2458.159877
359.004084	2465.595579
359.393095	2462.444857
359.782043	2462.389405
360.170927	2467.155816
360.559748	2466.084571
360.948505	2468.736218
361.337199	2469.174798
361.725830	2467.291927
362.114398	2468.776547
362.502903	2469.757051
362.891344	2471.150930
363.279722	2473.316106
363.668037	2469.411732
364.056289	2470.510704
364.444478	2472.703606
364.832603	2471.947433
365.220665	2470.024232
365.608665	2472.018009
365.996601	2475.261991
366.384474	2475.085551
366.772284	2475.801395
367.160031	2474.352063
367.547715	2474.505818
367.935336	2475.193936
368.322893	2476.229893
368.710388	2477.099492
369.097820	2479.063021
369.485189	2478.034626
369.872495	2480.023361
370.259738	2479.035295
370.646918	2480.146869
371.034035	2483.567292
371.421090	2483.642909
371.808081	2488.633652
372.195010	2490.887047
372.581875	2496.555825
372.968678	2504.800632
373.355418	2506.053359
373.742096	2517.650533
374.128710	2522.432068
374.515262	2534.916485
374.901751	2545.107178
375.288177	2560.812892
375.674540	2579.137487
376.060841	2598.140116
376.447079	2614.970008
376.833254	2639.777526
377.219367	2660.501710
377.605417	2694.221988
377.991404	2717.257540
378.377329	2752.817840
378.763191	2786.379321
379.148991	2826.968172
379.534727	2873.487939
379.920402	2914.205339
380.306013	2960.924232
380.691563	3020.377080
381.077049	3070.639904
381.462474	3123.463635
381.847835	3188.078624
382.233134	3252.146649
382.618371	3308.436173
383.003545	3387.027761
383.388657	3459.237249
383.773706	3541.886966
384.158693	3604.425000
384.543618	3689.060932
384.928480	3754.419492
385.313280	3846.687730
385.698017	3930.292746
386.082692	4033.270917
386.467305	4080.998041
386.851856	4182.567208
387.236344	4303.552380
387.620770	4344.718442
388.005133	4429.203140
388.389435	4537.429151
388.773674	4586.650977
389.157851	4674.364533
389.541965	4754.939816
389.926018	4748.804732
390.310008	4861.177092
390.693936	4924.370476
391.077802	4974.068691
391.461606	5038.456829
391.845348	5077.036779
392.229027	5123.359942
392.612645	5236.853959
392.996200	5270.115492
393.379694	5339.335576
393.763125	5432.186068
394.146494	5435.430050
394.529801	5462.916942
394.913047	5544.238315
395.296230	5477.601823
395.679351	5440.503972
396.062410	5517.918451
396.445408	5378.207913
396.828343	5388.290221
397.211217	5381.242687
397.594028	5236.639710
397.976778	5255.629737
398.359466	5251.768213
398.742092	5157.939737
399.124656	5134.311849
399.507158	5130.745232
399.889598	5053.129107
400.271977	5050.530392
400.654294	4970.907888
401.036549	4958.194098
401.418742	4873.427096
401.800874	4886.216503
402.182944	4819.945495
402.564952	4841.725800
402.946898	4688.361297
403.328783	4609.699133
403.710606	4571.265376
404.092367	4548.184453
404.474067	4542.543402
404.855705	4395.989497
405.237282	4287.055204
405.618797	4297.563489
406.000250	4250.637909
406.381642	4234.712904
406.762972	4130.234990
407.144240	4003.213037
407.525447	3957.424236
407.906593	3868.097511
408.287677	3823.548834
408.668700	3759.609359
409.049661	3682.399047
409.430560	3626.278402
409.811399	3548.642112
410.192176	3496.897188
410.572891	3432.642642
410.953545	3411.537851
411.334138	3300.120789
411.714669	3287.855662
412.095139	3177.351049
412.475547	3160.518636
412.855894	3098.754419
413.236180	3068.515058
413.616405	3003.063237
413.996568	2975.556181
414.376670	2935.599996
414.756711	2894.035682
415.136691	2870.576673
415.516609	2845.086078
415.896466	2816.548107
416.276262	2796.058337
416.655997	2778.026129
417.035670	2753.054774
417.415283	2745.288876
417.794834	2724.194168
418.174324	2701.488811
418.553753	2683.680935
418.933121	2676.187260
419.312428	2658.265958
419.691674	2642.971097
420.070859	2638.308030
420.449983	2623.159363
420.829045	2618.544186
421.208047	2608.436673
421.586988	2605.628750
421.965867	2600.716146
422.344686	2593.237594
422.723444	2594.460074
423.102141	2580.659915
423.480777	2582.656212
423.859352	2577.612538
424.237866	2579.230748
424.616319	2573.922413
424.994712	2575.507856
425.373044	2569.783626
425.751314	2571.124573
426.129524	2561.347255
426.507673	2569.067782
426.885762	2566.169118
427.263789	2563.330949
427.641756	2561.581668
428.019662	2561.075032
428.397508	2559.383725
428.775292	2562.695763
429.153016	2560.525547
429.530679	2557.904147
429.908282	2556.769887
430.285824	2553.029351
430.663305	2556.898437
431.040726	2556.069167
431.418086	2552.384083
431.795385	2554.085473
432.172624	2557.488252
432.549802	2553.467931
432.926920	2551.007848
433.303977	2555.539846
433.680974	2554.473642
434.057910	2553.883827
434.434786	2552.578168
434.811601	2554.100596
435.188355	2556.348951
435.565050	2556.890875
435.941683	2554.125802
436.318257	2555.015566
436.694770	2552.578168
437.071222	2555.315514
437.447614	2552.512633
437.823946	2550.730585
438.200218	2555.418858
438.576429	2556.792572
438.952580	2555.217212
439.328670	2555.038251
439.704700	2557.347099
440.080670	2553.571275
440.456580	2556.442212
440.832429	2559.066133
441.208218	2552.913404
441.583947	2553.709907
441.959616	2554.556821
442.335224	2559.638304
442.710773	2559.759291
443.086261	2559.298026
443.461689	2559.787018
443.837057	2555.222253
444.212365	2557.674774
444.587612	2558.967830
444.962800	2560.752399
445.337927	2561.490928
445.712995	2555.000442
446.088002	2562.355486
446.462949	2562.284909
446.837837	2565.110476
447.212664	2562.806669
447.587431	2573.501477
447.962139	2580.324678
448.336786	2584.773497
448.711374	2581.900039
449.085901	2570.292782
449.460369	2571.369069
449.834776	2573.322516
450.209124	2577.458782
450.583412	2575.772517
450.957640	2577.088258
451.331808	2572.841086
451.705917	2572.100036
452.079965	2570.312947
452.453954	2570.917885
452.827883	2572.140365
453.201752	2568.120045
453.575562	2571.351425
453.949311	2572.546178
454.323001	2572.016857
454.696632	2571.757238
455.070202	2575.543144
455.443713	2576.682445
455.817164	2577.173957
456.190556	2576.952147
456.563888	2578.603124
456.937160	2575.112125
457.310373	2574.950808
457.683526	2576.105233
458.056619	2576.692527
458.429653	2575.144893
458.802628	2580.191088
459.175542	2577.713361
459.548398	2579.659246
459.921194	2585.917839
460.293930	2584.337437
460.666607	2591.342120
461.039224	2595.317070
461.411782	2597.091556
461.784280	2592.231884
462.156719	2590.807758
462.529099	2589.736513
462.901419	2587.979671
463.273680	2586.411872
463.645882	2585.640575
464.018024	2586.139649
464.390106	2587.404979
464.762130	2597.288161
465.134094	2604.875098
465.505999	2617.689711
465.877845	2633.768471
466.249631	2636.132772
466.621358	2630.572379
466.993026	2627.421658
467.364634	2624.144908
467.736184	2617.576285
468.107674	2612.184771
468.479105	2607.672938
468.850477	2608.880294
469.221790	2608.608072
469.593043	2601.144644
469.964238	2602.241095
470.335373	2599.901999
470.706449	2603.609768
471.077467	2609.369286
471.448425	2621.818416
471.819324	2629.760754
472.190164	2623.965947
472.560945	2614.478496
472.931667	2606.556323
473.302330	2603.153544
473.672934	2600.567432
474.043479	2602.926692
474.413965	2598.152719
474.784393	2589.013107
475.154761	2596.058120
475.525070	2591.813468
475.895321	2593.547625
476.265513	2590.470001
476.635645	2596.226998
477.005719	2594.273551
477.375734	2594.881010
477.745691	2594.843202
478.115588	2596.531988
478.485427	2600.181783
478.855207	2608.766868
479.224928	2612.270470
479.594591	2614.349946
479.964194	2611.370624
480.333739	2612.318361
480.703226	2611.287445
481.072653	2612.441870
481.442022	2612.494802
481.811333	2610.841303
482.180584	2605.389295
482.549777	2604.547423
482.918912	2600.776640
483.287988	2604.060951
483.657005	2599.695312
484.025964	2594.966710
484.394864	2596.635332
484.763706	2595.954776
485.132489	2591.531163
485.501213	2591.198447
485.869879	2588.377922
486.238487	2592.388160
486.607036	2590.485124
486.975527	2588.955134
487.343959	2588.612335
487.712333	2588.408169
488.080648	2588.327510
488.448905	2587.556214
488.817104	2589.930597
489.185244	2590.409507
489.553326	2592.161308
489.921350	2598.545929
490.289315	2600.509458
490.657222	2603.269490
491.025070	2603.158585
491.392861	2601.510127
491.760593	2597.411669
492.128267	2597.608274
492.495883	2593.149374
492.863440	2589.106368
493.230939	2587.233580
493.598380	2586.270719
493.965763	2581.469020
494.333088	2580.274267
494.700354	2574.368555
495.067563	2578.703947
495.434713	2575.374265
495.801805	2579.376942
496.168839	2582.121850
496.535815	2580.231417
496.902733	2577.557085
497.269593	2578.857703
497.636395	2576.233782
498.003139	2577.829307
498.369825	2577.045408
498.736453	2577.670511
499.103023	2576.311920
499.469535	2575.608679
499.835989	2574.018195
500.202385	2576.755542
500.568723	2574.187074
500.935003	2575.759914
501.301226	2573.599779
501.667390	2574.126580
502.033497	2576.100192
502.399546	2576.208576
502.765537	2572.954512
503.131470	2572.715057
503.497345	2574.240006
503.863163	2571.999213
504.228923	2571.316137
504.594625	2573.950139
504.960269	2570.519634
505.325856	2571.474933
505.691385	2571.890828
506.056856	2571.351425
506.422270	2571.157340
506.787625	2570.277659
507.152924	2569.455951
507.518164	2570.590210
507.883347	2568.929150
508.248472	2570.005437
508.613540	2566.385888
508.978550	2569.876887
509.343503	2568.805642
509.708398	2568.074675
510.073236	2568.036866
510.438016	2568.631722
510.802738	2566.887483
511.167403	2569.715570
511.532010	2567.981413
511.896561	2570.295303
512.261053	2568.838409
512.625488	2564.099725
512.989866	2565.561659
513.354186	2564.114848
513.718449	2561.301884
514.082655	2566.521999
514.446803	2566.063254
514.810894	2568.992165
515.174927	2566.743810
515.538904	2563.807338
515.902822	2567.250446
516.266684	2566.955538
516.630488	2566.406053
516.994235	2563.628377
517.357925	2565.765826
517.721558	2569.092988
518.085133	2564.923953
518.448651	2564.482852
518.812112	2566.832030
519.175516	2565.095353
519.538863	2567.021073
519.902152	2563.814900
520.265385	2564.379509
520.628560	2567.510065
520.991678	2564.097204
521.354739	2565.095353
521.717743	2563.275496
522.080690	2562.894889
522.443580	2562.410938
522.806413	2563.767009
523.169189	2561.879097
523.531908	2562.395815
523.894569	2563.963614
524.257174	2567.005950
524.619722	2562.239539
524.982213	2564.810527
525.344647	2563.235167
525.707025	2563.542677
526.069345	2561.914385
526.431608	2562.174004
526.793815	2564.639128
527.155964	2564.591237
527.518057	2561.190979
527.880093	2562.783984
528.242072	2561.616957
528.603995	2562.201730
528.965860	2560.291133
529.327669	2559.998746
529.689421	2559.212326
530.051117	2560.182748
530.412755	2559.340876
530.774337	2560.036555
531.135862	2559.870197
531.497331	2557.316852
531.858743	2554.932387
532.220098	2557.412634
532.581396	2551.459032
532.942638	2557.251317
533.303824	2557.034548
533.664953	2560.626370
534.026025	2554.042623
534.387040	2557.707542
534.747999	2557.420196
535.108902	2556.948848
535.469748	2556.353992
535.830537	2553.858621
536.191270	2556.666543
536.551947	2557.006821
536.912567	2553.049516
537.273131	2553.001625
537.633638	2556.132181
537.994089	2553.447767
538.354483	2554.763508
538.714821	2555.832233
539.075103	2554.392983
539.435328	2555.444064
539.795497	2555.156718
540.155609	2554.632438
540.515665	2556.127140
540.875665	2555.386090
541.235609	2552.552962
541.595496	2556.381718
541.955328	2553.846018
542.315102	2552.656306
542.674821	2549.518187
543.034483	2554.899619
543.394090	2553.084804
543.753640	2554.108158
544.113134	2552.931048
544.472571	2552.449618
544.831953	2555.207129
545.191278	2554.478683
545.550548	2550.150852
545.909761	2552.830225
546.268918	2551.980791
546.628019	2552.005997
546.987064	2549.344268
547.346053	2552.638662
547.704986	2554.614794
548.063863	2549.530790
548.422684	2551.718651
548.781449	2552.429454
549.140158	2549.702189
549.498811	2554.113199
549.857408	2550.791079
550.215949	2550.216387
550.574434	2546.536345
550.932864	2547.985677
551.291237	2546.150697
551.649555	2550.614638
552.007817	2549.273691
552.366022	2551.398538
552.724173	2548.499874
553.082267	2548.424257
553.440305	2550.985163
553.798288	2551.426264
554.156215	2549.389638
554.514086	2550.944834
554.871902	2550.286963
555.229661	2549.964329
555.587365	2549.384597
555.945014	2550.163455
556.302606	2550.891902
556.660143	2551.224618
557.017625	2546.649771
557.375050	2551.156562
557.732421	2550.299566
558.089735	2548.308310
558.446994	2548.404092
558.804197	2549.046839
559.161345	2549.949206
559.518437	2549.135060
559.875474	2548.391489
560.232455	2550.561706
560.589381	2547.186654
560.946251	2549.828218
561.303065	2550.526418
561.659825	2549.989535
562.016528	2545.835624
562.373177	2548.862837
562.729770	2549.467776
563.086307	2547.839483
563.442789	2545.129863
563.799216	2547.055584
564.155587	2548.550286
564.511904	2547.970553
564.868164	2546.760676
565.224370	2549.465255
565.580520	2547.932744
565.936615	2547.945347
566.292654	2546.695141
566.648638	2546.924514
567.004567	2546.107847
567.360441	2550.158414
567.716260	2546.816129
568.072023	2549.908877
568.427732	2542.836138
568.783385	2546.196067
569.138982	2544.063659
569.494525	2544.517363
569.850013	2542.601724
570.205445	2546.518701
570.560823	2546.652291
570.916145	2545.749925
571.271412	2546.082641
571.626625	2544.293031
571.981782	2546.070038
572.336884	2546.248999
572.691931	2547.085831
573.046923	2544.857641
573.401860	2543.204142
573.756743	2546.291849
574.111570	2545.679349
574.466342	2547.229503
574.821059	2546.717826
575.175722	2546.669935
575.530330	2544.061138
575.884882	2542.773123
576.239380	2546.914431
576.593823	2547.269833
576.948211	2544.101468
577.302544	2544.943340
577.656823	2547.567261
578.011047	2544.124153
578.365216	2543.098278
578.719330	2546.198588
579.073389	2542.135418
579.427394	2542.379913
579.781344	2541.616179
580.135239	2543.826725
580.489080	2545.646581
580.842866	2542.422763
581.196597	2548.313352
581.550273	2542.130376
581.903895	2542.677342
582.257463	2542.750438
582.610975	2541.253216
582.964434	2542.901673
583.317837	2544.459389
583.671186	2542.417722
584.024481	2541.863195
584.377721	2544.983669
584.730906	2545.956612
585.084037	2544.144317
585.437113	2542.813453
585.790135	2543.320089
586.143103	2538.629295
586.496016	2544.005686
586.848874	2540.486960
587.201679	2539.942516
587.554428	2539.012423
587.907124	2539.181301
588.259765	2537.716846
588.612352	2540.887732
588.964884	2540.706250
589.317362	2540.492001
589.669786	2538.873791
590.022155	2541.343956
590.374470	2542.329502
590.726731	2540.396219
591.078937	2540.358411
591.431090	2539.410674
591.783188	2538.785571
592.135232	2540.610468
592.487222	2540.504604
592.839157	2537.931095
593.191038	2538.551157
593.542866	2539.945036
593.894639	2541.049049
594.246358	2537.628626
594.598022	2540.323123
594.949633	2539.423277
595.301190	2539.962680
595.652692	2538.316743
596.004141	2538.762886
596.355535	2539.617361
596.706876	2537.033770
597.058162	2539.151054
597.409395	2538.490663
597.760573	2536.827082
598.111698	2537.426980
598.462768	2538.241126
598.813785	2539.277083
599.164748	2541.467465
599.515657	2536.736342
599.866511	2536.643080
600.217312	2537.671476
600.568060	2536.958153
600.918753	2537.976466
601.269392	2537.550488
601.619978	2537.805066
601.970510	2536.829603
602.320988	2537.323636
602.671412	2536.958152
603.021783	2536.769109
603.372100	2537.671476
603.722363	2535.115611
604.072572	2538.717515
604.422728	2537.003523
604.772830	2532.191742
605.122878	2532.773995
605.472872	2534.883718
605.822813	2532.892462
606.172701	2535.909593
606.522534	2535.796167
606.872314	2538.203317
607.222041	2540.421425
607.571714	2536.786753
607.921333	2534.288862
608.270899	2535.095446
608.620411	2537.336239
608.969870	2535.544109
609.319276	2535.281969
609.668627	2534.765251
610.017926	2537.016126
610.367171	2535.539068
610.716362	2532.247194
611.065500	2536.849768
611.414585	2537.179963
611.763616	2535.425642
612.112594	2536.343132
612.461518	2535.836496
612.810389	2535.418080
613.159207	2538.480581
613.507971	2538.145344
613.856682	2535.070240
614.205340	2535.861702
614.553945	2536.358255
614.902496	2534.147709
615.250994	2538.087371
615.599439	2538.853626
615.947830	2537.260622
616.296169	2538.498225
616.644454	2538.362114
616.992686	2538.059645
617.340864	2537.227854
617.688990	2534.974458
618.037063	2535.357586
618.385082	2534.664427
618.733048	2538.634336
619.080961	2536.207021
619.428821	2536.000333
619.776628	2537.593338
620.124382	2538.304141
620.472083	2535.173584
620.819731	2538.054603
621.167326	2535.992772
621.514868	2539.597197
621.862357	2535.712988
622.209793	2536.328008
622.557176	2534.974458
622.904506	2535.556712
623.251783	2532.559746
623.599007	2534.366999
623.946179	2531.029756
624.293297	2534.084695
624.640363	2535.965045
624.987376	2534.616537
625.334336	2533.804911
625.681243	2533.608306
626.028097	2533.424304
626.374899	2533.300795
626.721647	2530.021525
627.068343	2535.801208
627.414987	2535.571835
627.761577	2532.600075
628.108115	2538.357073
628.454600	2535.581918
628.801032	2533.751979
629.147412	2533.409180
629.493739	2533.409180
629.840014	2533.832637
630.186236	2536.522093
630.532405	2532.539581
630.878521	2530.006401
631.224585	2532.577390
631.570597	2533.159643
631.916556	2536.030580
632.262462	2532.675692
632.608316	2532.834489
632.954117	2534.956814
633.299866	2530.349200
633.645562	2533.988913
633.991206	2533.905734
634.336797	2530.722245
634.682336	2532.194262
635.027823	2529.804755
635.373257	2531.896834
635.718639	2532.262318
636.063968	2529.736700
636.409245	2529.109076
636.754470	2531.483459
637.099642	2532.337935
637.444762	2529.953469
637.789829	2527.405166
638.134845	2532.945394
638.479808	2527.513551
638.824719	2532.905065
639.169577	2531.743079
639.514383	2531.954807
639.859137	2529.976154
640.203839	2529.083870
640.548489	2530.694519
640.893086	2529.351051
641.237632	2529.136802
641.582125	2525.318128
641.926566	2525.502130
642.270955	2528.950280
642.615292	2531.559077
642.959576	2529.172090
643.303809	2528.771319
643.647990	2530.545805
643.992118	2525.925587
644.336195	2529.724097
644.680219	2527.024559
645.024192	2529.371216
645.368112	2531.889272
645.711981	2529.703932
646.055797	2533.119314
646.399562	2529.802235
646.743274	2532.148892
647.086935	2530.775177
647.430544	2530.301309
647.774101	2530.782739
648.117606	2530.235774
648.461059	2529.630835
648.804460	2533.182328
649.147810	2528.045392
649.491108	2529.058664
649.834354	2527.523633
650.177548	2530.739889
650.520690	2530.160157
650.863781	2528.468849
651.206820	2531.289375
651.549807	2530.311391
651.892742	2527.725279
652.235626	2526.916174
652.578458	2529.038500
652.921238	2528.075639
653.263967	2529.688809
653.606644	2526.059178
653.949269	2528.173942
654.291843	2525.063550
654.634365	2528.703263
654.976836	2526.868283
655.319255	2530.523120
655.661622	2526.757378
656.003938	2528.320135
656.346203	2527.301822
656.688416	2528.625125
657.030577	2526.921215
657.372687	2527.218643
657.714746	2526.084384
658.056753	2528.030269
658.398708	2521.713703
658.740612	2525.335772
659.082465	2524.267048
659.424266	2524.914836
659.766016	2521.179341
660.107715	2530.167718
660.449362	2523.331914
660.790958	2527.684950
661.132503	2524.559435
661.473996	2526.154960
661.815438	2528.489014
662.156829	2527.667306
662.498168	2527.125382
662.839456	2527.301822
663.180693	2524.937521
663.521879	2529.192255
663.863013	2525.960875
664.204097	2526.729651
664.545129	2527.707635
664.886110	2528.685619
665.227040	2526.283509
665.567918	2527.906761
665.908746	2526.762419
666.249522	2529.411545
666.590248	2528.373068
666.930922	2526.858201
667.271545	2526.870804
667.612118	2527.793335
667.952639	2526.767460
668.293109	2529.325846
668.633528	2525.852491
668.973896	2524.534229
669.314213	2527.899199
669.654480	2527.642100
669.994695	2527.001874
670.334859	2525.882738
670.674973	2527.969775
671.015035	2525.723941
671.355047	2525.602953
671.695008	2527.566483
672.034918	2524.128416
672.374777	2526.548170
672.714585	2526.165042
673.054342	2527.369878
673.394049	2529.260311
673.733705	2528.478932
674.073310	2529.703932
674.412864	2527.513551
674.752368	2524.660258
675.091820	2527.488345
675.431223	2525.542460
675.770574	2526.444826
676.109875	2520.985257
676.449125	2525.567665
676.788324	2521.186903
677.127473	2523.273940
677.466571	2522.318642
677.805619	2527.594209
678.144616	2524.539270
678.483562	2524.612367
678.822458	2524.672861
679.161303	2527.332069
679.500098	2524.325021
679.838842	2527.143026
680.177535	2524.977850
680.516179	2525.870135
680.854771	2523.536080
681.193314	2527.861390
681.531805	2524.594723
681.870247	2526.366688
682.208638	2524.516585
682.546978	2528.332738
682.885268	2524.761081
683.223508	2526.414579
683.561697	2524.740916
683.899836	2527.689991
684.237925	2524.559435
684.575963	2526.792666
684.913951	2523.715041
685.251889	2527.432892
685.589776	2523.904085
685.927614	2525.718900
686.265401	2525.313087
686.603137	2523.989784
686.940824	2525.960875
687.278460	2526.505320
687.616046	2525.083715
687.953582	2527.183355
688.291068	2524.698066
688.628504	2527.327028
688.965889	2524.120854
689.303224	2525.620598
689.640510	2523.891482
689.977745	2522.500123
690.314930	2525.912984
690.652065	2525.771832
690.989150	2524.803931
691.326185	2526.913653
691.663170	2521.988446
692.000105	2526.046575
692.336990	2522.298477
692.673825	2523.541122
693.010610	2525.512213
693.347345	2521.375946
693.684030	2519.737571
694.020665	2520.042561
694.357251	2517.174144
694.693786	2519.425019
695.030272	2523.525998
695.366707	2520.876872
695.703093	2521.789321
696.039429	2520.360153
696.375716	2524.642614
696.711952	2519.861079
697.048139	2523.755371
697.384276	2522.656399
697.720363	2520.561800
698.056400	2522.482479
698.392388	2520.203878
698.728326	2522.243024
699.064214	2519.878723
699.400053	2523.331914
699.735842	2521.048271
700.071581	2521.771677
700.407270	2520.219001
700.742910	2520.748322
701.078501	2520.609691
701.414042	2519.477952
701.749533	2521.416275
702.084974	2518.757067
702.420366	2520.350071
702.755709	2520.297139
703.091002	2520.319824
703.426246	2518.333610
703.761440	2517.007786
704.096584	2519.571213
704.431679	2519.268744
704.766725	2519.301511
705.101721	2519.644310
705.436668	2517.262364
705.771565	2520.246727
706.106413	2519.853517
706.441212	2520.130781
706.775961	2522.767304
707.110661	2521.630524
707.445311	2520.639937
707.779913	2522.323683
708.114465	2522.732016
708.448967	2521.305370
708.783421	2520.808816
709.117825	2518.845287
709.452180	2523.135309
709.786485	2522.421985
710.120742	2520.163548
710.454949	2524.035155
710.789107	2517.390914
711.123216	2519.808147
711.457275	2519.329237
711.791286	2518.915863
712.125247	2520.723117
712.459159	2518.946110
712.793023	2524.332583
713.126837	2520.130781
713.460602	2523.629342
713.794318	2520.949968
714.127985	2523.137829
714.461602	2521.602798
714.795171	2523.001718
715.128691	2523.294105
715.462162	2519.072139
715.795584	2520.410565
716.128957	2520.176151
716.462281	2518.358815
716.795556	2518.353774
717.128782	2518.142046
717.461960	2517.796727
717.795088	2517.161541
718.128167	2520.647499
718.461198	2518.018538
718.794180	2520.574403
719.127113	2520.614732
719.459997	2519.162879
719.792833	2518.192457
720.125619	2519.520801
720.458357	2518.704134
720.791046	2518.857890
721.123686	2517.148938
721.456278	2519.581295
721.788821	2517.602642
722.121315	2518.464680
722.453761	2519.372087
722.786158	2516.019720
723.118506	2519.472910
723.450805	2516.601973
723.783056	2518.522653
724.115259	2517.658095
724.447412	2517.453928
724.779518	2520.463497
725.111574	2519.712365
725.443582	2517.441325
725.775542	2518.086593
726.107453	2520.178672
726.439315	2515.558454
726.771129	2523.470545
727.102895	2519.183044
727.434612	2519.876203
727.766281	2519.074659
728.097901	2515.757580
728.429473	2514.913187
728.760996	2516.841428
729.092471	2516.533918
729.423897	2519.407375
729.755276	2520.614732
730.086606	2520.723117
730.417887	2519.538445
730.749120	2520.050123
731.080305	2517.136336
731.411442	2520.198837
731.742530	2517.738753
732.073570	2522.391738
732.404562	2517.539628
732.735506	2518.764628
733.066401	2521.133971
733.397249	2520.972654
733.728048	2520.221522
734.058798	2519.780421
734.389501	2515.845800
734.720156	2519.430061
735.050762	2517.068280
735.381320	2517.912673
735.711831	2521.597757
736.042293	2516.438136
736.372707	2518.429392
736.703073	2517.141377
737.033391	2517.237159
737.363661	2517.532066
737.693883	2516.286901
738.024056	2518.368898
738.354182	2517.857221
738.684260	2516.175996
739.014290	2518.391583
739.344272	2519.989629
739.674207	2515.961747
740.004093	2519.137674
740.333931	2516.531397
740.663722	2516.024761
740.993464	2517.461490
741.323159	2520.009793
741.652806	2519.271264
741.982405	2514.950995
742.311956	2514.467045
742.641460	2518.434433
742.970915	2518.978877
743.300323	2517.451408
743.629683	2517.337982
743.958996	2517.668177
744.288260	2514.615759
744.617477	2516.362518
744.946647	2509.987979
745.275768	2513.073166
745.604842	2515.593742
745.933869	2512.884122
746.262847	2510.855058
746.591778	2513.357991
746.920662	2516.274298
747.249498	2517.280008
747.578286	2517.889988
747.907027	2515.860924
748.235720	2518.542817
748.564365	2516.286901
748.892963	2516.065090
749.221514	2516.559123
749.550017	2516.566685
749.878473	2517.148938
750.206881	2515.283712
750.535242	2515.485358
750.863555	2516.440656
751.191821	2516.095337
751.520039	2516.148269
751.848210	2518.951151
752.176334	2514.968639
752.504411	2514.426715
752.832440	2514.882940
753.160421	2515.971829
753.488356	2516.745646
753.816243	2516.359998
754.144082	2518.351254
754.471875	2518.048784
754.799620	2516.796058
755.127318	2514.678773
755.454969	2516.551562
755.782572	2514.406551
756.110129	2513.592404
756.437638	2515.034174
756.765100	2515.361849
757.092515	2515.636592
757.419882	2515.082065
757.747203	2517.322858
758.074477	2513.405882
758.401703	2515.455111
758.728882	2515.462672
759.056014	2513.937723
759.383099	2517.065759
759.710138	2516.470903
760.037129	2514.497292
760.364073	2514.361180
760.690970	2515.823115
761.017820	2516.070132
761.344623	2515.369411
761.671379	2515.860924
761.998088	2514.167096
762.324751	2515.820594
762.651366	2512.672394
762.977935	2518.479803
763.304456	2517.247241
763.630931	2522.003570
763.957359	2519.964423
764.283740	2521.764115
764.610074	2518.593229
764.936362	2520.042561
765.262602	2515.951664
765.588796	2520.697911
765.914943	2515.818074
766.241044	2515.427384
766.567097	2514.464524
766.893104	2513.347908
767.219064	2515.722292
767.544978	2514.832528
767.870845	2510.890346
768.196665	2513.983094
768.522438	2514.220028
768.848165	2513.809174
769.173846	2513.279853
769.499479	2512.488392
769.825066	2513.889833
770.150607	2512.674914
770.476101	2513.186592
770.801548	2516.105420
771.126949	2515.553413
771.452303	2511.674245
771.777611	2512.846314
772.102872	2514.157014
772.428087	2511.598628
772.753256	2514.918228
773.078378	2511.916221
773.403453	2512.369925
773.728482	2511.712054
774.053465	2513.287415
774.378401	2511.117198
774.703291	2513.942765
775.028135	2513.189112
775.352932	2513.368073
775.677683	2513.552075
776.002388	2513.509225
776.327046	2512.624503
776.651658	2512.145593
776.976224	2514.300687
777.300743	2513.357991
777.625216	2513.078207
777.949643	2509.771210
778.274024	2517.043074
778.598359	2508.226096
778.922647	2508.324399
779.246889	2510.086282
779.571086	2506.078565
779.895236	2509.773730
780.219339	2510.648371
780.543397	2513.413443
780.867409	2509.829183
781.191374	2513.176509
781.515294	2510.149296
781.839167	2513.269771
782.162995	2512.120388
782.486776	2510.265243
782.810511	2511.822959
783.134201	2512.826149
783.457844	2510.058556
783.781441	2514.063752
784.104993	2511.331447
784.428498	2512.584174
784.751958	2512.551406
785.075372	2512.009482
785.398739	2511.507887
785.722061	2514.157014
786.045337	2512.208608
786.368568	2511.054183
786.691752	2512.017044
787.014891	2512.266581
787.337983	2513.783968
787.661030	2511.205418
787.984031	2514.950995
788.306987	2514.187261
788.629897	2513.501664
788.952760	2515.734895
789.275579	2512.836231
789.598351	2512.616941
789.921078	2511.911180
790.243759	2512.874040
790.566395	2512.450583
790.888984	2511.490243
791.211529	2512.841273
791.534027	2512.697600
791.856480	2509.451097
792.178888	2514.872857
792.501249	2513.506705
792.823566	2510.285407
793.145836	2512.493433
793.468062	2513.413443
793.790241	2509.448576
794.112375	2513.471417
794.434464	2510.355984
794.756507	2511.800274
795.078505	2510.587877
795.400457	2511.119718
795.722364	2508.979749
796.044226	2509.589728
796.366042	2508.609224
796.687812	2511.918741
797.009538	2511.853206
797.331218	2514.787158
797.652852	2512.591735
797.974442	2513.335306
798.295986	2510.129132
798.617484	2512.536283
798.938938	2510.214831
799.260346	2511.714575
799.581709	2510.850017
799.903026	2513.093330
800.224299	2512.042250
800.545526	2510.698782
800.866708	2511.301200
801.187845	2510.620644
801.508936	2510.547547
801.829983	2509.882115
802.150984	2509.748525
802.471940	2509.438494
802.792851	2510.850017
803.113717	2512.248937
803.434538	2508.049656
803.755314	2510.817249
804.076045	2511.396982
804.396731	2512.725326
804.717372	2508.843638
805.037967	2512.062414
805.358518	2510.424039
805.679024	2514.638444
805.999485	2509.239368
806.319901	2513.516787
806.640272	2510.401354
806.960598	2512.717764
807.280879	2509.677948
807.601115	2512.813546
807.921306	2510.673576
808.241453	2511.306241
808.561554	2510.287928
808.881611	2508.883967
809.201623	2510.726508
809.521590	2510.832373
809.841513	2514.260357
810.161390	2511.018895
810.481223	2510.809688
810.801011	2510.855058
811.120755	2511.790192
811.440453	2513.904956
811.760107	2511.480161
812.079716	2508.674759
812.399281	2510.613083
812.718801	2508.581497
813.038276	2503.316012
813.357707	2509.241889
813.677093	2511.318844
813.996434	2508.165602
814.315731	2510.476971
814.634983	2510.678618
814.954191	2512.075017
815.273354	2510.600480
815.592473	2511.114677
815.911547	2510.585356
816.230577	2511.679287
816.549562	2511.623834
816.868502	2511.308762
817.187399	2510.202228
817.506250	2508.989831
817.825058	2510.567712
818.143821	2512.132990
818.462539	2511.346570
818.781213	2513.161386
819.099843	2514.320851
819.418429	2511.512928
819.736970	2513.489061
820.055466	2514.325892
820.373919	2512.314472
820.692327	2517.113650
821.010691	2520.118178
821.329011	2521.993487
821.647286	2535.997813
821.965517	2543.183978
822.283704	2548.784699
822.601847	2551.305276
822.919945	2548.094061
823.237999	2540.877650
823.556010	2539.733308
823.873976	2529.446833
824.191897	2530.765095
824.509775	2526.689322
824.827609	2522.341327
825.145398	2522.180010
825.463144	2520.065246
825.780845	2520.176151
826.098502	2523.707480
826.416116	2523.838550
826.733685	2527.311905
827.051210	2525.648324
827.368692	2528.320135
827.686129	2523.717562
828.003522	2520.355112
828.320872	2514.855213
828.638177	2515.253465
828.955439	2513.531911
829.272656	2509.735922
829.589830	2512.100223
829.906960	2511.669204
830.224046	2510.421519
830.541088	2514.383866
830.858086	2508.140397
831.175041	2511.185253
831.491952	2510.739111
831.808819	2511.344050
832.125642	2512.077538
832.442421	2513.978053
832.759157	2513.421005
833.075849	2514.497292
833.392497	2517.590039
833.709101	2517.106089
834.025662	2516.317148
834.342179	2516.886798
834.658653	2515.797909
834.975083	2515.021572
835.291469	2521.307890
835.607811	2512.203567
835.924110	2510.673576
836.240366	2508.596621
836.556578	2509.861951
836.872746	2510.976046
837.188871	2507.580828
837.504952	2509.889677
837.820990	2511.028978
838.136984	2509.987979
838.452935	2507.495129
838.768842	2509.710716
839.084706	2511.548217
839.400526	2509.388082
839.716303	2511.966632
840.032037	2514.300687
840.347727	2510.688700
840.663373	2513.836900
840.978977	2510.323216
841.294537	2510.900428
841.610054	2511.797754
841.925527	2511.220542
842.240957	2510.040912
842.556344	2510.272805
842.871687	2510.124091
843.186987	2512.221211
843.502244	2508.026971
843.817458	2508.820952
844.132629	2512.301869
844.447756	2509.882115
844.762840	2505.430776
845.077881	2507.472444
845.392879	2507.243071
845.707833	2509.655263
846.022745	2507.175016
846.337613	2508.309275
846.652438	2506.262567
846.967221	2509.375479
847.281960	2510.020747
847.596656	2512.062414
847.911309	2508.442866
848.225919	2506.335663
848.540485	2507.926148
848.855009	2509.975377
849.169490	2507.462361
849.483928	2507.784995
849.798323	2506.605365
850.112675	2508.037053
850.426984	2507.820283
850.741251	2505.471106
851.055474	2507.641322
851.369654	2507.273318
851.683792	2506.766682
851.997887	2506.335663
852.311938	2508.531086
852.625947	2507.732063
852.939914	2507.530417
853.253837	2508.001765
853.567718	2510.424039
853.881555	2508.163082
854.195350	2505.098060
854.509103	2505.244254
854.822812	2505.372803
855.136479	2509.471261
855.450103	2510.114008
855.763685	2507.117042
856.077224	2509.655263
856.390720	2510.267763
856.704173	2506.786847
857.017584	2509.562002
857.330953	2507.676610
857.644278	2507.540499
857.957561	2513.678104
858.270802	2508.707526
858.584000	2508.649553
858.897155	2506.597803
859.210268	2508.813391
859.523339	2510.134173
859.836367	2508.518483
860.149352	2509.945130
860.462295	2508.765500
860.775195	2504.664521
861.088054	2504.470437
861.400869	2504.881291
861.713642	2503.857936
862.026373	2504.518328
862.339062	2508.775582
862.651708	2505.745848
862.964312	2508.692403
863.276873	2506.116373
863.589392	2508.596621
863.901869	2509.226765
864.214303	2507.580828
864.526696	2509.831704
864.839045	2506.166785
865.151353	2507.648884
865.463619	2507.091837
865.775842	2507.346415
866.088023	2506.794408
866.400162	2507.900942
866.712258	2507.540499
867.024313	2507.124604
867.336325	2508.289111
867.648296	2507.240551
867.960224	2506.628050
868.272110	2508.047135
868.583954	2508.669718
868.895755	2507.709378
869.207515	2505.909686
869.519233	2508.455469
869.830909	2509.849348
870.142542	2508.258864
870.454134	2506.585201
870.765684	2509.405726
871.077191	2508.621827
871.388657	2507.590911
871.700081	2507.086795
872.011463	2505.350118
872.322803	2505.874398
872.634101	2509.284738
872.945357	2507.275839
873.256571	2509.922444
873.567744	2506.655777
873.878874	2510.053514
874.189963	2509.688031
874.501010	2508.818432
874.812015	2508.571415
875.122979	2507.948833
875.433900	2506.600324
875.744780	2509.841786
876.055618	2508.836076
876.366415	2508.682321
876.677169	2508.954543
876.987882	2506.023112
877.298554	2506.128976
877.609183	2505.488750
877.919771	2505.261898
878.230317	2507.664008
878.540822	2510.454286
878.851285	2511.296159
879.161707	2509.141066
879.472087	2511.528052
879.782425	2510.928155
880.092722	2514.527538
880.402977	2516.440656
880.713191	2520.395442
881.023363	2524.531708
881.333494	2526.046575
881.643583	2528.158818
881.953631	2526.636390
882.263637	2525.108920
882.573602	2522.371574
882.883526	2522.280833
883.193408	2520.778569
883.503248	2518.721778
883.813048	2517.310255
884.122806	2518.119361
884.432522	2515.296314
884.742197	2515.616428
885.051831	2512.523680
885.361424	2512.359842
885.670975	2512.677435
885.980485	2509.819101
886.289954	2513.100892
886.599382	2507.515293
886.908768	2512.508556
887.218113	2508.863802
887.527417	2507.389265
887.836680	2507.875736
888.145901	2508.410098
888.455082	2508.745335
888.764221	2507.805160
889.073319	2506.224758
889.382376	2509.562002
889.691392	2506.330622
890.000366	2507.343894
890.309300	2506.870026
890.618193	2506.219717
890.927044	2510.159379
891.235855	2510.144255
891.544625	2507.560664
891.853353	2506.663338
892.162041	2511.112157
892.470687	2508.825993
892.779293	2510.411436
893.087858	2505.564367
893.396381	2505.826507
893.704864	2508.863802
894.013306	2508.294152
894.321707	2514.744308
894.630068	2512.647188
894.938387	2513.418485
895.246665	2513.070645
895.554903	2511.845645
895.863100	2511.828001
896.171256	2511.835562
896.479371	2509.236848
896.787446	2511.568381
897.095480	2509.728360
897.403473	2510.499657
897.711425	2509.614934
898.019336	2507.159892
898.327207	2510.852537
898.635038	2507.628719
898.942827	2508.442866
899.250576	2508.538648
899.558284	2509.564523
899.865952	2504.392299
900.173579	2509.390603
900.481165	2508.911693
900.788711	2506.736435
901.096216	2510.388751
901.403681	2508.682321
901.711105	2508.102588
902.018489	2508.296672
902.325832	2510.529903
902.633135	2509.035201
902.940397	2508.195849
903.247619	2507.749707
903.554800	2510.159379
903.861941	2511.023937
904.169041	2512.604338
904.476101	2512.800943
904.783121	2514.701458
905.090100	2511.361694
905.397039	2510.514780
905.703938	2510.844976
906.010796	2512.223731
906.317614	2511.805315
906.624391	2508.984790
906.931129	2508.271467
907.237826	2507.981600
907.544483	2506.592762
907.851099	2507.202742
908.157675	2507.124604
908.464211	2510.676097
908.770707	2503.563029
909.077163	2507.003616
909.383578	2503.598317
909.689954	2502.201917
909.996289	2502.879953
910.302584	2506.502022
910.608839	2506.557474
910.915054	2506.668380
911.221229	2507.273318
911.527363	2504.735097
911.833458	2503.822648
912.139513	2503.741990
912.445527	2506.411281
912.751502	2505.408091
913.057436	2508.130314
913.363331	2509.698113
913.669186	2507.187618
913.975000	2508.566374
914.280775	2507.270798
914.586510	2506.406240
914.892205	2508.639471
915.197859	2510.272805
915.503475	2510.615603
915.809050	2514.477127
916.114585	2512.914369
916.420081	2513.105933
916.725536	2513.680625
917.030952	2515.485358
917.336328	2509.859430
917.641665	2509.050325
917.946961	2511.543175
918.252218	2508.410098
918.557435	2508.843638
918.862612	2511.933865
919.167750	2507.810201
919.472848	2507.124604
919.777906	2508.571415
920.082925	2508.815911
920.387904	2504.571260
920.692843	2506.237361
920.997743	2505.914727
921.302603	2505.297186
921.607423	2506.499501
921.912204	2505.516476
922.216946	2505.559326
922.521647	2510.308093
922.826310	2506.779285
923.130932	2506.028153
923.435516	2504.480519
923.740059	2504.757782
924.044564	2506.280211
924.349028	2504.593945
924.653454	2502.156547
924.957840	2503.106804
925.262186	2502.398522
925.566493	2505.939933
925.870761	2499.731752
926.174989	2506.688544
926.479178	2501.788543
926.783328	2507.164933
927.087438	2502.269973
927.391509	2505.080416
927.695541	2505.355159
927.999533	2508.084944
928.303486	2503.910868
928.607400	2506.033194
928.911275	2504.999758
929.215110	2507.588390
929.518906	2505.955056
929.822663	2504.571260
930.126381	2504.157885
930.430060	2504.379696
930.733699	2507.606034
931.037299	2505.395488
931.340861	2503.043790
931.644383	2503.096722
931.947866	2505.612258
932.251309	2505.975221
932.554714	2506.756600
932.858080	2506.159223
933.161407	2504.311640
933.464694	2504.407422
933.767943	2503.348780
934.071153	2504.062103
934.374323	2505.604696
934.677455	2505.319871
934.980548	2503.633605
935.283602	2504.407422
935.586617	2506.617968
935.889593	2504.810714
936.192530	2504.649397
936.495428	2505.488750
936.798287	2505.491270
937.101108	2508.132835
937.403890	2501.949860
937.706632	2504.064624
938.009336	2507.227948
938.312002	2504.120076
938.614628	2502.201917
938.917216	2506.812053
939.219765	2504.243585
939.522275	2507.296003
939.824747	2508.054697
940.127179	2499.116731
940.429573	2503.792401
940.731929	2502.229644
941.034246	2499.431803
941.336524	2503.300889
941.638763	2505.846672
941.940964	2502.365755
942.243126	2505.501352
942.545250	2504.185611
942.847335	2504.581342
943.149381	2505.382885
943.451389	2504.974552
943.753359	2503.084119
944.055290	2505.619820
944.357182	2505.665190
944.659036	2506.817094
944.960851	2506.423884
945.262628	2504.770385
945.564367	2505.410612
945.866067	2505.062772
946.167729	2504.488081
946.469352	2503.711743
946.770937	2502.358193
947.072484	2507.122083
947.373992	2505.687875
947.675462	2505.718122
947.976893	2505.834069
948.278286	2506.191991
948.579641	2501.692761
948.880958	2504.982114
949.182236	2504.079747
949.483476	2504.770385
949.784678	2504.034377
950.085841	2503.515138
950.386967	2505.513955
950.688054	2504.062103
950.989103	2504.803153
951.290114	2503.948677
951.591087	2505.002278
951.892021	2504.745179
952.192917	2505.624861
952.493776	2503.598317
952.794596	2505.907165
953.095378	2506.290293
953.396122	2504.755262
953.696828	2506.565036
953.997496	2505.090498
954.298126	2505.763492
954.598718	2506.862464
954.899272	2502.388440
955.199788	2502.290138
955.500266	2504.293996
955.800706	2502.075888
956.101108	2502.436331
956.401472	2504.974552
956.701798	2502.766527
957.002087	2502.154026
957.302337	2504.503204
957.602550	2503.323574
957.902724	2503.394150
958.202861	2502.567401
958.502960	2505.219048
958.803022	2506.277690
959.103045	2503.439521
959.403031	2502.874911
959.702979	2503.033708
960.002889	2507.084275
960.302762	2502.456496
960.602596	2504.016733
960.902393	2506.013030
961.202153	2504.490601
961.501875	2504.314161
961.801559	2502.363234
962.101205	2505.072854
962.400814	2501.632267
962.700385	2503.946157
962.999918	2506.663338
963.299414	2502.060765
963.598873	2504.127638
963.898293	2501.438182
964.197677	2504.336846
964.497022	2503.401712
964.796331	2504.798112
965.095601	2504.994717
965.394835	2502.711074
965.694030	2504.364572
965.993189	2503.532782
966.292309	2503.258039
966.591393	2503.573111
966.890439	2502.660662
967.189447	2506.542351
967.488419	2501.407936
967.787353	2501.846516
968.086249	2505.498832
968.385108	2505.478667
968.683930	2504.225941
968.982714	2505.135869
969.281462	2503.275683
969.580172	2501.659993
969.878844	2503.880622
970.177480	2502.136382
970.476078	2505.163595
970.774639	2505.738287
971.073162	2503.754593
971.371649	2503.379027
971.670098	2499.391474
971.968510	2500.745024
972.266885	2498.436175
972.565223	2502.625374
972.863524	2502.985817
973.161788	2503.759634
973.460014	2498.022801
973.758204	2504.195694
974.056356	2503.570591
974.354471	2504.135200
974.652550	2502.675786
974.950591	2503.011022
975.248595	2504.283914
975.546563	2502.499345
975.844493	2502.630415
976.142386	2504.520848
976.440243	2503.129490
976.738062	2505.014881
977.035845	2501.793584
977.333590	2505.037566
977.631299	2505.604696
977.928971	2503.124448
978.226606	2504.868688
978.524204	2500.432472
978.821765	2505.324912
979.119290	2501.150837
979.416777	2502.275014
979.714228	2503.033708
980.011642	2500.548419
980.309020	2504.903976
980.606360	2502.209479
980.903664	2505.072854
981.200931	2503.903307
981.498162	2506.083606
981.795356	2503.394150
982.092513	2505.720643
982.389633	2503.772237
982.686717	2502.045642
982.983764	2502.585045
983.280775	2503.956239
983.577749	2504.722494
983.874686	2505.214007
984.171587	2506.542351
984.468451	2504.495642
984.765279	2503.313492
985.062070	2503.638646
985.358824	2503.837772
985.655543	2505.516476
985.952224	2505.995386
986.248869	2501.796104
986.545478	2500.692092
986.842050	2502.063286
987.138586	2501.493635
987.435086	2500.308964
987.731549	2498.993223
988.027975	2502.436331
988.324366	2503.285765
988.620719	2503.656290
988.917037	2501.861639
989.213318	2501.982627
989.509563	2501.329798
989.805772	2503.293327
990.101944	2503.396671
990.398080	2504.019253
990.694180	2505.715602
990.990244	2504.430107
991.286271	2503.598317
991.582262	2500.835765
991.878217	2502.663183
992.174136	2502.408605
992.470019	2505.702999
992.765865	2501.949860
993.061676	2502.524551
993.357450	2503.946157
993.653188	2501.980107
993.948890	2504.374655
994.244556	2502.212000
994.540186	2504.394819
994.835780	2503.071516
995.131337	2502.484222
995.426859	2504.914058
995.722345	2504.210817
996.017795	2503.903307
996.313208	2505.357680
996.608586	2502.955570
996.903928	2502.910199
997.199234	2502.184273
997.494504	2503.961280
997.789738	2501.347442
998.084936	2504.964470
998.380099	2501.700322
998.675225	2501.884325
998.970316	2502.164109
999.265371	2502.678306
999.560390	2501.833913
999.855373	2503.842813
1000.150320	2501.097905
1000.445232	2502.882473
1000.740108	2504.566218
1001.034948	2501.642349
1001.329752	2502.441372
1001.624521	2504.414984
1001.919254	2498.209323
1002.213951	2500.412308
1002.508613	2497.884169
1002.803239	2501.052534
1003.097829	2496.838130
1003.392384	2500.563542
1003.686903	2501.337359
1003.981386	2502.532113
1004.275834	2501.077740
1004.570246	2502.713594
1004.864623	2503.520179
1005.158964	2501.680158
1005.453270	2500.298882
1005.747540	2502.332987
1006.041775	2503.860457
1006.335974	2501.344921
1006.630138	2503.258039
1006.924266	2502.312823
1007.218359	2502.789212
1007.512416	2504.253667
1007.806438	2500.631598
1008.100425	2502.146465
1008.394376	2502.121259
1008.688292	2502.340549
1008.982172	2503.615961
1009.276017	2502.388440
1009.569827	2501.077740
1009.863602	2504.392299
1010.157341	2503.318533
1010.451045	2501.604541
1010.744714	2502.479181
1011.038347	2501.813748
1011.331945	2501.450785
1011.625508	2501.574294
1011.919036	2502.791732
1012.212528	2504.820797
1012.505986	2503.978924
1012.799408	2501.473471
1013.092795	2501.458347
1013.386147	2503.714263
1013.679464	2500.440034
1013.972745	2499.794766
1014.265992	2502.849706
1014.559204	2502.844664
1014.852380	2500.437513
1015.145521	2504.903976
1015.438628	2501.917092
1015.731699	2502.151506
1016.024736	2501.891886
1016.317737	2501.954901
1016.610703	2503.464726
1016.903635	2496.689416
1017.196531	2499.078923
1017.489393	2500.414828
1017.782219	2497.662358
1018.075011	2502.658142
1018.367768	2504.465395
1018.660490	2503.464726
1018.953177	2503.464726
1019.245829	2503.464726
