Dividing Wavelength (nm)	Counts (n)	Blue Motor Position (mm): 0.000000	Red Motor Position (mm): 43.900000	
326.493990	2129.098559
326.888308	2129.098559
327.282561	2129.098559
327.676750	2097.581266
328.070874	2095.295102
328.464933	2096.499938
328.858929	2106.120980
329.252859	2115.618514
329.646726	2127.021604
330.040528	2139.057359
330.434265	2154.339617
330.827938	2172.003820
331.221547	2190.371264
331.615091	2209.187371
332.008571	2228.868035
332.401986	2248.868813
332.795338	2267.213572
333.188625	2286.964813
333.581847	2305.770837
333.975006	2324.639876
334.368100	2342.929182
334.761129	2359.597757
335.154095	2377.849255
335.546996	2399.193500
335.939833	2420.293250
336.332606	2433.672472
336.725315	2447.253340
337.117960	2458.641307
337.510540	2463.077522
337.903056	2476.227372
338.295508	2486.375215
338.687896	2494.360403
339.080220	2504.480519
339.472480	2511.366735
339.864676	2511.810357
340.256807	2516.120543
340.648875	2519.316635
341.040879	2522.684125
341.432818	2524.481297
341.824694	2525.297964
342.216506	2525.630680
342.608253	2525.444157
342.999937	2523.760412
343.391557	2527.127903
343.783113	2525.073632
344.174605	2525.270237
344.566033	2522.094310
344.957397	2521.396111
345.348697	2519.656912
345.739934	2518.056346
346.131106	2516.065090
346.522215	2515.291273
346.913260	2510.552589
347.304241	2512.322034
347.695159	2508.294152
348.086012	2506.857423
348.476802	2505.516476
348.867528	2503.442041
349.258191	2504.601507
349.648789	2502.695950
350.039324	2499.830054
350.429796	2499.411639
350.820203	2496.094559
351.210548	2495.149343
351.600828	2495.703870
351.991045	2495.623212
352.381198	2495.116576
352.771288	2493.357213
353.161314	2497.743017
353.551276	2492.061636
353.941175	2496.013901
354.331010	2497.327122
354.720782	2495.348469
355.110490	2494.312512
355.500135	2493.962151
355.889717	2496.064312
356.279235	2491.892758
356.668689	2496.263438
357.058080	2496.354179
357.447408	2496.497852
357.836672	2489.495689
358.225873	2496.245794
358.615010	2493.266472
359.004084	2498.867194
359.393095	2499.220075
359.782043	2501.443224
360.170927	2498.826865
360.559748	2498.337873
360.948505	2503.036228
361.337199	2503.207627
361.725830	2503.479850
362.114398	2505.599655
362.502903	2503.371465
362.891344	2507.265756
363.279722	2502.675786
363.668037	2506.741476
364.056289	2504.367093
364.444478	2508.846158
364.832603	2505.866836
365.220665	2509.665346
365.608665	2509.196518
365.996601	2511.611231
366.384474	2510.088802
366.772284	2512.498474
367.160031	2513.443690
367.547715	2514.814884
367.935336	2518.162210
368.322893	2518.671367
368.710388	2522.235463
369.097820	2530.361803
369.485189	2534.036804
369.872495	2540.539892
370.259738	2549.573640
370.646918	2555.973385
371.034035	2561.579148
371.421090	2572.147927
371.808081	2580.470872
372.195010	2588.050247
372.581875	2604.880139
372.968678	2616.711727
373.355418	2628.313942
373.742096	2644.821201
374.128710	2660.426092
374.515262	2673.533092
374.901751	2688.275947
375.288177	2704.271528
375.674540	2728.093501
376.060841	2743.695872
376.447079	2762.292688
376.833254	2784.173817
377.219367	2798.878862
377.605417	2833.521672
377.991404	2841.612723
378.377329	2864.181969
378.763191	2882.309958
379.148991	2920.796648
379.534727	2942.715584
379.920402	2972.395378
380.306013	2988.292656
380.691563	3038.686551
381.077049	3056.260013
381.462474	3074.070410
381.847835	3111.627006
382.233134	3137.825882
382.618371	3134.743217
383.003545	3202.030018
383.388657	3210.514280
383.773706	3242.462592
384.158693	3259.373143
384.543618	3285.277112
384.928480	3320.635765
385.313280	3368.022611
385.698017	3368.047817
386.082692	3422.204933
386.467305	3425.121240
386.851856	3456.411682
387.236344	3475.704178
387.620770	3509.270701
388.005133	3536.084598
388.389435	3564.352868
388.773674	3576.512131
389.157851	3617.806743
389.541965	3630.528095
389.926018	3597.440481
390.310008	3671.522758
390.693936	3686.494985
391.077802	3728.883527
391.461606	3717.765262
391.845348	3780.759520
392.229027	3781.329171
392.612645	3791.451808
392.996200	3871.548181
393.379694	3909.142585
393.763125	3973.485352
394.146494	3942.368830
394.529801	4001.204137
394.913047	4052.762538
395.296230	4019.949667
395.679351	4076.612237
396.062410	4099.947738
396.445408	4078.064089
396.828343	4111.398719
397.211217	4136.092811
397.594028	4057.418043
397.976778	4123.124443
398.359466	4149.325840
398.742092	4178.947660
399.124656	4102.773305
399.507158	4178.148637
399.889598	4206.459757
400.271977	4269.701032
400.654294	4239.446547
401.036549	4247.076333
401.418742	4216.675655
401.800874	4315.247857
402.182944	4345.058720
402.564952	4404.196496
402.946898	4392.090165
403.328783	4387.931213
403.710606	4304.795024
404.092367	4496.379035
404.474067	4460.538952
404.855705	4467.808296
405.237282	4393.226945
405.618797	4504.260879
406.000250	4539.400242
406.381642	4619.607520
406.762972	4582.146706
407.144240	4589.836986
407.525447	4591.523252
407.906593	4649.670441
408.287677	4690.826421
408.668700	4620.807315
409.049661	4671.251621
409.430560	4711.447261
409.811399	4637.934635
410.192176	4802.281292
410.572891	4740.683433
410.953545	4844.856357
411.334138	4727.795723
411.714669	4793.555054
412.095139	4686.191080
412.475547	4831.434284
412.855894	4810.934432
413.236180	4818.624712
413.616405	4770.620325
413.996568	4859.516032
414.376670	4801.036127
414.756711	4755.035598
415.136691	4791.248727
415.516609	4864.597515
415.896466	4904.407507
416.276262	4935.992856
416.655997	4920.972738
417.035670	5102.126602
417.415283	5192.423750
417.794834	5136.121623
418.174324	5088.185291
418.553753	4995.773379
418.933121	5181.018139
419.312428	5246.326287
419.691674	5187.889232
420.070859	5310.205268
420.449983	5224.798040
420.829045	5340.369012
421.208047	5241.975771
421.586988	5315.264066
421.965867	5331.052960
422.344686	5462.569102
422.723444	5318.744983
423.102141	5133.096931
423.480777	5436.350061
423.859352	5203.920101
424.237866	5462.339729
424.616319	5454.389830
424.994712	5565.282612
425.373044	5439.374753
425.751314	5585.454789
426.129524	5385.593203
426.507673	5578.618984
426.885762	5662.057642
427.263789	5592.519966
427.641756	5479.310774
428.019662	5600.618579
428.397508	5606.889775
428.775292	5552.939346
429.153016	5653.694368
429.530679	5578.175362
429.908282	5664.187529
430.285824	5534.526532
430.663305	5807.719262
431.040726	5543.930804
431.418086	5540.636410
431.795385	5647.362678
432.172624	5661.616541
432.549802	5652.781919
432.926920	5668.033930
433.303977	5676.987019
433.680974	5711.281989
434.057910	5733.032047
434.434786	5736.467593
434.811601	5710.762750
435.188355	5944.354696
435.565050	5819.031611
435.941683	5795.660822
436.318257	6010.741651
436.694770	5992.840513
437.071222	6029.514908
437.447614	5959.977231
437.823946	5871.084045
438.200218	6026.336460
438.576429	5893.164299
438.952580	5987.464123
439.328670	6035.360125
439.704700	5941.019972
440.080670	5932.180309
440.456580	6201.430857
440.832429	6085.040697
441.208218	5930.209218
441.583947	6086.134627
441.959616	6091.561429
442.335224	6019.341859
442.710773	6152.950080
443.086261	6183.388567
443.461689	5971.642461
443.837057	6125.067458
444.212365	6279.488083
444.587612	6172.257699
444.962800	6331.169992
445.337927	6308.731816
445.712995	5918.284368
446.088002	6494.440362
446.462949	6324.729918
446.837837	6255.479587
447.212664	6427.294713
447.587431	6566.460807
447.962139	7107.895853
448.336786	8040.758852
448.711374	7776.393182
449.085901	6853.514189
449.460369	6775.693897
449.834776	6704.563216
450.209124	7102.171623
450.583412	7247.475321
450.957640	7398.770430
451.331808	7165.790984
451.705917	6715.568055
452.079965	6638.297249
452.453954	6853.730958
452.827883	6726.741773
453.201752	6820.232491
453.575562	6616.479135
453.949311	6819.315001
454.323001	6710.040430
454.696632	6782.864938
455.070202	6928.791219
455.443713	7075.982829
455.817164	7183.490476
456.190556	7260.055520
456.563888	7334.205852
456.937160	7373.443673
457.310373	7040.435132
457.683526	7054.840229
458.056619	6949.074301
458.429653	6936.443690
458.802628	6874.399689
459.175542	6979.900957
459.548398	7333.668969
459.921194	7501.105853
460.293930	7500.279104
460.666607	8031.558746
461.039224	8335.973862
461.411782	8465.503790
461.784280	8483.344433
462.156719	8373.711940
462.529099	8256.439578
462.901419	7844.037905
463.273680	7743.441680
463.645882	7748.898729
464.018024	7616.845704
464.390106	7777.144314
464.762130	8167.677462
465.134094	8636.149368
465.505999	9657.295573
465.877845	10883.029446
466.249631	11530.358970
466.621358	11146.528037
466.993026	10522.997800
467.364634	10267.711248
467.736184	9896.044619
468.107674	9567.797448
468.479105	9596.385832
468.850477	9362.972847
469.221790	9130.479873
469.593043	8806.855440
469.964238	8668.064913
470.335373	8678.300976
470.706449	8739.402281
471.077467	8719.474600
471.448425	10032.128047
471.819324	11103.078332
472.190164	11127.195212
472.560945	9876.399243
472.931667	9090.405220
473.302330	8958.894119
473.672934	8596.218388
474.043479	8956.572668
474.413965	8896.887927
474.784393	8779.839897
475.154761	8936.229092
475.525070	9020.484417
475.895321	8850.295063
476.265513	9023.466259
476.635645	9201.219864
477.005719	9195.548566
477.375734	9315.631371
477.745691	9542.289210
478.115588	9683.144090
478.485427	9922.641747
478.855207	10461.057143
479.224928	11272.619897
479.594591	11896.724826
479.964194	11718.731766
480.333739	11651.991930
480.703226	11573.947307
481.072653	11667.889209
481.442022	11893.871533
481.811333	12091.515010
482.180584	11900.631720
482.549777	11607.276895
482.918912	11430.798702
483.287988	11450.575149
483.657005	11462.603342
484.025964	11150.351752
484.394864	11267.523291
484.763706	11243.587892
485.132489	11005.242138
485.501213	10959.382762
485.869879	11045.168077
486.238487	10884.002388
486.607036	10992.402320
486.975527	10767.327403
487.343959	10959.539038
487.712333	11013.612974
488.080648	10938.192272
488.448905	10984.296144
488.817104	10925.569223
489.185244	11188.848523
489.553326	11347.360044
489.921350	11874.384953
490.289315	12944.536214
490.657222	13285.592957
491.025070	13193.947301
491.392861	13061.450654
491.760593	12687.664220
492.128267	12339.386024
492.495883	12012.099193
492.863440	11683.224399
493.230939	11342.686895
493.598380	11276.436051
493.965763	11145.169446
494.333088	11037.339165
494.700354	10958.651795
495.067563	11022.147648
495.434713	10850.796308
495.801805	10983.900414
496.168839	10907.474001
496.535815	10837.215440
496.902733	10842.574186
497.269593	10776.283013
497.636395	10875.306398
498.003139	10860.964315
498.369825	10726.799047
498.736453	10889.240147
499.103023	10807.744854
499.469535	10844.031080
499.835989	10830.719913
500.202385	10793.528800
500.568723	10640.640687
500.935003	10868.117713
501.301226	10670.486838
501.667390	10924.671897
502.033497	11029.255675
502.399546	10883.750331
502.765537	10790.494026
503.131470	10862.469100
503.497345	11042.052644
503.863163	10648.194856
504.228923	10957.998965
504.594625	11034.289267
504.960269	10774.500965
505.325856	10995.845428
505.691385	10792.661722
506.056856	10937.630183
506.422270	10965.860645
506.787625	10855.968532
507.152924	10977.223405
507.518164	10947.546133
507.883347	10877.032993
508.248472	10788.159972
508.613540	11024.786692
508.978550	10910.465926
509.343503	10886.570856
509.708398	11005.723569
510.073236	11116.825558
510.438016	11124.427618
510.802738	11075.079763
511.167403	11125.398040
511.532010	11021.716629
511.896561	11251.016033
512.261053	11322.935654
512.625488	11193.559482
512.989866	11178.788901
513.354186	11166.793475
513.718449	11065.337733
514.082655	11257.070458
514.446803	11158.054635
514.810894	11280.801690
515.174927	11144.957717
515.538904	11167.532004
515.902822	11318.995992
516.266684	11209.232429
516.630488	11152.277473
516.994235	11207.367202
517.357925	11268.962540
517.721558	11357.223062
518.085133	11370.085566
518.448651	11385.425797
518.812112	11266.923393
519.175516	11283.949891
519.538863	11401.292829
519.902152	11320.833493
520.265385	11477.996505
520.628560	11382.048224
520.991678	11373.626976
521.354739	11431.207036
521.717743	11364.499967
522.080690	11334.865544
522.443580	11477.399128
522.806413	11427.211921
523.169189	11458.792229
523.531908	11519.389419
523.894569	11339.069867
524.257174	11344.491628
524.619722	11458.951026
524.982213	11409.338510
525.344647	11462.532766
525.707025	11410.150136
526.069345	11502.284784
526.431608	11417.646332
526.793815	11524.912003
527.155964	11324.470685
527.518057	11381.632329
527.880093	11325.824235
528.242072	11393.952909
528.603995	11300.409258
528.965860	11219.760879
529.327669	11276.665423
529.689421	11218.921527
530.051117	11191.175016
530.412755	11294.584205
530.774337	11184.611433
531.135862	11164.930769
531.497331	11182.965497
531.858743	11045.810824
532.220098	11201.713548
532.581396	11071.074567
532.942638	11064.364791
533.303824	11023.654953
533.664953	11037.896213
534.026025	10955.624582
534.387040	11045.919209
534.747999	11056.062010
535.108902	11108.134609
535.469748	10869.771211
535.830537	10965.152363
536.191270	10947.571338
536.551947	10970.019597
536.912567	10970.591768
537.273131	10893.010930
537.633638	10870.035872
537.994089	10859.096568
538.354483	10808.599330
538.714821	10956.479057
539.075103	10962.387290
539.435328	10925.453276
539.795497	10755.964642
540.155609	10910.828889
540.515665	11003.182827
540.875665	10734.937990
541.235609	10809.317694
541.595496	10799.328648
541.955328	10958.321599
542.315102	10842.274238
542.674821	10788.182657
543.034483	10792.807915
543.394090	10796.472834
543.753640	10724.124715
544.113134	10951.183325
544.472571	10800.762856
544.831953	10940.186048
545.191278	10747.377037
545.550548	10771.007446
545.909761	10910.483570
546.268918	10887.589169
546.628019	10968.439195
546.987064	10834.410037
547.346053	10760.015210
547.704986	10849.467964
548.063863	10837.752323
548.422684	10833.116982
548.781449	10753.592780
549.140158	10858.012720
549.498811	10728.775179
549.857408	10586.463406
550.215949	10812.365072
550.574434	10666.950468
550.932864	10763.269274
551.291237	10820.778758
551.649555	10774.327045
552.007817	10780.948601
552.366022	10741.715821
552.724173	10738.199616
553.082267	10725.884078
553.440305	10854.690599
553.798288	10653.223407
554.156215	10821.106433
554.514086	10791.925713
554.871902	10642.972220
555.229661	10681.834475
555.587365	10654.690382
555.945014	10555.601462
556.302606	10677.652838
556.660143	10566.543287
557.017625	10722.135980
557.375050	10625.295414
557.732421	10752.080433
558.089735	10665.508698
558.446994	10665.816209
558.804197	10710.180883
559.161345	10707.642662
559.518437	10559.725126
559.875474	10643.226798
560.232455	10674.640749
560.589381	10620.397933
560.946251	10620.874322
561.303065	10729.221321
561.659825	10667.920891
562.016528	10602.746333
562.373177	10473.735644
562.729770	10592.414488
563.086307	10503.833853
563.442789	10602.826992
563.799216	10476.185645
564.155587	10526.047698
564.511904	10475.837806
564.868164	10468.752464
565.224370	10476.934257
565.580520	10405.705273
565.936615	10412.220965
566.292654	10288.092633
566.648638	10413.982848
567.004567	10370.485252
567.360441	10353.234423
567.716260	10262.667574
568.072023	10360.874292
568.427732	10308.063164
568.783385	10217.808867
569.138982	10290.421647
569.494525	10306.563421
569.850013	10180.186735
570.205445	10263.028017
570.560823	10157.491461
570.916145	10080.407177
571.271412	10149.120625
571.626625	10095.984343
571.981782	10071.325539
572.336884	10044.587259
572.691931	10046.679338
573.046923	9992.839814
573.401860	9949.952198
573.756743	9888.238393
574.111570	9934.274210
574.466342	9914.986755
574.821059	9944.709398
575.175722	9829.604732
575.530330	9844.889511
575.884882	9835.162604
576.239380	9762.690977
576.593823	9745.309078
576.948211	9759.081511
577.302544	9637.846802
577.656823	9654.948916
578.011047	9654.631323
578.365216	9626.456315
578.719330	9547.481598
579.073389	9564.629083
579.427394	9505.836627
579.781344	9488.195109
580.135239	9436.505638
580.489080	9455.301580
580.842866	9343.803860
581.196597	9354.780972
581.550273	9392.524091
581.903895	9367.893013
582.257463	9426.922404
582.610975	9306.590062
582.964434	9333.499741
583.317837	9252.221218
583.671186	9240.866019
584.024481	9233.944514
584.377721	9152.529880
584.730906	9124.997618
585.084037	9157.281167
585.437113	9093.775232
585.790135	9111.439435
586.143103	9014.765228
586.496016	8984.828335
586.848874	9042.824290
587.201679	9033.263742
587.554428	8921.650075
587.907124	8965.916447
588.259765	8936.889483
588.612352	8938.472405
588.964884	8816.315165
589.317362	8829.621291
589.669786	8828.141712
590.022155	8873.194504
590.374470	8899.781549
590.726731	8839.600255
591.078937	8679.863733
591.431090	8801.358062
591.783188	8675.283845
592.135232	8662.933018
592.487222	8665.251949
592.839157	8716.364208
593.191038	8650.932552
593.542866	8595.931043
593.894639	8491.896751
594.246358	8547.208291
594.598022	8555.301863
594.949633	8458.105896
595.301190	8432.703522
595.652692	8463.199982
596.004141	8568.219820
596.355535	8348.004576
596.706876	8325.944487
597.058162	8263.023325
597.409395	8340.624327
597.760573	8401.420642
598.111698	8310.959657
598.462768	8297.219992
598.813785	8261.647090
599.164748	8231.332111
599.515657	8218.764515
599.866511	8126.791183
600.217312	8258.075432
600.568060	8113.595963
600.918753	8216.921973
601.269392	8189.490534
601.619978	8095.256245
601.970510	8159.780494
602.320988	8163.959611
602.671412	8215.094555
603.021783	8149.599884
603.372100	8126.592058
603.722363	8129.258828
604.072572	8106.435004
604.422728	8115.133515
604.772830	8046.750263
605.122878	8052.603043
605.472872	8049.401910
605.822813	8073.675066
606.172701	8019.296139
606.522534	8096.231709
606.872314	8088.569155
607.222041	8065.377327
607.571714	8119.594936
607.921333	8080.636899
608.270899	8087.084535
608.620411	8170.177874
608.969870	8075.429387
609.319276	8070.801608
609.668627	8090.336079
610.017926	8121.447560
610.367171	8169.784664
610.716362	8142.514542
611.065500	8131.751679
611.414585	8162.601020
611.763616	8149.748598
612.112594	8127.978375
612.461518	8148.566447
612.810389	8207.258081
613.159207	8139.825087
613.507971	8098.452337
613.856682	8209.468627
614.205340	8170.044283
614.553945	8244.683607
614.902496	8144.760376
615.250994	8199.212399
615.599439	8174.737597
615.947830	8191.154115
616.296169	8163.629415
616.644454	8175.521497
616.992686	8175.702978
617.340864	8232.985610
617.688990	8139.197463
618.037063	8232.284889
618.385082	8176.885129
618.733048	8260.333869
619.080961	8194.395577
619.428821	8215.013896
619.776628	8226.863128
620.124382	8171.140734
620.472083	8156.677664
620.819731	8183.294956
621.167326	8076.825787
621.514868	8081.884585
621.862357	7981.202660
622.209793	7989.429823
622.557176	7922.919360
622.904506	7892.400215
623.251783	7826.966038
623.599007	7782.109851
623.946179	7785.545397
624.293297	7740.558140
624.640363	7661.908578
624.987376	7638.663818
625.334336	7592.443999
625.681243	7536.459465
626.028097	7522.316508
626.374899	7503.160123
626.721647	7492.475398
627.068343	7425.365037
627.414987	7398.556181
627.761577	7348.031217
628.108115	7387.074953
628.454600	7279.887419
628.801032	7328.058165
629.147412	7286.652648
629.493739	7278.002028
629.840014	7214.357461
630.186236	7272.880216
630.532405	7152.956207
630.878521	7199.289452
631.224585	7158.584655
631.570597	7083.559683
631.916556	7114.809796
632.262462	7108.576409
632.608316	7070.578712
632.954117	7045.632562
633.299866	7036.452621
633.645562	7022.264293
633.991206	6941.562982
634.336797	6885.475104
634.682336	6843.875503
635.027823	6807.110368
635.373257	6802.986704
635.718639	6733.048256
636.063968	6746.777838
636.409245	6637.515870
636.754470	6637.714996
637.099642	6594.353511
637.444762	6535.929058
637.789829	6546.018928
638.134845	6489.623540
638.479808	6471.430015
638.824719	6476.292208
639.169577	6404.730509
639.514383	6423.760865
639.859137	6349.227405
640.203839	6358.946750
640.548489	6344.506364
640.893086	6321.949722
641.237632	6293.386544
641.582125	6310.319780
641.926566	6279.246107
642.270955	6292.174146
642.615292	6286.132323
642.959576	6301.885929
643.303809	6289.013343
643.647990	6294.425022
643.992118	6279.079749
644.336195	6228.572429
644.680219	6248.681592
645.024192	6242.690180
645.368112	6331.832904
645.711981	6349.197158
646.055797	6423.622233
646.399562	6377.853597
646.743274	6498.304407
647.086935	6547.163270
647.430544	6541.232352
647.774101	6556.358334
648.117606	6559.929992
648.461059	6547.858949
648.804460	6506.647516
649.147810	6420.617705
649.491108	6394.441514
649.834354	6363.577049
650.177548	6285.088805
650.520690	6195.850299
650.863781	6174.324572
651.206820	6191.207397
651.549807	6110.377536
651.892742	6054.040121
652.235626	6052.278238
652.578458	6040.580240
652.921238	5945.967865
653.263967	5984.565459
653.606644	5925.140338
653.949269	5921.334267
654.291843	5865.049784
654.634365	5905.804992
654.976836	5858.501325
655.319255	5857.230954
655.661622	5833.156924
656.003938	5823.482950
656.346203	5779.340086
656.688416	5811.613553
657.030577	5764.322489
657.372687	5732.772427
657.714746	5716.902875
658.056753	5759.024236
658.398708	5692.065110
658.740612	5688.982445
659.082465	5728.419391
659.424266	5718.001847
659.766016	5716.461774
660.107715	5687.492784
660.449362	5697.350760
660.790958	5686.401374
661.132503	5675.661196
661.473996	5703.987439
661.815438	5690.333474
662.156829	5690.023443
662.498168	5677.039951
662.839456	5653.522968
663.180693	5678.058264
663.521879	5675.792266
663.863013	5663.968239
664.204097	5671.512326
664.545129	5707.284354
664.886110	5704.915011
665.227040	5729.828394
665.567918	5693.947981
665.908746	5716.547474
666.249522	5714.069747
666.590248	5698.081727
666.930922	5719.920006
667.271545	5728.379062
667.612118	5727.474175
667.952639	5695.714906
668.293109	5714.309202
668.633528	5669.841183
668.973896	5674.466442
669.314213	5659.496736
669.654480	5636.635103
669.994695	5626.288135
670.334859	5620.326970
670.674973	5600.563127
671.015035	5606.925063
671.355047	5595.937868
671.695008	5580.983285
672.034918	5554.131579
672.374777	5557.320109
672.714585	5540.848139
673.054342	5536.419485
673.394049	5532.931007
673.733705	5545.556577
674.073310	5531.164082
674.412864	5503.992263
674.752368	5479.661134
675.091820	5478.844467
675.431223	5426.970994
675.770574	5418.474129
676.109875	5372.803796
676.449125	5369.176686
676.788324	5337.266182
677.127473	5283.290548
677.466571	5274.105565
677.805619	5261.553092
678.144616	5238.426799
678.483562	5218.874684
678.822458	5190.830745
679.161303	5178.394218
679.500098	5164.397455
679.838842	5147.318026
680.177535	5149.546216
680.516179	5157.158358
680.854771	5161.360160
681.193314	5226.244851
681.531805	5312.914888
681.870247	5433.509371
682.208638	5518.059603
682.546978	5524.179564
682.885268	5502.114433
683.223508	5419.041259
683.561697	5368.788517
683.899836	5337.253579
684.237925	5296.105161
684.575963	5260.265078
684.913951	5224.243513
685.251889	5260.146610
685.589776	5235.074432
685.927614	5213.495773
686.265401	5254.288790
686.603137	5241.547273
686.940824	5292.432680
687.278460	5309.870031
687.616046	5308.650072
687.953582	5365.415985
688.291068	5337.545966
688.628504	5377.965937
688.965889	5350.363100
689.303224	5302.535152
689.640510	5254.508080
689.977745	5186.102143
690.314930	5100.578968
690.652065	5051.815887
690.989150	4976.049865
691.326185	4906.494545
691.663170	4852.097974
692.000105	4787.031801
692.336990	4724.692893
692.673825	4692.684087
693.010610	4640.397239
693.347345	4590.010906
693.684030	4554.808529
694.020665	4518.451727
694.357251	4447.016057
694.693786	4451.921099
695.030272	4419.584618
695.366707	4385.831572
695.703093	4360.063715
696.039429	4370.569479
696.375716	4345.308257
696.711952	4326.267819
697.048139	4318.408660
697.384276	4296.131802
697.720363	4295.105927
698.056400	4295.236997
698.392388	4253.218979
698.728326	4239.801948
699.064214	4223.022468
699.400053	4208.203996
699.735842	4172.595806
700.071581	4154.709792
700.407270	4131.641472
700.742910	4112.621199
701.078501	4070.298192
701.414042	4061.108168
701.749533	4033.459960
702.084974	3991.653671
702.420366	4023.223897
702.755709	3974.854026
703.091002	3936.508489
703.426246	3956.342909
703.761440	3930.242335
704.096584	3904.252666
704.431679	3907.005136
704.766725	3897.416862
705.101721	3881.348184
705.436668	3895.271851
705.771565	3864.082232
706.106413	3879.261146
706.441212	3891.387642
706.775961	3889.661046
707.110661	3886.253226
707.445311	3905.911206
707.779913	3910.254160
708.114465	3922.108433
708.448967	3939.790280
708.783421	3976.323522
709.117825	3999.439733
709.452180	4005.229498
709.786485	4036.749313
710.120742	4092.265019
710.454949	4085.996345
710.789107	4125.735760
711.123216	4170.105476
711.457275	4171.370806
711.791286	4214.157599
712.125247	4211.931929
712.459159	4160.779341
712.793023	4216.453844
713.126837	4158.848579
713.460602	4147.639574
713.794318	4110.151033
714.127985	4102.884210
714.461602	4026.903939
714.795171	4018.727188
715.128691	3965.285916
715.462162	3915.653236
715.795584	3875.737379
716.128957	3860.460163
716.462281	3831.584433
716.795556	3802.486893
717.128782	3770.427676
717.461960	3718.987742
717.795088	3717.465313
718.128167	3691.304245
718.461198	3655.209584
718.794180	3650.780930
719.127113	3618.741877
719.459997	3605.473560
719.792833	3577.076740
720.125619	3571.977613
720.458357	3539.071482
720.791046	3535.837581
721.123686	3520.681352
721.456278	3491.964419
721.788821	3495.793176
722.121315	3479.951350
722.453761	3464.840491
722.786158	3461.299081
723.118506	3472.112356
723.450805	3448.461782
723.783056	3462.927373
724.115259	3457.190540
724.447412	3458.985191
724.779518	3460.200109
725.111574	3458.723051
725.443582	3475.061431
725.775542	3461.278916
726.107453	3493.166735
726.439315	3485.736074
726.771129	3501.237622
727.102895	3527.035727
727.434612	3548.264026
727.766281	3556.377763
728.097901	3561.239956
728.429473	3558.210222
728.760996	3558.583267
729.092471	3557.922876
729.423897	3542.159188
729.755276	3533.584186
730.086606	3535.686347
730.417887	3565.572827
730.749120	3600.669340
731.080305	3624.897126
731.411442	3642.016884
731.742530	3630.596150
732.073570	3629.293012
732.404562	3654.448370
732.735506	3645.056700
733.066401	3621.010396
733.397249	3580.759303
733.728048	3530.488917
734.058798	3461.339410
734.389501	3419.260899
734.720156	3385.374263
735.050762	3355.225642
735.381320	3340.646625
735.711831	3316.297852
736.042293	3296.105510
736.372707	3300.866880
736.703073	3283.842903
737.033391	3284.069755
737.363661	3288.747946
737.693883	3297.708597
738.024056	3304.196562
738.354182	3307.871563
738.684260	3338.816686
739.014290	3349.607276
739.344272	3352.659695
739.674207	3371.780791
740.004093	3377.711709
740.333931	3369.698795
740.663722	3366.036396
740.993464	3364.977754
741.323159	3350.040815
741.652806	3328.779749
741.982405	3306.230668
742.311956	3286.103861
742.641460	3278.884929
742.970915	3258.382556
743.300323	3235.072261
743.629683	3215.444528
743.958996	3202.629915
744.288260	3181.605783
744.617477	3162.522495
744.946647	3153.380362
745.275768	3136.573156
745.604842	3127.373050
745.933869	3109.537447
746.262847	3102.099225
746.591778	3109.018209
746.920662	3099.054368
747.249498	3089.350147
747.578286	3102.638628
747.907027	3113.993827
748.235720	3124.411372
748.564365	3128.436733
748.892963	3118.278808
749.221514	3111.150617
749.550017	3102.714246
749.878473	3100.574276
750.206881	3075.746593
750.535242	3076.021336
750.863555	3070.337435
751.191821	3063.768812
751.520039	3061.195303
751.848210	3051.949827
752.176334	3057.437122
752.504411	3059.551887
752.832440	3043.679814
753.160421	3038.560522
753.488356	3030.824871
753.816243	3030.998791
754.144082	3020.319107
754.471875	3012.623785
754.799620	3013.392561
755.127318	3012.918693
755.454969	3008.762262
755.782572	3009.667149
756.110129	2999.975530
756.437638	2996.948318
756.765100	2995.425889
757.092515	2999.753720
757.419882	3002.425531
757.747203	2993.769870
758.074477	2995.287257
758.401703	2999.108452
758.728882	3006.282014
759.056014	3007.948115
759.383099	3013.158148
759.710138	3016.308869
760.037129	3020.495547
760.364073	3026.928059
760.690970	3020.072090
761.017820	3012.747294
761.344623	3020.162831
761.671379	3036.768392
761.998088	3049.900598
762.324751	3114.107253
762.651366	3246.009044
762.977935	3499.150584
763.304456	3709.233109
763.630931	3729.765729
763.957359	3553.151424
764.283740	3381.117008
764.610074	3274.862088
764.936362	3173.262673
765.262602	3103.651900
765.588796	3047.543858
765.914943	3005.989627
766.241044	2965.279789
766.567097	2946.872016
766.893104	2923.823860
767.219064	2910.227868
767.544978	2895.550549
767.870845	2872.446941
768.196665	2862.568800
768.522438	2859.438243
768.848165	2851.478262
769.173846	2840.775892
769.499479	2834.708863
769.825066	2824.359374
770.150607	2816.979125
770.476101	2815.920483
770.801548	2815.426450
771.126949	2799.856846
771.452303	2791.188582
771.777611	2790.203037
772.102872	2787.553910
772.428087	2777.690893
772.753256	2772.874070
773.078378	2766.098759
773.403453	2757.150711
773.728482	2750.851790
774.053465	2752.278436
774.378401	2748.298445
774.703291	2739.153792
775.028135	2735.342680
775.352932	2731.186248
775.677683	2727.402862
776.002388	2725.567882
776.327046	2727.642317
776.651658	2720.758622
776.976224	2715.329299
777.300743	2717.794423
777.625216	2712.070193
777.949643	2711.177909
778.274024	2710.293186
778.598359	2703.686754
778.922647	2702.786908
779.246889	2701.057792
779.571086	2697.166022
779.895236	2698.385981
780.219339	2703.550643
780.543397	2703.240612
780.867409	2704.294213
781.191374	2705.640201
781.515294	2702.784388
781.839167	2702.242464
782.162995	2698.380940
782.486776	2699.893286
782.810511	2698.322967
783.134201	2692.031607
783.457844	2692.344158
783.781441	2687.030782
784.104993	2682.009793
784.428498	2684.603466
784.751958	2680.459638
785.075372	2681.175482
785.398739	2678.586849
785.722061	2680.830163
786.045337	2682.350071
786.368568	2679.433763
786.691752	2677.167764
787.014891	2689.934487
787.337983	2705.010057
787.661030	2722.994373
787.984031	2750.151069
788.306987	2764.510796
788.629897	2760.059457
788.952760	2750.448497
789.275579	2733.837895
789.598351	2716.075390
789.921078	2700.246167
790.243759	2693.344827
790.566395	2683.872499
790.888984	2676.151972
791.211529	2670.238698
791.534027	2666.283913
791.856480	2661.479694
792.178888	2658.505413
792.501249	2653.197078
792.823566	2654.396872
793.145836	2650.704227
793.468062	2647.190543
793.790241	2647.581232
794.112375	2651.084834
794.434464	2654.583395
794.756507	2657.124137
795.078505	2658.981802
795.400457	2662.475322
795.722364	2675.352949
796.044226	2684.515246
796.366042	2687.698735
796.687812	2684.253106
797.009538	2688.974147
797.331218	2682.299659
797.652852	2675.955367
797.974442	2667.246774
798.295986	2668.300375
798.617484	2663.821310
798.938938	2660.108500
799.260346	2655.803354
799.581709	2651.173055
799.903026	2651.788075
800.224299	2647.056952
800.545526	2644.102836
800.866708	2639.013792
801.187845	2637.362814
801.508936	2636.218472
801.829983	2636.573873
802.150984	2631.656228
802.471940	2631.948614
802.792851	2629.904427
803.113717	2631.663789
803.434538	2629.725466
803.755314	2626.650362
804.076045	2626.282357
804.396731	2627.151957
804.717372	2626.259672
805.037967	2624.994343
805.358518	2629.435599
805.679024	2629.914509
805.999485	2628.200517
806.319901	2629.793521
806.640272	2626.360495
806.960598	2632.326701
807.280879	2631.406690
807.601115	2634.852319
807.921306	2628.306381
808.241453	2630.443830
808.561554	2632.969448
808.881611	2628.724797
809.201623	2628.714714
809.521590	2628.235805
809.841513	2627.948459
810.161390	2624.094497
810.481223	2621.959568
810.801011	2620.505195
811.120755	2618.760956
811.440453	2618.433281
811.760107	2616.290791
812.079716	2613.356839
812.399281	2609.810387
812.718801	2610.072527
813.038276	2605.948863
813.357707	2610.909359
813.677093	2609.457507
813.996434	2609.213011
814.315731	2607.476333
814.634983	2607.146138
814.954191	2605.008688
815.273354	2608.056066
815.592473	2611.234513
815.911547	2614.206273
816.230577	2612.668722
816.549562	2617.785493
816.868502	2615.390945
817.187399	2619.718775
817.506250	2619.988477
817.825058	2620.111985
818.143821	2622.196502
818.462539	2626.746144
818.781213	2631.305867
819.099843	2642.623258
819.418429	2658.364261
819.736970	2678.251612
820.055466	2694.529498
820.373919	2717.010524
820.692327	2746.289545
821.010691	2796.638069
821.329011	2945.959567
821.647286	3300.148516
821.965517	3835.627439
822.283704	4122.368270
822.601847	4084.307558
822.919945	3787.486940
823.237999	3533.037220
823.556010	3313.719302
823.873976	3135.002836
824.191897	3010.181346
824.509775	2917.850093
824.827609	2843.858557
825.145398	2816.676656
825.463144	2808.918320
825.780845	2829.571927
826.098502	2868.920654
826.416116	2956.177986
826.733685	3056.509550
827.051210	3074.813980
827.368692	3025.733306
827.686129	2931.786363
828.003522	2841.244719
828.320872	2772.387599
828.638177	2727.659961
828.955439	2690.441122
829.272656	2666.321722
829.589830	2649.073414
829.906960	2638.476909
830.224046	2629.375105
830.541088	2619.829681
830.858086	2617.052005
831.175041	2613.109823
831.491952	2610.422887
831.808819	2614.299535
832.125642	2617.649382
832.442421	2628.707152
832.759157	2654.989208
833.075849	2699.217771
833.392497	2767.374171
833.709101	2816.522901
834.025662	2806.256591
834.342179	2761.768408
834.658653	2717.257540
834.975083	2677.717250
835.291469	2654.422078
835.607811	2633.261835
835.924110	2619.537294
836.240366	2608.237547
836.556578	2600.232195
836.872746	2595.110383
837.188871	2589.151739
837.504952	2587.951944
837.820990	2580.949782
838.136984	2576.874009
838.452935	2576.624472
838.768842	2579.956674
839.084706	2582.187385
839.400526	2604.406270
839.716303	2635.779891
840.032037	2657.819816
840.347727	2651.888898
840.663373	2632.394757
840.978977	2613.813063
841.294537	2597.509972
841.610054	2587.765422
841.925527	2580.677559
842.240957	2575.465006
842.556344	2572.616754
842.871687	2568.750189
843.186987	2563.893038
843.502244	2564.661813
843.817458	2561.100238
844.132629	2560.593602
844.447756	2558.007490
844.762840	2553.314176
845.077881	2555.373488
845.392879	2552.769732
845.707833	2556.626214
846.022745	2552.865513
846.337613	2554.418189
846.652438	2553.664536
846.967221	2556.112017
847.281960	2554.675288
847.596656	2553.745195
847.911309	2554.889537
848.225919	2553.248641
848.540485	2555.088662
848.855009	2555.910370
849.169490	2552.578168
849.483928	2552.527756
849.798323	2550.980122
850.112675	2553.372149
850.426984	2551.136398
850.741251	2553.835936
851.055474	2553.084804
851.369654	2554.135884
851.683792	2553.417520
851.997887	2552.137067
852.311938	2553.288970
852.625947	2552.134546
852.939914	2553.619166
853.253837	2554.347613
853.567718	2552.842828
853.881555	2554.912222
854.195350	2551.816953
854.509103	2550.067673
854.822812	2550.760832
855.136479	2552.905843
855.450103	2552.081614
855.763685	2551.385935
856.077224	2550.980122
856.390720	2550.773435
856.704173	2550.909546
857.017584	2552.883157
857.330953	2551.595143
857.644278	2549.727395
857.957561	2553.838456
858.270802	2554.584547
858.584000	2552.326110
858.897155	2555.013045
859.210268	2552.220246
859.523339	2552.908363
859.836367	2550.415513
860.149352	2552.628579
860.462295	2553.488096
860.775195	2547.040460
861.088054	2548.257899
861.400869	2547.801674
861.713642	2546.057435
862.026373	2549.961809
862.339062	2549.898794
862.651708	2552.472303
862.964312	2553.712427
863.276873	2550.609597
863.589392	2555.277706
863.901869	2554.178734
864.214303	2554.196378
864.526696	2554.929866
864.839045	2554.183775
865.151353	2556.227963
865.463619	2555.287788
865.775842	2555.209650
866.088023	2556.001111
866.400162	2557.798282
866.712258	2554.796275
867.024313	2556.711914
867.336325	2553.783003
867.648296	2557.364743
867.960224	2553.606563
868.272110	2556.212840
868.583954	2555.517160
868.895755	2552.976419
869.207515	2556.812737
869.519233	2553.412479
869.830909	2555.527243
870.142542	2555.113868
870.454134	2556.270813
870.765684	2556.280895
871.077191	2555.186965
871.388657	2557.079918
871.700081	2555.169321
872.011463	2557.377346
872.322803	2558.017573
872.634101	2558.861966
872.945357	2558.209137
873.256571	2560.361709
873.567744	2561.647203
873.878874	2560.064281
874.189963	2561.145609
874.501010	2562.829354
874.812015	2560.402038
875.122979	2560.507903
875.433900	2561.221226
875.744780	2561.823644
876.055618	2562.715928
876.366415	2560.379353
876.677169	2561.329611
876.987882	2560.039075
877.298554	2554.806358
877.609183	2558.287274
877.919771	2558.010011
878.230317	2562.113510
878.540822	2567.925961
878.851285	2567.573080
879.161707	2573.231775
879.472087	2582.121850
879.782425	2593.053592
880.092722	2611.141252
880.402977	2653.207160
880.713191	2725.061247
881.023363	2823.194868
881.333494	2890.040568
881.643583	2919.881678
881.953631	2900.944584
882.263637	2849.295442
882.573602	2797.709315
882.883526	2758.842018
883.193408	2722.646534
883.503248	2694.295085
883.813048	2669.971517
884.122806	2649.073414
884.432522	2632.165384
884.742197	2618.594598
885.051831	2608.799636
885.361424	2598.487956
885.670975	2590.316245
885.980485	2582.631006
886.289954	2578.192270
886.599382	2575.462486
886.908768	2576.810994
887.218113	2570.055848
887.527417	2570.731363
887.836680	2565.309602
888.145901	2566.269942
888.455082	2564.969324
888.764221	2561.818603
889.073319	2560.596123
889.382376	2559.318190
889.691392	2557.541184
890.000366	2560.870866
890.309300	2559.998746
890.618193	2561.798438
890.927044	2561.992523
891.235855	2563.751885
891.544625	2562.783984
891.853353	2562.524364
892.162041	2563.449416
892.470687	2564.543346
892.779293	2567.817576
893.087858	2570.590210
893.396381	2572.074830
893.704864	2586.815164
894.013306	2596.002667
894.321707	2618.977726
894.630068	2630.300157
894.938387	2637.783750
895.246665	2632.883748
895.554903	2620.353961
895.863100	2612.550254
896.171256	2599.682709
896.479371	2592.259610
896.787446	2584.652509
897.095480	2576.543813
897.403473	2574.444173
897.711425	2573.516600
898.019336	2571.459809
898.327207	2569.559294
898.635038	2564.382029
898.942827	2564.016546
899.250576	2563.255332
899.558284	2560.225598
899.865952	2560.152501
900.173579	2558.340207
900.481165	2557.515978
900.788711	2557.790721
901.096216	2555.325597
901.403681	2556.449774
901.711105	2554.075390
902.018489	2554.113199
902.325832	2554.488765
902.633135	2557.087480
902.940397	2558.556976
903.247619	2567.439489
903.554800	2583.505647
903.861941	2608.449276
904.169041	2643.762558
904.476101	2656.990546
904.783121	2656.443581
905.090100	2640.788278
905.397039	2623.078704
905.703938	2604.882659
906.010796	2593.338417
906.317614	2581.471541
906.624391	2573.108267
906.931129	2567.772205
907.237826	2564.563511
907.544483	2560.061761
907.851099	2555.532284
908.157675	2555.756615
908.464211	2553.102448
908.770707	2546.329658
909.077163	2547.935265
909.383578	2545.543238
909.689954	2546.203629
909.996289	2542.818494
910.302584	2548.250337
910.608839	2547.683207
910.915054	2549.412323
911.221229	2546.589277
911.527363	2548.628424
911.833458	2548.701520
912.139513	2549.180430
912.445527	2548.827549
912.751502	2548.865358
913.057436	2546.874102
913.363331	2551.791748
913.669186	2553.614125
913.975000	2557.054712
914.280775	2560.361709
914.586510	2570.872515
914.892205	2577.451221
915.197859	2590.772470
915.503475	2606.057248
915.809050	2620.197685
916.114585	2631.298306
916.420081	2634.804428
916.725536	2635.379120
917.030952	2626.002573
917.336328	2612.484719
917.641665	2605.772423
917.946961	2594.346648
918.252218	2586.432036
918.557435	2580.571695
918.862612	2575.449883
919.167750	2570.053327
919.472848	2568.157854
919.777906	2562.168963
920.082925	2563.250290
920.387904	2558.753581
920.692843	2552.822664
920.997743	2556.792572
921.302603	2553.926676
921.607423	2552.069011
921.912204	2553.810730
922.216946	2552.968857
922.521647	2550.034906
922.826310	2551.191850
923.130932	2549.525749
923.435516	2548.537683
923.740059	2546.178423
924.044564	2544.867723
924.349028	2543.201622
924.653454	2538.944367
924.957840	2543.509132
925.262186	2539.183822
925.566493	2540.461754
925.870761	2538.962011
926.174989	2544.257743
926.479178	2542.034594
926.783328	2541.046528
927.087438	2539.786240
927.391509	2541.865716
927.695541	2541.648946
927.999533	2542.387475
928.303486	2538.979655
928.607400	2540.996117
928.911275	2540.842362
929.215110	2540.199614
929.518906	2535.637370
929.822663	2539.420756
930.126381	2539.592155
930.430060	2539.917310
930.733699	2540.771785
931.037299	2542.221117
931.340861	2541.492670
931.644383	2541.419574
931.947866	2537.656352
932.251309	2541.215407
932.554714	2542.637012
932.858080	2540.673483
933.161407	2538.745242
933.464694	2539.166178
933.767943	2537.328677
934.071153	2542.125335
934.374323	2538.712474
934.677455	2541.442259
934.980548	2540.698689
935.283602	2540.345808
935.586617	2538.566281
935.889593	2538.503266
936.192530	2536.874973
936.495428	2540.928061
936.798287	2537.789943
937.101108	2539.118287
937.403890	2540.973432
937.706632	2544.010727
938.009336	2539.942516
938.312002	2546.082641
938.614628	2543.930068
938.917216	2543.398227
939.219765	2543.955274
939.522275	2543.672969
939.824747	2544.441745
940.127179	2541.379244
940.429573	2541.243133
940.731929	2539.695499
941.034246	2538.508307
941.336524	2543.952753
941.638763	2542.768082
941.940964	2545.707075
942.243126	2541.399409
942.545250	2544.131714
942.847335	2540.824718
943.149381	2541.923689
943.451389	2541.167516
943.753359	2541.361600
944.055290	2540.726415
944.357182	2540.943185
944.659036	2539.539223
944.960851	2536.504449
945.262628	2541.069213
945.564367	2539.095602
945.866067	2539.607279
946.167729	2540.590304
946.469352	2541.608617
946.770937	2540.635674
947.072484	2539.435880
947.373992	2538.420087
947.675462	2540.129038
947.976893	2539.771116
948.278286	2536.771630
948.579641	2539.345139
948.880958	2541.469985
949.182236	2540.003009
949.483476	2538.596527
949.784678	2540.076106
950.085841	2538.730118
950.386967	2538.954449
950.688054	2540.602907
950.989103	2539.922351
951.290114	2539.781199
951.591087	2536.116280
951.892021	2537.742052
952.192917	2540.746580
952.493776	2539.095602
952.794596	2539.975283
953.095378	2543.062990
953.396122	2539.451003
953.696828	2541.890922
953.997496	2538.843544
954.298126	2538.278935
954.598718	2541.096940
954.899272	2539.007382
955.199788	2537.593338
955.500266	2536.910262
955.800706	2535.856660
956.101108	2534.780374
956.401472	2533.298275
956.701798	2534.029242
957.002087	2531.571680
957.302337	2536.922864
957.602550	2536.338091
957.902724	2535.619726
958.202861	2536.774150
958.502960	2535.672658
958.803022	2534.835827
959.103045	2531.425486
959.403031	2534.994623
959.702979	2531.937163
960.002889	2534.881197
960.302762	2535.423121
960.602596	2534.566125
960.902393	2536.852288
961.202153	2533.439427
961.501875	2533.827596
961.801559	2534.152750
962.101205	2533.978831
962.400814	2535.765920
962.700385	2533.199972
962.999918	2531.997657
963.299414	2535.471012
963.598873	2534.568646
963.898293	2535.352545
964.197677	2534.661907
964.497022	2535.407998
964.796331	2535.481094
965.095601	2533.623429
965.394835	2533.298275
965.694030	2532.852133
965.993189	2532.219468
966.292309	2533.356248
966.591393	2533.923378
966.890439	2533.346166
967.189447	2533.313398
967.488419	2532.237112
967.787353	2532.395908
968.086249	2534.997144
968.385108	2536.358255
968.683930	2534.631660
968.982714	2535.092926
969.281462	2532.902544
969.580172	2532.010260
969.878844	2532.879859
970.177480	2534.392205
970.476078	2532.784077
970.774639	2535.097967
971.073162	2533.489839
971.371649	2530.903727
971.670098	2531.213758
971.968510	2530.288706
972.266885	2528.065557
972.565223	2531.307019
972.863524	2532.461443
973.161788	2533.268028
973.460014	2532.789118
973.758204	2530.223171
974.056356	2532.894983
974.354471	2533.439427
974.652550	2533.941022
974.950591	2534.956814
975.248595	2536.035621
975.546563	2531.536392
975.844493	2533.136958
976.142386	2532.625281
976.440243	2532.645445
976.738062	2533.328522
977.035845	2533.469674
977.333590	2531.506145
977.631299	2535.312216
977.928971	2530.628984
978.226606	2534.145189
978.524204	2532.111083
978.821765	2532.398429
979.119290	2533.787267
979.416777	2533.230219
979.714228	2534.087215
980.011642	2531.743079
980.309020	2534.460261
980.606360	2529.464477
980.903664	2532.907585
981.200931	2532.995806
981.498162	2531.798532
981.795356	2532.348017
982.092513	2535.307175
982.389633	2533.976310
982.686717	2534.689633
982.983764	2536.270035
983.280775	2536.350693
983.577749	2534.039324
983.874686	2533.411701
984.171587	2533.641073
984.468451	2536.196938
984.765279	2533.474715
985.062070	2532.816845
985.358824	2533.951104
985.655543	2533.028573
985.952224	2531.773326
986.248869	2533.406660
986.545478	2529.532533
986.842050	2530.371885
987.138586	2526.853160
987.435086	2528.562111
987.731549	2527.289219
988.027975	2533.376413
988.324366	2529.771988
988.620719	2533.096629
988.917037	2531.259128
989.213318	2528.337779
989.509563	2530.507996
989.805772	2532.045548
990.101944	2527.120341
990.398080	2534.087215
990.694180	2531.997657
990.990244	2532.242153
991.286271	2529.119158
991.582262	2531.276772
991.878217	2531.261649
992.174136	2529.537574
992.470019	2527.619415
992.765865	2532.791639
993.061676	2530.470188
993.357450	2529.061185
993.653188	2531.551515
993.948890	2530.495393
994.244556	2533.595703
994.540186	2532.030425
994.835780	2531.062523
995.131337	2530.205527
995.426859	2532.726104
995.722345	2528.347862
996.017795	2533.298275
996.313208	2530.255938
996.608586	2532.063192
996.903928	2531.385157
997.199234	2530.172759
997.494504	2530.059333
997.789738	2531.770805
998.084936	2530.054292
998.380099	2530.147554
998.675225	2533.492359
998.970316	2530.560928
999.265371	2529.129241
999.560390	2529.671165
999.855373	2530.124868
1000.150320	2531.097811
1000.445232	2530.593696
1000.740108	2532.411032
1001.034948	2530.583613
1001.329752	2529.300640
1001.624521	2528.746113
1001.919254	2525.905423
1002.213951	2529.598068
1002.508613	2528.665454
1002.803239	2526.777542
1003.097829	2524.458612
1003.392384	2530.928932
1003.686903	2533.046217
1003.981386	2532.784077
1004.275834	2529.431710
1004.570246	2531.075126
1004.864623	2529.517409
1005.158964	2529.512368
1005.453270	2529.164529
1005.747540	2528.960362
1006.041775	2529.509848
1006.335974	2527.561442
1006.630138	2526.956503
1006.924266	2529.953469
1007.218359	2529.356093
1007.512416	2529.993798
1007.806438	2530.480270
1008.100425	2531.763243
1008.394376	2529.509848
1008.688292	2530.487832
1008.982172	2529.177132
1009.276017	2526.338962
1009.569827	2527.944569
1009.863602	2533.401618
1010.157341	2526.870804
1010.451045	2529.789632
1010.744714	2527.619415
1011.038347	2529.232584
1011.331945	2526.268386
1011.625508	2529.066226
1011.919036	2528.879703
1012.212528	2531.690147
1012.505986	2529.376257
1012.799408	2529.892975
1013.092795	2528.841895
1013.386147	2529.787111
1013.679464	2529.988757
1013.972745	2528.983047
1014.265992	2528.862059
1014.559204	2531.372554
1014.852380	2527.821061
1015.145521	2530.293747
1015.438628	2530.260980
1015.731699	2529.096473
1016.024736	2528.751154
1016.317737	2528.864580
1016.610703	2531.115455
1016.903635	2523.636903
1017.196531	2523.082377
1017.489393	2526.885927
1017.782219	2524.128416
1018.075011	2529.782070
1018.367768	2525.033303
1018.660490	2530.208047
1018.953177	2530.208047
1019.245829	2530.208047
