Dividing Wavelength (nm)	Counts (n)	Blue Motor Position (mm): 0.000000	Red Motor Position (mm): 3.400000	
326.493990	2102.161154
326.888308	2102.161154
327.282561	2102.161154
327.676750	2059.311346
328.070874	2084.517115
328.464933	2094.599423
328.858929	2114.764038
329.252859	2152.572692
329.646726	2087.037692
330.040528	2049.229038
330.434265	2124.846346
330.827938	2150.052115
331.221547	2079.475962
331.615091	2051.749615
332.008571	2202.984231
332.401986	2155.093269
332.795338	2192.901923
333.188625	2318.930769
333.581847	2281.122115
333.975006	2286.163269
334.368100	2392.027500
334.761129	2331.533654
335.154095	2298.766154
335.546996	2384.465769
335.939833	2392.027500
336.332606	2470.165385
336.725315	2384.465769
337.117960	2439.918462
337.510540	2442.439038
337.903056	2434.877308
338.295508	2470.165385
338.687896	2442.439038
339.080220	2444.959615
339.472480	2444.959615
339.864676	2417.233269
340.256807	2505.453462
340.648875	2500.412308
341.040879	2462.603654
341.432818	2507.974038
341.824694	2513.015192
342.216506	2492.850577
342.608253	2535.700385
342.999937	2535.700385
343.391557	2447.480192
343.783113	2510.494615
344.174605	2560.906154
344.566033	2497.891731
344.957397	2518.056346
345.348697	2427.315577
345.739934	2404.630385
346.131106	2485.288846
346.522215	2518.056346
346.913260	2457.562500
347.304241	2447.480192
347.695159	2477.727115
348.086012	2502.932885
348.476802	2482.768269
348.867528	2427.315577
349.258191	2553.344423
349.648789	2452.521346
350.039324	2434.877308
350.429796	2455.041923
350.820203	2437.397885
351.210548	2444.959615
351.600828	2409.671538
351.991045	2492.850577
352.381198	2412.192115
352.771288	2442.439038
353.161314	2407.150962
353.551276	2429.836154
353.941175	2480.247692
354.331010	2475.206538
354.720782	2394.548077
355.110490	2507.974038
355.500135	2434.877308
355.889717	2434.877308
356.279235	2457.562500
356.668689	2381.945192
357.058080	2472.685962
357.447408	2427.315577
357.836672	2467.644808
358.225873	2437.397885
358.615010	2374.383462
359.004084	2500.412308
359.393095	2402.109808
359.782043	2528.138654
360.170927	2392.027500
360.559748	2432.356731
360.948505	2349.177692
361.337199	2495.371154
361.725830	2482.768269
362.114398	2455.041923
362.502903	2505.453462
362.891344	2475.206538
363.279722	2442.439038
363.668037	2490.330000
364.056289	2497.891731
364.444478	2477.727115
364.832603	2407.150962
365.220665	2530.659231
365.608665	2399.589231
365.996601	2528.138654
366.384474	2482.768269
366.772284	2452.521346
367.160031	2414.712692
367.547715	2460.083077
367.935336	2412.192115
368.322893	2485.288846
368.710388	2414.712692
369.097820	2437.397885
369.485189	2439.918462
369.872495	2480.247692
370.259738	2487.809423
370.646918	2371.862885
371.034035	2487.809423
371.421090	2409.671538
371.808081	2550.823846
372.195010	2523.097500
372.581875	2434.877308
372.968678	2513.015192
373.355418	2429.836154
373.742096	2550.823846
374.128710	2470.165385
374.515262	2558.385577
374.901751	2414.712692
375.288177	2455.041923
375.674540	2465.124231
376.060841	2384.465769
376.447079	2417.233269
376.833254	2427.315577
377.219367	2341.615962
377.605417	2523.097500
377.991404	2432.356731
378.377329	2523.097500
378.763191	2417.233269
379.148991	2515.535769
379.534727	2480.247692
379.920402	2399.589231
380.306013	2444.959615
380.691563	2523.097500
381.077049	2452.521346
381.462474	2475.206538
381.847835	2475.206538
382.233134	2412.192115
382.618371	2465.124231
383.003545	2470.165385
383.388657	2482.768269
383.773706	2351.698269
384.158693	2455.041923
384.543618	2427.315577
384.928480	2444.959615
385.313280	2455.041923
385.698017	2450.000769
386.082692	2513.015192
386.467305	2492.850577
386.851856	2427.315577
387.236344	2432.356731
387.620770	2409.671538
388.005133	2505.453462
388.389435	2419.753846
388.773674	2457.562500
389.157851	2485.288846
389.541965	2475.206538
389.926018	2477.727115
390.310008	2460.083077
390.693936	2497.891731
391.077802	2497.891731
391.461606	2452.521346
391.845348	2477.727115
392.229027	2520.576923
392.612645	2482.768269
392.996200	2381.945192
393.379694	2470.165385
393.763125	2487.809423
394.146494	2480.247692
394.529801	2439.918462
394.913047	2490.330000
395.296230	2450.000769
395.679351	2507.974038
396.062410	2475.206538
396.445408	2455.041923
396.828343	2424.795000
397.211217	2409.671538
397.594028	2417.233269
397.976778	2502.932885
398.359466	2427.315577
398.742092	2351.698269
399.124656	2535.700385
399.507158	2437.397885
399.889598	2394.548077
400.271977	2437.397885
400.654294	2439.918462
401.036549	2477.727115
401.418742	2432.356731
401.800874	2487.809423
402.182944	2543.262115
402.564952	2465.124231
402.946898	2497.891731
403.328783	2460.083077
403.710606	2518.056346
404.092367	2409.671538
404.474067	2523.097500
404.855705	2553.344423
405.237282	2515.535769
405.618797	2492.850577
406.000250	2495.371154
406.381642	2409.671538
406.762972	2419.753846
407.144240	2422.274423
407.525447	2530.659231
407.906593	2477.727115
408.287677	2480.247692
408.668700	2475.206538
409.049661	2470.165385
409.430560	2515.535769
409.811399	2492.850577
410.192176	2460.083077
410.572891	2482.768269
410.953545	2419.753846
411.334138	2427.315577
411.714669	2465.124231
412.095139	2455.041923
412.475547	2540.741538
412.855894	2525.618077
413.236180	2462.603654
413.616405	2492.850577
413.996568	2457.562500
414.376670	2429.836154
414.756711	2432.356731
415.136691	2495.371154
415.516609	2480.247692
415.896466	2497.891731
416.276262	2470.165385
416.655997	2475.206538
417.035670	2422.274423
417.415283	2439.918462
417.794834	2422.274423
418.174324	2419.753846
418.553753	2487.809423
418.933121	2450.000769
419.312428	2495.371154
419.691674	2450.000769
420.070859	2470.165385
420.449983	2442.439038
420.829045	2439.918462
421.208047	2457.562500
421.586988	2570.988462
421.965867	2495.371154
422.344686	2495.371154
422.723444	2505.453462
423.102141	2437.397885
423.480777	2495.371154
423.859352	2427.315577
424.237866	2563.426731
424.616319	2412.192115
424.994712	2563.426731
425.373044	2492.850577
425.751314	2487.809423
426.129524	2510.494615
426.507673	2535.700385
426.885762	2429.836154
427.263789	2505.453462
427.641756	2513.015192
428.019662	2439.918462
428.397508	2457.562500
428.775292	2419.753846
429.153016	2467.644808
429.530679	2490.330000
429.908282	2515.535769
430.285824	2533.179808
430.663305	2465.124231
431.040726	2482.768269
431.418086	2535.700385
431.795385	2528.138654
432.172624	2444.959615
432.549802	2553.344423
432.926920	2409.671538
433.303977	2543.262115
433.680974	2548.303269
434.057910	2502.932885
434.434786	2545.782692
434.811601	2490.330000
435.188355	2470.165385
435.565050	2502.932885
435.941683	2560.906154
436.318257	2578.550192
436.694770	2465.124231
437.071222	2535.700385
437.447614	2480.247692
437.823946	2490.330000
438.200218	2442.439038
438.576429	2533.179808
438.952580	2533.179808
439.328670	2419.753846
439.704700	2500.412308
440.080670	2475.206538
440.456580	2470.165385
440.832429	2460.083077
441.208218	2510.494615
441.583947	2560.906154
441.959616	2593.673654
442.335224	2465.124231
442.710773	2480.247692
443.086261	2490.330000
443.461689	2525.618077
443.837057	2460.083077
444.212365	2487.809423
444.587612	2500.412308
444.962800	2540.741538
445.337927	2432.356731
445.712995	2581.070769
446.088002	2523.097500
446.462949	2560.906154
446.837837	2545.782692
447.212664	2475.206538
447.587431	2515.535769
447.962139	2475.206538
448.336786	2500.412308
448.711374	2457.562500
449.085901	2467.644808
449.460369	2462.603654
449.834776	2507.974038
450.209124	2414.712692
450.583412	2482.768269
450.957640	2457.562500
451.331808	2626.441154
451.705917	2477.727115
452.079965	2457.562500
452.453954	2470.165385
452.827883	2492.850577
453.201752	2356.739423
453.575562	2492.850577
453.949311	2487.809423
454.323001	2525.618077
454.696632	2495.371154
455.070202	2452.521346
455.443713	2510.494615
455.817164	2533.179808
456.190556	2477.727115
456.563888	2513.015192
456.937160	2475.206538
457.310373	2465.124231
457.683526	2374.383462
458.056619	2407.150962
458.429653	2485.288846
458.802628	2528.138654
459.175542	2447.480192
459.548398	2518.056346
459.921194	2492.850577
460.293930	2518.056346
460.666607	2563.426731
461.039224	2472.685962
461.411782	2518.056346
461.784280	2485.288846
462.156719	2492.850577
462.529099	2465.124231
462.901419	2470.165385
463.273680	2533.179808
463.645882	2513.015192
464.018024	2500.412308
464.390106	2533.179808
464.762130	2434.877308
465.134094	2510.494615
465.505999	2475.206538
465.877845	2480.247692
466.249631	2434.877308
466.621358	2507.974038
466.993026	2535.700385
467.364634	2477.727115
467.736184	2576.029615
468.107674	2523.097500
468.479105	2497.891731
468.850477	2442.439038
469.221790	2467.644808
469.593043	2417.233269
469.964238	2470.165385
470.335373	2538.220962
470.706449	2555.865000
471.077467	2533.179808
471.448425	2487.809423
471.819324	2460.083077
472.190164	2457.562500
472.560945	2487.809423
472.931667	2470.165385
473.302330	2507.974038
473.672934	2581.070769
474.043479	2452.521346
474.413965	2442.439038
474.784393	2565.947308
475.154761	2523.097500
475.525070	2485.288846
475.895321	2455.041923
476.265513	2490.330000
476.635645	2467.644808
477.005719	2520.576923
477.375734	2482.768269
477.745691	2507.974038
478.115588	2455.041923
478.485427	2578.550192
478.855207	2444.959615
479.224928	2465.124231
479.594591	2538.220962
479.964194	2563.426731
480.333739	2543.262115
480.703226	2487.809423
481.072653	2518.056346
481.442022	2528.138654
481.811333	2510.494615
482.180584	2505.453462
482.549777	2563.426731
482.918912	2472.685962
483.287988	2467.644808
483.657005	2460.083077
484.025964	2477.727115
484.394864	2444.959615
484.763706	2465.124231
485.132489	2482.768269
485.501213	2535.700385
485.869879	2437.397885
486.238487	2472.685962
486.607036	2492.850577
486.975527	2495.371154
487.343959	2457.562500
487.712333	2407.150962
488.080648	2460.083077
488.448905	2540.741538
488.817104	2447.480192
489.185244	2482.768269
489.553326	2502.932885
489.921350	2490.330000
490.289315	2505.453462
490.657222	2513.015192
491.025070	2515.535769
491.392861	2424.795000
491.760593	2495.371154
492.128267	2482.768269
492.495883	2535.700385
492.863440	2442.439038
493.230939	2543.262115
493.598380	2477.727115
493.965763	2515.535769
494.333088	2487.809423
494.700354	2550.823846
495.067563	2465.124231
495.434713	2462.603654
495.801805	2523.097500
496.168839	2442.439038
496.535815	2520.576923
496.902733	2376.904038
497.269593	2495.371154
497.636395	2455.041923
498.003139	2560.906154
498.369825	2450.000769
498.736453	2467.644808
499.103023	2482.768269
499.469535	2518.056346
499.835989	2460.083077
500.202385	2510.494615
500.568723	2568.467885
500.935003	2439.918462
501.301226	2518.056346
501.667390	2555.865000
502.033497	2460.083077
502.399546	2462.603654
502.765537	2570.988462
503.131470	2518.056346
503.497345	2462.603654
503.863163	2525.618077
504.228923	2480.247692
504.594625	2475.206538
504.960269	2563.426731
505.325856	2520.576923
505.691385	2392.027500
506.056856	2510.494615
506.422270	2482.768269
506.787625	2495.371154
507.152924	2525.618077
507.518164	2500.412308
507.883347	2560.906154
508.248472	2505.453462
508.613540	2528.138654
508.978550	2538.220962
509.343503	2460.083077
509.708398	2505.453462
510.073236	2477.727115
510.438016	2452.521346
510.802738	2472.685962
511.167403	2550.823846
511.532010	2538.220962
511.896561	2563.426731
512.261053	2550.823846
512.625488	2460.083077
512.989866	2540.741538
513.354186	2518.056346
513.718449	2500.412308
514.082655	2525.618077
514.446803	2444.959615
514.810894	2490.330000
515.174927	2492.850577
515.538904	2475.206538
515.902822	2553.344423
516.266684	2467.644808
516.630488	2560.906154
516.994235	2510.494615
517.357925	2492.850577
517.721558	2535.700385
518.085133	2437.397885
518.448651	2485.288846
518.812112	2530.659231
519.175516	2490.330000
519.538863	2523.097500
519.902152	2487.809423
520.265385	2497.891731
520.628560	2460.083077
520.991678	2565.947308
521.354739	2460.083077
521.717743	2477.727115
522.080690	2553.344423
522.443580	2475.206538
522.806413	2548.303269
523.169189	2510.494615
523.531908	2558.385577
523.894569	2465.124231
524.257174	2502.932885
524.619722	2492.850577
524.982213	2465.124231
525.344647	2462.603654
525.707025	2543.262115
526.069345	2510.494615
526.431608	2450.000769
526.793815	2472.685962
527.155964	2530.659231
527.518057	2530.659231
527.880093	2601.235385
528.242072	2520.576923
528.603995	2596.194231
528.965860	2565.947308
529.327669	2570.988462
529.689421	2500.412308
530.051117	2500.412308
530.412755	2462.603654
530.774337	2568.467885
531.135862	2495.371154
531.497331	2545.782692
531.858743	2424.795000
532.220098	2505.453462
532.581396	2462.603654
532.942638	2457.562500
533.303824	2538.220962
533.664953	2497.891731
534.026025	2563.426731
534.387040	2455.041923
534.747999	2548.303269
535.108902	2437.397885
535.469748	2518.056346
535.830537	2424.795000
536.191270	2588.632500
536.551947	2492.850577
536.912567	2533.179808
537.273131	2477.727115
537.633638	2523.097500
537.994089	2452.521346
538.354483	2555.865000
538.714821	2540.741538
539.075103	2432.356731
539.435328	2359.260000
539.795497	2505.453462
540.155609	2548.303269
540.515665	2419.753846
540.875665	2434.877308
541.235609	2505.453462
541.595496	2402.109808
541.955328	2482.768269
542.315102	2515.535769
542.674821	2518.056346
543.034483	2472.685962
543.394090	2525.618077
543.753640	2475.206538
544.113134	2457.562500
544.472571	2533.179808
544.831953	2500.412308
545.191278	2457.562500
545.550548	2518.056346
545.909761	2598.714808
546.268918	2455.041923
546.628019	2555.865000
546.987064	2528.138654
547.346053	2553.344423
547.704986	2452.521346
548.063863	2523.097500
548.422684	2507.974038
548.781449	2518.056346
549.140158	2525.618077
549.498811	2555.865000
549.857408	2540.741538
550.215949	2497.891731
550.574434	2573.509038
550.932864	2447.480192
551.291237	2568.467885
551.649555	2485.288846
552.007817	2513.015192
552.366022	2591.153077
552.724173	2472.685962
553.082267	2507.974038
553.440305	2573.509038
553.798288	2570.988462
554.156215	2505.453462
554.514086	2535.700385
554.871902	2467.644808
555.229661	2490.330000
555.587365	2540.741538
555.945014	2553.344423
556.302606	2442.439038
556.660143	2502.932885
557.017625	2570.988462
557.375050	2475.206538
557.732421	2550.823846
558.089735	2485.288846
558.446994	2429.836154
558.804197	2439.918462
559.161345	2528.138654
559.518437	2550.823846
559.875474	2482.768269
560.232455	2540.741538
560.589381	2480.247692
560.946251	2502.932885
561.303065	2555.865000
561.659825	2434.877308
562.016528	2455.041923
562.373177	2480.247692
562.729770	2510.494615
563.086307	2462.603654
563.442789	2563.426731
563.799216	2472.685962
564.155587	2545.782692
564.511904	2545.782692
564.868164	2535.700385
565.224370	2550.823846
565.580520	2505.453462
565.936615	2472.685962
566.292654	2432.356731
566.648638	2518.056346
567.004567	2465.124231
567.360441	2386.986346
567.716260	2606.276538
568.072023	2500.412308
568.427732	2477.727115
568.783385	2397.068654
569.138982	2523.097500
569.494525	2482.768269
569.850013	2500.412308
570.205445	2523.097500
570.560823	2543.262115
570.916145	2520.576923
571.271412	2434.877308
571.626625	2535.700385
571.981782	2470.165385
572.336884	2550.823846
572.691931	2490.330000
573.046923	2472.685962
573.401860	2507.974038
573.756743	2581.070769
574.111570	2475.206538
574.466342	2505.453462
574.821059	2560.906154
575.175722	2573.509038
575.530330	2505.453462
575.884882	2523.097500
576.239380	2477.727115
576.593823	2424.795000
576.948211	2515.535769
577.302544	2442.439038
577.656823	2450.000769
578.011047	2538.220962
578.365216	2447.480192
578.719330	2467.644808
579.073389	2540.741538
579.427394	2550.823846
579.781344	2427.315577
580.135239	2452.521346
580.489080	2573.509038
580.842866	2455.041923
581.196597	2540.741538
581.550273	2507.974038
581.903895	2510.494615
582.257463	2475.206538
582.610975	2487.809423
582.964434	2480.247692
583.317837	2518.056346
583.671186	2485.288846
584.024481	2472.685962
584.377721	2538.220962
584.730906	2581.070769
585.084037	2593.673654
585.437113	2492.850577
585.790135	2535.700385
586.143103	2543.262115
586.496016	2470.165385
586.848874	2500.412308
587.201679	2520.576923
587.554428	2417.233269
587.907124	2545.782692
588.259765	2505.453462
588.612352	2495.371154
588.964884	2485.288846
589.317362	2482.768269
589.669786	2492.850577
590.022155	2482.768269
590.374470	2568.467885
590.726731	2477.727115
591.078937	2505.453462
591.431090	2586.111923
591.783188	2565.947308
592.135232	2528.138654
592.487222	2513.015192
592.839157	2457.562500
593.191038	2583.591346
593.542866	2553.344423
593.894639	2518.056346
594.246358	2424.795000
594.598022	2523.097500
594.949633	2535.700385
595.301190	2500.412308
595.652692	2432.356731
596.004141	2482.768269
596.355535	2525.618077
596.706876	2598.714808
597.058162	2550.823846
597.409395	2520.576923
597.760573	2490.330000
598.111698	2482.768269
598.462768	2502.932885
598.813785	2460.083077
599.164748	2535.700385
599.515657	2515.535769
599.866511	2505.453462
600.217312	2530.659231
600.568060	2404.630385
600.918753	2573.509038
601.269392	2437.397885
601.619978	2518.056346
601.970510	2480.247692
602.320988	2507.974038
602.671412	2576.029615
603.021783	2392.027500
603.372100	2507.974038
603.722363	2460.083077
604.072572	2593.673654
604.422728	2472.685962
604.772830	2505.453462
605.122878	2472.685962
605.472872	2470.165385
605.822813	2434.877308
606.172701	2455.041923
606.522534	2487.809423
606.872314	2439.918462
607.222041	2570.988462
607.571714	2553.344423
607.921333	2573.509038
608.270899	2477.727115
608.620411	2520.576923
608.969870	2490.330000
609.319276	2535.700385
609.668627	2475.206538
610.017926	2487.809423
610.367171	2444.959615
610.716362	2505.453462
611.065500	2507.974038
611.414585	2442.439038
611.763616	2467.644808
612.112594	2432.356731
612.461518	2492.850577
612.810389	2477.727115
613.159207	2515.535769
613.507971	2457.562500
613.856682	2470.165385
614.205340	2500.412308
614.553945	2502.932885
614.902496	2523.097500
615.250994	2513.015192
615.599439	2475.206538
615.947830	2490.330000
616.296169	2475.206538
616.644454	2434.877308
616.992686	2495.371154
617.340864	2523.097500
617.688990	2530.659231
618.037063	2497.891731
618.385082	2588.632500
618.733048	2437.397885
619.080961	2460.083077
619.428821	2485.288846
619.776628	2482.768269
620.124382	2477.727115
620.472083	2467.644808
620.819731	2490.330000
621.167326	2543.262115
621.514868	2550.823846
621.862357	2472.685962
622.209793	2593.673654
622.557176	2465.124231
622.904506	2596.194231
623.251783	2550.823846
623.599007	2515.535769
623.946179	2530.659231
624.293297	2437.397885
624.640363	2523.097500
624.987376	2419.753846
625.334336	2482.768269
625.681243	2525.618077
626.028097	2523.097500
626.374899	2500.412308
626.721647	2470.165385
627.068343	2475.206538
627.414987	2513.015192
627.761577	2500.412308
628.108115	2565.947308
628.454600	2545.782692
628.801032	2502.932885
629.147412	2570.988462
629.493739	2455.041923
629.840014	2497.891731
630.186236	2482.768269
630.532405	2550.823846
630.878521	2475.206538
631.224585	2497.891731
631.570597	2543.262115
631.916556	2439.918462
632.262462	2480.247692
632.608316	2457.562500
632.954117	2402.109808
633.299866	2490.330000
633.645562	2475.206538
633.991206	2485.288846
634.336797	2472.685962
634.682336	2520.576923
635.027823	2475.206538
635.373257	2427.315577
635.718639	2558.385577
636.063968	2591.153077
636.409245	2455.041923
636.754470	2543.262115
637.099642	2427.315577
637.444762	2462.603654
637.789829	2485.288846
638.134845	2422.274423
638.479808	2505.453462
638.824719	2533.179808
639.169577	2555.865000
639.514383	2492.850577
639.859137	2500.412308
640.203839	2432.356731
640.548489	2505.453462
640.893086	2518.056346
641.237632	2485.288846
641.582125	2500.412308
641.926566	2414.712692
642.270955	2492.850577
642.615292	2407.150962
642.959576	2573.509038
643.303809	2470.165385
643.647990	2472.685962
643.992118	2414.712692
644.336195	2502.932885
644.680219	2490.330000
645.024192	2550.823846
645.368112	2409.671538
645.711981	2432.356731
646.055797	2510.494615
646.399562	2470.165385
646.743274	2581.070769
647.086935	2591.153077
647.430544	2525.618077
647.774101	2530.659231
648.117606	2490.330000
648.461059	2460.083077
648.804460	2570.988462
649.147810	2482.768269
649.491108	2434.877308
649.834354	2550.823846
650.177548	2409.671538
650.520690	2470.165385
650.863781	2535.700385
651.206820	2392.027500
651.549807	2490.330000
651.892742	2475.206538
652.235626	2505.453462
652.578458	2523.097500
652.921238	2555.865000
653.263967	2424.795000
653.606644	2467.644808
653.949269	2497.891731
654.291843	2515.535769
654.634365	2518.056346
654.976836	2563.426731
655.319255	2457.562500
655.661622	2437.397885
656.003938	2422.274423
656.346203	2477.727115
656.688416	2404.630385
657.030577	2422.274423
657.372687	2598.714808
657.714746	2555.865000
658.056753	2402.109808
658.398708	2502.932885
658.740612	2404.630385
659.082465	2427.315577
659.424266	2507.974038
659.766016	2450.000769
660.107715	2525.618077
660.449362	2467.644808
660.790958	2558.385577
661.132503	2523.097500
661.473996	2495.371154
661.815438	2487.809423
662.156829	2467.644808
662.498168	2412.192115
662.839456	2414.712692
663.180693	2487.809423
663.521879	2528.138654
663.863013	2558.385577
664.204097	2576.029615
664.545129	2467.644808
664.886110	2497.891731
665.227040	2497.891731
665.567918	2507.974038
665.908746	2452.521346
666.249522	2578.550192
666.590248	2492.850577
666.930922	2462.603654
667.271545	2523.097500
667.612118	2555.865000
667.952639	2477.727115
668.293109	2500.412308
668.633528	2480.247692
668.973896	2424.795000
669.314213	2568.467885
669.654480	2492.850577
669.994695	2500.412308
670.334859	2505.453462
670.674973	2507.974038
671.015035	2492.850577
671.355047	2465.124231
671.695008	2606.276538
672.034918	2447.480192
672.374777	2538.220962
672.714585	2485.288846
673.054342	2457.562500
673.394049	2462.603654
673.733705	2497.891731
674.073310	2523.097500
674.412864	2528.138654
674.752368	2492.850577
675.091820	2570.988462
675.431223	2573.509038
675.770574	2465.124231
676.109875	2462.603654
676.449125	2434.877308
676.788324	2530.659231
677.127473	2515.535769
677.466571	2513.015192
677.805619	2525.618077
678.144616	2533.179808
678.483562	2505.453462
678.822458	2568.467885
679.161303	2535.700385
679.500098	2492.850577
679.838842	2555.865000
680.177535	2568.467885
680.516179	2477.727115
680.854771	2442.439038
681.193314	2424.795000
681.531805	2573.509038
681.870247	2563.426731
682.208638	2472.685962
682.546978	2515.535769
682.885268	2452.521346
683.223508	2520.576923
683.561697	2495.371154
683.899836	2510.494615
684.237925	2472.685962
684.575963	2500.412308
684.913951	2460.083077
685.251889	2492.850577
685.589776	2470.165385
685.927614	2490.330000
686.265401	2475.206538
686.603137	2490.330000
686.940824	2470.165385
687.278460	2515.535769
687.616046	2545.782692
687.953582	2442.439038
688.291068	2460.083077
688.628504	2525.618077
688.965889	2533.179808
689.303224	2518.056346
689.640510	2520.576923
689.977745	2510.494615
690.314930	2447.480192
690.652065	2535.700385
690.989150	2477.727115
691.326185	2434.877308
691.663170	2525.618077
692.000105	2462.603654
692.336990	2417.233269
692.673825	2427.315577
693.010610	2497.891731
693.347345	2538.220962
693.684030	2490.330000
694.020665	2457.562500
694.357251	2497.891731
694.693786	2437.397885
695.030272	2502.932885
695.366707	2475.206538
695.703093	2613.838269
696.039429	2548.303269
696.375716	2447.480192
696.711952	2500.412308
697.048139	2402.109808
697.384276	2485.288846
697.720363	2568.467885
698.056400	2513.015192
698.392388	2510.494615
698.728326	2525.618077
699.064214	2548.303269
699.400053	2603.755962
699.735842	2465.124231
700.071581	2545.782692
700.407270	2502.932885
700.742910	2477.727115
701.078501	2490.330000
701.414042	2598.714808
701.749533	2487.809423
702.084974	2520.576923
702.420366	2432.356731
702.755709	2495.371154
703.091002	2432.356731
703.426246	2492.850577
703.761440	2505.453462
704.096584	2485.288846
704.431679	2533.179808
704.766725	2495.371154
705.101721	2419.753846
705.436668	2558.385577
705.771565	2492.850577
706.106413	2535.700385
706.441212	2482.768269
706.775961	2515.535769
707.110661	2528.138654
707.445311	2545.782692
707.779913	2457.562500
708.114465	2465.124231
708.448967	2472.685962
708.783421	2482.768269
709.117825	2487.809423
709.452180	2568.467885
709.786485	2583.591346
710.120742	2576.029615
710.454949	2525.618077
710.789107	2477.727115
711.123216	2487.809423
711.457275	2530.659231
711.791286	2457.562500
712.125247	2477.727115
712.459159	2452.521346
712.793023	2563.426731
713.126837	2460.083077
713.460602	2543.262115
713.794318	2523.097500
714.127985	2500.412308
714.461602	2444.959615
714.795171	2510.494615
715.128691	2505.453462
715.462162	2475.206538
715.795584	2560.906154
716.128957	2482.768269
716.462281	2525.618077
716.795556	2513.015192
717.128782	2447.480192
717.461960	2424.795000
717.795088	2475.206538
718.128167	2523.097500
718.461198	2525.618077
718.794180	2533.179808
719.127113	2528.138654
719.459997	2477.727115
719.792833	2505.453462
720.125619	2462.603654
720.458357	2500.412308
720.791046	2538.220962
721.123686	2568.467885
721.456278	2427.315577
721.788821	2460.083077
722.121315	2545.782692
722.453761	2513.015192
722.786158	2507.974038
723.118506	2477.727115
723.450805	2470.165385
723.783056	2467.644808
724.115259	2485.288846
724.447412	2543.262115
724.779518	2538.220962
725.111574	2419.753846
725.443582	2513.015192
725.775542	2558.385577
726.107453	2520.576923
726.439315	2563.426731
726.771129	2505.453462
727.102895	2601.235385
727.434612	2482.768269
727.766281	2490.330000
728.097901	2465.124231
728.429473	2523.097500
728.760996	2409.671538
729.092471	2439.918462
729.423897	2465.124231
729.755276	2502.932885
730.086606	2530.659231
730.417887	2495.371154
730.749120	2565.947308
731.080305	2497.891731
731.411442	2586.111923
731.742530	2535.700385
732.073570	2477.727115
732.404562	2452.521346
732.735506	2518.056346
733.066401	2538.220962
733.397249	2497.891731
733.728048	2467.644808
734.058798	2545.782692
734.389501	2578.550192
734.720156	2447.480192
735.050762	2432.356731
735.381320	2543.262115
735.711831	2457.562500
736.042293	2457.562500
736.372707	2442.439038
736.703073	2550.823846
737.033391	2444.959615
737.363661	2497.891731
737.693883	2437.397885
738.024056	2460.083077
738.354182	2409.671538
738.684260	2507.974038
739.014290	2477.727115
739.344272	2507.974038
739.674207	2439.918462
740.004093	2495.371154
740.333931	2507.974038
740.663722	2371.862885
740.993464	2568.467885
741.323159	2424.795000
741.652806	2528.138654
741.982405	2507.974038
742.311956	2409.671538
742.641460	2513.015192
742.970915	2538.220962
743.300323	2513.015192
743.629683	2568.467885
743.958996	2530.659231
744.288260	2515.535769
744.617477	2462.603654
744.946647	2520.576923
745.275768	2432.356731
745.604842	2500.412308
745.933869	2487.809423
746.262847	2480.247692
746.591778	2510.494615
746.920662	2591.153077
747.249498	2555.865000
747.578286	2528.138654
747.907027	2444.959615
748.235720	2475.206538
748.564365	2465.124231
748.892963	2533.179808
749.221514	2518.056346
749.550017	2472.685962
749.878473	2492.850577
750.206881	2538.220962
750.535242	2475.206538
750.863555	2533.179808
751.191821	2510.494615
751.520039	2480.247692
751.848210	2553.344423
752.176334	2497.891731
752.504411	2510.494615
752.832440	2455.041923
753.160421	2500.412308
753.488356	2465.124231
753.816243	2538.220962
754.144082	2460.083077
754.471875	2513.015192
754.799620	2490.330000
755.127318	2533.179808
755.454969	2457.562500
755.782572	2444.959615
756.110129	2560.906154
756.437638	2434.877308
756.765100	2550.823846
757.092515	2447.480192
757.419882	2528.138654
757.747203	2470.165385
758.074477	2558.385577
758.401703	2540.741538
758.728882	2533.179808
759.056014	2507.974038
759.383099	2560.906154
759.710138	2497.891731
760.037129	2560.906154
760.364073	2480.247692
760.690970	2482.768269
761.017820	2434.877308
761.344623	2518.056346
761.671379	2439.918462
761.998088	2530.659231
762.324751	2465.124231
762.651366	2543.262115
762.977935	2482.768269
763.304456	2586.111923
763.630931	2535.700385
763.957359	2452.521346
764.283740	2530.659231
764.610074	2455.041923
764.936362	2568.467885
765.262602	2507.974038
765.588796	2490.330000
765.914943	2475.206538
766.241044	2548.303269
766.567097	2457.562500
766.893104	2492.850577
767.219064	2439.918462
767.544978	2538.220962
767.870845	2492.850577
768.196665	2442.439038
768.522438	2450.000769
768.848165	2535.700385
769.173846	2492.850577
769.499479	2515.535769
769.825066	2606.276538
770.150607	2525.618077
770.476101	2477.727115
770.801548	2460.083077
771.126949	2487.809423
771.452303	2482.768269
771.777611	2457.562500
772.102872	2492.850577
772.428087	2419.753846
772.753256	2432.356731
773.078378	2565.947308
773.403453	2497.891731
773.728482	2480.247692
774.053465	2550.823846
774.378401	2450.000769
774.703291	2417.233269
775.028135	2497.891731
775.352932	2505.453462
775.677683	2591.153077
776.002388	2550.823846
776.327046	2457.562500
776.651658	2472.685962
776.976224	2507.974038
777.300743	2540.741538
777.625216	2465.124231
777.949643	2492.850577
778.274024	2505.453462
778.598359	2442.439038
778.922647	2500.412308
779.246889	2482.768269
779.571086	2485.288846
779.895236	2502.932885
780.219339	2510.494615
780.543397	2540.741538
780.867409	2485.288846
781.191374	2523.097500
781.515294	2520.576923
781.839167	2540.741538
782.162995	2480.247692
782.486776	2523.097500
782.810511	2450.000769
783.134201	2510.494615
783.457844	2525.618077
783.781441	2545.782692
784.104993	2530.659231
784.428498	2550.823846
784.751958	2560.906154
785.075372	2492.850577
785.398739	2422.274423
785.722061	2490.330000
786.045337	2596.194231
786.368568	2530.659231
786.691752	2520.576923
787.014891	2475.206538
787.337983	2505.453462
787.661030	2563.426731
787.984031	2490.330000
788.306987	2535.700385
788.629897	2477.727115
788.952760	2613.838269
789.275579	2444.959615
789.598351	2535.700385
789.921078	2497.891731
790.243759	2548.303269
790.566395	2450.000769
790.888984	2462.603654
791.211529	2457.562500
791.534027	2563.426731
791.856480	2502.932885
792.178888	2555.865000
792.501249	2535.700385
792.823566	2497.891731
793.145836	2429.836154
793.468062	2444.959615
793.790241	2507.974038
794.112375	2507.974038
794.434464	2482.768269
794.756507	2434.877308
795.078505	2533.179808
795.400457	2497.891731
795.722364	2603.755962
796.044226	2475.206538
796.366042	2518.056346
796.687812	2434.877308
797.009538	2573.509038
797.331218	2475.206538
797.652852	2563.426731
797.974442	2513.015192
798.295986	2487.809423
798.617484	2455.041923
798.938938	2588.632500
799.260346	2424.795000
799.581709	2500.412308
799.903026	2513.015192
800.224299	2513.015192
800.545526	2558.385577
800.866708	2497.891731
801.187845	2560.906154
801.508936	2510.494615
801.829983	2555.865000
802.150984	2533.179808
802.471940	2492.850577
802.792851	2550.823846
803.113717	2611.317692
803.434538	2538.220962
803.755314	2500.412308
804.076045	2520.576923
804.396731	2434.877308
804.717372	2510.494615
805.037967	2457.562500
805.358518	2525.618077
805.679024	2490.330000
805.999485	2523.097500
806.319901	2565.947308
806.640272	2553.344423
806.960598	2482.768269
807.280879	2520.576923
807.601115	2520.576923
807.921306	2502.932885
808.241453	2495.371154
808.561554	2460.083077
808.881611	2455.041923
809.201623	2455.041923
809.521590	2495.371154
809.841513	2432.356731
810.161390	2465.124231
810.481223	2472.685962
810.801011	2497.891731
811.120755	2447.480192
811.440453	2434.877308
811.760107	2507.974038
812.079716	2480.247692
812.399281	2457.562500
812.718801	2417.233269
813.038276	2412.192115
813.357707	2538.220962
813.677093	2444.959615
813.996434	2447.480192
814.315731	2492.850577
814.634983	2505.453462
814.954191	2376.904038
815.273354	2513.015192
815.592473	2437.397885
815.911547	2439.918462
816.230577	2457.562500
816.549562	2533.179808
816.868502	2520.576923
817.187399	2427.315577
817.506250	2490.330000
817.825058	2492.850577
818.143821	2495.371154
818.462539	2540.741538
818.781213	2477.727115
819.099843	2520.576923
819.418429	2374.383462
819.736970	2568.467885
820.055466	2495.371154
820.373919	2417.233269
820.692327	2515.535769
821.010691	2523.097500
821.329011	2533.179808
821.647286	2528.138654
821.965517	2518.056346
822.283704	2558.385577
822.601847	2576.029615
822.919945	2560.906154
823.237999	2603.755962
823.556010	2442.439038
823.873976	2518.056346
824.191897	2467.644808
824.509775	2555.865000
824.827609	2444.959615
825.145398	2576.029615
825.463144	2477.727115
825.780845	2563.426731
826.098502	2452.521346
826.416116	2553.344423
826.733685	2507.974038
827.051210	2583.591346
827.368692	2565.947308
827.686129	2535.700385
828.003522	2490.330000
828.320872	2533.179808
828.638177	2475.206538
828.955439	2452.521346
829.272656	2492.850577
829.589830	2444.959615
829.906960	2439.918462
830.224046	2502.932885
830.541088	2409.671538
830.858086	2540.741538
831.175041	2472.685962
831.491952	2520.576923
831.808819	2515.535769
832.125642	2475.206538
832.442421	2525.618077
832.759157	2460.083077
833.075849	2450.000769
833.392497	2482.768269
833.709101	2432.356731
834.025662	2518.056346
834.342179	2460.083077
834.658653	2515.535769
834.975083	2424.795000
835.291469	2490.330000
835.607811	2447.480192
835.924110	2505.453462
836.240366	2467.644808
836.556578	2477.727115
836.872746	2495.371154
837.188871	2528.138654
837.504952	2533.179808
837.820990	2457.562500
838.136984	2457.562500
838.452935	2518.056346
838.768842	2492.850577
839.084706	2470.165385
839.400526	2472.685962
839.716303	2543.262115
840.032037	2523.097500
840.347727	2550.823846
840.663373	2414.712692
840.978977	2500.412308
841.294537	2576.029615
841.610054	2520.576923
841.925527	2495.371154
842.240957	2447.480192
842.556344	2555.865000
842.871687	2497.891731
843.186987	2490.330000
843.502244	2528.138654
843.817458	2487.809423
844.132629	2417.233269
844.447756	2513.015192
844.762840	2374.383462
845.077881	2568.467885
845.392879	2472.685962
845.707833	2361.780577
846.022745	2500.412308
846.337613	2462.603654
846.652438	2507.974038
846.967221	2515.535769
847.281960	2586.111923
847.596656	2470.165385
847.911309	2596.194231
848.225919	2442.439038
848.540485	2462.603654
848.855009	2533.179808
849.169490	2475.206538
849.483928	2603.755962
849.798323	2424.795000
850.112675	2540.741538
850.426984	2535.700385
850.741251	2467.644808
851.055474	2510.494615
851.369654	2472.685962
851.683792	2465.124231
851.997887	2467.644808
852.311938	2507.974038
852.625947	2409.671538
852.939914	2540.741538
853.253837	2447.480192
853.567718	2513.015192
853.881555	2462.603654
854.195350	2530.659231
854.509103	2530.659231
854.822812	2447.480192
855.136479	2439.918462
855.450103	2475.206538
855.763685	2560.906154
856.077224	2439.918462
856.390720	2507.974038
856.704173	2510.494615
857.017584	2492.850577
857.330953	2450.000769
857.644278	2455.041923
857.957561	2497.891731
858.270802	2470.165385
858.584000	2576.029615
858.897155	2439.918462
859.210268	2613.838269
859.523339	2482.768269
859.836367	2570.988462
860.149352	2437.397885
860.462295	2475.206538
860.775195	2495.371154
861.088054	2520.576923
861.400869	2475.206538
861.713642	2523.097500
862.026373	2447.480192
862.339062	2513.015192
862.651708	2460.083077
862.964312	2477.727115
863.276873	2414.712692
863.589392	2538.220962
863.901869	2444.959615
864.214303	2399.589231
864.526696	2432.356731
864.839045	2472.685962
865.151353	2376.904038
865.463619	2457.562500
865.775842	2470.165385
866.088023	2485.288846
866.400162	2510.494615
866.712258	2528.138654
867.024313	2523.097500
867.336325	2540.741538
867.648296	2513.015192
867.960224	2520.576923
868.272110	2477.727115
868.583954	2409.671538
868.895755	2490.330000
869.207515	2490.330000
869.519233	2485.288846
869.830909	2487.809423
870.142542	2470.165385
870.454134	2510.494615
870.765684	2495.371154
871.077191	2482.768269
871.388657	2533.179808
871.700081	2419.753846
872.011463	2500.412308
872.322803	2482.768269
872.634101	2424.795000
872.945357	2505.453462
873.256571	2480.247692
873.567744	2540.741538
873.878874	2500.412308
874.189963	2397.068654
874.501010	2502.932885
874.812015	2444.959615
875.122979	2460.083077
875.433900	2444.959615
875.744780	2518.056346
876.055618	2480.247692
876.366415	2482.768269
876.677169	2490.330000
876.987882	2477.727115
877.298554	2553.344423
877.609183	2404.630385
877.919771	2465.124231
878.230317	2434.877308
878.540822	2492.850577
878.851285	2505.453462
879.161707	2548.303269
879.472087	2492.850577
879.782425	2523.097500
880.092722	2515.535769
880.402977	2513.015192
880.713191	2573.509038
881.023363	2439.918462
881.333494	2444.959615
881.643583	2502.932885
881.953631	2460.083077
882.263637	2480.247692
882.573602	2586.111923
882.883526	2477.727115
883.193408	2490.330000
883.503248	2450.000769
883.813048	2500.412308
884.122806	2507.974038
884.432522	2472.685962
884.742197	2475.206538
885.051831	2389.506923
885.361424	2530.659231
885.670975	2386.986346
885.980485	2495.371154
886.289954	2487.809423
886.599382	2429.836154
886.908768	2535.700385
887.218113	2477.727115
887.527417	2437.397885
887.836680	2442.439038
888.145901	2490.330000
888.455082	2487.809423
888.764221	2497.891731
889.073319	2523.097500
889.382376	2460.083077
889.691392	2470.165385
890.000366	2457.562500
890.309300	2452.521346
890.618193	2450.000769
890.927044	2470.165385
891.235855	2495.371154
891.544625	2513.015192
891.853353	2550.823846
892.162041	2596.194231
892.470687	2444.959615
892.779293	2472.685962
893.087858	2490.330000
893.396381	2540.741538
893.704864	2417.233269
894.013306	2487.809423
894.321707	2419.753846
894.630068	2510.494615
894.938387	2429.836154
895.246665	2457.562500
895.554903	2513.015192
895.863100	2525.618077
896.171256	2581.070769
896.479371	2540.741538
896.787446	2513.015192
897.095480	2455.041923
897.403473	2588.632500
897.711425	2520.576923
898.019336	2500.412308
898.327207	2545.782692
898.635038	2507.974038
898.942827	2487.809423
899.250576	2570.988462
899.558284	2485.288846
899.865952	2593.673654
900.173579	2432.356731
900.481165	2472.685962
900.788711	2560.906154
901.096216	2467.644808
901.403681	2429.836154
901.711105	2450.000769
902.018489	2480.247692
902.325832	2434.877308
902.633135	2492.850577
902.940397	2550.823846
903.247619	2495.371154
903.554800	2550.823846
903.861941	2422.274423
904.169041	2530.659231
904.476101	2424.795000
904.783121	2583.591346
905.090100	2505.453462
905.397039	2540.741538
905.703938	2480.247692
906.010796	2543.262115
906.317614	2495.371154
906.624391	2583.591346
906.931129	2475.206538
907.237826	2490.330000
907.544483	2475.206538
907.851099	2442.439038
908.157675	2576.029615
908.464211	2518.056346
908.770707	2530.659231
909.077163	2502.932885
909.383578	2565.947308
909.689954	2457.562500
909.996289	2477.727115
910.302584	2505.453462
910.608839	2515.535769
910.915054	2371.862885
911.221229	2462.603654
911.527363	2558.385577
911.833458	2502.932885
912.139513	2533.179808
912.445527	2485.288846
912.751502	2480.247692
913.057436	2402.109808
913.363331	2465.124231
913.669186	2500.412308
913.975000	2482.768269
914.280775	2409.671538
914.586510	2470.165385
914.892205	2442.439038
915.197859	2394.548077
915.503475	2555.865000
915.809050	2510.494615
916.114585	2565.947308
916.420081	2550.823846
916.725536	2553.344423
917.030952	2427.315577
917.336328	2596.194231
917.641665	2533.179808
917.946961	2490.330000
918.252218	2505.453462
918.557435	2437.397885
918.862612	2437.397885
919.167750	2495.371154
919.472848	2535.700385
919.777906	2447.480192
920.082925	2477.727115
920.387904	2518.056346
920.692843	2497.891731
920.997743	2553.344423
921.302603	2528.138654
921.607423	2477.727115
921.912204	2482.768269
922.216946	2432.356731
922.521647	2525.618077
922.826310	2507.974038
923.130932	2482.768269
923.435516	2434.877308
923.740059	2505.453462
924.044564	2432.356731
924.349028	2467.644808
924.653454	2550.823846
924.957840	2346.657115
925.262186	2482.768269
925.566493	2530.659231
925.870761	2487.809423
926.174989	2525.618077
926.479178	2497.891731
926.783328	2535.700385
927.087438	2555.865000
927.391509	2487.809423
927.695541	2452.521346
927.999533	2518.056346
928.303486	2528.138654
928.607400	2457.562500
928.911275	2523.097500
929.215110	2485.288846
929.518906	2543.262115
929.822663	2487.809423
930.126381	2447.480192
930.430060	2404.630385
930.733699	2497.891731
931.037299	2515.535769
931.340861	2553.344423
931.644383	2482.768269
931.947866	2412.192115
932.251309	2558.385577
932.554714	2487.809423
932.858080	2439.918462
933.161407	2520.576923
933.464694	2465.124231
933.767943	2487.809423
934.071153	2507.974038
934.374323	2470.165385
934.677455	2465.124231
934.980548	2518.056346
935.283602	2523.097500
935.586617	2462.603654
935.889593	2535.700385
936.192530	2462.603654
936.495428	2482.768269
936.798287	2465.124231
937.101108	2601.235385
937.403890	2507.974038
937.706632	2495.371154
938.009336	2500.412308
938.312002	2533.179808
938.614628	2419.753846
938.917216	2452.521346
939.219765	2513.015192
939.522275	2576.029615
939.824747	2439.918462
940.127179	2444.959615
940.429573	2550.823846
940.731929	2520.576923
941.034246	2442.439038
941.336524	2475.206538
941.638763	2457.562500
941.940964	2576.029615
942.243126	2490.330000
942.545250	2535.700385
942.847335	2417.233269
943.149381	2538.220962
943.451389	2407.150962
943.753359	2505.453462
944.055290	2482.768269
944.357182	2457.562500
944.659036	2507.974038
944.960851	2442.439038
945.262628	2492.850577
945.564367	2424.795000
945.866067	2507.974038
946.167729	2442.439038
946.469352	2455.041923
946.770937	2480.247692
947.072484	2543.262115
947.373992	2477.727115
947.675462	2560.906154
947.976893	2482.768269
948.278286	2490.330000
948.579641	2490.330000
948.880958	2513.015192
949.182236	2525.618077
949.483476	2495.371154
949.784678	2450.000769
950.085841	2475.206538
950.386967	2465.124231
950.688054	2502.932885
950.989103	2477.727115
951.290114	2525.618077
951.591087	2487.809423
951.892021	2502.932885
952.192917	2565.947308
952.493776	2402.109808
952.794596	2518.056346
953.095378	2487.809423
953.396122	2490.330000
953.696828	2487.809423
953.997496	2515.535769
954.298126	2568.467885
954.598718	2497.891731
954.899272	2470.165385
955.199788	2477.727115
955.500266	2518.056346
955.800706	2442.439038
956.101108	2553.344423
956.401472	2444.959615
956.701798	2437.397885
957.002087	2497.891731
957.302337	2586.111923
957.602550	2485.288846
957.902724	2507.974038
958.202861	2513.015192
958.502960	2492.850577
958.803022	2437.397885
959.103045	2502.932885
959.403031	2523.097500
959.702979	2495.371154
960.002889	2495.371154
960.302762	2497.891731
960.602596	2485.288846
960.902393	2480.247692
961.202153	2427.315577
961.501875	2523.097500
961.801559	2467.644808
962.101205	2558.385577
962.400814	2535.700385
962.700385	2371.862885
962.999918	2434.877308
963.299414	2573.509038
963.598873	2472.685962
963.898293	2507.974038
964.197677	2515.535769
964.497022	2487.809423
964.796331	2500.412308
965.095601	2480.247692
965.394835	2528.138654
965.694030	2477.727115
965.993189	2487.809423
966.292309	2515.535769
966.591393	2470.165385
966.890439	2381.945192
967.189447	2487.809423
967.488419	2462.603654
967.787353	2518.056346
968.086249	2450.000769
968.385108	2470.165385
968.683930	2528.138654
968.982714	2470.165385
969.281462	2492.850577
969.580172	2434.877308
969.878844	2480.247692
970.177480	2558.385577
970.476078	2485.288846
970.774639	2530.659231
971.073162	2502.932885
971.371649	2470.165385
971.670098	2533.179808
971.968510	2487.809423
972.266885	2550.823846
972.565223	2520.576923
972.863524	2565.947308
973.161788	2510.494615
973.460014	2442.439038
973.758204	2485.288846
974.056356	2455.041923
974.354471	2513.015192
974.652550	2460.083077
974.950591	2505.453462
975.248595	2507.974038
975.546563	2528.138654
975.844493	2455.041923
976.142386	2414.712692
976.440243	2528.138654
976.738062	2422.274423
977.035845	2417.233269
977.333590	2497.891731
977.631299	2523.097500
977.928971	2402.109808
978.226606	2545.782692
978.524204	2402.109808
978.821765	2407.150962
979.119290	2515.535769
979.416777	2444.959615
979.714228	2507.974038
980.011642	2414.712692
980.309020	2437.397885
980.606360	2543.262115
980.903664	2518.056346
981.200931	2533.179808
981.498162	2477.727115
981.795356	2513.015192
982.092513	2520.576923
982.389633	2518.056346
982.686717	2414.712692
982.983764	2507.974038
983.280775	2490.330000
983.577749	2525.618077
983.874686	2528.138654
984.171587	2518.056346
984.468451	2482.768269
984.765279	2515.535769
985.062070	2477.727115
985.358824	2472.685962
985.655543	2457.562500
985.952224	2540.741538
986.248869	2507.974038
986.545478	2437.397885
986.842050	2515.535769
987.138586	2442.439038
987.435086	2555.865000
987.731549	2502.932885
988.027975	2462.603654
988.324366	2502.932885
988.620719	2475.206538
988.917037	2558.385577
989.213318	2550.823846
989.509563	2480.247692
989.805772	2510.494615
990.101944	2528.138654
990.398080	2437.397885
990.694180	2470.165385
990.990244	2520.576923
991.286271	2495.371154
991.582262	2427.315577
991.878217	2518.056346
992.174136	2505.453462
992.470019	2540.741538
992.765865	2482.768269
993.061676	2507.974038
993.357450	2553.344423
993.653188	2513.015192
993.948890	2444.959615
994.244556	2540.741538
994.540186	2548.303269
994.835780	2560.906154
995.131337	2480.247692
995.426859	2513.015192
995.722345	2505.453462
996.017795	2452.521346
996.313208	2439.918462
996.608586	2510.494615
996.903928	2490.330000
997.199234	2477.727115
997.494504	2450.000769
997.789738	2535.700385
998.084936	2560.906154
998.380099	2510.494615
998.675225	2497.891731
998.970316	2500.412308
999.265371	2523.097500
999.560390	2424.795000
999.855373	2444.959615
1000.150320	2397.068654
1000.445232	2555.865000
1000.740108	2465.124231
1001.034948	2442.439038
1001.329752	2472.685962
1001.624521	2487.809423
1001.919254	2432.356731
1002.213951	2523.097500
1002.508613	2555.865000
1002.803239	2495.371154
1003.097829	2422.274423
1003.392384	2515.535769
1003.686903	2460.083077
1003.981386	2528.138654
1004.275834	2553.344423
1004.570246	2450.000769
1004.864623	2518.056346
1005.158964	2525.618077
1005.453270	2518.056346
1005.747540	2404.630385
1006.041775	2545.782692
1006.335974	2482.768269
1006.630138	2472.685962
1006.924266	2447.480192
1007.218359	2518.056346
1007.512416	2563.426731
1007.806438	2500.412308
1008.100425	2505.453462
1008.394376	2437.397885
1008.688292	2497.891731
1008.982172	2475.206538
1009.276017	2510.494615
1009.569827	2538.220962
1009.863602	2397.068654
1010.157341	2573.509038
1010.451045	2452.521346
1010.744714	2520.576923
1011.038347	2427.315577
1011.331945	2447.480192
1011.625508	2470.165385
1011.919036	2530.659231
1012.212528	2495.371154
1012.505986	2487.809423
1012.799408	2462.603654
1013.092795	2540.741538
1013.386147	2465.124231
1013.679464	2513.015192
1013.972745	2497.891731
1014.265992	2399.589231
1014.559204	2535.700385
1014.852380	2502.932885
1015.145521	2419.753846
1015.438628	2437.397885
1015.731699	2490.330000
1016.024736	2487.809423
1016.317737	2515.535769
1016.610703	2424.795000
1016.903635	2502.932885
1017.196531	2419.753846
1017.489393	2452.521346
1017.782219	2432.356731
1018.075011	2487.809423
1018.367768	2510.494615
1018.660490	2495.371154
1018.953177	2495.371154
1019.245829	2495.371154
