Dividing Wavelength (nm)	Counts (n)	Blue Motor Position (mm): 0.000000	Red Motor Position (mm): 28.500000	
326.493990	2141.870323
326.888308	2141.870323
327.282561	2141.870323
327.676750	2117.277054
328.070874	2119.948865
328.464933	2125.073198
328.858929	2135.258849
329.252859	2146.659419
329.646726	2157.959165
330.040528	2173.238903
330.434265	2193.635411
330.827938	2213.999152
331.221547	2230.617316
331.615091	2251.381828
332.008571	2269.272883
332.401986	2292.000925
332.795338	2312.576395
333.188625	2332.231854
333.581847	2349.989318
333.975006	2369.385158
334.368100	2389.572458
334.761129	2407.791188
335.154095	2425.480597
335.546996	2441.892073
335.939833	2454.595781
336.332606	2468.615230
336.725315	2481.923876
337.117960	2488.343785
337.510540	2498.234529
337.903056	2505.062772
338.295508	2515.003928
338.687896	2520.798734
339.080220	2528.050434
339.472480	2532.516896
339.864676	2535.796167
340.256807	2539.768596
340.648875	2542.901673
341.040879	2547.005172
341.432818	2543.962836
341.824694	2545.218083
342.216506	2544.819832
342.608253	2544.940820
342.999937	2546.526262
343.391557	2545.283618
343.783113	2544.988711
344.174605	2542.755479
344.566033	2539.277083
344.957397	2539.393030
345.348697	2535.846578
345.739934	2534.150230
346.131106	2531.559077
346.522215	2533.446989
346.913260	2529.572862
347.304241	2528.022707
347.695159	2525.350896
348.086012	2525.739065
348.476802	2522.905936
348.867528	2521.265041
349.258191	2519.906450
349.648789	2519.898888
350.039324	2519.387211
350.429796	2518.411747
350.820203	2516.601973
351.210548	2518.777231
351.600828	2515.301356
351.991045	2512.874040
352.381198	2515.729854
352.771288	2514.764473
353.161314	2517.630369
353.551276	2515.994514
353.941175	2515.155162
354.331010	2516.181037
354.720782	2515.203053
355.110490	2515.636592
355.500135	2513.075686
355.889717	2517.433764
356.279235	2514.673732
356.668689	2518.769669
357.058080	2516.801099
357.447408	2512.271622
357.836672	2515.923938
358.225873	2514.761952
358.615010	2513.083248
359.004084	2518.109278
359.393095	2518.736902
359.782043	2522.568179
360.170927	2518.474762
360.559748	2520.599608
360.948505	2520.312263
361.337199	2521.708662
361.725830	2522.721934
362.114398	2522.888292
362.502903	2525.247552
362.891344	2523.992305
363.279722	2526.212933
363.668037	2526.104548
364.056289	2525.975999
364.444478	2528.569673
364.832603	2524.458612
365.220665	2527.208561
365.608665	2526.074301
365.996601	2527.193438
366.384474	2528.181504
366.772284	2527.122861
367.160031	2527.014477
367.547715	2528.509179
367.935336	2529.310722
368.322893	2527.450536
368.710388	2528.282327
369.097820	2531.851464
369.485189	2530.308871
369.872495	2533.197452
370.259738	2533.058820
370.646918	2526.268386
371.034035	2531.964890
371.421090	2533.255425
371.808081	2531.916999
372.195010	2531.395239
372.581875	2534.775333
372.968678	2534.251053
373.355418	2534.603934
373.742096	2536.222144
374.128710	2536.290200
374.515262	2538.883873
374.901751	2538.145344
375.288177	2542.435366
375.674540	2540.502084
376.060841	2544.310675
376.447079	2547.713454
376.833254	2546.460728
377.219367	2545.964174
377.605417	2548.298228
377.991404	2552.875596
378.377329	2551.837118
378.763191	2554.203940
379.148991	2559.517316
379.534727	2566.559808
379.920402	2569.390416
380.306013	2572.130283
380.691563	2577.592373
381.077049	2580.584298
381.462474	2585.174268
381.847835	2592.294898
382.233134	2594.702049
382.618371	2604.071034
383.003545	2605.490118
383.388657	2613.276181
383.773706	2619.549897
384.158693	2627.398973
384.543618	2633.014818
384.928480	2637.909779
385.313280	2645.274905
385.698017	2654.545587
386.082692	2662.676968
386.467305	2668.043276
386.851856	2676.903104
387.236344	2687.804599
387.620770	2692.860876
388.005133	2703.396888
388.389435	2715.616645
388.773674	2720.362891
389.157851	2725.749364
389.541965	2738.357290
389.926018	2743.045563
390.310008	2755.421596
390.693936	2764.021804
391.077802	2774.381375
391.461606	2784.352777
391.845348	2793.215126
392.229027	2799.990437
392.612645	2814.027530
392.996200	2823.588078
393.379694	2835.638956
393.763125	2855.254086
394.146494	2862.205837
394.529801	2875.408619
394.913047	2887.585526
395.296230	2890.511916
395.679351	2897.229253
396.062410	2916.670463
396.445408	2910.028743
396.828343	2920.879827
397.211217	2934.548915
397.594028	2928.139088
397.976778	2939.350614
398.359466	2953.382666
398.742092	2951.852676
399.124656	2967.545788
399.507158	2981.928200
399.889598	2985.270485
400.271977	2999.819255
400.654294	3008.066582
401.036549	3016.427336
401.418742	3023.144673
401.800874	3047.858930
402.182944	3055.624828
402.564952	3081.342274
402.946898	3071.217117
403.328783	3081.982501
403.710606	3099.613936
404.092367	3122.024386
404.474067	3146.867192
404.855705	3137.465440
405.237282	3140.369144
405.618797	3169.446520
406.000250	3188.456711
406.381642	3223.404510
406.762972	3224.816033
407.144240	3217.481154
407.525447	3240.060482
407.906593	3237.628126
408.287677	3257.704521
408.668700	3280.601442
409.049661	3277.581790
409.430560	3292.924542
409.811399	3297.156591
410.192176	3318.694921
410.572891	3326.115499
410.953545	3363.893906
411.334138	3331.035665
411.714669	3383.695558
412.095139	3328.948628
412.475547	3380.292779
412.855894	3371.301882
413.236180	3401.828589
413.616405	3383.682955
413.996568	3404.593662
414.376670	3406.826893
414.756711	3405.528796
415.136691	3430.553083
415.516609	3451.836835
415.896466	3460.616004
416.276262	3488.677587
416.655997	3512.076103
417.035670	3520.756970
417.415283	3588.794902
417.794834	3610.749127
418.174324	3593.606684
418.553753	3590.680294
418.933121	3639.224085
419.312428	3632.506747
419.691674	3623.667084
420.070859	3662.196623
420.449983	3644.119045
420.829045	3691.107640
421.208047	3679.117256
421.586988	3722.216601
421.965867	3753.010489
422.344686	3758.548197
422.723444	3797.196203
423.102141	3703.657593
423.480777	3806.073674
423.859352	3770.866256
424.237866	3872.158160
424.616319	3854.854400
424.994712	3915.547371
425.373044	3903.672933
425.751314	3968.476966
426.129524	3904.552615
426.507673	4003.805372
426.885762	3978.755879
427.263789	4001.151205
427.641756	4008.465919
428.019662	4035.113458
428.397508	4038.569169
428.775292	4076.556784
429.153016	4083.057352
429.530679	4093.096810
429.908282	4102.400259
430.285824	4082.233123
430.663305	4152.189215
431.040726	4113.589100
431.418086	4102.833798
431.795385	4177.284079
432.172624	4207.180642
432.549802	4177.836085
432.926920	4196.586657
433.303977	4189.501315
433.680974	4229.177717
434.057910	4253.765945
434.434786	4256.079834
434.811601	4253.755862
435.188355	4361.439950
435.565050	4333.779138
435.941683	4322.534845
436.318257	4415.090429
436.694770	4421.104526
437.071222	4479.317250
437.447614	4412.272424
437.823946	4415.670162
438.200218	4434.014921
438.576429	4415.402981
438.952580	4437.999953
439.328670	4446.315336
439.704700	4489.709589
440.080670	4450.103763
440.456580	4511.835213
440.832429	4547.715625
441.208218	4448.626705
441.583947	4501.084952
441.959616	4519.679248
442.335224	4541.920819
442.710773	4566.196495
443.086261	4614.654587
443.461689	4570.138678
443.837057	4579.207713
444.212365	4658.618489
444.587612	4659.253675
444.962800	4627.277636
445.337927	4666.981764
445.712995	4554.082603
446.088002	4748.025873
446.462949	4769.654944
446.837837	4788.218993
447.212664	4775.200213
447.587431	4999.140870
447.962139	5294.986025
448.336786	5635.536132
448.711374	5616.712463
449.085901	5263.118371
449.460369	5203.569741
449.834776	5139.191686
450.209124	5368.438157
450.583412	5377.396287
450.957640	5500.927242
451.331808	5363.354153
451.705917	5217.289241
452.079965	5206.917067
452.453954	5249.328294
452.827883	5217.022060
453.201752	5219.255291
453.575562	5249.277883
453.949311	5380.894848
454.323001	5387.927258
454.696632	5378.286051
455.070202	5535.176841
455.443713	5563.127518
455.817164	5656.000696
456.190556	5725.308999
456.563888	5700.070462
456.937160	5777.757164
457.310373	5619.774964
457.683526	5676.233367
458.056619	5666.355226
458.429653	5649.374099
458.802628	5691.293814
459.175542	5728.235389
459.548398	5862.224217
459.921194	6048.462084
460.293930	6106.354695
460.666607	6362.203335
461.039224	6566.118008
461.411782	6695.627771
461.784280	6607.082424
462.156719	6613.877900
462.529099	6570.302166
462.901419	6426.760351
463.273680	6294.412419
463.645882	6291.173477
464.018024	6283.649555
464.390106	6353.668662
464.762130	6605.287773
465.134094	6988.574262
465.505999	7608.994107
465.877845	8305.913462
466.249631	8664.752875
466.621358	8581.407478
466.993026	8385.341882
467.364634	8174.982093
467.736184	7897.469095
468.107674	7733.959270
468.479105	7644.206567
468.850477	7578.963954
469.221790	7403.796460
469.593043	7181.907553
469.964238	7076.847387
470.335373	7046.469393
470.706449	7194.762496
471.077467	7372.495936
471.448425	8004.860795
471.819324	8571.927588
472.190164	8600.800797
472.560945	8123.428734
472.931667	7652.158987
473.302330	7461.452137
473.672934	7340.779517
474.043479	7403.899804
474.413965	7295.295706
474.784393	7237.942499
475.154761	7373.226903
475.525070	7375.013992
475.895321	7324.236970
476.265513	7399.214052
476.635645	7540.515073
477.005719	7517.781990
477.375734	7587.443174
477.745691	7680.853235
478.115588	7850.026796
478.485427	8056.862818
478.855207	8475.399575
479.224928	8858.638172
479.594591	9184.531124
479.964194	9184.813429
480.333739	9237.115400
480.703226	9218.390034
481.072653	9273.404146
481.442022	9346.684879
481.811333	9456.135891
482.180584	9285.782699
482.549777	9199.894041
482.918912	9108.515566
483.287988	9069.335718
483.657005	8953.641237
484.025964	8850.022840
484.394864	8873.902786
484.763706	8798.532495
485.132489	8692.592647
485.501213	8652.180237
485.869879	8672.153289
486.238487	8574.183505
486.607036	8602.988658
486.975527	8517.226028
487.343959	8525.400259
487.712333	8516.311059
488.080648	8502.120211
488.448905	8553.902943
488.817104	8511.204370
489.185244	8595.008511
489.553326	8710.050163
489.921350	9019.077935
490.289315	9449.922669
490.657222	9614.042473
491.025070	9694.322848
491.392861	9572.284075
491.760593	9393.587774
492.128267	9149.389241
492.495883	8915.464579
492.863440	8680.516563
493.230939	8461.506155
493.598380	8265.261597
493.965763	8187.527005
494.333088	8036.549488
494.700354	7923.383146
495.067563	7842.596135
495.434713	7786.621683
495.801805	7754.917867
496.168839	7666.937129
496.535815	7577.096206
496.902733	7543.194447
497.269593	7455.407793
497.636395	7394.240953
498.003139	7396.827065
498.369825	7290.919985
498.736453	7279.872296
499.103023	7185.063316
499.469535	7123.475539
499.835989	7083.980619
500.202385	7002.545820
500.568723	6946.667150
500.935003	6911.915956
501.301226	6830.765982
501.667390	6853.877152
502.033497	6836.530542
502.399546	6733.708647
502.765537	6616.945442
503.131470	6600.418019
503.497345	6576.550676
503.863163	6400.102730
504.228923	6395.041411
504.594625	6380.028855
504.960269	6269.249499
505.325856	6267.729591
505.691385	6144.357433
506.056856	6106.810919
506.422270	6076.511064
506.787625	5982.901878
507.152924	5943.011228
507.518164	5895.979783
507.883347	5775.733141
508.248472	5739.320886
508.613540	5713.124530
508.978550	5673.813613
509.343503	5599.388538
509.708398	5549.713008
510.073236	5530.019740
510.438016	5470.801306
510.802738	5379.901741
511.167403	5357.158575
511.532010	5313.744158
511.896561	5274.425679
512.261053	5266.085090
512.625488	5175.825751
512.989866	5104.995018
513.354186	5040.601840
513.718449	4977.390812
514.082655	4957.639571
514.446803	4882.959918
514.810894	4852.309702
515.174927	4789.209580
515.538904	4728.514087
515.902822	4705.128175
516.266684	4623.063231
516.630488	4587.840689
516.994235	4527.976987
517.357925	4496.492461
517.721558	4455.928817
518.085133	4409.048607
518.448651	4365.424982
518.812112	4303.360816
519.175516	4252.102364
519.538863	4217.212538
519.902152	4173.601516
520.265385	4141.716218
520.628560	4094.619238
520.991678	4037.356772
521.354739	3998.640710
521.717743	3965.311122
522.080690	3918.627516
522.443580	3889.587950
522.806413	3850.897094
523.169189	3806.771874
523.531908	3773.258283
523.894569	3731.295719
524.257174	3694.268444
524.619722	3667.993950
524.982213	3625.849904
525.344647	3588.452104
525.707025	3559.190727
526.069345	3529.561345
526.431608	3498.608660
526.793815	3469.188486
527.155964	3427.934204
527.518057	3401.848753
527.880093	3367.102600
528.242072	3345.854137
528.603995	3315.181236
528.965860	3287.575878
529.327669	3261.790376
529.689421	3236.327508
530.051117	3208.966645
530.412755	3190.513502
530.774337	3166.505007
531.135862	3143.197232
531.497331	3119.622276
531.858743	3096.685026
532.220098	3084.102306
532.581396	3059.904767
532.942638	3036.896941
533.303824	3020.949251
533.664953	3003.882425
534.026025	2987.894405
534.387040	2973.489308
534.747999	2960.369705
535.108902	2946.889660
535.469748	2929.469953
535.830537	2916.052922
536.191270	2904.465830
536.551947	2889.070146
536.912567	2881.495812
537.273131	2870.551467
537.633638	2855.954806
537.994089	2845.864937
538.354483	2833.763647
538.714821	2827.575631
539.075103	2817.034578
539.435328	2810.264308
539.795497	2801.878349
540.155609	2793.008439
540.515665	2784.859413
540.875665	2777.015378
541.235609	2772.465737
541.595496	2760.969385
541.955328	2761.178593
542.315102	2752.901019
542.674821	2742.526324
543.034483	2739.181518
543.394090	2731.166084
543.753640	2727.823799
544.113134	2727.710373
544.472571	2719.757953
544.831953	2718.785010
545.191278	2710.963660
545.550548	2707.497867
545.909761	2705.557022
546.268918	2702.544933
546.628019	2701.178780
546.987064	2696.331711
547.346053	2689.488344
547.704986	2690.768797
548.063863	2686.718230
548.422684	2686.236800
548.781449	2680.275636
549.140158	2680.502488
549.498811	2678.027281
549.857408	2675.186591
550.215949	2669.245591
550.574434	2668.683502
550.932864	2665.638646
551.291237	2667.539161
551.649555	2667.579490
552.007817	2665.462205
552.366022	2663.352482
552.724173	2660.655465
553.082267	2660.428613
553.440305	2659.385094
553.798288	2659.339724
554.156215	2656.093221
554.514086	2655.798313
554.871902	2656.138591
555.229661	2653.073570
555.587365	2653.108858
555.945014	2653.512150
556.302606	2651.006697
556.660143	2650.626089
557.017625	2648.244144
557.375050	2650.686583
557.732421	2648.160965
558.089735	2648.692807
558.446994	2644.692651
558.804197	2647.936634
559.161345	2647.263640
559.518437	2645.249699
559.875474	2643.046715
560.232455	2643.366828
560.589381	2642.645943
560.946251	2645.131232
561.303065	2641.383134
561.659825	2639.709471
562.016528	2641.231899
562.373177	2641.138638
562.729770	2639.805253
563.086307	2641.080665
563.442789	2637.473719
563.799216	2639.210397
564.155587	2636.720067
564.511904	2638.925571
564.868164	2639.593524
565.224370	2638.744090
565.580520	2635.701753
565.936615	2637.083030
566.292654	2635.495066
566.648638	2634.459109
567.004567	2634.948101
567.360441	2638.093781
567.716260	2636.301651
568.072023	2636.326857
568.427732	2634.827113
568.783385	2631.691516
569.138982	2630.910137
569.494525	2631.394087
569.850013	2631.086577
570.205445	2631.757051
570.560823	2630.206896
570.916145	2634.194448
571.271412	2631.406690
571.626625	2631.084057
571.981782	2631.583131
572.336884	2632.127575
572.691931	2629.843933
573.046923	2631.973820
573.401860	2629.251597
573.756743	2628.301340
574.111570	2628.056844
574.466342	2629.422996
574.821059	2627.567852
575.175722	2630.698408
575.530330	2629.740589
575.884882	2628.949128
576.239380	2628.750002
576.593823	2629.513737
576.948211	2626.736061
577.302544	2627.681278
577.656823	2627.822430
578.011047	2629.743110
578.365216	2627.950979
578.719330	2627.290588
579.073389	2627.935856
579.427394	2624.026441
579.781344	2625.821092
580.135239	2624.086935
580.489080	2625.483335
580.842866	2624.643982
581.196597	2626.967954
581.550273	2626.007615
581.903895	2625.836215
582.257463	2624.097017
582.610975	2624.220526
582.964434	2622.665330
583.317837	2623.174486
583.671186	2624.364198
584.024481	2623.358488
584.377721	2622.846811
584.730906	2624.041565
585.084037	2625.039713
585.437113	2620.545524
585.790135	2624.412089
586.143103	2622.158694
586.496016	2621.336986
586.848874	2618.569392
587.201679	2621.014352
587.554428	2614.843979
587.907124	2620.137191
588.259765	2618.576954
588.612352	2620.464866
588.964884	2622.002418
589.317362	2620.658950
589.669786	2619.295318
590.022155	2620.767335
590.374470	2621.916718
590.726731	2620.492592
591.078937	2619.292798
591.431090	2620.953858
591.783188	2620.041409
592.135232	2621.546193
592.487222	2619.045781
592.839157	2620.106944
593.191038	2620.147273
593.542866	2618.811367
593.894639	2616.285749
594.246358	2616.726850
594.598022	2617.427571
594.949633	2621.878910
595.301190	2616.988990
595.652692	2618.405555
596.004141	2616.462190
596.355535	2615.799278
596.706876	2616.631068
597.058162	2615.380862
597.409395	2617.377159
597.760573	2617.815740
598.111698	2616.013527
598.462768	2617.006634
598.813785	2614.692745
599.164748	2616.651233
599.515657	2616.189967
599.866511	2614.760800
600.217312	2615.544700
600.568060	2614.251644
600.918753	2615.761469
601.269392	2616.033692
601.619978	2613.233331
601.970510	2615.917745
602.320988	2615.136366
602.671412	2619.507047
603.021783	2616.303393
603.372100	2616.131994
603.722363	2616.875564
604.072572	2615.572426
604.422728	2615.022940
604.772830	2610.397682
605.122878	2610.546396
605.472872	2612.083948
605.822813	2611.103443
606.172701	2612.222579
606.522534	2614.365070
606.872314	2617.772890
607.222041	2613.500512
607.571714	2614.864144
607.921333	2612.625872
608.270899	2613.855913
608.620411	2613.729884
608.969870	2611.201746
609.319276	2614.110492
609.668627	2614.544031
610.017926	2616.323558
610.367171	2615.237189
610.716362	2615.761469
611.065500	2617.031840
611.414585	2614.922117
611.763616	2615.612755
612.112594	2613.571088
612.461518	2614.589401
612.810389	2614.821294
613.159207	2612.835080
613.507971	2615.068311
613.856682	2617.732561
614.205340	2614.395317
614.553945	2615.406068
614.902496	2614.869185
615.250994	2613.908845
615.599439	2615.169134
615.947830	2615.942951
616.296169	2613.671911
616.644454	2614.627210
616.992686	2616.013527
617.340864	2613.210646
617.688990	2617.503188
618.037063	2613.709720
618.385082	2618.095524
618.733048	2614.319699
619.080961	2616.305914
619.428821	2618.589557
619.776628	2614.501181
620.124382	2615.789196
620.472083	2616.399175
620.819731	2615.769031
621.167326	2615.582508
621.514868	2617.636779
621.862357	2613.432456
622.209793	2613.732405
622.557176	2615.184257
622.904506	2612.933382
623.251783	2608.933227
623.599007	2610.380038
623.946179	2609.533124
624.293297	2608.305603
624.640363	2615.189298
624.987376	2612.933382
625.334336	2612.434308
625.681243	2610.430449
626.028097	2614.453290
626.374899	2610.609410
626.721647	2610.415326
627.068343	2609.850717
627.414987	2609.770058
627.761577	2611.219390
628.108115	2611.486571
628.454600	2608.915582
628.801032	2609.623865
629.147412	2609.495315
629.493739	2610.337188
629.840014	2611.408433
630.186236	2607.998092
630.532405	2609.936416
630.878521	2608.585387
631.224585	2609.311313
631.570597	2608.028339
631.916556	2610.221241
632.262462	2611.317692
632.608316	2608.754266
632.954117	2608.217383
633.299866	2607.209152
633.645562	2608.477002
633.991206	2607.607403
634.336797	2608.323247
634.682336	2609.749893
635.027823	2607.131014
635.373257	2609.550768
635.718639	2607.196549
636.063968	2607.483895
636.409245	2604.549943
636.754470	2607.315016
637.099642	2604.335694
637.444762	2604.572628
637.789829	2605.863164
638.134845	2602.977103
638.479808	2604.567587
638.824719	2604.529779
639.169577	2603.839141
639.514383	2602.946856
639.859137	2605.197732
640.203839	2603.967690
640.548489	2605.129676
640.893086	2599.062647
641.237632	2597.641042
641.582125	2601.331167
641.926566	2599.304623
642.270955	2599.554160
642.615292	2602.543564
642.959576	2602.835951
643.303809	2604.489449
643.647990	2601.956270
643.992118	2603.629933
644.336195	2604.373503
644.680219	2602.498194
645.024192	2603.289655
645.368112	2602.808225
645.711981	2603.662700
646.055797	2604.461723
646.399562	2603.440889
646.743274	2603.045159
647.086935	2606.349635
647.430544	2605.744697
647.774101	2606.601693
648.117606	2606.735283
648.461059	2604.653287
648.804460	2608.272835
649.147810	2604.262598
649.491108	2602.344438
649.834354	2602.956939
650.177548	2602.291506
650.520690	2604.897783
650.863781	2603.781167
651.206820	2606.495829
651.549807	2599.539036
651.892742	2601.361413
652.235626	2601.812597
652.578458	2597.966196
652.921238	2600.718666
653.263967	2601.714294
653.606644	2601.883173
653.949269	2599.009715
654.291843	2599.060127
654.634365	2601.484922
654.976836	2598.271186
655.319255	2600.214551
655.661622	2599.846547
656.003938	2601.621033
656.346203	2601.963831
656.688416	2603.471136
657.030577	2598.447627
657.372687	2597.734303
657.714746	2601.462237
658.056753	2599.231526
658.398708	2597.114241
658.740612	2596.592482
659.082465	2596.355548
659.424266	2596.844540
659.766016	2594.661720
660.107715	2601.416866
660.449362	2598.238419
660.790958	2598.737493
661.132503	2595.846391
661.473996	2598.971907
661.815438	2598.687081
662.156829	2600.070878
662.498168	2598.167842
662.839456	2599.047524
663.180693	2601.089191
663.521879	2600.043152
663.863013	2600.302771
664.204097	2599.546598
664.545129	2601.641197
664.886110	2598.301433
665.227040	2597.401587
665.567918	2600.511979
665.908746	2599.612133
666.249522	2602.989706
666.590248	2598.944180
666.930922	2600.300251
667.271545	2598.346803
667.612118	2599.138265
667.952639	2599.539036
668.293109	2599.418049
668.633528	2600.151537
668.973896	2598.913933
669.314213	2598.538367
669.654480	2599.113059
669.994695	2598.248501
670.334859	2600.945518
670.674973	2597.867894
671.015035	2601.396702
671.355047	2595.836309
671.695008	2600.282607
672.034918	2600.176742
672.374777	2600.020467
672.714585	2597.628439
673.054342	2598.946701
673.394049	2599.133223
673.733705	2598.061978
674.073310	2599.561722
674.412864	2599.942329
674.752368	2596.889910
675.091820	2597.673809
675.431223	2598.432503
675.770574	2599.544077
676.109875	2592.151225
676.449125	2596.189190
676.788324	2595.117944
677.127473	2594.928901
677.466571	2592.932604
677.805619	2597.421752
678.144616	2598.140116
678.483562	2598.566094
678.822458	2596.494179
679.161303	2596.642893
679.500098	2595.634663
679.838842	2595.463263
680.177535	2595.647266
680.516179	2595.619539
680.854771	2597.212544
681.193314	2597.262955
681.531805	2598.745055
681.870247	2598.772781
682.208638	2599.705394
682.546978	2598.006526
682.885268	2599.972576
683.223508	2600.224633
683.561697	2600.426279
683.899836	2601.512648
684.237925	2597.827565
684.575963	2600.438882
684.913951	2599.954932
685.251889	2601.134562
685.589776	2597.267997
685.927614	2598.676999
686.265401	2598.059458
686.603137	2598.452668
686.940824	2598.314036
687.278460	2597.547781
687.616046	2601.091712
687.953582	2599.339911
688.291068	2601.613471
688.628504	2600.174222
688.965889	2599.697833
689.303224	2599.372678
689.640510	2598.651793
689.977745	2600.295209
690.314930	2599.990220
690.652065	2596.995774
690.989150	2597.756988
691.326185	2597.325970
691.663170	2595.904364
692.000105	2597.320929
692.336990	2596.844540
692.673825	2593.643407
693.010610	2596.683223
693.347345	2591.725248
693.684030	2588.612335
694.020665	2589.852459
694.357251	2588.345154
694.693786	2592.531832
695.030272	2592.879672
695.366707	2591.095104
695.703093	2588.443457
696.039429	2589.126533
696.375716	2589.257603
696.711952	2588.151070
697.048139	2592.105855
697.384276	2590.510330
697.720363	2593.681216
698.056400	2591.962182
698.392388	2592.063005
698.728326	2590.192737
699.064214	2590.661564
699.400053	2588.307346
699.735842	2591.407655
700.071581	2589.234918
700.407270	2590.429671
700.742910	2589.618046
701.078501	2591.551328
701.414042	2589.802048
701.749533	2590.404466
702.084974	2588.594691
702.420366	2589.103848
702.755709	2587.989753
703.091002	2586.984043
703.426246	2587.888930
703.761440	2587.818354
704.096584	2589.635690
704.431679	2587.594022
704.766725	2590.706935
705.101721	2587.165524
705.436668	2587.394897
705.771565	2585.169227
706.106413	2584.821388
706.441212	2585.481779
706.775961	2588.824064
707.110661	2584.322313
707.445311	2586.787438
707.779913	2588.541759
708.114465	2588.143508
708.448967	2589.335741
708.783421	2587.888930
709.117825	2589.020669
709.452180	2589.003025
709.786485	2588.443457
710.120742	2589.933118
710.454949	2593.182141
710.789107	2586.091758
711.123216	2589.746595
711.457275	2588.435895
711.791286	2589.214753
712.125247	2589.847418
712.459159	2591.309353
712.793023	2594.084508
713.126837	2590.953951
713.460602	2591.677357
713.794318	2593.605598
714.127985	2590.538056
714.461602	2592.100814
714.795171	2588.889599
715.128691	2590.401945
715.462162	2588.193920
715.795584	2589.063519
716.128957	2588.014959
716.462281	2589.686101
716.795556	2589.544949
717.128782	2586.192582
717.461960	2588.798858
717.795088	2587.493199
718.128167	2587.057139
718.461198	2584.760894
718.794180	2586.668971
719.127113	2586.109402
719.459997	2584.317272
719.792833	2586.258117
720.125619	2583.389700
720.458357	2584.153435
720.791046	2584.917170
721.123686	2583.424988
721.456278	2585.963209
721.788821	2583.591346
722.121315	2585.872468
722.453761	2583.717375
722.786158	2587.493199
723.118506	2583.608990
723.450805	2584.123188
723.783056	2582.557910
724.115259	2582.429360
724.447412	2580.881726
724.779518	2580.964905
725.111574	2582.885585
725.443582	2580.191088
725.775542	2583.601428
726.107453	2587.712489
726.439315	2584.040009
726.771129	2589.665937
727.102895	2584.904567
727.434612	2588.080494
727.766281	2586.311049
728.097901	2584.024885
728.429473	2583.228383
728.760996	2587.745257
729.092471	2580.642271
729.423897	2585.423806
729.755276	2587.883889
730.086606	2585.295256
730.417887	2586.389187
730.749120	2588.589650
731.080305	2586.379104
731.411442	2584.907087
731.742530	2589.847418
732.073570	2589.832295
732.404562	2586.719382
732.735506	2590.845567
733.066401	2587.709969
733.397249	2589.733992
733.728048	2586.679053
734.058798	2590.023858
734.389501	2588.577047
734.720156	2584.198805
735.050762	2585.640575
735.381320	2583.971953
735.711831	2584.047571
736.042293	2583.351891
736.372707	2582.411716
736.703073	2583.271233
737.033391	2580.216294
737.363661	2582.482292
737.693883	2585.953127
738.024056	2585.330544
738.354182	2581.716037
738.684260	2584.549165
739.014290	2582.005903
739.344272	2583.540935
739.674207	2583.220821
740.004093	2587.815833
740.333931	2584.584453
740.663722	2587.261306
740.993464	2586.210226
741.323159	2585.133939
741.652806	2586.553024
741.982405	2583.424988
742.311956	2586.053950
742.641460	2584.914649
742.970915	2585.759042
743.300323	2580.909452
743.629683	2580.599421
743.958996	2582.815008
744.288260	2582.431881
744.617477	2584.518918
744.946647	2579.129925
745.275768	2580.816191
745.604842	2576.195973
745.933869	2577.841910
746.262847	2576.541293
746.591778	2581.262333
746.920662	2583.049422
747.249498	2584.224011
747.578286	2581.826942
747.907027	2581.158989
748.235720	2583.523291
748.564365	2583.752663
748.892963	2580.095306
749.221514	2583.377097
749.550017	2581.148907
749.878473	2583.298959
750.206881	2580.324678
750.535242	2579.923907
750.863555	2581.872313
751.191821	2581.383321
751.520039	2580.697724
751.848210	2582.383990
752.176334	2583.198136
752.504411	2579.258474
752.832440	2578.449369
753.160421	2582.152097
753.488356	2582.290728
753.816243	2581.731160
754.144082	2578.787127
754.471875	2584.544124
754.799620	2581.952971
755.127318	2580.329720
755.454969	2580.924576
755.782572	2581.650502
756.110129	2579.321489
756.437638	2579.699575
756.765100	2579.727302
757.092515	2580.080182
757.419882	2579.540779
757.747203	2583.238465
758.074477	2582.497416
758.401703	2582.704103
758.728882	2582.545307
759.056014	2580.488516
759.383099	2580.480954
759.710138	2579.646643
760.037129	2580.483475
760.364073	2582.358784
760.690970	2581.436253
761.017820	2583.868610
761.344623	2581.068249
761.671379	2583.994638
761.998088	2576.563978
762.324751	2580.339802
762.651366	2584.428178
762.977935	2589.176945
763.304456	2590.951431
763.630931	2597.676330
763.957359	2596.479056
764.283740	2594.593664
764.610074	2593.000660
764.936362	2589.794486
765.262602	2589.154259
765.588796	2584.839032
765.914943	2583.835842
766.241044	2583.326686
766.567097	2583.087231
766.893104	2581.574885
767.219064	2579.145048
767.544978	2578.764441
767.870845	2579.230748
768.196665	2577.483988
768.522438	2578.802250
768.848165	2580.609504
769.173846	2579.210583
769.499479	2577.675552
769.825066	2576.090109
770.150607	2578.066242
770.476101	2578.827456
770.801548	2578.645974
771.126949	2576.500963
771.452303	2578.608166
771.777611	2578.638412
772.102872	2576.221179
772.428087	2573.327557
772.753256	2579.160172
773.078378	2574.189594
773.403453	2574.920562
773.728482	2575.623802
774.053465	2577.776375
774.378401	2574.020716
774.703291	2575.230593
775.028135	2573.529203
775.352932	2578.961046
775.677683	2574.484502
776.002388	2573.738411
776.327046	2576.657239
776.651658	2574.640777
776.976224	2576.037177
777.300743	2573.448545
777.625216	2571.595921
777.949643	2575.752352
778.274024	2575.981724
778.598359	2570.774212
778.922647	2569.629871
779.246889	2571.510221
779.571086	2569.322360
779.895236	2572.039542
780.219339	2574.502146
780.543397	2573.972825
780.867409	2576.455593
781.191374	2573.622464
781.515294	2573.617423
781.839167	2572.299162
782.162995	2577.075655
782.486776	2574.124059
782.810511	2573.861919
783.134201	2573.758576
783.457844	2573.302351
783.781441	2576.160685
784.104993	2571.618606
784.428498	2573.143555
784.751958	2573.146075
785.075372	2574.766806
785.398739	2573.259501
785.722061	2574.572722
786.045337	2571.908472
786.368568	2572.107598
786.691752	2574.602969
787.014891	2576.327043
787.337983	2575.981724
787.661030	2575.250757
787.984031	2575.853175
788.306987	2575.583473
788.629897	2577.821746
788.952760	2575.311251
789.275579	2575.712023
789.598351	2576.233782
789.921078	2575.182702
790.243759	2574.572722
790.566395	2576.216138
790.888984	2575.016343
791.211529	2573.516600
791.534027	2572.987279
791.856480	2571.270766
792.178888	2575.956519
792.501249	2572.359655
792.823566	2578.842579
793.145836	2570.544840
793.468062	2572.795715
793.790241	2573.559450
794.112375	2574.983576
794.434464	2573.209090
794.756507	2572.951991
795.078505	2573.367886
795.400457	2571.739593
795.722364	2569.183728
796.044226	2569.619788
796.366042	2572.896538
796.687812	2571.694223
797.009538	2575.875860
797.331218	2573.262022
797.652852	2575.255798
797.974442	2573.977866
798.295986	2572.674727
798.617484	2576.914338
798.938938	2575.369224
799.260346	2574.592887
799.581709	2574.393761
799.903026	2575.414595
800.224299	2574.358473
800.545526	2573.743452
800.866708	2573.861919
801.187845	2573.904769
801.508936	2573.181363
801.829983	2572.528534
802.150984	2570.950653
802.471940	2572.881415
802.792851	2572.800756
803.113717	2572.407546
803.434538	2570.461661
803.755314	2572.500808
804.076045	2571.280848
804.396731	2572.609192
804.717372	2574.020716
805.037967	2572.372258
805.358518	2571.737073
805.679024	2571.951322
805.999485	2571.709347
806.319901	2573.193966
806.640272	2573.584656
806.960598	2573.579615
807.280879	2571.923596
807.601115	2574.134142
807.921306	2573.352763
808.241453	2569.410580
808.561554	2573.446024
808.881611	2573.567012
809.201623	2573.035170
809.521590	2571.555591
809.841513	2571.558112
810.161390	2572.228585
810.481223	2571.578277
810.801011	2572.296641
811.120755	2571.817731
811.440453	2573.967783
811.760107	2575.396951
812.079716	2568.737586
812.399281	2568.573749
812.718801	2571.943760
813.038276	2566.126269
813.357707	2569.949984
813.677093	2572.813359
813.996434	2570.887638
814.315731	2570.393605
814.634983	2571.527865
814.954191	2572.284038
815.273354	2572.997361
815.592473	2570.557443
815.911547	2576.022054
816.230577	2570.791857
816.549562	2571.381672
816.868502	2570.668348
817.187399	2572.495767
817.506250	2575.598597
817.825058	2572.553740
818.143821	2571.903431
818.462539	2571.502659
818.781213	2573.297310
819.099843	2574.708833
819.418429	2578.570357
819.736970	2578.096488
820.055466	2581.428691
820.373919	2582.063877
820.692327	2584.501274
821.010691	2586.744588
821.329011	2596.204313
821.647286	2621.203395
821.965517	2640.979842
822.283704	2659.674961
822.601847	2669.232988
822.919945	2663.143274
823.237999	2657.189672
823.556010	2648.654998
823.873976	2638.847433
824.191897	2630.181690
824.509775	2619.547376
824.827609	2614.594442
825.145398	2605.285952
825.463144	2603.859305
825.780845	2600.295209
826.098502	2600.320415
826.416116	2606.417691
826.733685	2611.640326
827.051210	2614.236520
827.368692	2611.100923
827.686129	2608.477002
828.003522	2605.109511
828.320872	2595.004518
828.638177	2592.294898
828.955439	2585.731316
829.272656	2585.277612
829.589830	2580.196129
829.906960	2580.841397
830.224046	2575.812846
830.541088	2577.476427
830.858086	2575.013823
831.175041	2575.759914
831.491952	2574.819738
831.808819	2573.861919
832.125642	2575.160016
832.442421	2577.184040
832.759157	2577.065572
833.075849	2580.591860
833.392497	2586.714341
833.709101	2592.068046
834.025662	2590.298601
834.342179	2590.669126
834.658653	2587.092427
834.975083	2589.355906
835.291469	2589.398755
835.607811	2581.776531
835.924110	2580.516242
836.240366	2576.747980
836.556578	2576.992476
836.872746	2576.064903
837.188871	2575.356621
837.504952	2571.540468
837.820990	2573.398133
838.136984	2570.098698
838.452935	2571.361507
838.768842	2571.913513
839.084706	2575.026426
839.400526	2571.991651
839.716303	2572.321847
840.032037	2579.651684
840.347727	2573.244378
840.663373	2577.622620
840.978977	2576.087589
841.294537	2573.511559
841.610054	2572.888977
841.925527	2572.616754
842.240957	2571.850499
842.556344	2571.812690
842.871687	2569.836558
843.186987	2571.802608
843.502244	2568.286403
843.817458	2567.943605
844.132629	2568.578790
844.447756	2569.322360
844.762840	2559.096380
845.077881	2563.446895
845.392879	2564.608881
845.707833	2564.906309
846.022745	2565.415466
846.337613	2566.315312
846.652438	2564.208110
846.967221	2568.853533
847.281960	2568.147771
847.596656	2566.307750
847.911309	2567.308419
848.225919	2566.496793
848.540485	2569.763461
848.855009	2566.353121
849.169490	2565.309602
849.483928	2567.905796
849.798323	2568.329253
850.112675	2565.672565
850.426984	2564.896227
850.741251	2567.079047
851.055474	2564.513099
851.369654	2565.536454
851.683792	2566.537123
851.997887	2566.199365
852.311938	2566.401012
852.625947	2567.689026
852.939914	2566.302709
853.253837	2567.391598
853.567718	2564.805486
853.881555	2566.093501
854.195350	2565.627194
854.509103	2567.144582
854.822812	2566.922771
855.136479	2565.798594
855.450103	2566.322874
855.763685	2565.934705
856.077224	2567.215158
856.390720	2564.785322
856.704173	2565.821279
857.017584	2566.033007
857.330953	2565.987637
857.644278	2564.606361
857.957561	2568.200703
858.270802	2568.563667
858.584000	2565.904458
858.897155	2566.489232
859.210268	2564.674416
859.523339	2567.401681
859.836367	2565.259190
860.149352	2567.376475
860.462295	2568.125086
860.775195	2563.136864
861.088054	2561.732903
861.400869	2563.204920
861.713642	2564.669375
862.026373	2566.330435
862.339062	2566.869839
862.651708	2566.663152
862.964312	2565.095353
863.276873	2569.289593
863.589392	2565.828841
863.901869	2565.425548
864.214303	2567.547874
864.526696	2566.199365
864.839045	2568.498132
865.151353	2565.140723
865.463619	2567.063923
865.775842	2565.627194
866.088023	2566.519479
866.400162	2567.101732
866.712258	2568.235992
867.024313	2566.950497
867.336325	2566.292627
867.648296	2571.774882
867.960224	2566.217009
868.272110	2567.646177
868.583954	2567.792370
868.895755	2567.005950
869.207515	2567.283213
869.519233	2570.587690
869.830909	2567.600806
870.142542	2566.063254
870.454134	2567.678944
870.765684	2566.499314
871.077191	2567.522668
871.388657	2567.759602
871.700081	2566.524520
872.011463	2566.443861
872.322803	2568.273800
872.634101	2568.878739
872.945357	2565.430589
873.256571	2569.196331
873.567744	2566.630384
873.878874	2566.489232
874.189963	2568.641804
874.501010	2566.395970
874.812015	2569.493759
875.122979	2569.493759
875.433900	2569.108111
875.744780	2567.764644
876.055618	2568.180539
876.366415	2570.340673
876.677169	2567.101732
876.987882	2566.532082
877.298554	2565.937225
877.609183	2565.728018
877.919771	2565.541495
878.230317	2563.209961
878.540822	2571.991651
878.851285	2569.113152
879.161707	2572.470561
879.472087	2573.418298
879.782425	2574.290417
880.092722	2580.072621
880.402977	2583.994638
880.713191	2595.004518
881.023363	2603.236723
881.333494	2614.511263
881.643583	2616.772221
881.953631	2618.960082
882.263637	2614.675101
882.573602	2614.463372
882.883526	2611.597476
883.193408	2608.739142
883.503248	2602.377206
883.813048	2600.635487
884.122806	2598.611464
884.432522	2596.947883
884.742197	2590.505289
885.051831	2587.004207
885.361424	2585.867427
885.670975	2583.568661
885.980485	2579.634040
886.289954	2579.366859
886.599382	2575.147413
886.908768	2574.754203
887.218113	2573.740932
887.527417	2572.621795
887.836680	2570.519634
888.145901	2573.067937
888.455082	2569.229099
888.764221	2570.479305
889.073319	2570.839748
889.382376	2566.148954
889.691392	2566.706001
890.000366	2568.334294
890.309300	2566.786660
890.618193	2570.592731
890.927044	2568.588872
891.235855	2569.990313
891.544625	2566.907647
891.853353	2569.468554
892.162041	2570.580128
892.470687	2568.457802
892.779293	2571.301013
893.087858	2569.130796
893.396381	2567.784808
893.704864	2570.610375
894.013306	2569.894531
894.321707	2577.289904
894.630068	2584.024885
894.938387	2580.120512
895.246665	2582.971284
895.554903	2583.450194
895.863100	2581.766448
896.171256	2582.320975
896.479371	2579.253433
896.787446	2577.047928
897.095480	2577.312589
897.403473	2574.325705
897.711425	2574.061045
898.019336	2575.906107
898.327207	2574.320664
898.635038	2572.362176
898.942827	2570.600293
899.250576	2571.101887
899.558284	2569.629871
899.865952	2570.703636
900.173579	2569.579459
900.481165	2568.281362
900.788711	2568.142730
901.096216	2567.638615
901.403681	2568.719942
901.711105	2567.653738
902.018489	2566.774057
902.325832	2570.499470
902.633135	2567.593244
902.940397	2568.472926
903.247619	2569.776064
903.554800	2572.531055
903.861941	2577.423494
904.169041	2583.246027
904.476101	2586.623600
904.783121	2586.863055
905.090100	2581.852148
905.397039	2582.537745
905.703938	2580.049936
906.010796	2580.503639
906.317614	2575.212948
906.624391	2578.814853
906.931129	2575.913669
907.237826	2571.459809
907.544483	2574.391240
907.851099	2572.238668
908.157675	2570.070972
908.464211	2569.395457
908.770707	2563.262893
909.077163	2562.418500
909.383578	2563.996381
909.689954	2563.013356
909.996289	2561.992523
910.302584	2566.393450
910.608839	2562.174004
910.915054	2565.276834
911.221229	2566.065775
911.527363	2565.445713
911.833458	2564.513099
912.139513	2567.633574
912.445527	2564.780281
912.751502	2563.136864
913.057436	2567.010991
913.363331	2567.973852
913.669186	2567.094170
913.975000	2568.228430
914.280775	2566.106104
914.586510	2571.437124
914.892205	2570.950653
915.197859	2575.389389
915.503475	2576.097671
915.809050	2581.489185
916.114585	2585.028075
916.420081	2586.588312
916.725536	2584.844073
917.030952	2588.080494
917.336328	2585.993456
917.641665	2583.745101
917.946961	2585.118816
918.252218	2579.679411
918.557435	2580.271746
918.862612	2577.128587
919.167750	2577.693196
919.472848	2576.427867
919.777906	2577.509194
920.082925	2570.234809
920.387904	2572.097515
920.692843	2574.338308
920.997743	2571.288410
921.302603	2568.283882
921.607423	2570.045766
921.912204	2570.496949
922.216946	2567.139541
922.521647	2567.245405
922.826310	2565.886814
923.130932	2565.538974
923.435516	2567.729356
923.740059	2567.260528
924.044564	2566.058213
924.349028	2567.409242
924.653454	2559.562686
924.957840	2562.032852
925.262186	2561.879097
925.566493	2562.695763
925.870761	2556.601008
926.174989	2563.756926
926.479178	2564.034190
926.783328	2563.867832
927.087438	2561.773232
927.391509	2566.310271
927.695541	2564.127451
927.999533	2563.772050
928.303486	2563.933367
928.607400	2564.011505
928.911275	2562.781463
929.215110	2562.869683
929.518906	2559.355999
929.822663	2561.770712
930.126381	2561.385063
930.430060	2563.903120
930.733699	2560.921277
931.037299	2563.096535
931.340861	2562.403377
931.644383	2562.174004
931.947866	2561.495969
932.251309	2560.550752
932.554714	2562.158881
932.858080	2567.976372
933.161407	2563.227605
933.464694	2562.511761
933.767943	2560.550752
934.071153	2563.640980
934.374323	2559.411452
934.677455	2562.189128
934.980548	2562.557132
935.283602	2562.393294
935.586617	2564.069478
935.889593	2562.766340
936.192530	2559.058571
936.495428	2562.027811
936.798287	2563.419169
937.101108	2560.891030
937.403890	2562.985630
937.706632	2562.864642
938.009336	2564.019066
938.312002	2564.719787
938.614628	2562.355486
938.917216	2562.834395
939.219765	2564.868501
939.522275	2565.768347
939.824747	2563.290620
940.127179	2562.378171
940.429573	2559.398849
940.731929	2562.413459
941.034246	2557.699980
941.336524	2559.751730
941.638763	2563.467060
941.940964	2566.327915
942.243126	2563.225085
942.545250	2563.288099
942.847335	2563.787173
943.149381	2563.804817
943.451389	2562.184086
943.753359	2560.560835
944.055290	2562.489076
944.357182	2563.330949
944.659036	2561.866494
944.960851	2562.640311
945.262628	2563.411607
945.564367	2561.944632
945.866067	2563.061247
946.167729	2563.870352
946.469352	2561.382543
946.770937	2563.940928
947.072484	2563.005794
947.373992	2563.956052
947.675462	2561.737944
947.976893	2558.945145
948.278286	2563.330949
948.579641	2565.198696
948.880958	2561.616957
949.182236	2562.925136
949.483476	2564.757595
949.784678	2561.440516
950.085841	2563.668706
950.386967	2564.772719
950.688054	2564.681978
950.989103	2563.046124
951.290114	2563.285578
951.591087	2563.482183
951.892021	2564.591237
952.192917	2562.582338
952.493776	2564.205589
952.794596	2566.088460
953.095378	2563.928326
953.396122	2565.733059
953.696828	2561.528736
953.997496	2562.839436
954.298126	2562.912533
954.598718	2560.822975
954.899272	2560.628890
955.199788	2562.128634
955.500266	2563.870352
955.800706	2558.100752
956.101108	2555.801986
956.401472	2561.193500
956.701798	2558.090669
957.002087	2559.252655
957.302337	2561.455640
957.602550	2563.933367
957.902724	2561.203582
958.202861	2560.835578
958.502960	2562.713408
958.803022	2560.081925
959.103045	2559.159394
959.403031	2559.731565
959.702979	2559.197203
960.002889	2561.672409
960.302762	2562.128634
960.602596	2560.780125
960.902393	2561.750547
961.202153	2559.645865
961.501875	2562.688202
961.801559	2560.646534
962.101205	2562.047975
962.400814	2559.804662
962.700385	2562.962945
962.999918	2559.575289
963.299414	2559.575289
963.598873	2562.042934
963.898293	2559.257697
964.197677	2560.321380
964.497022	2559.197203
964.796331	2561.304405
965.095601	2558.829198
965.394835	2563.126782
965.694030	2561.069991
965.993189	2563.005794
966.292309	2562.103428
966.591393	2559.734086
966.890439	2558.272151
967.189447	2562.242060
967.488419	2558.251986
967.787353	2561.397666
968.086249	2558.670402
968.385108	2562.035372
968.683930	2560.858263
968.982714	2559.328273
969.281462	2556.905998
969.580172	2560.495300
969.878844	2560.218036
970.177480	2560.873386
970.476078	2556.686708
970.774639	2561.571586
971.073162	2558.756102
971.371649	2556.893395
971.670098	2557.780638
971.968510	2557.878941
972.266885	2557.531101
972.565223	2560.908674
972.863524	2561.591751
973.161788	2556.701832
973.460014	2558.803993
973.758204	2562.239539
974.056356	2561.884138
974.354471	2562.161401
974.652550	2558.781307
974.950591	2559.955896
975.248595	2561.107800
975.546563	2558.856925
975.844493	2561.916905
976.142386	2559.242573
976.440243	2560.046637
976.738062	2560.467573
977.035845	2559.628221
977.333590	2560.883469
977.631299	2560.840619
977.928971	2561.122923
978.226606	2557.049671
978.524204	2559.136709
978.821765	2559.300546
979.119290	2559.537481
979.416777	2558.065464
979.714228	2559.971020
980.011642	2558.993036
980.309020	2564.064437
980.606360	2560.366750
980.903664	2560.296174
981.200931	2559.182079
981.498162	2559.683674
981.795356	2562.277348
982.092513	2561.430434
982.389633	2561.611915
982.686717	2562.045455
982.983764	2562.852039
983.280775	2563.439334
983.577749	2562.486556
983.874686	2564.278686
984.171587	2562.988150
984.468451	2562.975547
984.765279	2562.542008
985.062070	2563.154508
985.358824	2564.583676
985.655543	2560.192831
985.952224	2562.148798
986.248869	2563.416648
986.545478	2559.666030
986.842050	2559.771894
987.138586	2556.865669
987.435086	2557.329455
987.731549	2557.037068
988.027975	2559.930691
988.324366	2558.138560
988.620719	2558.158725
988.917037	2559.038406
989.213318	2559.746688
989.509563	2557.014383
989.805772	2560.611246
990.101944	2557.924311
990.398080	2559.353478
990.694180	2559.411452
990.990244	2559.056050
991.286271	2559.597974
991.582262	2558.309960
991.878217	2556.439692
992.174136	2559.262738
992.470019	2558.473797
992.765865	2560.580999
993.061676	2561.679971
993.357450	2559.098900
993.653188	2558.509085
993.948890	2558.146122
994.244556	2558.604867
994.540186	2559.590413
994.835780	2558.665361
995.131337	2560.298695
995.426859	2562.539488
995.722345	2558.304918
996.017795	2562.161401
996.313208	2561.803479
996.608586	2561.372461
996.903928	2561.228788
997.199234	2560.175187
997.494504	2560.646534
997.789738	2561.120403
998.084936	2559.179559
998.380099	2561.269117
998.675225	2562.058057
998.970316	2560.102090
999.265371	2561.518654
999.560390	2559.628221
999.855373	2560.134857
1000.150320	2560.134857
1000.445232	2560.669220
1000.740108	2557.861297
1001.034948	2561.548901
1001.329752	2558.168807
1001.624521	2560.860783
1001.919254	2557.074877
1002.213951	2554.834084
1002.508613	2556.774928
1002.803239	2556.459856
1003.097829	2557.344579
1003.392384	2561.722821
1003.686903	2558.390618
1003.981386	2557.720145
1004.275834	2557.349620
1004.570246	2560.157542
1004.864623	2558.362892
1005.158964	2561.606874
1005.453270	2560.265927
1005.747540	2557.752912
1006.041775	2558.960268
1006.335974	2557.939435
1006.630138	2560.439847
1006.924266	2556.951369
1007.218359	2559.121585
1007.512416	2561.125444
1007.806438	2557.735268
1008.100425	2559.484548
1008.394376	2558.801472
1008.688292	2557.490772
1008.982172	2559.361040
1009.276017	2559.852553
1009.569827	2559.091338
1009.863602	2561.115362
1010.157341	2560.306257
1010.451045	2557.894064
1010.744714	2560.097049
1011.038347	2559.013201
1011.331945	2557.757953
1011.625508	2558.554456
1011.919036	2560.167625
1012.212528	2558.753581
1012.505986	2553.586398
1012.799408	2557.223591
1013.092795	2558.904816
1013.386147	2558.287274
1013.679464	2558.690567
1013.972745	2559.045968
1014.265992	2560.117213
1014.559204	2559.988664
1014.852380	2556.671585
1015.145521	2557.818447
1015.438628	2559.471946
1015.731699	2559.058571
1016.024736	2557.672254
1016.317737	2559.242573
1016.610703	2558.683005
1016.903635	2554.455998
1017.196531	2554.030020
1017.489393	2554.193858
1017.782219	2553.898950
1018.075011	2555.975905
1018.367768	2559.252655
1018.660490	2559.577810
1018.953177	2559.577810
1019.245829	2559.577810
