Dividing Wavelength (nm)	Counts (n)	Blue Motor Position (mm): 0.000000	Red Motor Position (mm): 36.400000	
326.493990	2127.833230
326.888308	2127.833230
327.282561	2127.833230
327.676750	2097.051944
328.070874	2096.688981
328.464933	2094.569176
328.858929	2104.467482
329.252859	2114.343102
329.646726	2125.080760
330.040528	2139.460651
330.434265	2153.013793
330.827938	2172.356701
331.221547	2188.364885
331.615091	2207.463296
332.008571	2228.873076
332.401986	2249.340161
332.795338	2266.139806
333.188625	2286.228804
333.581847	2306.035498
333.975006	2322.724238
334.368100	2343.561847
334.761129	2359.945597
335.154095	2373.975128
335.546996	2395.221071
335.939833	2416.265368
336.332606	2430.819179
336.725315	2445.282249
337.117960	2451.621500
337.510540	2459.543673
337.903056	2471.355097
338.295508	2478.218628
338.687896	2488.835298
339.080220	2495.628253
339.472480	2503.321053
339.864676	2505.982783
340.256807	2513.484020
340.648875	2512.380007
341.040879	2518.119361
341.432818	2519.369567
341.824694	2522.273271
342.216506	2520.337468
342.608253	2521.774197
342.999937	2522.679084
343.391557	2521.081038
343.783113	2517.590039
344.174605	2518.875534
344.566033	2518.625997
344.957397	2515.818074
345.348697	2513.194153
345.739934	2509.655263
346.131106	2510.615603
346.522215	2511.704492
346.913260	2507.686693
347.304241	2503.999089
347.695159	2504.067144
348.086012	2500.283758
348.476802	2500.379540
348.867528	2499.509941
349.258191	2498.083295
349.648789	2496.775115
350.039324	2493.952069
350.429796	2492.530464
350.820203	2491.544918
351.210548	2491.197078
351.600828	2490.186327
351.991045	2494.118427
352.381198	2486.947386
352.771288	2488.558034
353.161314	2489.528457
353.551276	2489.979640
353.941175	2488.338744
354.331010	2487.393528
354.720782	2488.716831
355.110490	2489.702376
355.500135	2489.576348
355.889717	2487.368322
356.279235	2490.098107
356.668689	2493.952069
357.058080	2489.397387
357.447408	2489.372181
357.836672	2490.161121
358.225873	2487.310349
358.615010	2488.568117
359.004084	2492.112048
359.393095	2491.169352
359.782043	2497.178407
360.170927	2494.594816
360.559748	2494.551966
360.948505	2495.270331
361.337199	2494.342758
361.725830	2494.733448
362.114398	2498.741165
362.502903	2496.407111
362.891344	2495.746720
363.279722	2496.512975
363.668037	2500.011536
364.056289	2502.232164
364.444478	2502.355673
364.832603	2501.130672
365.220665	2504.510766
365.608665	2503.268121
365.996601	2504.500683
366.384474	2506.592762
366.772284	2505.705519
367.160031	2508.657115
367.547715	2507.953874
367.935336	2512.629544
368.322893	2515.530728
368.710388	2520.715555
369.097820	2525.461801
369.485189	2528.050434
369.872495	2534.717360
370.259738	2537.671476
370.646918	2548.472148
371.034035	2554.849208
371.421090	2568.155333
371.808081	2576.120356
372.195010	2585.048240
372.581875	2597.441916
372.968678	2612.351129
373.355418	2620.467387
373.742096	2638.076137
374.128710	2652.796306
374.515262	2668.123934
374.901751	2685.583971
375.288177	2698.849767
375.674540	2720.446070
376.060841	2740.356107
376.447079	2755.653489
376.833254	2778.852879
377.219367	2790.205557
377.605417	2828.276351
377.991404	2837.224399
378.377329	2861.084180
378.763191	2875.403578
379.148991	2916.241965
379.534727	2939.801798
379.920402	2966.870273
380.306013	2981.880309
380.691563	3032.448123
381.077049	3051.428067
381.462474	3072.008578
381.847835	3111.052314
382.233134	3129.056795
382.618371	3131.363123
383.003545	3199.713607
383.388657	3204.666541
383.773706	3235.364647
384.158693	3253.727050
384.543618	3282.622944
384.928480	3316.222235
385.313280	3362.515150
385.698017	3362.069008
386.082692	3414.630599
386.467305	3419.218049
386.851856	3453.069397
387.236344	3473.841471
387.620770	3506.921523
388.005133	3532.644010
388.389435	3561.242476
388.773674	3571.644897
389.157851	3612.727780
389.541965	3630.132364
389.926018	3592.984101
390.310008	3661.165707
390.693936	3680.375024
391.077802	3722.962692
391.461606	3711.698233
391.845348	3776.300620
392.229027	3777.177781
392.612645	3788.273360
392.996200	3865.128271
393.379694	3904.804672
393.763125	3970.614415
394.146494	3938.187193
394.529801	3999.797655
394.913047	4048.011250
395.296230	4013.905324
395.679351	4069.358016
396.062410	4093.888271
396.445408	4073.600147
396.828343	4104.479735
397.211217	4129.410762
397.594028	4048.853123
397.976778	4117.758134
398.359466	4147.382475
398.742092	4173.165456
399.124656	4092.486830
399.507158	4176.830375
399.889598	4198.167059
400.271977	4259.742232
400.654294	4231.627718
401.036549	4240.346393
401.418742	4212.264646
401.800874	4314.148885
402.182944	4332.067667
402.564952	4400.289602
402.946898	4385.740832
403.328783	4386.166809
403.710606	4295.985608
404.092367	4489.951564
404.474067	4454.199701
404.855705	4460.410402
405.237282	4387.583373
405.618797	4495.935414
406.000250	4531.281464
406.381642	4609.978917
406.762972	4570.027772
407.144240	4586.030915
407.525447	4583.467488
407.906593	4642.023011
408.287677	4687.403478
408.668700	4614.692395
409.049661	4668.053009
409.430560	4712.752920
409.811399	4635.950941
410.192176	4799.675015
410.572891	4736.247217
410.953545	4840.621787
411.334138	4722.005958
411.714669	4786.361328
412.095139	4679.161191
412.475547	4824.449766
412.855894	4805.689112
413.236180	4817.752593
413.616405	4766.216877
413.996568	4858.049056
414.376670	4792.844252
414.756711	4752.129373
415.136691	4784.047438
415.516609	4861.182133
415.896466	4898.131270
416.276262	4935.382877
416.655997	4917.912758
417.035670	5099.111992
417.415283	5186.664231
417.794834	5128.927896
418.174324	5087.159416
418.553753	4993.648533
418.933121	5178.734496
419.312428	5240.375205
419.691674	5184.262122
420.070859	5310.411955
420.449983	5222.184201
420.829045	5331.889791
421.208047	5245.849898
421.586988	5313.991175
421.965867	5323.153472
422.344686	5458.402588
422.723444	5316.199200
423.102141	5130.954440
423.480777	5430.182209
423.859352	5200.292991
424.237866	5455.612310
424.616319	5451.644922
424.994712	5562.295728
425.373044	5440.282161
425.751314	5578.127472
426.129524	5380.340321
426.507673	5577.809879
426.885762	5661.699720
427.263789	5593.180357
427.641756	5472.202747
428.019662	5593.016519
428.397508	5604.797696
428.775292	5549.425662
429.153016	5643.680116
429.530679	5569.920473
429.908282	5660.608310
430.285824	5527.791550
430.663305	5804.533253
431.040726	5538.236821
431.418086	5536.124578
431.795385	5643.143233
432.172624	5659.279966
432.549802	5649.900899
432.926920	5666.410678
433.303977	5670.836811
433.680974	5709.928439
434.057910	5727.234720
434.434786	5735.522377
434.811601	5703.490885
435.188355	5935.273057
435.565050	5813.153626
435.941683	5792.013547
436.318257	6009.199058
436.694770	5989.997303
437.071222	6025.935688
437.447614	5951.747548
437.823946	5870.668150
438.200218	6020.760944
438.576429	5891.190687
438.952580	5990.471171
439.328670	6030.951636
439.704700	5938.620383
440.080670	5922.365183
440.456580	6198.174271
440.832429	6078.545170
441.208218	5928.802736
441.583947	6082.699081
441.959616	6085.154123
442.335224	6014.371281
442.710773	6146.424306
443.086261	6174.198543
443.461689	5975.254448
443.837057	6119.217199
444.212365	6276.362567
444.587612	6164.612789
444.962800	6326.602707
445.337927	6301.470034
445.712995	5911.975364
446.088002	6486.074567
446.462949	6319.154402
446.837837	6251.996150
447.212664	6426.936792
447.587431	6562.944602
447.962139	7106.880061
448.336786	8031.470526
448.711374	7778.583564
449.085901	6851.838005
449.460369	6769.523525
449.834776	6705.331992
450.209124	7095.000582
450.583412	7244.077583
450.957640	7390.225674
451.331808	7155.648183
451.705917	6713.710390
452.079965	6632.283152
452.453954	6842.292580
452.827883	6721.665331
453.201752	6811.513816
453.575562	6613.754391
453.949311	6812.867365
454.323001	6702.924841
454.696632	6779.651203
455.070202	6917.209168
455.443713	7071.765903
455.817164	7176.642068
456.190556	7258.923781
456.563888	7328.607651
456.937160	7373.085751
457.310373	7031.920623
457.683526	7052.589354
458.056619	6943.115657
458.429653	6929.829696
458.802628	6866.848041
459.175542	6979.071687
459.548398	7334.588980
459.921194	7491.126889
460.293930	7490.559759
460.666607	8030.731997
461.039224	8332.724838
461.411782	8454.753529
461.784280	8479.263619
462.156719	8370.989717
462.529099	8248.177127
462.901419	7836.834096
463.273680	7729.581028
463.645882	7743.655929
464.018024	7612.626258
464.390106	7782.346785
464.762130	8168.816762
465.134094	8626.760219
465.505999	9654.822887
465.877845	10878.346214
466.249631	11524.062569
466.621358	11139.072170
466.993026	10518.901862
467.364634	10254.959650
467.736184	9893.037571
468.107674	9558.196571
468.479105	9596.196789
468.850477	9358.634934
469.221790	9132.667734
469.593043	8801.302609
469.964238	8662.088625
470.335373	8673.786622
470.706449	8736.264163
471.077467	8716.598622
471.448425	10026.020689
471.819324	11103.027920
472.190164	11122.572474
472.560945	9872.620898
472.931667	9084.663346
473.302330	8949.590670
473.672934	8590.887368
474.043479	8952.126370
474.413965	8894.269048
474.784393	8772.794884
475.154761	8928.387577
475.525070	9021.414509
475.895321	8847.076286
476.265513	9025.986836
476.635645	9189.489099
477.005719	9189.720992
477.375734	9302.305081
477.745691	9537.963900
478.115588	9675.118573
478.485427	9921.827601
478.855207	10449.966604
479.224928	11265.481623
479.594591	11901.529045
479.964194	11705.738192
480.333739	11651.752475
480.703226	11573.206257
481.072653	11656.002168
481.442022	11891.534958
481.811333	12086.796490
482.180584	11886.440872
482.549777	11601.313210
482.918912	11419.365365
483.287988	11444.079622
483.657005	11453.594800
484.025964	11138.197530
484.394864	11268.372725
484.763706	11235.509443
485.132489	11002.633341
485.501213	10963.140942
485.869879	11032.308093
486.238487	10870.340862
486.607036	10987.109108
486.975527	10770.226067
487.343959	10955.531320
487.712333	11003.966727
488.080648	10936.571541
488.448905	10977.256173
488.817104	10917.432800
489.185244	11178.199086
489.553326	11327.180305
489.921350	11875.236908
490.289315	12934.806787
490.657222	13276.324796
491.025070	13183.925487
491.392861	13063.041138
491.760593	12677.818847
492.128267	12330.982421
492.495883	11999.037564
492.863440	11666.631441
493.230939	11331.906387
493.598380	11263.797878
493.965763	11126.731426
494.333088	11029.971519
494.700354	10954.449993
495.067563	11016.415856
495.434713	10840.235091
495.801805	10974.017232
496.168839	10895.171065
496.535815	10833.195119
496.902733	10825.356125
497.269593	10764.693400
497.636395	10860.109840
498.003139	10850.977790
498.369825	10716.930988
498.736453	10873.615091
499.103023	10796.825715
499.469535	10832.282671
499.835989	10816.334980
500.202385	10773.903588
500.568723	10632.027875
500.935003	10858.289983
501.301226	10661.415282
501.667390	10919.615620
502.033497	11015.710094
502.399546	10877.161543
502.765537	10777.586151
503.131470	10852.883346
503.497345	11025.011023
503.863163	10643.466253
504.228923	10951.962183
504.594625	11016.914930
504.960269	10770.382343
505.325856	10985.352266
505.691385	10771.342682
506.056856	10933.171283
506.422270	10955.785899
506.787625	10844.041162
507.152924	10964.721344
507.518164	10944.990268
507.883347	10862.998421
508.248472	10780.295772
508.613540	11017.028356
508.978550	10899.768597
509.343503	10864.054543
509.708398	10987.688841
510.073236	11099.960378
510.438016	11099.249575
510.802738	11051.716536
511.167403	11104.096645
511.532010	11004.876655
511.896561	11231.322765
512.261053	11301.016717
512.625488	11171.610298
512.989866	11149.424180
513.354186	11144.723304
513.718449	11040.900740
514.082655	11234.060112
514.446803	11122.857299
514.810894	11251.084088
515.174927	11118.161464
515.538904	11138.295833
515.902822	11283.637339
516.266684	11173.294043
516.630488	11108.490010
516.994235	11166.347333
517.357925	11234.337375
517.721558	11309.299333
518.085133	11324.047228
518.448651	11335.856131
518.812112	11214.439941
519.175516	11225.296066
519.538863	11344.468943
519.902152	11260.843762
520.265385	11412.373285
520.628560	11325.615027
520.991678	11293.555809
521.354739	11358.826149
521.717743	11287.372834
522.080690	11263.792837
522.443580	11391.744883
522.806413	11346.626556
523.169189	11367.643127
523.531908	11422.737897
523.894569	11228.300593
524.257174	11229.949051
524.619722	11350.775426
524.982213	11291.309975
525.344647	11331.843373
525.707025	11280.307657
526.069345	11369.241172
526.431608	11279.193562
526.793815	11372.979188
527.155964	11161.583443
527.518057	11207.934332
527.880093	11147.296813
528.242072	11208.294774
528.603995	11109.795669
528.965860	11024.600169
529.327669	11067.565923
529.689421	11012.249342
530.051117	10970.836263
530.412755	11066.280429
530.774337	10950.651483
531.135862	10910.869218
531.497331	10927.774727
531.858743	10772.789493
532.220098	10924.865982
532.581396	10785.568818
532.942638	10755.669735
533.303824	10708.885307
533.664953	10710.972344
534.026025	10613.453744
534.387040	10692.630106
534.747999	10680.123003
535.108902	10725.289221
535.469748	10475.424431
535.830537	10561.600435
536.191270	10523.988387
536.551947	10535.812413
536.912567	10511.788794
537.273131	10425.892574
537.633638	10389.016533
537.994089	10357.791627
538.354483	10289.206728
538.714821	10419.137428
539.075103	10396.449715
539.435328	10341.402835
539.795497	10165.375825
540.155609	10290.666142
540.515665	10356.743067
540.875665	10082.796684
541.235609	10133.745106
541.595496	10097.630279
541.955328	10217.869360
542.315102	10095.195402
542.674821	10028.964723
543.034483	10006.405559
543.394090	9986.366973
543.753640	9894.408765
544.113134	10067.474097
544.472571	9910.989120
544.831953	10011.000571
545.191278	9809.107401
545.550548	9810.697885
545.909761	9902.066278
546.268918	9850.757414
546.628019	9892.634279
546.987064	9736.189631
547.346053	9647.639243
547.704986	9695.318476
548.063863	9656.975460
548.422684	9625.589236
548.781449	9513.388275
549.140158	9568.089835
549.498811	9434.723590
549.857408	9282.463100
550.215949	9423.917877
550.574434	9277.149723
550.932864	9318.600611
551.291237	9339.927212
551.649555	9251.316331
552.007817	9231.935615
552.366022	9164.855501
552.724173	9125.698338
553.082267	9079.110515
553.440305	9134.941294
553.798288	8958.463101
554.156215	9023.594808
554.514086	8974.385585
554.871902	8824.517122
555.229661	8803.251015
555.587365	8752.617666
555.945014	8643.383424
556.302606	8681.597890
556.660143	8578.556706
557.017625	8634.957135
557.375050	8533.209006
557.732421	8584.243127
558.089735	8474.774472
558.446994	8439.700644
558.804197	8427.526257
559.161345	8386.735761
559.518437	8242.747804
559.875474	8255.481759
560.232455	8231.546360
560.589381	8163.430289
560.946251	8101.615661
561.303065	8155.997108
561.659825	8051.947693
562.016528	7969.925599
562.373177	7861.487859
562.729770	7875.625775
563.086307	7788.517157
563.442789	7806.148593
563.799216	7661.570821
564.155587	7661.671644
564.511904	7585.746826
564.868164	7533.220524
565.224370	7513.731423
565.580520	7394.581231
565.936615	7388.602423
566.292654	7249.184272
566.648638	7293.024666
567.004567	7211.284877
567.360441	7166.524472
567.716260	7065.101498
568.072023	7082.007007
568.427732	6999.405181
568.783385	6927.311640
569.138982	6900.510346
569.494525	6879.831532
569.850013	6769.150479
570.205445	6759.572287
570.560823	6682.041861
570.916145	6579.338434
571.271412	6578.763742
571.626625	6506.972671
571.981782	6454.108611
572.336884	6392.064610
572.691931	6377.752774
573.046923	6284.960255
573.401860	6231.118212
573.756743	6153.794473
574.111570	6133.463500
574.466342	6095.992603
574.821059	6058.947684
575.175722	5969.068952
575.530330	5926.841727
575.884882	5893.716305
576.239380	5816.276620
576.593823	5772.393376
576.948211	5735.073714
577.302544	5657.991951
577.656823	5614.353203
578.011047	5582.152833
578.365216	5535.882602
578.719330	5468.308456
579.073389	5429.778917
579.427394	5380.342842
579.781344	5341.629301
580.135239	5275.481800
580.489080	5251.203603
580.842866	5171.515564
581.196597	5143.814424
581.550273	5121.656032
581.903895	5067.816509
582.257463	5066.962033
582.610975	4983.057069
582.964434	4967.283298
583.317837	4901.166045
583.671186	4871.849215
584.024481	4832.016538
584.377721	4777.488897
584.730906	4737.411724
585.084037	4712.568918
585.437113	4668.436137
585.790135	4640.142661
586.143103	4580.102518
586.496016	4541.905696
586.848874	4527.127553
587.201679	4503.686188
587.554428	4430.801185
587.907124	4416.305348
588.259765	4387.774937
588.612352	4358.979867
588.964884	4304.815189
589.317362	4278.432310
589.669786	4249.493567
590.022155	4244.102053
590.374470	4210.323801
590.726731	4181.785829
591.078937	4107.206999
591.431090	4107.340590
591.783188	4057.239082
592.135232	4022.671891
592.487222	4010.656300
592.839157	3991.668794
593.191038	3954.137404
593.542866	3917.682300
593.894639	3871.706977
594.246358	3860.901264
594.598022	3839.879652
594.949633	3795.734268
595.301190	3769.621091
595.652692	3750.328595
596.004141	3747.109818
596.355535	3685.527083
596.706876	3658.440963
597.058162	3623.883854
597.409395	3622.863020
597.760573	3612.836165
598.111698	3578.904159
598.462768	3553.811815
598.813785	3535.041079
599.164748	3506.891276
599.515657	3488.170951
599.866511	3451.420940
600.217312	3459.612815
600.568060	3421.536980
600.918753	3418.950868
601.269392	3399.164339
601.619978	3365.426417
601.970510	3363.624204
602.320988	3348.926720
602.671412	3336.338959
603.021783	3314.210814
603.372100	3295.245993
603.722363	3276.727315
604.072572	3263.464039
604.422728	3251.445928
604.772830	3224.387535
605.122878	3210.002602
605.472872	3198.917105
605.822813	3186.657019
606.172701	3169.960717
606.522534	3162.431754
606.872314	3155.454797
607.222041	3137.604072
607.571714	3132.696508
607.921333	3120.960702
608.270899	3104.629884
608.620411	3105.648197
608.969870	3086.506936
609.319276	3072.742066
609.668627	3063.937690
610.017926	3061.303688
610.367171	3056.189437
610.716362	3043.853733
611.065500	3032.362423
611.414585	3020.785413
611.763616	3010.715709
612.112594	3001.218175
612.461518	2994.669716
612.810389	2991.309787
613.159207	2976.745893
613.507971	2961.831640
613.856682	2960.921712
614.205340	2951.628344
614.553945	2949.420319
614.902496	2933.671754
615.250994	2934.004471
615.599439	2922.026689
615.947830	2913.187026
616.296169	2907.654359
616.644454	2902.144378
616.992686	2893.317318
617.340864	2893.314797
617.688990	2879.706203
618.037063	2882.599825
618.385082	2873.714791
618.733048	2873.286293
619.080961	2861.217771
619.428821	2858.946731
619.776628	2851.372397
620.124382	2846.217817
620.472083	2837.264728
620.819731	2832.485714
621.167326	2819.381235
621.514868	2810.327323
621.862357	2801.538071
622.209793	2795.213943
622.557176	2784.272119
622.904506	2777.660646
623.251783	2769.030190
623.599007	2761.743202
623.946179	2758.448808
624.293297	2753.150556
624.640363	2746.100502
624.987376	2740.514904
625.334336	2733.101887
625.681243	2728.776577
626.028097	2723.054867
626.374899	2723.012017
626.721647	2718.696790
627.068343	2712.788557
627.414987	2707.502908
627.761577	2704.818493
628.108115	2701.670293
628.454600	2697.715507
628.801032	2691.877851
629.147412	2692.210567
629.493739	2688.291070
629.840014	2685.089938
630.186236	2684.603466
630.532405	2680.378979
630.878521	2677.513083
631.224585	2675.925120
631.570597	2668.847340
631.916556	2671.095695
632.262462	2669.598472
632.608316	2664.605209
632.954117	2663.302071
633.299866	2662.845846
633.645562	2658.419713
633.991206	2655.490803
634.336797	2650.847900
634.682336	2647.621562
635.027823	2645.116108
635.373257	2644.332209
635.718639	2641.758700
636.063968	2638.401291
636.409245	2637.254429
636.754470	2634.948101
637.099642	2631.625981
637.444762	2633.818882
637.789829	2628.104735
638.134845	2626.171452
638.479808	2627.439302
638.824719	2624.255814
639.169577	2618.866820
639.514383	2618.455966
639.859137	2617.911522
640.203839	2617.001593
640.548489	2615.138887
640.893086	2612.152003
641.237632	2609.659153
641.582125	2612.560337
641.926566	2604.764192
642.270955	2610.959770
642.615292	2611.438680
642.959576	2610.735439
643.303809	2611.176540
643.647990	2607.315016
643.992118	2610.072527
644.336195	2605.676641
644.680219	2607.400716
645.024192	2605.522886
645.368112	2607.367948
645.711981	2606.331991
646.055797	2606.561364
646.399562	2608.265274
646.743274	2606.947012
647.086935	2609.507918
647.430544	2608.340891
647.774101	2607.728391
648.117606	2609.316354
648.461059	2609.540686
648.804460	2607.040273
649.147810	2604.272680
649.491108	2604.413832
649.834354	2604.315530
650.177548	2600.527102
650.520690	2598.747575
650.863781	2599.168512
651.206820	2601.653800
651.549807	2597.572986
651.892742	2597.162132
652.235626	2593.824888
652.578458	2595.622060
652.921238	2594.250866
653.263967	2592.342789
653.606644	2592.922522
653.949269	2593.381267
654.291843	2589.817171
654.634365	2590.520412
654.976836	2588.582088
655.319255	2590.578385
655.661622	2592.962851
656.003938	2590.805237
656.346203	2592.627614
656.688416	2591.952100
657.030577	2588.052767
657.372687	2587.677201
657.714746	2586.989084
658.056753	2586.898343
658.398708	2585.113775
658.740612	2583.583784
659.082465	2585.829618
659.424266	2585.088569
659.766016	2583.218301
660.107715	2585.461614
660.449362	2583.558579
660.790958	2587.775504
661.132503	2586.164855
661.473996	2585.484299
661.815438	2585.562437
662.156829	2585.343147
662.498168	2583.198136
662.839456	2584.987746
663.180693	2584.642427
663.521879	2587.503282
663.863013	2585.781727
664.204097	2585.247365
664.545129	2584.241655
664.886110	2586.590833
665.227040	2586.946234
665.567918	2588.662747
665.908746	2584.632344
666.249522	2588.483786
666.590248	2586.318610
666.930922	2586.011100
667.271545	2583.135122
667.612118	2586.484968
667.952639	2587.072263
668.293109	2581.937848
668.633528	2585.842221
668.973896	2581.922724
669.314213	2584.518918
669.654480	2583.999680
669.994695	2585.091089
670.334859	2583.389700
670.674973	2582.406675
671.015035	2584.559248
671.355047	2583.286356
671.695008	2582.683938
672.034918	2583.334247
672.374777	2581.506829
672.714585	2584.433219
673.054342	2586.147211
673.394049	2583.331727
673.733705	2583.581264
674.073310	2581.786613
674.412864	2585.564958
674.752368	2580.007086
675.091820	2583.389700
675.431223	2580.392734
675.770574	2581.239648
676.109875	2577.196642
676.449125	2576.974832
676.788324	2576.347208
677.127473	2577.952816
677.466571	2574.655901
677.805619	2576.805953
678.144616	2577.506673
678.483562	2580.196129
678.822458	2577.408371
679.161303	2579.422312
679.500098	2577.768813
679.838842	2578.938361
680.177535	2578.746797
680.516179	2580.304514
680.854771	2579.578588
681.193314	2580.072621
681.531805	2579.190419
681.870247	2582.613362
682.208638	2584.009762
682.546978	2582.638568
682.885268	2582.084041
683.223508	2583.558579
683.561697	2581.511870
683.899836	2581.116140
684.237925	2581.970615
684.575963	2578.973649
684.913951	2580.375090
685.251889	2581.529514
685.589776	2581.708475
685.927614	2578.882908
686.265401	2579.162692
686.603137	2580.647312
686.940824	2580.942220
687.278460	2579.777713
687.616046	2582.905749
687.953582	2581.973136
688.291068	2581.176633
688.628504	2580.869123
688.965889	2583.324165
689.303224	2580.133115
689.640510	2578.756880
689.977745	2578.212435
690.314930	2577.617579
690.652065	2578.814853
690.989150	2580.296952
691.326185	2574.870150
691.663170	2575.117167
692.000105	2575.482650
692.336990	2573.987948
692.673825	2572.120201
693.010610	2574.479461
693.347345	2568.135168
693.684030	2565.435631
694.020665	2565.869170
694.357251	2564.331618
694.693786	2571.532906
695.030272	2570.630540
695.366707	2568.702298
695.703093	2570.133986
696.039429	2567.520148
696.375716	2567.701629
696.711952	2568.089798
697.048139	2569.188770
697.384276	2567.041238
697.720363	2568.210786
698.056400	2566.171639
698.392388	2567.966290
698.728326	2566.466547
699.064214	2566.761454
699.400053	2566.229612
699.735842	2566.426217
700.071581	2565.914540
700.407270	2566.194324
700.742910	2564.248439
701.078501	2566.985785
701.414042	2566.259859
701.749533	2563.545198
702.084974	2564.865980
702.420366	2563.061247
702.755709	2563.719118
703.091002	2563.272976
703.426246	2563.149467
703.761440	2562.693243
704.096584	2564.019066
704.431679	2563.698953
704.766725	2564.243398
705.101721	2564.964283
705.436668	2563.948490
705.771565	2562.274827
706.106413	2562.660475
706.441212	2562.035372
706.775961	2562.597461
707.110661	2561.652245
707.445311	2564.757595
707.779913	2562.720969
708.114465	2562.534447
708.448967	2564.003943
708.783421	2566.532082
709.117825	2564.124931
709.452180	2566.615261
709.786485	2563.837585
710.120742	2568.157854
710.454949	2571.351425
710.789107	2565.450754
711.123216	2563.938408
711.457275	2569.087947
711.791286	2562.378171
712.125247	2567.714232
712.459159	2569.438307
712.793023	2570.098698
713.126837	2566.408573
713.460602	2568.412432
713.794318	2569.554253
714.127985	2568.205745
714.461602	2569.289593
714.795171	2567.318502
715.128691	2564.734910
715.462162	2563.673747
715.795584	2563.711556
716.128957	2562.317677
716.462281	2563.197358
716.795556	2562.695763
717.128782	2560.354147
717.461960	2564.737431
717.795088	2562.451268
718.128167	2563.073850
718.461198	2561.621998
718.794180	2559.726524
719.127113	2560.611246
719.459997	2561.072512
719.792833	2560.495300
720.125619	2561.226267
720.458357	2559.454302
720.791046	2558.841801
721.123686	2559.177038
721.456278	2559.290464
721.788821	2560.659137
722.121315	2558.499003
722.453761	2557.682336
722.786158	2554.670247
723.118506	2558.282233
723.450805	2557.304249
723.783056	2559.139229
724.115259	2555.928014
724.447412	2558.635114
724.779518	2558.826678
725.111574	2557.672254
725.443582	2560.354147
725.775542	2559.126627
726.107453	2560.621329
726.439315	2560.278530
726.771129	2563.840105
727.102895	2560.999415
727.434612	2561.621998
727.766281	2560.971689
728.097901	2561.243911
728.429473	2557.485731
728.760996	2560.631411
729.092471	2555.675957
729.423897	2560.056719
729.755276	2560.311298
730.086606	2562.080743
730.417887	2564.117369
730.749120	2562.514282
731.080305	2564.860939
731.411442	2564.233315
731.742530	2565.750703
732.073570	2564.379509
732.404562	2562.862122
732.735506	2564.687019
733.066401	2565.203737
733.397249	2562.262224
733.728048	2562.751216
734.058798	2560.170145
734.389501	2560.276010
734.720156	2560.636452
735.050762	2561.203582
735.381320	2558.957748
735.711831	2556.280895
736.042293	2556.553117
736.372707	2558.347768
736.703073	2557.034548
737.033391	2556.603529
737.363661	2560.243242
737.693883	2558.499003
738.024056	2561.117882
738.354182	2558.630073
738.684260	2559.842470
739.014290	2558.234342
739.344272	2561.402707
739.674207	2560.301215
740.004093	2560.381874
740.333931	2562.773901
740.663722	2561.087635
740.993464	2559.575289
741.323159	2560.223078
741.652806	2558.935063
741.982405	2561.543860
742.311956	2557.281564
742.641460	2557.762994
742.970915	2559.625701
743.300323	2556.633776
743.629683	2554.866852
743.958996	2558.136040
744.288260	2555.985988
744.617477	2552.668908
744.946647	2554.284598
745.275768	2554.153528
745.604842	2549.366953
745.933869	2552.726882
746.262847	2550.657488
746.591778	2555.925494
746.920662	2550.939793
747.249498	2557.936914
747.578286	2555.587737
747.907027	2556.258210
748.235720	2556.989177
748.564365	2554.554300
748.892963	2553.132695
749.221514	2557.062274
749.550017	2555.837274
749.878473	2555.166800
750.206881	2554.587067
750.535242	2555.549928
750.863555	2553.982129
751.191821	2553.533466
751.520039	2553.205791
751.848210	2554.292160
752.176334	2553.757798
752.504411	2552.520194
752.832440	2556.202757
753.160421	2552.568085
753.488356	2558.075546
753.816243	2553.571275
754.144082	2551.239741
754.471875	2553.591440
754.799620	2555.915412
755.127318	2553.788045
755.454969	2554.251831
755.782572	2554.529094
756.110129	2552.381563
756.437638	2554.118240
756.765100	2552.646223
757.092515	2554.037582
757.419882	2553.223435
757.747203	2555.391132
758.074477	2552.961295
758.401703	2554.655123
758.728882	2554.942469
759.056014	2552.525236
759.383099	2553.669577
759.710138	2554.942469
760.037129	2552.063970
760.364073	2556.293498
760.690970	2556.016235
761.017820	2554.090514
761.344623	2555.857438
761.671379	2555.091183
761.998088	2554.957592
762.324751	2555.928014
762.651366	2559.887841
762.977935	2576.125397
763.304456	2573.332598
763.630931	2579.853331
763.957359	2576.949626
764.283740	2570.728842
764.610074	2567.028635
764.936362	2563.953531
765.262602	2556.643858
765.588796	2559.666030
765.914943	2555.340720
766.241044	2553.372149
766.567097	2550.276881
766.893104	2552.482386
767.219064	2550.377704
767.544978	2552.016079
767.870845	2551.781665
768.196665	2552.668908
768.522438	2550.337375
768.848165	2548.714123
769.173846	2548.832590
769.499479	2548.555327
769.825066	2547.055584
770.150607	2547.526932
770.476101	2546.168341
770.801548	2551.587581
771.126949	2546.934596
771.452303	2549.893753
771.777611	2547.461397
772.102872	2549.366953
772.428087	2544.230017
772.753256	2545.457538
773.078378	2546.369987
773.403453	2546.206149
773.728482	2547.579864
774.053465	2546.231355
774.378401	2543.922507
774.703291	2547.365615
775.028135	2546.685059
775.352932	2546.001982
775.677683	2543.952753
776.002388	2549.379556
776.327046	2547.511808
776.651658	2545.331509
776.976224	2544.053577
777.300743	2544.547610
777.625216	2546.107847
777.949643	2544.048535
778.274024	2545.694472
778.598359	2542.596683
778.922647	2541.379244
779.246889	2545.507949
779.571086	2541.540561
779.895236	2541.893442
780.219339	2544.494678
780.543397	2543.670449
780.867409	2545.081972
781.191374	2542.710109
781.515294	2544.678680
781.839167	2545.502908
782.162995	2543.746066
782.486776	2547.670604
782.810511	2544.945861
783.134201	2545.886036
783.457844	2543.062990
783.781441	2545.386962
784.104993	2543.068031
784.428498	2546.201108
784.751958	2544.991231
785.075372	2544.971067
785.398739	2544.570295
785.722061	2543.360418
786.045337	2546.682538
786.368568	2544.759338
786.691752	2545.427291
787.014891	2544.366128
787.337983	2549.916438
787.661030	2547.277394
787.984031	2550.881819
788.306987	2550.738147
788.629897	2548.000800
788.952760	2549.797971
789.275579	2549.540873
789.598351	2546.465769
789.921078	2547.171530
790.243759	2544.333361
790.566395	2544.769420
790.888984	2545.271015
791.211529	2546.070038
791.534027	2544.373690
791.856480	2548.144473
792.178888	2543.572146
792.501249	2543.763710
792.823566	2544.308155
793.145836	2543.577188
793.468062	2545.633978
793.790241	2544.850079
794.112375	2544.151879
794.434464	2544.719009
794.756507	2544.976108
795.078505	2544.403937
795.400457	2543.095757
795.722364	2540.769265
796.044226	2541.714481
796.366042	2541.727084
796.687812	2541.273380
797.009538	2545.253371
797.331218	2545.328988
797.652852	2543.612476
797.974442	2544.532486
798.295986	2545.049204
798.617484	2545.583567
798.938938	2542.848741
799.260346	2547.010213
799.581709	2544.890408
799.903026	2545.898639
800.224299	2544.154400
800.545526	2542.445448
800.866708	2541.409491
801.187845	2543.705737
801.508936	2543.516694
801.829983	2545.102137
802.150984	2542.999975
802.471940	2542.747918
802.792851	2543.798998
803.113717	2543.320089
803.434538	2540.960829
803.755314	2540.827238
804.076045	2540.615510
804.396731	2540.522248
804.717372	2543.725902
805.037967	2544.880326
805.358518	2540.940664
805.679024	2542.707588
805.999485	2542.823535
806.319901	2542.904193
806.640272	2541.333874
806.960598	2544.235058
807.280879	2545.679349
807.601115	2543.055428
807.921306	2542.185829
808.241453	2545.076931
808.561554	2543.849410
808.881611	2542.145500
809.201623	2543.115922
809.521590	2542.831097
809.841513	2541.858154
810.161390	2544.323278
810.481223	2540.653318
810.801011	2539.710623
811.120755	2543.541899
811.440453	2543.564585
811.760107	2543.433515
812.079716	2541.210366
812.399281	2537.268183
812.718801	2540.434028
813.038276	2538.009233
813.357707	2543.955274
813.677093	2543.315048
813.996434	2542.425284
814.315731	2541.596014
814.634983	2543.607434
814.954191	2542.916796
815.273354	2544.958464
815.592473	2540.350849
815.911547	2544.461910
816.230577	2541.517876
816.549562	2543.816642
816.868502	2545.470141
817.187399	2543.143648
817.506250	2547.481561
817.825058	2543.655325
818.143821	2544.537527
818.462539	2547.705892
818.781213	2547.836963
819.099843	2547.398382
819.418429	2549.850903
819.736970	2552.789896
820.055466	2554.327448
820.373919	2557.026986
820.692327	2560.767522
821.010691	2567.116855
821.329011	2586.348857
821.647286	2623.819754
821.965517	2662.956752
822.283704	2684.379135
822.601847	2689.132943
822.919945	2675.680624
823.237999	2652.415699
823.556010	2629.811165
823.873976	2613.505553
824.191897	2600.748913
824.509775	2586.081676
824.827609	2578.494740
825.145398	2572.977197
825.463144	2576.339646
825.780845	2574.303020
826.098502	2579.107240
826.416116	2588.826584
826.733685	2600.557349
827.051210	2605.139758
827.368692	2599.841506
827.686129	2589.970926
828.003522	2577.809143
828.320872	2564.331618
828.638177	2561.624518
828.955439	2558.322563
829.272656	2551.333003
829.589830	2549.009031
829.906960	2550.551624
830.224046	2548.951057
830.541088	2547.121119
830.858086	2548.139432
831.175041	2548.232693
831.491952	2546.717826
831.808819	2545.908721
832.125642	2546.438042
832.442421	2548.885523
832.759157	2554.813919
833.075849	2559.504713
833.392497	2571.053997
833.709101	2573.998030
834.025662	2573.599779
834.342179	2570.317988
834.658653	2562.579817
834.975083	2557.823488
835.291469	2560.291133
835.607811	2551.242262
835.924110	2548.905687
836.240366	2547.791592
836.556578	2545.089534
836.872746	2546.032229
837.188871	2543.506611
837.504952	2543.577187
837.820990	2541.555685
838.136984	2542.069882
838.452935	2540.650798
838.768842	2542.533669
839.084706	2540.333205
839.400526	2545.097095
839.716303	2548.336037
840.032037	2554.519012
840.347727	2553.906512
840.663373	2553.714948
840.978977	2548.459545
841.294537	2545.273536
841.610054	2541.825387
841.925527	2544.892929
842.240957	2539.813966
842.556344	2540.055942
842.871687	2537.888245
843.186987	2539.478729
843.502244	2536.751465
843.817458	2538.558719
844.132629	2537.237937
844.447756	2537.595858
844.762840	2535.160981
845.077881	2536.396064
845.392879	2533.510003
845.707833	2537.898328
846.022745	2530.071936
846.337613	2537.449665
846.652438	2537.177443
846.967221	2536.723739
847.281960	2534.881197
847.596656	2539.526620
847.911309	2536.396064
848.225919	2538.243647
848.540485	2535.657535
848.855009	2535.521424
849.169490	2535.715508
849.483928	2538.725077
849.798323	2535.057637
850.112675	2536.418749
850.426984	2534.982020
850.741251	2535.584438
851.055474	2539.186343
851.369654	2536.680889
851.683792	2536.320447
851.997887	2540.227341
852.311938	2536.882535
852.625947	2538.478060
852.939914	2535.143337
853.253837	2538.435211
853.567718	2535.367668
853.881555	2536.358255
854.195350	2537.265663
854.509103	2535.836496
854.822812	2537.580735
855.136479	2537.943698
855.450103	2537.457227
855.763685	2536.398584
856.077224	2537.265663
856.390720	2536.005374
856.704173	2536.078471
857.017584	2538.959491
857.330953	2534.593851
857.644278	2534.699716
857.957561	2536.426311
858.270802	2538.856147
858.584000	2536.441434
858.897155	2536.605272
859.210268	2535.216434
859.523339	2537.056455
859.836367	2535.435724
860.149352	2538.503266
860.462295	2538.140303
860.775195	2533.078985
861.088054	2530.966741
861.400869	2534.677030
861.713642	2529.900537
862.026373	2535.465971
862.339062	2535.586959
862.651708	2533.943542
862.964312	2538.006713
863.276873	2536.461599
863.589392	2537.815149
863.901869	2533.552853
864.214303	2537.918492
864.526696	2536.988399
864.839045	2536.852288
865.151353	2536.469161
865.463619	2538.546116
865.775842	2537.210210
866.088023	2536.950591
866.400162	2536.048224
866.712258	2538.785571
867.024313	2537.197607
867.336325	2538.316743
867.648296	2538.848585
867.960224	2538.079809
868.272110	2537.923533
868.583954	2535.274407
868.895755	2537.074099
869.207515	2537.074099
869.519233	2538.508307
869.830909	2536.965714
870.142542	2537.905889
870.454134	2538.321785
870.765684	2537.558050
871.077191	2539.355221
871.388657	2539.924872
871.700081	2538.530993
872.011463	2537.316074
872.322803	2538.054603
872.634101	2539.254398
872.945357	2540.502084
873.256571	2539.856816
873.567744	2540.381096
873.878874	2537.046373
874.189963	2540.585263
874.501010	2539.856816
874.812015	2539.304810
875.122979	2543.297403
875.433900	2539.990407
875.744780	2539.982845
876.055618	2539.176260
876.366415	2541.147351
876.677169	2539.387989
876.987882	2539.158616
877.298554	2536.925385
877.609183	2539.292207
877.919771	2536.761548
878.230317	2538.780530
878.540822	2543.705737
878.851285	2547.947868
879.161707	2545.843186
879.472087	2547.181613
879.782425	2552.991542
880.092722	2562.108469
880.402977	2571.207752
880.713191	2591.140474
881.023363	2610.004472
881.333494	2624.989302
881.643583	2626.264713
881.953631	2624.384363
882.263637	2620.419496
882.573602	2613.119905
882.883526	2602.720004
883.193408	2592.698191
883.503248	2586.585792
883.813048	2578.088927
884.122806	2568.687175
884.432522	2566.663152
884.742197	2558.730896
885.051831	2558.370453
885.361424	2553.165462
885.670975	2552.472303
885.980485	2548.217570
886.289954	2550.750749
886.599382	2546.556509
886.908768	2546.632127
887.218113	2544.542568
887.527417	2542.211035
887.836680	2543.367980
888.145901	2542.730274
888.455082	2540.320602
888.764221	2543.289842
889.073319	2540.048380
889.382376	2540.083668
889.691392	2541.197763
890.000366	2539.158616
890.309300	2540.260108
890.618193	2539.924872
890.927044	2541.956457
891.235855	2542.289173
891.544625	2543.514173
891.853353	2542.573998
892.162041	2542.896632
892.470687	2543.420912
892.779293	2542.400078
893.087858	2542.793288
893.396381	2541.868236
893.704864	2547.932744
894.013306	2552.888199
894.321707	2562.287430
894.630068	2567.194993
894.938387	2570.330591
895.246665	2568.367062
895.554903	2564.205589
895.863100	2560.780125
896.171256	2557.770556
896.479371	2554.640000
896.787446	2554.299722
897.095480	2548.872920
897.403473	2544.056097
897.711425	2545.026519
898.019336	2543.325130
898.327207	2543.625078
898.635038	2543.899821
898.942827	2543.385624
899.250576	2543.052908
899.558284	2541.429656
899.865952	2539.675334
900.173579	2541.270860
900.481165	2541.439738
900.788711	2538.959491
901.096216	2539.503935
901.403681	2540.534851
901.711105	2535.680220
902.018489	2537.530323
902.325832	2542.460572
902.633135	2543.259595
902.940397	2542.516025
903.247619	2546.274205
903.554800	2549.167827
903.861941	2563.240208
904.169041	2573.078020
904.476101	2580.196129
904.783121	2582.600759
905.090100	2578.184709
905.397039	2566.786660
905.703938	2558.345248
906.010796	2555.252500
906.317614	2553.142777
906.624391	2548.126829
906.931129	2544.227496
907.237826	2541.820345
907.544483	2540.494522
907.851099	2539.372865
908.157675	2539.735828
908.464211	2536.751465
908.770707	2533.746938
909.077163	2533.840199
909.383578	2534.175436
909.689954	2533.215096
909.996289	2533.353727
910.302584	2536.935467
910.608839	2533.598223
910.915054	2535.468492
911.221229	2535.171063
911.527363	2537.598379
911.833458	2536.350693
912.139513	2536.375899
912.445527	2537.179963
912.751502	2537.726928
913.057436	2535.350024
913.363331	2537.772299
913.669186	2541.482588
913.975000	2540.479398
914.280775	2542.349667
914.586510	2549.160265
914.892205	2549.223280
915.197859	2555.605381
915.503475	2562.398335
915.809050	2571.303534
916.114585	2574.718915
916.420081	2579.510532
916.725536	2575.815366
917.030952	2572.785633
917.336328	2565.634756
917.641665	2562.587379
917.946961	2561.768191
918.252218	2555.670916
918.557435	2552.331151
918.862612	2551.635472
919.167750	2546.175902
919.472848	2546.448125
919.777906	2545.180274
920.082925	2541.066693
920.387904	2543.418391
920.692843	2540.446631
920.997743	2540.267670
921.302603	2538.084850
921.607423	2538.329346
921.912204	2540.194573
922.216946	2539.430838
922.521647	2538.311702
922.826310	2536.605272
923.130932	2536.696012
923.435516	2536.552340
923.740059	2535.148378
924.044564	2535.067720
924.349028	2531.783408
924.653454	2531.906916
924.957840	2531.226361
925.262186	2530.082019
925.566493	2531.748120
925.870761	2528.620084
926.174989	2534.172915
926.479178	2532.990764
926.783328	2535.481094
927.087438	2532.111083
927.391509	2532.055630
927.695541	2533.560415
927.999533	2531.622091
928.303486	2534.424973
928.607400	2531.992616
928.911275	2531.223840
929.215110	2533.429345
929.518906	2530.699560
929.822663	2530.404652
930.126381	2531.758202
930.430060	2532.469005
930.733699	2533.285672
931.037299	2532.589993
931.340861	2532.968079
931.644383	2532.544622
931.947866	2530.450023
932.251309	2530.939015
932.554714	2530.916330
932.858080	2532.773995
933.161407	2533.116793
933.464694	2533.920857
933.767943	2533.729293
934.071153	2530.288706
934.374323	2530.356762
934.677455	2533.154602
934.980548	2531.057482
935.283602	2532.070754
935.586617	2530.170239
935.889593	2531.322142
936.192530	2532.723583
936.495428	2531.765764
936.798287	2531.291896
937.101108	2531.904396
937.403890	2533.061341
937.706632	2532.826927
938.009336	2534.314067
938.312002	2534.535878
938.614628	2535.405477
938.917216	2534.583769
939.219765	2536.688451
939.522275	2536.138965
939.824747	2534.939170
940.127179	2532.736186
940.429573	2532.133768
940.731929	2532.952956
941.034246	2532.393388
941.336524	2530.250897
941.638763	2537.149716
941.940964	2534.092257
942.243126	2532.786598
942.545250	2535.571835
942.847335	2533.459592
943.149381	2534.669469
943.451389	2531.637215
943.753359	2534.926568
944.055290	2534.041845
944.357182	2532.063192
944.659036	2532.287523
944.960851	2532.002698
945.262628	2533.489839
945.564367	2530.974303
945.866067	2534.430014
946.167729	2534.568646
946.469352	2534.246012
946.770937	2533.356248
947.072484	2530.591175
947.373992	2532.973120
947.675462	2530.099663
947.976893	2532.249715
948.278286	2529.895496
948.579641	2533.688964
948.880958	2530.896165
949.182236	2532.151412
949.483476	2531.317101
949.784678	2533.731814
950.085841	2529.628315
950.386967	2535.765920
950.688054	2532.607637
950.989103	2532.395908
951.290114	2533.368851
951.591087	2529.905578
951.892021	2532.610157
952.192917	2533.746937
952.493776	2531.906916
952.794596	2533.371372
953.095378	2530.664272
953.396122	2531.299457
953.696828	2532.670651
953.997496	2532.295085
954.298126	2532.862215
954.598718	2533.467153
954.899272	2533.041176
955.199788	2532.332894
955.500266	2531.443130
955.800706	2530.812986
956.101108	2525.444157
956.401472	2528.070598
956.701798	2524.506502
957.002087	2525.847449
957.302337	2528.138654
957.602550	2528.667975
957.902724	2528.645290
958.202861	2529.666123
958.502960	2528.700743
958.803022	2530.835671
959.103045	2529.585465
959.403031	2530.986906
959.702979	2529.300640
960.002889	2531.785929
960.302762	2530.311391
960.602596	2530.404653
960.902393	2528.138654
961.202153	2529.474560
961.501875	2527.523633
961.801559	2530.835671
962.101205	2529.920702
962.400814	2528.592358
962.700385	2525.575227
962.999918	2531.768285
963.299414	2525.905423
963.598873	2530.775177
963.898293	2525.731503
964.197677	2529.361134
964.497022	2527.755526
964.796331	2526.681760
965.095601	2526.850639
965.394835	2531.115455
965.694030	2524.393077
965.993189	2529.865249
966.292309	2528.826771
966.591393	2527.264014
966.890439	2529.827440
967.189447	2529.111597
967.488419	2526.170083
967.787353	2529.938346
968.086249	2529.875331
968.385108	2531.032276
968.683930	2528.136133
968.982714	2527.221164
969.281462	2527.657224
969.580172	2528.408356
969.878844	2528.854498
970.177480	2531.720394
970.476078	2528.675537
970.774639	2531.876669
971.073162	2530.235774
971.371649	2525.529857
971.670098	2522.507685
971.968510	2526.805269
972.266885	2525.441637
972.565223	2529.106555
972.863524	2528.184024
973.161788	2529.582944
973.460014	2530.888603
973.758204	2529.003212
974.056356	2530.412214
974.354471	2527.957172
974.652550	2528.776360
974.950591	2528.685619
975.248595	2528.746113
975.546563	2528.599919
975.844493	2527.894158
976.142386	2528.849457
976.440243	2528.864580
976.738062	2530.417255
977.035845	2528.481452
977.333590	2529.875331
977.631299	2529.340969
977.928971	2529.282996
978.226606	2526.175124
978.524204	2527.359796
978.821765	2527.117820
979.119290	2527.200999
979.416777	2528.610002
979.714228	2527.057326
980.011642	2527.682429
980.309020	2532.128727
980.606360	2527.072450
980.903664	2527.712676
981.200931	2528.269724
981.498162	2528.095804
981.795356	2526.538088
982.092513	2532.489170
982.389633	2528.980527
982.686717	2532.078316
982.983764	2527.919364
983.280775	2531.009591
983.577749	2529.943387
983.874686	2529.149405
984.171587	2529.512368
984.468451	2530.714683
984.765279	2528.390712
985.062070	2529.761905
985.358824	2527.374919
985.655543	2529.875331
985.952224	2531.581762
986.248869	2528.400794
986.545478	2528.141174
986.842050	2524.861904
987.138586	2521.489372
987.435086	2524.624970
987.731549	2522.681605
988.027975	2526.979188
988.324366	2526.263345
988.620719	2529.721576
988.917037	2530.339118
989.213318	2527.478263
989.509563	2527.385001
989.805772	2527.047244
990.101944	2528.030269
990.398080	2529.368695
990.694180	2527.049765
990.990244	2528.436082
991.286271	2525.297964
991.582262	2526.089425
991.878217	2528.730989
992.174136	2527.132944
992.470019	2530.870959
992.765865	2524.703108
993.061676	2526.238139
993.357450	2528.224353
993.653188	2528.799045
993.948890	2527.677388
994.244556	2526.528005
994.540186	2525.350896
994.835780	2530.528161
995.131337	2527.480783
995.426859	2527.909281
995.722345	2527.911802
996.017795	2526.079343
996.313208	2529.651000
996.608586	2527.208561
996.903928	2526.916174
997.199234	2523.069774
997.494504	2528.640249
997.789738	2524.647655
998.084936	2527.722759
998.380099	2528.736031
998.675225	2527.442975
998.970316	2527.647141
999.265371	2527.906761
999.560390	2526.210413
999.855373	2527.135464
1000.150320	2525.287881
1000.445232	2528.110927
1000.740108	2525.731503
1001.034948	2526.782583
1001.329752	2526.291071
1001.624521	2527.034641
1001.919254	2520.902077
1002.213951	2526.016328
1002.508613	2521.247397
1002.803239	2523.921729
1003.097829	2523.064733
1003.392384	2525.315608
1003.686903	2526.089425
1003.981386	2525.073632
1004.275834	2526.606143
1004.570246	2527.311905
1004.864623	2527.508510
1005.158964	2527.016997
1005.453270	2528.007584
1005.747540	2527.092614
1006.041775	2525.570186
1006.335974	2527.652182
1006.630138	2524.536749
1006.924266	2529.081350
1007.218359	2525.802079
1007.512416	2525.797038
1007.806438	2526.394415
1008.100425	2526.396935
1008.394376	2525.429034
1008.688292	2528.060516
1008.982172	2522.835360
1009.276017	2526.555732
1009.569827	2527.329549
1009.863602	2527.710156
1010.157341	2525.572707
1010.451045	2526.381812
1010.744714	2525.547501
1011.038347	2525.282840
1011.331945	2527.780732
1011.625508	2526.805269
1011.919036	2526.712007
1012.212528	2528.110928
1012.505986	2524.594723
1012.799408	2525.817202
1013.092795	2526.575896
1013.386147	2527.097656
1013.679464	2525.935670
1013.972745	2525.320649
1014.265992	2526.681760
1014.559204	2525.199661
1014.852380	2525.628159
1015.145521	2529.028418
1015.438628	2527.672347
1015.731699	2525.529857
1016.024736	2526.943900
1016.317737	2523.823426
1016.610703	2525.723941
1016.903635	2521.086080
1017.196531	2524.569517
1017.489393	2525.418951
1017.782219	2518.255472
1018.075011	2524.647655
1018.367768	2526.669158
1018.660490	2526.659075
1018.953177	2526.659075
1019.245829	2526.659075
