Dividing Wavelength (nm)	Counts (n)	Blue Motor Position (mm): 0.000000	Red Motor Position (mm): 37.700000	
326.493990	2129.418673
326.888308	2129.418673
327.282561	2129.418673
327.676750	2095.615216
328.070874	2094.319639
328.464933	2094.974989
328.858929	2102.851792
329.252859	2110.405961
329.646726	2124.440533
330.040528	2137.824797
330.434265	2154.425316
330.827938	2171.550116
331.221547	2189.259689
331.615091	2209.394058
332.008571	2229.354507
332.401986	2249.917373
332.795338	2269.565270
333.188625	2287.335338
333.581847	2303.764458
333.975006	2322.620894
334.368100	2341.431959
334.761129	2358.534074
335.154095	2374.280118
335.546996	2395.130330
335.939833	2412.416447
336.332606	2430.302461
336.725315	2444.720161
337.117960	2453.693414
337.510540	2459.999898
337.903056	2469.913327
338.295508	2481.432363
338.687896	2488.810092
339.080220	2496.525578
339.472480	2503.623523
339.864676	2508.084944
340.256807	2511.049142
340.648875	2515.215656
341.040879	2515.815553
341.432818	2519.735050
341.824694	2519.702283
342.216506	2519.283867
342.608253	2519.636748
342.999937	2520.924763
343.391557	2520.145904
343.783113	2519.455266
344.174605	2519.195647
344.566033	2515.674401
344.957397	2517.249762
345.348697	2512.803464
345.739934	2511.578463
346.131106	2510.005623
346.522215	2510.426560
346.913260	2505.168636
347.304241	2506.189470
347.695159	2502.055724
348.086012	2503.628564
348.476802	2502.406084
348.867528	2498.441217
349.258191	2496.694457
349.648789	2497.652276
350.039324	2494.463746
350.429796	2496.525578
350.820203	2490.985350
351.210548	2495.106493
351.600828	2489.178096
351.991045	2490.249342
352.381198	2487.723723
352.771288	2492.548108
353.161314	2488.152222
353.551276	2491.048364
353.941175	2489.170535
354.331010	2487.121306
354.720782	2489.357057
355.110490	2489.707418
355.500135	2489.248672
355.889717	2489.503251
356.279235	2489.278919
356.668689	2494.002481
357.058080	2488.235401
357.447408	2493.631956
357.836672	2487.428816
358.225873	2490.415700
358.615010	2489.770432
359.004084	2489.651965
359.393095	2493.483242
359.782043	2494.249497
360.170927	2497.158243
360.559748	2496.172697
360.948505	2495.293016
361.337199	2498.337873
361.725830	2495.900475
362.114398	2494.642707
362.502903	2498.859632
362.891344	2499.013388
363.279722	2498.852071
363.668037	2498.882318
364.056289	2499.933398
364.444478	2500.775271
364.832603	2506.441528
365.220665	2501.954901
365.608665	2503.822648
365.996601	2503.706702
366.384474	2506.784326
366.772284	2506.116373
367.160031	2512.385048
367.547715	2510.832373
367.935336	2513.602487
368.322893	2516.158352
368.710388	2516.932169
369.097820	2523.246214
369.485189	2529.761905
369.872495	2533.557894
370.259738	2540.267670
370.646918	2548.036088
371.034035	2553.770401
371.421090	2564.437482
371.808081	2576.382496
372.195010	2584.914649
372.581875	2599.952411
372.968678	2612.318361
373.355418	2621.024434
373.742096	2638.161837
374.128710	2655.425268
374.515262	2670.715087
374.901751	2685.412572
375.288177	2697.138295
375.674540	2718.737119
376.060841	2737.336456
376.447079	2758.957965
376.833254	2775.863474
377.219367	2790.908798
377.605417	2828.349448
377.991404	2839.255984
378.377329	2861.096783
378.763191	2877.321737
379.148991	2915.047212
379.534727	2938.138217
379.920402	2970.280614
380.306013	2980.108343
380.691563	3031.891075
381.077049	3051.430588
381.462474	3068.305850
381.847835	3106.394288
382.233134	3131.577372
382.618371	3130.823720
383.003545	3199.353165
383.388657	3204.122097
383.773706	3235.727611
384.158693	3252.794437
384.543618	3280.435083
384.928480	3315.738284
385.313280	3361.138915
385.698017	3358.567927
386.082692	3411.777306
386.467305	3420.110333
386.851856	3452.177113
387.236344	3474.128817
387.620770	3504.547139
388.005133	3531.844988
388.389435	3557.658216
388.773674	3566.192889
389.157851	3612.236268
389.541965	3628.196561
389.926018	3593.301694
390.310008	3665.649813
390.693936	3684.491126
391.077802	3721.856158
391.461606	3712.340980
391.845348	3774.284158
392.229027	3775.564611
392.612645	3785.714975
392.996200	3867.890823
393.379694	3902.087491
393.763125	3969.747337
394.146494	3939.959159
394.529801	3998.169362
394.913047	4046.962690
395.296230	4011.926671
395.679351	4063.777459
396.062410	4091.937344
396.445408	4074.439499
396.828343	4105.795476
397.211217	4129.004949
397.594028	4052.477713
397.976778	4115.650932
398.359466	4143.548678
398.742092	4174.022453
399.124656	4093.366512
399.507158	4174.488759
399.889598	4194.567675
400.271977	4263.107203
400.654294	4229.417172
401.036549	4239.449068
401.418742	4211.221127
401.800874	4313.543947
402.182944	4333.824509
402.564952	4395.997059
402.946898	4387.288466
403.328783	4383.565574
403.710606	4296.051143
404.092367	4485.984176
404.474067	4449.425728
404.855705	4459.679435
405.237282	4389.735946
405.618797	4498.695445
406.000250	4532.942524
406.381642	4610.956900
406.762972	4571.308225
407.144240	4582.365996
407.525447	4585.274742
407.906593	4640.611488
408.287677	4686.455741
408.668700	4617.339001
409.049661	4666.288605
409.430560	4710.393660
409.811399	4633.221156
410.192176	4795.256444
410.572891	4736.547166
410.953545	4839.626159
411.334138	4719.384558
411.714669	4784.362510
412.095139	4682.793343
412.475547	4825.231145
412.855894	4802.487979
413.236180	4813.084484
413.616405	4768.782824
413.996568	4854.200135
414.376670	4793.381135
414.756711	4748.918158
415.136691	4782.542654
415.516609	4859.823542
415.896466	4899.091610
416.276262	4931.869193
416.655997	4910.124175
417.035670	5095.731898
417.415283	5187.576680
417.794834	5130.929234
418.174324	5081.722532
418.553753	4989.204756
418.933121	5172.758208
419.312428	5238.439402
419.691674	5179.778015
420.070859	5303.001459
420.449983	5217.238829
420.829045	5336.290719
421.208047	5239.540894
421.586988	5309.285257
421.965867	5325.931147
422.344686	5456.454182
422.723444	5313.449251
423.102141	5129.064008
423.480777	5426.406385
423.859352	5197.444739
424.237866	5458.084996
424.616319	5451.153409
424.994712	5560.191046
425.373044	5436.965082
425.751314	5575.027162
426.129524	5380.592379
426.507673	5576.771401
426.885762	5657.613865
427.263789	5588.852526
427.641756	5467.390966
428.019662	5595.436273
428.397508	5599.673363
428.775292	5544.550866
429.153016	5645.895703
429.530679	5573.451801
429.908282	5655.115973
430.285824	5524.388772
430.663305	5803.509898
431.040726	5537.137850
431.418086	5537.904105
431.795385	5644.733717
432.172624	5655.305016
432.549802	5650.387371
432.926920	5663.000338
433.303977	5675.653634
433.680974	5711.508841
434.057910	5723.794132
434.434786	5731.582715
434.811601	5699.583991
435.188355	5937.786072
435.565050	5804.213139
435.941683	5789.429956
436.318257	6004.830898
436.694770	5984.865408
437.071222	6021.960738
437.447614	5948.901816
437.823946	5865.269074
438.200218	6022.245564
438.576429	5884.765737
438.952580	5985.407332
439.328670	6033.021030
439.704700	5937.234066
440.080670	5923.814514
440.456580	6198.348191
440.832429	6078.240180
441.208218	5926.554381
441.583947	6080.143216
441.959616	6080.329738
442.335224	6010.489593
442.710773	6148.218957
443.086261	6175.143760
443.461689	5969.356298
443.837057	6119.010512
444.212365	6272.095231
444.587612	6162.545916
444.962800	6317.994936
445.337927	6299.866947
445.712995	5907.488738
446.088002	6484.390822
446.462949	6318.549463
446.837837	6250.831644
447.212664	6419.503610
447.587431	6560.338325
447.962139	7105.123218
448.336786	8026.938528
448.711374	7774.822863
449.085901	6849.158632
449.460369	6769.823473
449.834776	6702.536672
450.209124	7090.466064
450.583412	7239.716985
450.957640	7391.551498
451.331808	7156.532905
451.705917	6710.171500
452.079965	6631.713502
452.453954	6841.097827
452.827883	6717.093004
453.201752	6810.714793
453.575562	6613.721624
453.949311	6816.290309
454.323001	6701.752773
454.696632	6779.454598
455.070202	6918.172028
455.443713	7070.372024
455.817164	7167.134452
456.190556	7255.810869
456.563888	7326.084553
456.937160	7369.173816
457.310373	7027.796960
457.683526	7050.121709
458.056619	6942.553569
458.429653	6934.891015
458.802628	6866.059100
459.175542	6974.375852
459.548398	7333.545461
459.921194	7489.382650
460.293930	7497.350193
460.666607	8025.426182
461.039224	8334.539654
461.411782	8457.019528
461.784280	8478.630954
462.156719	8368.383440
462.529099	8247.788958
462.901419	7835.591452
463.273680	7727.020122
463.645882	7741.039570
464.018024	7607.917821
464.390106	7776.869571
464.762130	8156.118096
465.134094	8628.857339
465.505999	9651.387341
465.877845	10872.558969
466.249631	11528.007272
466.621358	11141.113837
466.993026	10507.881900
467.364634	10251.244319
467.736184	9882.279749
468.107674	9558.304956
468.479105	9585.491898
468.850477	9365.246408
469.221790	9119.122153
469.593043	8794.973440
469.964238	8657.269282
470.335373	8674.315944
470.706449	8730.686126
471.077467	8712.848003
471.448425	10014.758751
471.819324	11090.036867
472.190164	11122.030550
472.560945	9869.094611
472.931667	9083.604704
473.302330	8947.972460
473.672934	8591.315866
474.043479	8944.282335
474.413965	8886.639261
474.784393	8765.427238
475.154761	8927.273482
475.525070	9010.376903
475.895321	8839.101181
476.265513	9013.870423
476.635645	9185.801495
477.005719	9188.649747
477.375734	9293.843504
477.745691	9537.147233
478.115588	9664.549794
478.485427	9911.221013
478.855207	10448.847468
479.224928	11262.426684
479.594591	11894.854558
479.964194	11707.479910
480.333739	11650.131744
480.703226	11561.180585
481.072653	11653.592496
481.442022	11896.855896
481.811333	12079.761560
482.180584	11882.080274
482.549777	11589.650501
482.918912	11420.855026
483.287988	11436.280957
483.657005	11453.453647
484.025964	11135.296346
484.394864	11267.024217
484.763706	11228.179606
485.132489	10989.564150
485.501213	10950.633839
485.869879	11030.964626
486.238487	10868.072342
486.607036	10982.730866
486.975527	10761.933369
487.343959	10949.005547
487.712333	11000.861376
488.080648	10925.241548
488.448905	10969.520522
488.817104	10909.223281
489.185244	11175.781852
489.553326	11331.122488
489.921350	11862.563447
490.289315	12931.207404
490.657222	13277.080969
491.025070	13184.122092
491.392861	13061.054924
491.760593	12673.390193
492.128267	12321.888179
492.495883	12002.205929
492.863440	11668.526915
493.230939	11326.779534
493.598380	11259.505336
493.965763	11127.454831
494.333088	11032.429081
494.700354	10953.464447
495.067563	11009.506955
495.434713	10836.476911
495.801805	10967.309976
496.168839	10893.797350
496.535815	10826.293780
496.902733	10821.018212
497.269593	10762.636610
497.636395	10856.230672
498.003139	10847.532161
498.369825	10714.080216
498.736453	10869.456139
499.103023	10801.181272
499.469535	10829.943575
499.835989	10810.388939
500.202385	10775.582293
500.568723	10629.187185
500.935003	10848.552995
501.301226	10653.707357
501.667390	10912.532799
502.033497	11004.687612
502.399546	10872.289267
502.765537	10774.909299
503.131470	10853.306803
503.497345	11018.664211
503.863163	10638.364606
504.228923	10955.632143
504.594625	11018.228151
504.960269	10766.092321
505.325856	10982.582152
505.691385	10769.263206
506.056856	10931.386714
506.422270	10954.679365
506.787625	10838.967241
507.152924	10959.012237
507.518164	10938.676223
507.883347	10864.780469
508.248472	10778.662438
508.613540	11013.471822
508.978550	10892.191743
509.343503	10866.801972
509.708398	10986.355456
510.073236	11093.190108
510.438016	11108.769794
510.802738	11053.485981
511.167403	11104.467170
511.532010	11003.225677
511.896561	11231.927703
512.261053	11303.990998
512.625488	11173.110041
512.989866	11151.133131
513.354186	11143.243725
513.718449	11046.975331
514.082655	11240.931204
514.446803	11133.564710
514.810894	11255.827814
515.174927	11119.409150
515.538904	11150.192956
515.902822	11302.546707
516.266684	11187.376506
516.630488	11126.396189
516.994235	11190.945643
517.357925	11242.564538
517.721558	11333.436377
518.085133	11355.236847
518.448651	11362.728002
518.812112	11239.053374
519.175516	11250.842113
519.538863	11372.618746
519.902152	11285.928543
520.265385	11453.985489
520.628560	11359.204235
520.991678	11342.722183
521.354739	11400.080431
521.717743	11331.349340
522.080690	11309.107769
522.443580	11448.359562
522.806413	11400.939948
523.169189	11428.018506
523.531908	11487.531847
523.894569	11310.516771
524.257174	11314.675723
524.619722	11428.086561
524.982213	11370.831657
525.344647	11431.791809
525.707025	11377.697708
526.069345	11465.670884
526.431608	11385.912268
526.793815	11501.289156
527.155964	11282.114911
527.518057	11342.157573
527.880093	11286.445262
528.242072	11343.448109
528.603995	11252.112483
528.965860	11173.299084
529.327669	11227.047867
529.689421	11167.524442
530.051117	11146.308747
530.412755	11248.049313
530.774337	11137.020421
531.135862	11119.404108
531.497331	11146.855712
531.858743	10988.747483
532.220098	11154.019191
532.581396	11019.311999
532.942638	11007.487973
533.303824	10965.880809
533.664953	10970.874072
534.026025	10891.559078
534.387040	10982.209107
534.747999	10983.088788
535.108902	11038.445698
535.469748	10793.944696
535.830537	10898.495706
536.191270	10864.324244
536.551947	10890.399613
536.912567	10880.430731
537.273131	10807.512961
537.633638	10782.481112
537.994089	10774.816037
538.354483	10716.081554
538.714821	10854.879643
539.075103	10865.183761
539.435328	10821.111474
539.795497	10647.479012
540.155609	10798.456528
540.515665	10881.691019
540.875665	10613.637746
541.235609	10672.588999
541.595496	10669.907105
541.955328	10815.772892
542.315102	10699.975067
542.674821	10640.832250
543.034483	10634.800510
543.394090	10633.207505
543.753640	10561.366022
544.113134	10768.630542
544.472571	10621.658222
544.831953	10749.769064
545.191278	10560.050281
545.550548	10574.261293
545.909761	10694.160096
546.268918	10668.765284
546.628019	10737.826571
546.987064	10598.536970
547.346053	10517.437407
547.704986	10607.679102
548.063863	10581.626419
548.422684	10566.777700
548.781449	10476.047013
549.140158	10559.866278
549.498811	10436.922618
549.857408	10290.683787
550.215949	10492.004786
550.574434	10344.450213
550.932864	10422.545248
551.291237	10475.429472
551.649555	10410.519575
552.007817	10406.143854
552.366022	10367.082473
552.724173	10340.939049
553.082267	10314.193208
553.440305	10424.173540
553.798288	10225.592408
554.156215	10352.556388
554.514086	10319.257047
554.871902	10159.596143
555.229661	10175.828658
555.587365	10140.618719
555.945014	10032.377584
556.302606	10123.264547
556.660143	10016.502991
557.017625	10137.525971
557.375050	10024.329382
557.732421	10131.968099
558.089735	10034.162153
558.446994	10011.718936
558.804197	10030.348520
559.161345	10016.218165
559.518437	9862.377273
559.875474	9910.608513
560.232455	9920.615203
560.589381	9867.234425
560.946251	9825.944855
561.303065	9913.802084
561.659825	9827.774793
562.016528	9738.506041
562.373177	9616.585735
562.729770	9686.927476
563.086307	9598.603940
563.442789	9653.164348
563.799216	9513.443728
564.155587	9540.212255
564.511904	9471.629877
564.868164	9432.986912
565.224370	9428.139843
565.580520	9329.736520
565.936615	9326.729472
566.292654	9167.255090
566.648638	9258.159697
567.004567	9193.398514
567.360441	9154.727823
567.716260	9047.482316
568.072023	9108.596224
568.427732	9019.035085
568.783385	8933.532074
569.138982	8951.589488
569.494525	8941.038352
569.850013	8814.432294
570.205445	8840.731994
570.560823	8735.792815
570.916145	8633.837999
571.271412	8659.386567
571.626625	8585.712624
571.981782	8542.961118
572.336884	8493.318356
572.691931	8471.301117
573.046923	8388.729537
573.401860	8326.665372
573.756743	8241.651353
574.111570	8244.081189
574.466342	8210.166827
574.821059	8190.617232
575.175722	8083.102023
575.530330	8048.209677
575.884882	8015.434615
576.239380	7923.332735
576.593823	7881.627269
576.948211	7849.953699
577.302544	7746.186588
577.656823	7708.698048
578.011047	7694.698764
578.365216	7632.906820
578.719330	7551.129223
579.073389	7516.647730
579.427394	7456.587423
579.781344	7409.734940
580.135239	7337.543096
580.489080	7318.784962
580.842866	7210.233797
581.196597	7181.181627
581.550273	7180.901843
581.903895	7120.218954
582.257463	7136.915255
582.610975	7009.913466
582.964434	7010.873806
583.317837	6916.589106
583.671186	6883.682974
584.024481	6838.194122
584.377721	6759.398367
584.730906	6712.503033
585.084037	6696.144489
585.437113	6631.287524
585.790135	6605.290294
586.143103	6512.364185
586.496016	6471.528318
586.848874	6468.659901
587.201679	6439.630417
587.554428	6335.606207
587.907124	6329.498849
588.259765	6284.264576
588.612352	6246.597074
588.964884	6150.172404
589.317362	6124.112159
589.669786	6094.281132
590.022155	6100.779179
590.374470	6067.958747
590.726731	6019.598958
591.078937	5897.361059
591.431090	5922.765954
591.783188	5831.591646
592.135232	5787.337877
592.487222	5779.266989
592.839157	5762.109422
593.191038	5697.693558
593.542866	5645.394108
593.894639	5557.181477
594.246358	5564.501233
594.598022	5539.824785
594.949633	5459.413340
595.301190	5419.394140
595.652692	5403.819495
596.004141	5419.389099
596.355535	5297.735974
596.706876	5252.335343
597.058162	5192.020457
597.409395	5198.722671
597.760573	5203.625193
598.111698	5141.402232
598.462768	5097.778607
598.813785	5063.483637
599.164748	5018.627450
599.515657	4997.242876
599.866511	4915.437552
600.217312	4960.523111
600.568060	4868.766549
600.918753	4887.774220
601.269392	4850.769630
601.619978	4784.594403
601.970510	4787.845948
602.320988	4769.513792
602.671412	4756.212707
603.021783	4712.367272
603.372100	4680.676058
603.722363	4643.671468
604.072572	4619.506697
604.422728	4597.096248
604.772830	4548.807035
605.122878	4523.381976
605.472872	4503.320704
605.822813	4482.220955
606.172701	4446.055717
606.522534	4444.460192
606.872314	4424.855144
607.222041	4386.307962
607.571714	4380.064493
607.921333	4338.270807
608.270899	4319.923527
608.620411	4330.489786
608.969870	4276.146147
609.319276	4255.767283
609.668627	4234.818768
610.017926	4226.883992
610.367171	4218.976942
610.716362	4192.110113
611.065500	4172.051361
611.414585	4154.114936
611.763616	4138.200013
612.112594	4106.581896
612.461518	4088.607662
612.810389	4090.573712
613.159207	4048.268349
613.507971	4017.514790
613.856682	4028.466697
614.205340	4000.417717
614.553945	3996.760360
614.902496	3950.737146
615.250994	3945.811938
615.599439	3925.256634
615.947830	3905.717121
616.296169	3885.408833
616.644454	3868.876369
616.992686	3851.449100
617.340864	3849.258719
617.688990	3809.630208
618.037063	3814.434428
618.385082	3789.621869
618.733048	3787.766724
619.080961	3761.272940
619.428821	3747.059407
619.776628	3725.609297
620.124382	3702.578786
620.472083	3677.559539
620.819731	3671.338756
621.167326	3628.957775
621.514868	3615.908748
621.862357	3572.660690
622.209793	3563.067374
622.557176	3529.437837
622.904506	3505.749455
623.251783	3478.260043
623.599007	3454.100313
623.946179	3437.865277
624.293297	3415.079262
624.640363	3392.056312
624.987376	3371.594268
625.334336	3355.349150
625.681243	3328.257989
626.028097	3312.965649
626.374899	3305.156902
626.721647	3281.546658
627.068343	3266.375305
627.414987	3251.035074
627.761577	3230.578072
628.108115	3227.061867
628.454600	3201.649411
628.801032	3195.410983
629.147412	3186.122657
629.493739	3171.609175
629.840014	3154.741474
630.186236	3152.183088
630.532405	3128.066208
630.878521	3129.225674
631.224585	3114.145062
631.570597	3093.347782
631.916556	3087.439550
632.262462	3084.644230
632.608316	3071.020512
632.954117	3059.327555
633.299866	3051.906977
633.645562	3036.554143
633.991206	3024.357071
634.336797	3003.433762
634.682336	2992.101248
635.027823	2982.064311
635.373257	2971.692137
635.718639	2956.079683
636.063968	2946.526697
636.409245	2928.668409
636.754470	2923.521391
637.099642	2911.387334
637.444762	2899.714542
637.789829	2892.722462
638.134845	2885.901781
638.479808	2872.966180
638.824719	2869.255891
639.169577	2857.184848
639.514383	2851.442973
639.859137	2841.758917
640.203839	2839.384533
640.548489	2827.928511
640.893086	2823.928356
641.237632	2814.022488
641.582125	2812.348825
641.926566	2802.546302
642.270955	2804.761889
642.615292	2801.356589
642.959576	2794.535908
643.303809	2792.272430
643.647990	2786.666667
643.992118	2781.368414
644.336195	2775.228289
644.680219	2770.277876
645.024192	2767.762340
645.368112	2770.454316
645.711981	2772.087650
646.055797	2768.606733
646.399562	2766.519696
646.743274	2769.158740
647.086935	2772.349790
647.430544	2766.255035
647.774101	2767.865684
648.117606	2764.858636
648.461059	2759.809920
648.804460	2755.277923
649.147810	2744.920872
649.491108	2737.681775
649.834354	2735.289748
650.177548	2726.505537
650.520690	2718.623693
650.863781	2713.680842
651.206820	2713.844679
651.549807	2702.592824
651.892742	2702.214737
652.235626	2697.617205
652.578458	2692.550845
652.921238	2688.326358
653.263967	2688.517922
653.606644	2684.371573
653.949269	2683.398631
654.291843	2677.119873
654.634365	2679.280008
654.976836	2672.207269
655.319255	2673.215500
655.661622	2670.495797
656.003938	2667.458502
656.346203	2663.549087
656.688416	2661.830054
657.030577	2658.722182
657.372687	2657.202275
657.714746	2654.757315
658.056753	2657.290495
658.398708	2645.882364
658.740612	2647.147693
659.082465	2643.974287
659.424266	2645.529483
659.766016	2642.023360
660.107715	2643.414719
660.449362	2641.872126
660.790958	2641.690644
661.132503	2640.851292
661.473996	2637.524131
661.815438	2637.677886
662.156829	2633.806280
662.498168	2632.263687
662.839456	2632.886269
663.180693	2631.041207
663.521879	2631.467184
663.863013	2628.026597
664.204097	2628.013994
664.545129	2626.788993
664.886110	2628.901237
665.227040	2625.316977
665.567918	2627.605660
665.908746	2626.564662
666.249522	2624.764970
666.590248	2621.730196
666.930922	2625.044754
667.271545	2623.983591
667.612118	2621.657099
667.952639	2619.562499
668.293109	2621.273971
668.633528	2619.194495
668.973896	2618.972684
669.314213	2616.162241
669.654480	2616.613424
669.994695	2611.385748
670.334859	2613.800461
670.674973	2613.326592
671.015035	2613.994545
671.355047	2608.676128
671.695008	2607.539347
672.034918	2608.051025
672.374777	2609.379369
672.714585	2608.615634
673.054342	2607.924996
673.394049	2607.095726
673.733705	2609.197887
674.073310	2606.989862
674.412864	2606.717639
674.752368	2601.799994
675.091820	2604.756631
675.431223	2602.609099
675.770574	2599.473501
676.109875	2598.601382
676.449125	2597.933429
676.788324	2596.360589
677.127473	2594.520568
677.466571	2593.068715
677.805619	2593.973602
678.144616	2593.996288
678.483562	2599.498707
678.822458	2597.220106
679.161303	2598.639190
679.500098	2590.654003
679.838842	2593.353541
680.177535	2590.933787
680.516179	2590.452357
680.854771	2593.940835
681.193314	2593.156936
681.531805	2594.926381
681.870247	2599.506269
682.208638	2598.339242
682.546978	2598.931577
682.885268	2598.492997
683.223508	2596.942842
683.561697	2593.532502
683.899836	2596.226998
684.237925	2593.434199
684.575963	2592.617532
684.913951	2592.478900
685.251889	2590.722058
685.589776	2591.611822
685.927614	2593.222471
686.265401	2594.449992
686.603137	2592.408324
686.940824	2593.676174
687.278460	2595.498552
687.616046	2593.736668
687.953582	2595.332193
688.291068	2595.627101
688.628504	2595.216247
688.965889	2594.896134
689.303224	2594.802872
689.640510	2590.356575
689.977745	2591.891606
690.314930	2587.730133
690.652065	2588.289702
690.989150	2585.814495
691.326185	2585.600246
691.663170	2586.076635
692.000105	2585.554876
692.336990	2582.963722
692.673825	2582.366346
693.010610	2580.806109
693.347345	2577.741087
693.684030	2575.265881
694.020665	2574.814697
694.357251	2571.129614
694.693786	2576.967270
695.030272	2574.877712
695.366707	2575.785119
695.703093	2575.472568
696.039429	2574.237485
696.375716	2573.884604
696.711952	2572.488205
697.048139	2570.806980
697.384276	2574.290417
697.720363	2573.977866
698.056400	2572.551219
698.392388	2573.067937
698.728326	2573.738411
699.064214	2571.301013
699.400053	2571.117011
699.735842	2571.961404
700.071581	2573.478792
700.407270	2569.738255
700.742910	2569.183728
701.078501	2568.273800
701.414042	2569.917216
701.749533	2566.922771
702.084974	2566.882442
702.420366	2565.954869
702.755709	2566.902606
703.091002	2565.118038
703.426246	2567.399160
703.761440	2566.259859
704.096584	2566.395970
704.431679	2563.913202
704.766725	2569.382854
705.101721	2565.042421
705.436668	2566.466547
705.771565	2566.867318
706.106413	2565.153326
706.441212	2567.066444
706.775961	2566.305230
707.110661	2566.640466
707.445311	2569.642473
707.779913	2564.336659
708.114465	2569.687844
708.448967	2569.448389
708.783421	2568.505693
709.117825	2565.969993
709.452180	2570.181877
709.786485	2567.731876
710.120742	2568.472926
710.454949	2570.494428
710.789107	2568.858574
711.123216	2568.208265
711.457275	2570.471743
711.791286	2566.882442
712.125247	2569.594583
712.459159	2573.556929
712.793023	2573.572053
713.126837	2572.510890
713.460602	2573.685479
713.794318	2570.499470
714.127985	2571.883266
714.461602	2571.966445
714.795171	2570.575087
715.128691	2569.584500
715.462162	2567.421845
715.795584	2567.552915
716.128957	2566.849674
716.462281	2566.227092
716.795556	2566.610219
717.128782	2567.714232
717.461960	2562.572255
717.795088	2563.986299
718.128167	2563.565362
718.461198	2563.086453
718.794180	2561.911864
719.127113	2561.944632
719.459997	2559.600495
719.792833	2560.664178
720.125619	2564.384550
720.458357	2561.044786
720.791046	2560.354148
721.123686	2559.043447
721.456278	2563.731721
721.788821	2557.831050
722.121315	2562.176525
722.453761	2556.122099
722.786158	2560.263407
723.118506	2558.443550
723.450805	2561.861453
723.783056	2560.205433
724.115259	2560.396997
724.447412	2559.103941
724.779518	2560.714590
725.111574	2555.928014
725.443582	2560.260886
725.775542	2561.173335
726.107453	2562.693243
726.439315	2562.748696
726.771129	2567.094170
727.102895	2562.335321
727.434612	2560.245763
727.766281	2564.971844
728.097901	2560.177707
728.429473	2561.150650
728.760996	2561.914385
729.092471	2559.129147
729.423897	2562.829354
729.755276	2560.535629
730.086606	2564.724828
730.417887	2565.102914
730.749120	2566.312791
731.080305	2565.657441
731.411442	2566.055692
731.742530	2564.903789
732.073570	2566.320353
732.404562	2567.406722
732.735506	2565.128120
733.066401	2565.428069
733.397249	2567.116855
733.728048	2564.810528
734.058798	2563.711556
734.389501	2560.376833
734.720156	2560.641493
735.050762	2560.084446
735.381320	2560.689384
735.711831	2559.083777
736.042293	2559.411452
736.372707	2557.266441
736.703073	2560.467573
737.033391	2558.307439
737.363661	2556.454815
737.693883	2558.859445
738.024056	2561.082594
738.354182	2556.938766
738.684260	2560.709549
739.014290	2560.883469
739.344272	2561.382543
739.674207	2561.133006
740.004093	2563.998902
740.333931	2560.432285
740.663722	2562.244580
740.993464	2559.771894
741.323159	2558.534291
741.652806	2557.079918
741.982405	2563.194838
742.311956	2560.142419
742.641460	2557.417675
742.970915	2559.025803
743.300323	2561.765671
743.629683	2560.966648
743.958996	2558.655279
744.288260	2558.466235
744.617477	2557.896585
744.946647	2554.755946
745.275768	2552.394166
745.604842	2552.633620
745.933869	2553.450287
746.262847	2549.848383
746.591778	2556.033879
746.920662	2554.609753
747.249498	2555.839794
747.578286	2556.613611
747.907027	2555.444064
748.235720	2557.954558
748.564365	2558.473797
748.892963	2555.575134
749.221514	2559.373643
749.550017	2554.670247
749.878473	2557.820968
750.206881	2553.979608
750.535242	2556.364074
750.863555	2557.392470
751.191821	2553.780483
751.520039	2556.018755
751.848210	2553.354505
752.176334	2554.541697
752.504411	2555.338199
752.832440	2552.331151
753.160421	2556.404403
753.488356	2554.992880
753.816243	2551.940462
754.144082	2553.188147
754.471875	2558.025134
754.799620	2553.919115
755.127318	2554.163611
755.454969	2552.177396
755.782572	2555.249979
756.110129	2554.433312
756.437638	2552.651264
756.765100	2553.256203
757.092515	2555.171841
757.419882	2553.162942
757.747203	2554.377860
758.074477	2555.396173
758.401703	2555.519681
758.728882	2554.844166
759.056014	2557.029507
759.383099	2554.398024
759.710138	2555.663354
760.037129	2556.631255
760.364073	2556.341389
760.690970	2553.210833
761.017820	2556.643858
761.344623	2554.478683
761.671379	2554.939948
761.998088	2551.632951
762.324751	2558.115875
762.651366	2560.089487
762.977935	2574.809656
763.304456	2577.559606
763.630931	2584.569330
763.957359	2577.418453
764.283740	2575.704461
764.610074	2565.501166
764.936362	2563.756926
765.262602	2559.834909
765.588796	2559.688715
765.914943	2558.665361
766.241044	2555.431461
766.567097	2552.510112
766.893104	2554.219063
767.219064	2553.374670
767.544978	2553.241079
767.870845	2551.764021
768.196665	2551.728733
768.522438	2550.055070
768.848165	2550.007179
769.173846	2552.361398
769.499479	2550.423074
769.825066	2549.364432
770.150607	2550.523897
770.476101	2548.353681
770.801548	2552.492468
771.126949	2550.125646
771.452303	2547.360573
771.777611	2549.097251
772.102872	2549.059442
772.428087	2548.207487
772.753256	2549.039278
773.078378	2546.150697
773.403453	2547.842004
773.728482	2546.851417
774.053465	2547.436191
774.378401	2544.774462
774.703291	2549.674463
775.028135	2548.031047
775.352932	2546.909390
775.677683	2545.167672
776.002388	2547.267312
776.327046	2545.739842
776.651658	2545.177754
776.976224	2543.304965
777.300743	2547.927703
777.625216	2544.661036
777.949643	2546.163299
778.274024	2546.538865
778.598359	2543.015099
778.922647	2542.815973
779.246889	2543.436035
779.571086	2541.870757
779.895236	2542.972249
780.219339	2544.648433
780.543397	2545.432332
780.867409	2544.098947
781.191374	2545.021478
781.515294	2545.437373
781.839167	2546.327137
782.162995	2543.433515
782.486776	2544.318237
782.810511	2546.226314
783.134201	2544.897970
783.457844	2543.831766
783.781441	2547.214380
784.104993	2544.598021
784.428498	2545.308824
784.751958	2542.896632
785.075372	2543.085675
785.398739	2544.378731
785.722061	2544.741694
786.045337	2544.396375
786.368568	2544.202291
786.691752	2546.846376
787.014891	2545.848227
787.337983	2544.071221
787.661030	2547.489123
787.984031	2547.312682
788.306987	2551.554813
788.629897	2550.319731
788.952760	2551.635472
789.275579	2548.404092
789.598351	2550.889381
789.921078	2547.194215
790.243759	2547.237065
790.566395	2543.037784
790.888984	2546.064997
791.211529	2544.877805
791.534027	2548.756973
791.856480	2543.864533
792.178888	2545.621375
792.501249	2544.605583
792.823566	2545.691952
793.145836	2542.793288
793.468062	2546.135573
793.790241	2543.446117
794.112375	2542.163144
794.434464	2546.332178
794.756507	2545.392003
795.078505	2545.850748
795.400457	2545.008875
795.722364	2541.061652
796.044226	2544.812270
796.366042	2545.288659
796.687812	2545.263453
797.009538	2548.036088
797.331218	2550.050029
797.652852	2546.848896
797.974442	2544.214893
798.295986	2546.165820
798.617484	2544.988711
798.938938	2545.225645
799.260346	2544.913093
799.581709	2542.221117
799.903026	2544.257743
800.224299	2544.668597
800.545526	2544.197249
800.866708	2543.042825
801.187845	2543.322609
801.508936	2543.499050
801.829983	2543.120963
802.150984	2545.659184
802.471940	2548.159596
802.792851	2546.785882
803.113717	2543.614996
803.434538	2543.138607
803.755314	2544.787064
804.076045	2542.493339
804.396731	2545.301262
804.717372	2542.306817
805.037967	2544.925696
805.358518	2542.488298
805.679024	2542.657177
805.999485	2545.018958
806.319901	2544.847558
806.640272	2544.371169
806.960598	2542.299255
807.280879	2541.717002
807.601115	2543.529297
807.921306	2545.187836
808.241453	2545.949050
808.561554	2543.294883
808.881611	2546.007024
809.201623	2542.170706
809.521590	2545.563402
809.841513	2545.061807
810.161390	2541.822866
810.481223	2545.117260
810.801011	2541.177598
811.120755	2542.730274
811.440453	2545.762528
811.760107	2541.729605
812.079716	2542.115253
812.399281	2540.802032
812.718801	2542.579039
813.038276	2539.357742
813.357707	2541.926210
813.677093	2543.252033
813.996434	2543.506611
814.315731	2542.052238
814.634983	2542.909235
814.954191	2544.285470
815.273354	2541.222969
815.592473	2545.926365
815.911547	2543.108360
816.230577	2546.828732
816.549562	2544.477033
816.868502	2543.874616
817.187399	2546.226314
817.506250	2545.281098
817.825058	2542.362269
818.143821	2547.940306
818.462539	2545.011396
818.781213	2546.737991
819.099843	2548.061294
819.418429	2550.123126
819.736970	2551.774104
820.055466	2555.809547
820.373919	2558.768705
820.692327	2563.217523
821.010691	2572.833524
821.329011	2591.687439
821.647286	2623.411420
821.965517	2665.512617
822.283704	2688.913653
822.601847	2697.881866
822.919945	2681.583815
823.237999	2658.220588
823.556010	2630.779067
823.873976	2614.826335
824.191897	2599.599530
824.509775	2590.167531
824.827609	2582.391552
825.145398	2576.009451
825.463144	2577.564647
825.780845	2577.128587
826.098502	2581.463979
826.416116	2591.450505
826.733685	2604.915427
827.051210	2608.010695
827.368692	2600.761516
827.686129	2591.556369
828.003522	2576.805953
828.320872	2567.953687
828.638177	2564.225754
828.955439	2553.735113
829.272656	2551.829556
829.589830	2546.969884
829.906960	2550.571788
830.224046	2547.650440
830.541088	2548.338557
830.858086	2548.497354
831.175041	2547.766386
831.491952	2548.691438
831.808819	2548.530121
832.125642	2549.858465
832.442421	2550.420554
832.759157	2552.507592
833.075849	2561.001936
833.392497	2568.798080
833.709101	2574.421487
834.025662	2578.807291
834.342179	2573.272104
834.658653	2563.749365
834.975083	2559.111503
835.291469	2560.729713
835.607811	2549.041798
835.924110	2548.981304
836.240366	2544.812270
836.556578	2546.130532
836.872746	2547.907539
837.188871	2544.522404
837.504952	2543.007537
837.820990	2541.812784
838.136984	2541.538041
838.452935	2540.539892
838.768842	2544.383772
839.084706	2540.116435
839.400526	2543.725902
839.716303	2546.947199
840.032037	2554.390462
840.347727	2550.100441
840.663373	2554.398024
840.978977	2550.712941
841.294537	2543.678011
841.610054	2541.331353
841.925527	2543.494008
842.240957	2542.485778
842.556344	2540.920499
842.871687	2538.203318
843.186987	2541.832948
843.502244	2538.525951
843.817458	2536.582587
844.132629	2538.939326
844.447756	2536.191897
844.762840	2534.480425
845.077881	2537.943698
845.392879	2533.681402
845.707833	2534.954294
846.022745	2531.163346
846.337613	2537.374048
846.652438	2534.926568
846.967221	2539.559388
847.281960	2536.842206
847.596656	2538.447813
847.911309	2535.178625
848.225919	2538.281455
848.540485	2536.900179
848.855009	2537.762217
849.169490	2535.939839
849.483928	2534.684592
849.798323	2535.355066
850.112675	2535.773481
850.426984	2538.442772
850.741251	2539.977804
851.055474	2535.438245
851.369654	2538.301620
851.683792	2536.335570
851.997887	2537.295910
852.311938	2536.486805
852.625947	2534.470343
852.939914	2535.826413
853.253837	2538.510828
853.567718	2537.104346
853.881555	2536.459078
854.195350	2534.775333
854.509103	2536.822041
854.822812	2535.675179
855.136479	2536.363296
855.450103	2538.730118
855.763685	2537.754655
856.077224	2537.089223
856.390720	2536.766589
856.704173	2537.749614
857.017584	2538.714995
857.330953	2537.064017
857.644278	2534.263656
857.957561	2538.898997
858.270802	2538.473019
858.584000	2536.166691
858.897155	2539.645088
859.210268	2535.473533
859.523339	2536.149047
859.836367	2538.263811
860.149352	2537.477391
860.462295	2536.393543
860.775195	2533.010929
861.088054	2532.156453
861.400869	2532.766433
861.713642	2533.313398
862.026373	2534.500590
862.339062	2534.326670
862.651708	2536.600231
862.964312	2538.770447
863.276873	2535.909592
863.589392	2537.207690
863.901869	2536.559901
864.214303	2537.495035
864.526696	2537.129552
864.839045	2534.876156
865.151353	2538.914120
865.463619	2538.954449
865.775842	2540.237423
866.088023	2538.306661
866.400162	2538.258770
866.712258	2539.405633
867.024313	2539.130890
867.336325	2539.231713
867.648296	2537.162319
867.960224	2537.583256
868.272110	2537.225334
868.583954	2537.671476
868.895755	2538.115097
869.207515	2540.628112
869.519233	2537.888245
869.830909	2538.150385
870.142542	2540.383617
870.454134	2538.208359
870.765684	2540.093750
871.077191	2537.961342
871.388657	2537.890766
871.700081	2539.355221
872.011463	2540.365973
872.322803	2537.696682
872.634101	2539.942516
872.945357	2539.735828
873.256571	2540.817156
873.567744	2539.536703
873.878874	2539.529141
874.189963	2540.111394
874.501010	2539.516538
874.812015	2539.546785
875.122979	2539.491332
875.433900	2539.849254
875.744780	2541.127187
876.055618	2540.197094
876.366415	2539.249357
876.677169	2539.682896
876.987882	2537.724408
877.298554	2536.514531
877.609183	2538.868750
877.919771	2536.479243
878.230317	2539.627443
878.540822	2546.818649
878.851285	2544.184647
879.161707	2547.605069
879.472087	2550.186140
879.782425	2555.391132
880.092722	2559.469425
880.402977	2572.760427
880.713191	2591.263982
881.023363	2611.352980
881.333494	2627.298150
881.643583	2632.886269
881.953631	2629.551546
882.263637	2624.328910
882.573602	2617.742643
882.883526	2606.125304
883.193408	2593.744230
883.503248	2587.031934
883.813048	2579.752508
884.122806	2571.207752
884.432522	2569.912175
884.742197	2562.070660
885.051831	2557.742830
885.361424	2553.273847
885.670975	2552.237890
885.980485	2551.461552
886.289954	2550.027344
886.599382	2545.772610
886.908768	2547.509287
887.218113	2545.838145
887.527417	2545.606252
887.836680	2544.315717
888.145901	2539.952598
888.455082	2541.883360
888.764221	2542.354708
889.073319	2542.062321
889.382376	2542.158103
889.691392	2538.089892
890.000366	2542.561395
890.309300	2538.674665
890.618193	2540.744059
890.927044	2539.105684
891.235855	2541.855633
891.544625	2540.108874
891.853353	2542.889070
892.162041	2543.909904
892.470687	2544.454348
892.779293	2543.085675
893.087858	2543.584749
893.396381	2544.817311
893.704864	2547.849565
894.013306	2552.961295
894.321707	2564.303892
894.630068	2567.668862
894.938387	2570.466702
895.246665	2570.315468
895.554903	2566.466547
895.863100	2563.585527
896.171256	2558.791390
896.479371	2556.238045
896.787446	2553.299053
897.095480	2548.721685
897.403473	2547.161448
897.711425	2547.423588
898.019336	2545.989380
898.327207	2541.583411
898.635038	2546.213711
898.942827	2544.787064
899.250576	2542.591642
899.558284	2543.362938
899.865952	2542.074924
900.173579	2542.279090
900.481165	2539.309851
900.788711	2540.867567
901.096216	2540.189532
901.403681	2541.333874
901.711105	2540.406302
902.018489	2539.488812
902.325832	2542.629451
902.633135	2539.677855
902.940397	2542.389996
903.247619	2545.949050
903.554800	2549.908877
903.861941	2562.405897
904.169041	2576.203535
904.476101	2579.818042
904.783121	2583.359453
905.090100	2575.956519
905.397039	2571.694223
905.703938	2562.950342
906.010796	2556.394321
906.317614	2552.036244
906.624391	2548.333516
906.931129	2545.117260
907.237826	2544.209852
907.544483	2543.456200
907.851099	2539.700540
908.157675	2540.779347
908.464211	2536.852288
908.770707	2535.166022
909.077163	2534.223327
909.383578	2534.729962
909.689954	2531.352389
909.996289	2532.189221
910.302584	2537.421939
910.608839	2535.415559
910.915054	2539.196425
911.221229	2536.133924
911.527363	2538.626774
911.833458	2535.816331
912.139513	2538.450334
912.445527	2537.341280
912.751502	2538.974614
913.057436	2535.143337
913.363331	2539.347659
913.669186	2539.057793
913.975000	2540.895294
914.280775	2543.420912
914.586510	2547.388300
914.892205	2549.808054
915.197859	2556.127140
915.503475	2564.079560
915.809050	2572.901579
916.114585	2578.414081
916.420081	2581.925245
916.725536	2578.310737
917.030952	2575.091961
917.336328	2568.256156
917.641665	2565.861608
917.946961	2558.841801
918.252218	2558.108313
918.557435	2553.397355
918.862612	2547.721016
919.167750	2546.760676
919.472848	2547.625234
919.777906	2544.739173
920.082925	2542.168185
920.387904	2541.439738
920.692843	2541.185160
920.997743	2539.390509
921.302603	2541.273380
921.607423	2541.830428
921.912204	2538.404964
922.216946	2537.303472
922.521647	2540.015612
922.826310	2537.232895
923.130932	2537.953780
923.435516	2536.859850
923.740059	2536.280117
924.044564	2536.212062
924.349028	2537.855478
924.653454	2532.501773
924.957840	2530.911288
925.262186	2531.397760
925.566493	2534.823224
925.870761	2526.515402
926.174989	2532.968079
926.479178	2533.636032
926.783328	2532.791639
927.087438	2533.114273
927.391509	2535.352545
927.695541	2530.482790
927.999533	2536.244829
928.303486	2531.813655
928.607400	2533.993954
928.911275	2531.372554
929.215110	2534.576207
929.518906	2533.353728
929.822663	2535.050076
930.126381	2531.954807
930.430060	2531.269210
930.733699	2534.160312
931.037299	2533.757020
931.340861	2532.486649
931.644383	2533.535209
931.947866	2532.408511
932.251309	2530.419776
932.554714	2533.618388
932.858080	2533.585621
933.161407	2534.240971
933.464694	2532.282482
933.767943	2533.084026
934.071153	2533.313398
934.374323	2531.874149
934.677455	2532.963038
934.980548	2533.941022
935.283602	2530.747451
935.586617	2533.071423
935.889593	2530.674354
936.192530	2532.373223
936.495428	2530.626463
936.798287	2533.255425
937.101108	2532.158974
937.403890	2534.583769
937.706632	2534.321629
938.009336	2536.010416
938.312002	2534.092257
938.614628	2534.079654
938.917216	2535.710467
939.219765	2536.267514
939.522275	2535.128214
939.824747	2536.033101
940.127179	2530.961700
940.429573	2531.150743
940.731929	2532.322812
941.034246	2532.534540
941.336524	2532.615198
941.638763	2535.213913
941.940964	2532.375744
942.243126	2534.513193
942.545250	2532.453882
942.847335	2532.153933
943.149381	2533.905734
943.451389	2532.847092
943.753359	2533.600744
944.055290	2533.038655
944.357182	2534.472864
944.659036	2531.581762
944.960851	2533.484798
945.262628	2531.894313
945.564367	2533.278110
945.866067	2534.024201
946.167729	2536.118800
946.469352	2533.799870
946.770937	2531.528830
947.072484	2531.596885
947.373992	2533.179808
947.675462	2532.403470
947.976893	2535.072761
948.278286	2531.483459
948.579641	2533.252904
948.880958	2534.573687
949.182236	2534.185518
949.483476	2533.694005
949.784678	2532.879859
950.085841	2532.373223
950.386967	2533.724252
950.688054	2531.460774
950.989103	2531.982534
951.290114	2530.278624
951.591087	2533.147040
951.892021	2534.603934
952.192917	2532.012781
952.493776	2533.159643
952.794596	2534.228368
953.095378	2534.795497
953.396122	2536.118800
953.696828	2533.310878
953.997496	2534.253573
954.298126	2533.278110
954.598718	2533.504962
954.899272	2533.499921
955.199788	2532.355579
955.500266	2530.099663
955.800706	2528.909950
956.101108	2525.156811
956.401472	2529.771988
956.701798	2527.576565
957.002087	2525.870135
957.302337	2531.987575
957.602550	2529.406504
957.902724	2530.621422
958.202861	2528.241997
958.502960	2530.220650
958.803022	2533.749458
959.103045	2525.237470
959.403031	2529.905578
959.702979	2530.654190
960.002889	2531.102852
960.302762	2528.148736
960.602596	2529.305681
960.902393	2528.121010
961.202153	2530.177801
961.501875	2528.554549
961.801559	2529.333407
962.101205	2530.132430
962.400814	2529.829961
962.700385	2528.879703
962.999918	2526.691843
963.299414	2528.448685
963.598873	2530.480270
963.898293	2529.154446
964.197677	2531.294416
964.497022	2528.514220
964.796331	2528.526823
965.095601	2527.808458
965.394835	2531.317101
965.694030	2527.730320
965.993189	2532.869777
966.292309	2528.526823
966.591393	2528.791483
966.890439	2529.159487
967.189447	2529.628315
967.488419	2529.880372
967.787353	2529.719056
968.086249	2527.327028
968.385108	2528.967924
968.683930	2527.074970
968.982714	2531.037317
969.281462	2530.170239
969.580172	2526.548170
969.878844	2530.059333
970.177480	2530.298788
970.476078	2530.102183
970.774639	2531.095291
971.073162	2529.540095
971.371649	2527.692512
971.670098	2524.814013
971.968510	2523.969620
972.266885	2523.783097
972.565223	2529.318284
972.863524	2531.186031
973.161788	2530.913809
973.460014	2527.569003
973.758204	2527.632018
974.056356	2529.474560
974.354471	2527.221164
974.652550	2527.390043
974.950591	2527.992460
975.248595	2528.675537
975.546563	2526.959024
975.844493	2528.413397
976.142386	2531.236443
976.440243	2527.866432
976.738062	2528.615043
977.035845	2527.009435
977.333590	2527.989940
977.631299	2527.521112
977.928971	2530.180321
978.226606	2527.851308
978.524204	2527.337110
978.821765	2526.311236
979.119290	2530.893644
979.416777	2527.440454
979.714228	2528.075639
980.011642	2525.633200
980.309020	2530.623943
980.606360	2528.080681
980.903664	2525.214785
981.200931	2527.684950
981.498162	2528.098325
981.795356	2529.451874
982.092513	2530.223171
982.389633	2530.313912
982.686717	2529.605630
982.983764	2528.123530
983.280775	2532.907585
983.577749	2529.719056
983.874686	2532.819365
984.171587	2528.456247
984.468451	2530.139992
984.765279	2529.824920
985.062070	2529.613191
985.358824	2527.314425
985.655543	2529.835002
985.952224	2528.801566
986.248869	2527.725279
986.545478	2521.073477
986.842050	2525.081194
987.138586	2525.194620
987.435086	2522.028775
987.731549	2522.114475
988.027975	2530.021525
988.324366	2525.439116
988.620719	2528.972965
988.917037	2527.626977
989.213318	2527.077491
989.509563	2525.645803
989.805772	2529.507327
990.101944	2527.747964
990.398080	2529.129241
990.694180	2526.162522
990.990244	2525.247552
991.286271	2528.375588
991.582262	2526.921215
991.878217	2526.442306
992.174136	2526.409538
992.470019	2527.896678
992.765865	2525.061029
993.061676	2527.664785
993.357450	2528.491535
993.653188	2526.212933
993.948890	2527.465660
994.244556	2527.495907
994.540186	2529.598068
994.835780	2528.705784
995.131337	2527.566483
995.426859	2529.565300
995.722345	2525.981040
996.017795	2528.909950
996.313208	2529.333407
996.608586	2527.871473
996.903928	2529.232584
997.199234	2528.902389
997.494504	2527.584127
997.789738	2526.840557
998.084936	2526.603623
998.380099	2527.453057
998.675225	2524.992974
998.970316	2528.483973
999.265371	2528.718387
999.560390	2527.281658
999.855373	2527.579086
1000.150320	2528.121010
1000.445232	2527.803417
1000.740108	2528.025228
1001.034948	2527.959693
1001.329752	2528.788963
1001.624521	2523.959537
1001.919254	2522.464835
1002.213951	2527.047244
1002.508613	2522.636234
1002.803239	2524.630011
1003.097829	2521.060874
1003.392384	2528.078160
1003.686903	2527.591689
1003.981386	2528.118489
1004.275834	2526.497758
1004.570246	2525.658406
1004.864623	2526.500279
1005.158964	2525.035824
1005.453270	2524.443488
1005.747540	2525.431554
1006.041775	2529.010773
1006.335974	2528.680578
1006.630138	2527.778211
1006.924266	2526.573376
1007.218359	2523.019362
1007.512416	2526.328880
1007.806438	2529.053623
1008.100425	2525.131606
1008.394376	2525.718900
1008.688292	2527.626977
1008.982172	2527.556401
1009.276017	2525.655886
1009.569827	2526.563293
1009.863602	2527.783253
1010.157341	2524.884589
1010.451045	2523.198323
1010.744714	2527.153108
1011.038347	2525.353416
1011.331945	2523.934332
1011.625508	2526.520443
1011.919036	2525.234949
1012.212528	2524.357788
1012.505986	2524.929959
1012.799408	2524.456091
1013.092795	2523.780576
1013.386147	2526.386853
1013.679464	2523.178158
1013.972745	2524.314939
1014.265992	2525.018180
1014.559204	2528.451205
1014.852380	2523.299146
1015.145521	2523.657068
1015.438628	2525.991122
1015.731699	2527.087573
1016.024736	2524.831657
1016.317737	2529.651000
1016.610703	2527.241328
1016.903635	2522.958868
1017.196531	2519.946779
1017.489393	2522.507685
1017.782219	2518.434433
1018.075011	2522.444671
1018.367768	2524.067922
1018.660490	2528.315094
1018.953177	2528.315094
1019.245829	2528.315094
