Dividing Wavelength (nm)	Counts (n)	Blue Motor Position (mm): 0.000000	Red Motor Position (mm): 45.500000	
326.493990	2128.002108
326.888308	2128.002108
327.282561	2128.002108
327.676750	2095.244691
328.070874	2094.790987
328.464933	2098.050093
328.858929	2102.642584
329.252859	2116.082300
329.646726	2125.829371
330.040528	2139.861423
330.434265	2156.466984
330.827938	2172.833090
331.221547	2191.896213
331.615091	2210.230889
332.008571	2228.381564
332.401986	2248.407548
332.795338	2268.597369
333.188625	2289.578651
333.581847	2305.493574
333.975006	2323.346820
334.368100	2342.911538
334.761129	2358.511389
335.154095	2377.972763
335.546996	2400.635270
335.939833	2420.043712
336.332606	2438.143975
336.725315	2451.855914
337.117960	2462.941411
337.510540	2468.887452
337.903056	2479.736015
338.295508	2486.375215
338.687896	2494.710763
339.080220	2503.623523
339.472480	2506.814573
339.864676	2513.685666
340.256807	2517.481655
340.648875	2523.732685
341.040879	2523.031965
341.432818	2527.044723
341.824694	2527.657224
342.216506	2529.615712
342.608253	2528.499096
342.999937	2527.132944
343.391557	2527.337110
343.783113	2529.464477
344.174605	2526.417100
344.566033	2523.284023
344.957397	2524.246883
345.348697	2518.724299
345.739934	2520.599608
346.131106	2516.692714
346.522215	2516.097858
346.913260	2515.659278
347.304241	2516.254134
347.695159	2508.843637
348.086012	2507.769872
348.476802	2506.562515
348.867528	2507.268277
349.258191	2505.629902
349.648789	2502.902638
350.039324	2502.665703
350.429796	2504.316681
350.820203	2501.828872
351.210548	2497.042296
351.600828	2498.799138
351.991045	2498.542040
352.381198	2497.732934
352.771288	2498.325270
353.161314	2496.707060
353.551276	2495.628253
353.941175	2497.317039
354.331010	2497.228819
354.720782	2497.233860
355.110490	2496.797800
355.500135	2497.826196
355.889717	2495.088849
356.279235	2498.300064
356.668689	2498.431134
357.058080	2497.254025
357.447408	2496.084477
357.836672	2498.463902
358.225873	2496.742348
358.615010	2498.305105
359.004084	2499.951042
359.393095	2498.839468
359.782043	2500.424911
360.170927	2503.126969
360.559748	2500.709736
360.948505	2503.184942
361.337199	2506.965808
361.725830	2506.859943
362.114398	2505.521517
362.502903	2506.078565
362.891344	2504.488081
363.279722	2507.290962
363.668037	2509.204080
364.056289	2508.198370
364.444478	2512.261540
364.832603	2508.543689
365.220665	2510.010665
365.608665	2510.910511
365.996601	2514.116684
366.384474	2512.967301
366.772284	2515.644154
367.160031	2515.639113
367.547715	2516.770852
367.935336	2516.891840
368.322893	2522.933662
368.710388	2528.012625
369.097820	2533.694005
369.485189	2536.696012
369.872495	2540.633154
370.259738	2545.762528
370.646918	2557.057233
371.034035	2561.808520
371.421090	2571.187587
371.808081	2584.236614
372.195010	2589.786924
372.581875	2606.039604
372.968678	2619.791872
373.355418	2628.044241
373.742096	2647.031747
374.128710	2662.591268
374.515262	2676.401509
374.901751	2691.424147
375.288177	2706.010726
375.674540	2727.838922
376.060841	2744.799884
376.447079	2763.426948
376.833254	2785.161883
377.219367	2797.139664
377.605417	2837.786488
377.991404	2848.967767
378.377329	2867.889738
378.763191	2880.152345
379.148991	2922.513160
379.534727	2946.239351
379.920402	2973.834627
380.306013	2986.256030
380.691563	3038.222765
381.077049	3058.490724
381.462474	3075.431521
381.847835	3114.384517
382.233134	3137.828403
382.618371	3136.520223
383.003545	3204.865667
383.388657	3213.846482
383.773706	3244.718508
384.158693	3262.218874
384.543618	3288.561423
384.928480	3325.409738
385.313280	3370.490256
385.698017	3366.253166
386.082692	3423.707196
386.467305	3428.569389
386.851856	3459.348154
387.236344	3480.962101
387.620770	3513.180115
388.005133	3537.967469
388.389435	3566.185327
388.773674	3581.742328
389.157851	3622.253041
389.541965	3636.113693
389.926018	3603.454578
390.310008	3670.247346
390.693936	3689.756611
391.077802	3729.743043
391.461606	3719.259964
391.845348	3785.001651
392.229027	3784.489974
392.612645	3793.937097
392.996200	3871.646483
393.379694	3914.841610
393.763125	3977.553564
394.146494	3943.969397
394.529801	4004.707739
394.913047	4051.545099
395.296230	4021.565357
395.679351	4077.711208
396.062410	4099.904888
396.445408	4080.221703
396.828343	4113.205973
397.211217	4137.121206
397.594028	4062.769228
397.976778	4124.225935
398.359466	4149.842558
398.742092	4181.196014
399.124656	4101.356740
399.507158	4184.623999
399.889598	4205.660734
400.271977	4268.796145
400.654294	4239.933018
401.036549	4249.644801
401.418742	4221.716809
401.800874	4321.829083
402.182944	4339.362216
402.564952	4409.751847
402.946898	4391.891039
403.328783	4392.057398
403.710606	4304.421979
404.092367	4495.552286
404.474067	4459.873520
404.855705	4473.114110
405.237282	4395.714755
405.618797	4504.989326
406.000250	4544.055748
406.381642	4622.334785
406.762972	4581.599741
407.144240	4596.080455
407.525447	4595.553655
407.906593	4653.421060
408.287677	4691.817008
408.668700	4623.315289
409.049661	4673.021066
409.430560	4718.837593
409.811399	4649.471316
410.192176	4801.515036
410.572891	4744.920523
410.953545	4849.101008
411.334138	4725.461669
411.714669	4793.592863
412.095139	4691.857337
412.475547	4833.922094
412.855894	4812.560204
413.236180	4825.891536
413.616405	4777.302374
413.996568	4861.807236
414.376670	4804.882527
414.756711	4759.902832
415.136691	4794.696876
415.516609	4868.610273
415.896466	4905.130912
416.276262	4940.119041
416.655997	4920.151030
417.035670	5105.433599
417.415283	5193.956260
417.794834	5140.998939
418.174324	5090.796609
418.553753	4998.102392
418.933121	5184.302451
419.312428	5249.368623
419.691674	5193.762176
420.070859	5316.264735
420.449983	5228.236107
420.829045	5346.375547
421.208047	5250.943984
421.586988	5322.097350
421.965867	5337.470349
422.344686	5465.901305
422.723444	5322.094829
423.102141	5140.930884
423.480777	5435.994659
423.859352	5208.754568
424.237866	5465.172858
424.616319	5456.282783
424.994712	5567.394855
425.373044	5448.148881
425.751314	5587.826652
426.129524	5390.193256
426.507673	5583.942442
426.885762	5668.409496
427.263789	5602.022541
427.641756	5482.035517
428.019662	5604.192757
428.397508	5613.864211
428.775292	5557.146189
429.153016	5658.511190
429.530679	5578.971865
429.908282	5660.716695
430.285824	5534.765987
430.663305	5813.385519
431.040726	5545.019694
431.418086	5548.586310
431.795385	5652.502135
432.172624	5666.917314
432.549802	5656.552702
432.926920	5664.782386
433.303977	5680.208316
433.680974	5717.434717
434.057910	5737.453139
434.434786	5740.568572
434.811601	5708.728644
435.188355	5950.048679
435.565050	5817.476415
435.941683	5801.692562
436.318257	6014.905644
436.694770	6001.518860
437.071222	6036.199477
437.447614	5968.332944
437.823946	5879.918667
438.200218	6029.104053
438.576429	5894.757303
438.952580	5999.204970
439.328670	6039.808944
439.704700	5946.124141
440.080670	5935.726761
440.456580	6204.518563
440.832429	6090.056645
441.208218	5933.856493
441.583947	6092.383137
441.959616	6092.380617
442.335224	6023.626840
442.710773	6159.803529
443.086261	6182.894534
443.461689	5982.256611
443.837057	6131.580629
444.212365	6283.712570
444.587612	6175.471435
444.962800	6332.662173
445.337927	6311.688453
445.712995	5918.302013
446.088002	6497.550754
446.462949	6325.975083
446.837837	6258.133755
447.212664	6429.686741
447.587431	6571.257464
447.962139	7117.063191
448.336786	8042.656846
448.711374	7787.050182
449.085901	6859.248501
449.460369	6776.455111
449.834776	6712.795420
450.209124	7099.734225
450.583412	7257.913030
450.957640	7400.907879
451.331808	7166.806777
451.705917	6720.052161
452.079965	6638.330016
452.453954	6851.613674
452.827883	6727.785291
453.201752	6826.120559
453.575562	6621.663962
453.949311	6824.709036
454.323001	6719.754733
454.696632	6788.130423
455.070202	6930.802639
455.443713	7084.646052
455.817164	7186.926022
456.190556	7268.469206
456.563888	7336.938157
456.937160	7383.442802
457.310373	7042.930503
457.683526	7070.571150
458.056619	6953.928932
458.429653	6940.980729
458.802628	6881.646348
459.175542	6994.389233
459.548398	7341.518046
459.921194	7501.120977
460.293930	7504.647264
460.666607	8039.480919
461.039224	8339.348915
461.411782	8470.250036
461.784280	8493.348603
462.156719	8386.728199
462.529099	8259.252542
462.901419	7853.232970
463.273680	7747.217504
463.645882	7757.864421
464.018024	7621.821323
464.390106	7786.349461
464.762130	8173.205087
465.134094	8641.578691
465.505999	9664.111213
465.877845	10888.511701
466.249631	11540.050588
466.621358	11153.061372
466.993026	10529.001814
467.364634	10270.882134
467.736184	9906.409232
468.107674	9576.969828
468.479105	9604.403787
468.850477	9372.724959
469.221790	9145.111822
469.593043	8819.659971
469.964238	8674.573042
470.335373	8684.801544
470.706449	8743.881346
471.077467	8726.786793
471.448425	10035.485455
471.819324	11106.922212
472.190164	11136.546552
472.560945	9888.009020
472.931667	9095.123740
473.302330	8963.143812
473.672934	8605.161395
474.043479	8965.787897
474.413965	8906.786233
474.784393	8792.185682
475.154761	8940.723280
475.525070	9030.448257
475.895321	8855.931073
476.265513	9031.862301
476.635645	9202.054175
477.005719	9201.076191
477.375734	9318.923245
477.745691	9559.471983
478.115588	9686.856899
478.485427	9927.461090
478.855207	10468.031579
479.224928	11280.184149
479.594591	11912.062536
479.964194	11727.815925
480.333739	11665.343426
480.703226	11581.367885
481.072653	11668.103458
481.442022	11910.456929
481.811333	12098.365938
482.180584	11905.612380
482.549777	11612.229829
482.918912	11436.122161
483.287988	11464.415637
483.657005	11471.667336
484.025964	11150.508028
484.394864	11283.216403
484.763706	11254.663307
485.132489	11014.142296
485.501213	10975.103600
485.869879	11048.485156
486.238487	10891.972453
486.607036	10997.564461
486.975527	10789.478233
487.343959	10969.727210
487.712333	11014.316215
488.080648	10953.358583
488.448905	10996.944399
488.817104	10935.376787
489.185244	11198.308248
489.553326	11356.814728
489.921350	11890.854402
490.289315	12956.410652
490.657222	13296.736428
491.025070	13201.025081
491.392861	13081.446391
491.760593	12704.443701
492.128267	12356.722553
492.495883	12026.458920
492.863440	11694.440966
493.230939	11361.109791
493.598380	11283.723039
493.965763	11151.430559
494.333088	11050.766278
494.700354	10973.762653
495.067563	11040.401666
495.434713	10860.954233
495.801805	10994.827115
496.168839	10920.976731
496.535815	10848.195073
496.902733	10850.352687
497.269593	10784.928592
497.636395	10882.169929
498.003139	10872.495955
498.369825	10737.077960
498.736453	10900.542414
499.103023	10817.171812
499.469535	10849.772954
499.835989	10836.895326
500.202385	10801.226642
500.568723	10650.798612
500.935003	10880.329908
501.301226	10679.477736
501.667390	10938.237642
502.033497	11031.766169
502.399546	10902.518547
502.765537	10801.156066
503.131470	10875.021573
503.497345	11052.732328
503.863163	10661.468214
504.228923	10975.615277
504.594625	11041.856039
504.960269	10785.377255
505.325856	11009.353199
505.691385	10799.363936
506.056856	10957.202463
506.422270	10984.694395
506.787625	10871.482683
507.152924	10988.165230
507.518164	10968.940790
507.883347	10888.920034
508.248472	10806.010697
508.613540	11040.076512
508.978550	10921.009499
509.343503	10898.702393
509.708398	11008.652479
510.073236	11121.864192
510.438016	11141.469239
510.802738	11083.770712
511.167403	11136.518826
511.532010	11029.432115
511.896561	11261.410892
512.261053	11333.645585
512.625488	11203.094824
512.989866	11190.446569
513.354186	11174.365288
513.718449	11078.472460
514.082655	11271.200812
514.446803	11166.022179
514.810894	11287.546754
515.174927	11156.456589
515.538904	11176.969044
515.902822	11331.082158
516.266684	11221.429501
516.630488	11159.940027
516.994235	11218.576208
517.357925	11278.754982
517.721558	11366.786131
518.085133	11381.534026
518.448651	11390.250181
518.812112	11277.887903
519.175516	11291.826693
519.538863	11412.968141
519.902152	11325.491519
520.265385	11487.088226
520.628560	11403.881461
520.991678	11374.703263
521.354739	11440.979312
521.717743	11371.073632
522.080690	11348.580003
522.443580	11486.324491
522.806413	11444.687081
523.169189	11477.736886
523.531908	11535.175792
523.894569	11351.357679
524.257174	11352.741476
524.619722	11471.448046
524.982213	11418.599110
525.344647	11464.251799
525.707025	11423.000037
526.069345	11514.547391
526.431608	11433.906573
526.793815	11542.994622
527.155964	11327.467651
527.518057	11388.382434
527.880093	11331.213228
528.242072	11407.125444
528.603995	11309.256483
528.965860	11230.864020
529.327669	11281.923347
529.689421	11230.148176
530.051117	11196.962260
530.412755	11307.817233
530.774337	11192.820952
531.135862	11174.471152
531.497331	11198.532580
531.858743	11051.925744
532.220098	11222.107536
532.581396	11091.740777
532.942638	11074.106821
533.303824	11032.368587
533.664953	11044.737058
534.026025	10964.116405
534.387040	11061.766076
534.747999	11059.686600
535.108902	11127.578339
535.469748	10880.748324
535.830537	10980.265742
536.191270	10960.862341
536.551947	10980.600978
536.912567	10980.298509
537.273131	10906.163301
537.633638	10887.115301
537.994089	10875.815555
538.354483	10825.890488
538.714821	10968.580347
539.075103	10972.456994
539.435328	10940.642273
539.795497	10764.522001
540.155609	10924.898749
540.515665	11014.946360
540.875665	10753.063458
541.235609	10823.518625
541.595496	10813.643004
541.955328	10976.061419
542.315102	10849.160454
542.674821	10804.067332
543.034483	10805.125975
543.394090	10809.206789
543.753640	10734.302804
544.113134	10970.795934
544.472571	10812.370113
544.831953	10954.762544
545.191278	10762.311455
545.550548	10784.658890
545.909761	10935.215470
546.268918	10902.652137
546.628019	10985.465692
546.987064	10844.769609
547.346053	10775.158836
547.704986	10871.991839
548.063863	10862.058246
548.422684	10849.115083
548.781449	10762.021589
549.140158	10871.175172
549.498811	10745.668086
549.857408	10608.621798
550.215949	10832.544811
550.574434	10677.700729
550.932864	10777.865935
551.291237	10841.321459
551.649555	10787.600403
552.007817	10798.033071
552.366022	10761.842628
552.724173	10752.821483
553.082267	10740.659699
553.440305	10871.797755
553.798288	10677.176449
554.156215	10825.182205
554.514086	10815.641822
554.871902	10656.109467
555.229661	10685.292707
555.587365	10669.695377
555.945014	10571.115613
556.302606	10688.776144
556.660143	10582.584238
557.017625	10742.847560
557.375050	10637.532815
557.732421	10775.610019
558.089735	10683.102325
558.446994	10688.408140
558.804197	10720.122039
559.161345	10722.312420
559.518437	10576.045862
559.875474	10665.238997
560.232455	10687.357059
560.589381	10639.682867
560.946251	10637.797476
561.303065	10744.405277
561.659825	10675.316263
562.016528	10610.184556
562.373177	10492.221556
562.729770	10602.973185
563.086307	10519.463951
563.442789	10614.008271
563.799216	10489.658129
564.155587	10535.658658
564.511904	10494.845476
564.868164	10477.987858
565.224370	10497.214818
565.580520	10420.604403
565.936615	10425.925341
566.292654	10293.506833
566.648638	10427.198233
567.004567	10379.972703
567.360441	10365.640703
567.716260	10276.034193
568.072023	10374.966838
568.427732	10325.203087
568.783385	10228.170958
569.138982	10302.543101
569.494525	10322.289301
569.850013	10193.306338
570.205445	10275.303226
570.560823	10173.045941
570.916145	10090.529814
571.271412	10162.520012
571.626625	10109.262742
571.981782	10084.659391
572.336884	10053.532786
572.691931	10059.793899
573.046923	10011.963432
573.401860	9959.832860
573.756743	9900.400176
574.111570	9942.178739
574.466342	9930.205998
574.821059	9957.899577
575.175722	9844.229120
575.530330	9861.737047
575.884882	9852.920069
576.239380	9780.909707
576.593823	9754.499102
576.948211	9769.229353
577.302544	9656.728443
577.656823	9662.324124
578.011047	9667.912243
578.365216	9635.243046
578.719330	9566.595133
579.073389	9578.446886
579.427394	9519.914049
579.781344	9496.845729
580.135239	9446.096433
580.489080	9461.560172
580.842866	9358.229121
581.196597	9360.510243
581.550273	9403.826358
581.903895	9376.657059
582.257463	9435.603271
582.610975	9313.733377
582.964434	9341.807563
583.317837	9265.645810
583.671186	9249.259540
584.024481	9241.602027
584.377721	9161.301488
584.730906	9144.675762
585.084037	9167.451695
585.437113	9105.984906
585.790135	9121.942679
586.143103	9024.149335
586.496016	8999.203186
586.848874	9060.294408
587.201679	9039.592910
587.554428	8938.192621
587.907124	8977.332140
588.259765	8949.603273
588.612352	8948.068242
588.964884	8823.836567
589.317362	8839.575049
589.669786	8839.943053
590.022155	8890.951968
590.374470	8906.496366
590.726731	8849.750618
591.078937	8693.489972
591.431090	8812.297366
591.783188	8686.500412
592.135232	8672.425511
592.487222	8669.388216
592.839157	8723.091628
593.191038	8659.633583
593.542866	8603.175181
593.894639	8504.318154
594.246358	8552.337665
594.598022	8571.070592
594.949633	8468.374727
595.301190	8444.953526
595.652692	8471.986713
596.004141	8585.982325
596.355535	8356.503961
596.706876	8337.178698
597.058162	8269.362576
597.409395	8352.670164
597.760573	8413.617714
598.111698	8321.402407
598.462768	8309.220459
598.813785	8265.470805
599.164748	8241.837876
599.515657	8225.567552
599.866511	8137.044890
600.217312	8268.160261
600.568060	8129.281513
600.918753	8226.222902
601.269392	8197.906741
601.619978	8112.171837
601.970510	8175.380345
602.320988	8166.949015
602.671412	8229.648366
603.021783	8166.429776
603.372100	8137.677555
603.722363	8141.944892
604.072572	8117.616283
604.422728	8126.932336
604.772830	8054.443064
605.122878	8063.544867
605.472872	8057.956748
605.822813	8089.095955
606.172701	8026.837705
606.522534	8110.553627
606.872314	8104.678162
607.222041	8077.980211
607.571714	8132.195300
607.921333	8088.574196
608.270899	8101.103984
608.620411	8188.300822
608.969870	8088.924556
609.319276	8085.940193
609.668627	8095.848581
610.017926	8138.348028
610.367171	8185.379473
610.716362	8162.684199
611.065500	8150.953434
611.414585	8175.715581
611.763616	8167.521186
612.112594	8149.224318
612.461518	8161.726379
612.810389	8226.316163
613.159207	8157.078436
613.507971	8110.006662
613.856682	8223.984629
614.205340	8185.697066
614.553945	8260.167511
614.902496	8159.147829
615.250994	8216.092703
615.599439	8194.125875
615.947830	8208.944347
616.296169	8185.142539
616.644454	8190.339969
616.992686	8193.911626
617.340864	8245.701920
617.688990	8154.267992
618.037063	8247.642764
618.385082	8188.305863
618.733048	8275.585880
619.080961	8219.031696
619.428821	8232.917554
619.776628	8237.683965
620.124382	8190.302160
620.472083	8177.608535
620.819731	8201.095270
621.167326	8095.707429
621.514868	8105.996424
621.862357	7987.355388
622.209793	8006.405909
622.557176	7938.287317
622.904506	7916.106241
623.251783	7847.158379
623.599007	7802.803787
623.946179	7809.667318
624.293297	7762.530009
624.640363	7678.493975
624.987376	7662.871439
625.334336	7610.995445
625.681243	7558.612816
626.028097	7549.609315
626.374899	7520.426075
626.721647	7521.484718
627.068343	7448.594674
627.414987	7420.086949
627.761577	7367.409412
628.108115	7409.465238
628.454600	7310.419168
628.801032	7361.332301
629.147412	7324.889800
629.493739	7303.432128
629.840014	7239.810246
630.186236	7298.320398
630.532405	7180.551483
630.878521	7232.641726
631.224585	7189.494490
631.570597	7113.365505
631.916556	7147.794065
632.262462	7141.313662
632.608316	7101.092816
632.954117	7077.918632
633.299866	7065.426652
633.645562	7056.060189
633.991206	6977.839125
634.336797	6921.499190
634.682336	6880.398662
635.027823	6843.991449
635.373257	6834.365366
635.718639	6768.006137
636.063968	6785.032634
636.409245	6677.121695
636.754470	6672.778741
637.099642	6634.319778
637.444762	6575.857517
637.789829	6588.992244
638.134845	6529.032760
638.479808	6511.139184
638.824719	6514.579772
639.169577	6445.117713
639.514383	6467.336598
639.859137	6394.897738
640.203839	6406.537762
640.548489	6383.708897
640.893086	6362.735177
641.237632	6336.826167
641.582125	6354.437437
641.926566	6326.292676
642.270955	6342.404203
642.615292	6332.369787
642.959576	6351.851326
643.303809	6344.271951
643.647990	6350.948959
643.992118	6341.423699
644.336195	6288.915040
644.680219	6309.465304
645.024192	6302.614376
645.368112	6394.197018
645.711981	6411.563793
646.055797	6492.285269
646.399562	6450.776408
646.743274	6570.634882
647.086935	6626.344673
647.430544	6620.315453
647.774101	6646.055585
648.117606	6648.288816
648.461059	6639.935624
648.804460	6603.520849
649.147810	6511.504668
649.491108	6484.526933
649.834354	6456.268745
650.177548	6373.145159
650.520690	6287.246418
650.863781	6265.808912
651.206820	6282.772394
651.549807	6208.188523
651.892742	6146.527650
652.235626	6156.378065
652.578458	6139.220497
652.921238	6041.976640
653.263967	6085.801911
653.606644	6022.341346
653.949269	6029.066245
654.291843	5971.123223
654.634365	6011.399521
654.976836	5969.573068
655.319255	5975.546835
655.661622	5951.132527
656.003938	5941.498882
656.346203	5906.798099
656.688416	5942.655827
657.030577	5890.578187
657.372687	5856.242888
657.714746	5847.526733
658.056753	5891.742693
658.398708	5830.230534
658.740612	5819.911292
659.082465	5863.928127
659.424266	5858.403023
659.766016	5856.346232
660.107715	5832.473848
660.449362	5844.055899
660.790958	5840.635476
661.132503	5827.271377
661.473996	5865.548858
661.815438	5852.237691
662.156829	5850.039748
662.498168	5836.831925
662.839456	5816.541281
663.180693	5849.654100
663.521879	5854.962435
663.863013	5841.933573
664.204097	5860.318661
664.545129	5896.874588
664.886110	5894.170009
665.227040	5928.742242
665.567918	5894.903497
665.908746	5923.849802
666.249522	5921.929123
666.590248	5909.485034
666.930922	5943.805210
667.271545	5946.280416
667.612118	5951.155212
667.952639	5925.871305
668.293109	5944.132885
668.633528	5902.132512
668.973896	5909.429582
669.314213	5899.669908
669.654480	5881.350355
669.994695	5868.873499
670.334859	5863.330750
670.674973	5851.330284
671.015035	5852.469584
671.355047	5854.125603
671.695008	5835.768242
672.034918	5810.030631
672.374777	5817.436086
672.714585	5805.377646
673.054342	5811.134643
673.394049	5802.148787
673.733705	5834.810423
674.073310	5816.873997
674.412864	5776.070898
674.752368	5763.599083
675.091820	5772.095948
675.431223	5710.445157
675.770574	5709.071443
676.109875	5663.365821
676.449125	5663.527138
676.788324	5628.332323
677.127473	5570.205298
677.466571	5561.799174
677.805619	5551.376589
678.144616	5538.998035
678.483562	5517.860477
678.822458	5482.330425
679.161303	5481.493593
679.500098	5465.455162
679.838842	5453.091733
680.177535	5456.325633
680.516179	5471.189475
680.854771	5481.213809
681.193314	5556.684924
681.531805	5664.661398
681.870247	5804.198016
682.208638	5909.331279
682.546978	5922.884421
682.885268	5899.581688
683.223508	5809.897040
683.561697	5759.097333
683.899836	5730.471141
684.237925	5681.319891
684.575963	5646.898892
684.913951	5612.500579
685.251889	5661.056973
685.589776	5627.291324
685.927614	5606.433550
686.265401	5667.534856
686.603137	5656.199821
686.940824	5723.093412
687.278460	5744.525878
687.616046	5753.143730
687.953582	5816.122865
688.291068	5796.301048
688.628504	5849.437330
688.965889	5817.242001
689.303224	5759.833341
689.640510	5712.406166
689.977745	5635.702490
690.314930	5542.894847
690.652065	5488.034491
690.989150	5396.051077
691.326185	5322.354449
691.663170	5269.792858
692.000105	5195.657650
692.336990	5118.502790
692.673825	5091.270477
693.010610	5025.674983
693.347345	4956.520435
693.684030	4942.362354
694.020665	4900.291405
694.357251	4814.122962
694.693786	4824.800126
695.030272	4788.816370
695.366707	4750.475874
695.703093	4715.754927
696.039429	4736.443822
696.375716	4715.691913
696.711952	4693.304148
697.048139	4682.931974
697.384276	4658.961288
697.720363	4671.559131
698.056400	4673.845295
698.392388	4625.510712
698.728326	4605.436837
699.064214	4587.374383
699.400053	4580.006736
699.735842	4541.593144
700.071581	4522.237634
700.407270	4491.905011
700.742910	4475.874142
701.078501	4423.352881
701.414042	4421.091923
701.749533	4389.655288
702.084974	4330.756967
702.420366	4381.987693
702.755709	4325.514167
703.091002	4270.265641
703.426246	4312.409687
703.761440	4275.513482
704.096584	4241.594079
704.431679	4253.549175
704.766725	4240.172473
705.101721	4224.267633
705.436668	4253.017333
705.771565	4204.400446
706.106413	4229.354157
706.441212	4253.463475
706.775961	4259.253241
707.110661	4244.770006
707.445311	4274.979120
707.779913	4288.244916
708.114465	4302.218995
708.448967	4321.642561
708.783421	4375.555180
709.117825	4409.940891
709.452180	4417.684103
709.786485	4458.537614
710.120742	4540.615160
710.454949	4523.167727
710.789107	4583.522941
711.123216	4646.887724
711.457275	4638.161487
711.791286	4704.177917
712.125247	4714.232499
712.459159	4632.371722
712.793023	4701.806054
713.126837	4648.276562
713.460602	4641.425634
713.794318	4577.345007
714.127985	4581.451027
714.461602	4496.437008
714.795171	4471.498420
715.128691	4408.070623
715.462162	4352.885112
715.795584	4307.189573
716.128957	4283.788536
716.462281	4246.725973
716.795556	4217.704051
717.128782	4179.378678
717.461960	4111.567597
717.795088	4117.894246
718.128167	4078.646342
718.461198	4029.681615
718.794180	4026.762787
719.127113	3998.033251
719.459997	3982.471209
719.792833	3941.045527
720.125619	3936.906740
720.458357	3896.970719
720.791046	3896.025503
721.123686	3873.567163
721.456278	3837.553160
721.788821	3844.328470
722.121315	3823.102692
722.453761	3802.229795
722.786158	3808.294303
723.118506	3827.251562
723.450805	3788.495171
723.783056	3806.345897
724.115259	3814.978873
724.447412	3817.875016
724.779518	3816.758400
725.111574	3814.545333
725.443582	3841.984334
725.775542	3825.900533
726.107453	3869.713201
726.439315	3863.192468
726.771129	3881.819532
727.102895	3913.394799
727.434612	3949.560036
727.766281	3964.149136
728.097901	3966.084939
728.429473	3967.017552
728.760996	3969.956545
729.092471	3971.829333
729.423897	3949.973411
729.755276	3954.795275
730.086606	3955.566571
730.417887	3987.204853
730.749120	4043.501938
731.080305	4091.201336
731.411442	4119.693938
731.742530	4098.276595
732.073570	4094.931790
732.404562	4136.125578
732.735506	4130.613077
733.066401	4100.149384
733.397249	4041.777864
733.728048	3973.467708
734.058798	3892.262282
734.389501	3824.723423
734.720156	3779.526958
735.050762	3735.195051
735.381320	3721.732650
735.711831	3684.261753
736.042293	3652.492402
736.372707	3666.065709
736.703073	3643.766165
737.033391	3642.765496
737.363661	3654.831497
737.693883	3670.582582
738.024056	3679.177750
738.354182	3681.022812
738.684260	3729.196078
739.014290	3747.818101
739.344272	3746.202411
739.674207	3779.022843
740.004093	3784.099285
740.333931	3780.820014
740.663722	3772.892800
740.993464	3774.319446
741.323159	3752.539141
741.652806	3719.789285
741.982405	3699.337324
742.311956	3667.726769
742.641460	3662.216788
742.970915	3640.007984
743.300323	3600.898713
743.629683	3574.689754
743.958996	3562.648958
744.288260	3537.914537
744.617477	3510.964528
744.946647	3498.054133
745.275768	3473.803663
745.604842	3463.335707
745.933869	3431.634411
746.262847	3422.565375
746.591778	3446.432718
746.920662	3423.961775
747.249498	3403.414032
747.578286	3434.880914
747.907027	3448.653346
748.235720	3457.969398
748.564365	3469.322077
748.892963	3462.052733
749.221514	3452.025878
749.550017	3433.383691
749.878473	3430.250614
750.206881	3406.226995
750.535242	3398.309863
750.863555	3399.222312
751.191821	3394.528998
751.520039	3379.080382
751.848210	3364.279554
752.176334	3385.953995
752.504411	3389.044223
752.832440	3355.069366
753.160421	3346.638036
753.488356	3346.030577
753.816243	3350.673480
754.144082	3322.185920
754.471875	3313.429435
754.799620	3323.110971
755.127318	3318.798264
755.454969	3314.367090
755.782572	3316.933037
756.110129	3300.241777
756.437638	3294.888072
756.765100	3296.087866
757.092515	3303.102632
757.419882	3307.899290
757.747203	3289.385652
758.074477	3295.014100
758.401703	3300.456026
758.728882	3319.945127
759.056014	3320.862617
759.383099	3326.445695
759.710138	3331.202023
760.037129	3341.987572
760.364073	3358.507433
760.690970	3345.468489
761.017820	3331.577589
761.344623	3347.701720
761.671379	3378.510732
761.998088	3418.978594
762.324751	3520.716640
762.651366	3732.429978
762.977935	4132.201040
763.304456	4488.693796
763.630931	4549.263260
763.957359	4260.218622
764.283740	3977.281341
764.610074	3807.583500
764.936362	3638.772902
765.262602	3518.178419
765.588796	3418.373656
765.914943	3351.449818
766.241044	3284.677214
766.567097	3256.063625
766.893104	3218.922924
767.219064	3191.557021
767.544978	3169.328053
767.870845	3128.696353
768.196665	3116.753859
768.522438	3114.291256
768.848165	3107.087447
769.173846	3083.041143
769.499479	3069.702250
769.825066	3053.966288
770.150607	3041.151675
770.476101	3044.922458
770.801548	3042.321223
771.126949	3011.839886
771.452303	2999.136178
771.777611	2998.866477
772.102872	3001.505521
772.428087	2980.027685
772.753256	2970.522589
773.078378	2966.706436
773.403453	2941.130142
773.728482	2932.398863
774.053465	2943.217179
774.378401	2933.482711
774.703291	2916.854465
775.028135	2910.575708
775.352932	2905.859709
775.677683	2900.208575
776.002388	2891.280692
776.327046	2894.910323
776.651658	2887.567882
776.976224	2878.985318
777.300743	2876.666387
777.625216	2865.671630
777.949643	2865.593492
778.274024	2868.393853
778.598359	2857.378932
778.922647	2859.448326
779.246889	2855.410362
779.571086	2849.449197
779.895236	2843.586335
780.219339	2849.093796
780.543397	2859.660054
780.867409	2859.057636
781.191374	2857.121833
781.515294	2853.000690
781.839167	2853.809795
782.162995	2848.609845
782.486776	2853.033457
782.810511	2849.058508
783.134201	2842.719257
783.457844	2845.116325
783.781441	2839.361848
784.104993	2824.558500
784.428498	2825.859118
784.751958	2830.242401
785.075372	2829.370281
785.398739	2817.909218
785.722061	2826.685867
786.045337	2831.621157
786.368568	2826.567400
786.691752	2821.806030
787.014891	2856.436236
787.337983	2874.803680
787.661030	2903.460119
787.984031	2956.248562
788.306987	2987.228973
788.629897	2983.259064
788.952760	2967.404635
789.275579	2953.745629
789.598351	2908.823907
789.921078	2876.419370
790.243759	2865.333873
790.566395	2851.027078
790.888984	2830.338183
791.211529	2823.567913
791.534027	2812.273208
791.856480	2805.180305
792.178888	2794.722431
792.501249	2790.107255
792.823566	2786.449897
793.145836	2783.505864
793.468062	2780.985287
793.790241	2774.812394
794.112375	2782.779937
794.434464	2790.901236
794.756507	2793.477266
795.078505	2800.751651
795.400457	2811.045687
795.722364	2837.909996
796.044226	2854.946575
796.366042	2858.142667
796.687812	2851.435412
797.009538	2861.719366
797.331218	2850.545648
797.652852	2838.850171
797.974442	2826.464056
798.295986	2824.049343
798.617484	2817.483241
798.938938	2806.901859
799.260346	2798.677216
799.581709	2791.584313
799.903026	2788.834363
800.224299	2782.968981
800.545526	2774.567898
800.866708	2765.826537
801.187845	2760.016607
801.508936	2760.218253
801.829983	2760.019128
802.150984	2750.307345
802.471940	2746.400451
802.792851	2744.510018
803.113717	2745.278794
803.434538	2745.379617
803.755314	2742.382651
804.076045	2735.609861
804.396731	2739.060531
804.717372	2739.889801
805.037967	2735.806466
805.358518	2739.433576
805.679024	2743.075810
805.999485	2742.974987
806.319901	2748.013620
806.640272	2744.023547
806.960598	2745.195615
807.280879	2749.636872
807.601115	2756.550814
807.921306	2749.425143
808.241453	2746.526480
808.561554	2746.912128
808.881611	2749.107550
809.201623	2745.432549
809.521590	2745.563619
809.841513	2740.756879
810.161390	2744.290728
810.481223	2737.349059
810.801011	2732.592730
811.120755	2729.764643
811.440453	2729.378995
811.760107	2729.157184
812.079716	2726.573593
812.399281	2716.123281
812.718801	2716.022458
813.038276	2711.712271
813.357707	2715.518342
813.677093	2717.539845
813.996434	2715.001624
814.315731	2712.730584
814.634983	2708.889225
814.954191	2708.647250
815.273354	2719.737788
815.592473	2720.030175
815.911547	2723.236349
816.230577	2729.764643
816.549562	2738.725294
816.868502	2734.505848
817.187399	2741.800398
817.506250	2747.819536
817.825058	2744.089082
818.143821	2750.178796
818.462539	2764.498193
818.781213	2780.012344
819.099843	2805.618885
819.418429	2846.605986
819.736970	2889.874210
820.055466	2941.397323
820.373919	3002.395284
820.692327	3091.008687
821.010691	3214.932851
821.329011	3554.169737
821.647286	4259.230555
821.965517	5323.022402
822.283704	5897.736625
822.601847	5879.401949
822.919945	5338.284495
823.237999	4868.111199
823.556010	4417.348866
823.873976	4010.200076
824.191897	3719.895149
824.509775	3506.067047
824.827609	3331.275120
825.145398	3245.666245
825.463144	3237.290368
825.780845	3294.015952
826.098502	3377.893190
826.416116	3582.180909
826.733685	3821.421467
827.051210	3863.792365
827.368692	3766.394753
827.686129	3553.985735
828.003522	3330.229081
828.320872	3153.120743
828.638177	3031.215561
828.955439	2940.988989
829.272656	2883.963457
829.589830	2843.336798
829.906960	2810.082827
830.224046	2782.031326
830.541088	2758.839498
830.858086	2749.634351
831.175041	2736.441651
831.491952	2738.377454
831.808819	2743.408526
832.125642	2756.802872
832.442421	2786.238169
832.759157	2848.377952
833.075849	2967.402115
833.392497	3160.112823
833.709101	3285.259468
834.025662	3249.520207
834.342179	3139.640698
834.658653	3017.944723
834.975083	2920.695824
835.291469	2854.565968
835.607811	2797.762247
835.924110	2763.759664
836.240366	2730.243553
836.556578	2705.194059
836.872746	2693.087728
837.188871	2680.003413
837.504952	2670.281548
837.820990	2661.310815
838.136984	2656.156235
838.452935	2649.685914
838.768842	2650.265647
839.084706	2663.559170
839.400526	2713.128835
839.716303	2804.008236
840.032037	2859.080322
840.347727	2845.416274
840.663373	2798.067237
840.978977	2743.259812
841.294537	2700.949408
841.610054	2669.681651
841.925527	2654.958961
842.240957	2644.047384
842.556344	2630.005250
842.871687	2625.100207
843.186987	2616.366408
843.502244	2610.659822
843.817458	2610.707713
844.132629	2602.394850
844.447756	2600.446444
844.762840	2592.068046
845.077881	2592.879672
845.392879	2592.244487
845.707833	2589.242480
846.022745	2584.425657
846.337613	2592.131061
846.652438	2585.474217
846.967221	2588.692994
847.281960	2585.196954
847.596656	2584.561768
847.911309	2584.216449
848.225919	2582.993969
848.540485	2580.725450
848.855009	2584.155955
849.169490	2579.893660
849.483928	2579.525656
849.798323	2579.432394
850.112675	2577.572208
850.426984	2580.372569
850.741251	2575.833010
851.055474	2576.863926
851.369654	2583.712334
851.683792	2578.814853
851.997887	2580.513722
852.311938	2581.700913
852.625947	2579.888619
852.939914	2579.946592
853.253837	2583.583784
853.567718	2576.435428
853.881555	2578.557754
854.195350	2579.868454
854.509103	2578.424163
854.822812	2577.788978
855.136479	2579.170254
855.450103	2578.267888
855.763685	2581.070769
856.077224	2578.303176
856.390720	2575.268401
856.704173	2580.773341
857.017584	2579.636561
857.330953	2580.289390
857.644278	2579.180337
857.957561	2586.179979
858.270802	2583.598908
858.584000	2578.890470
858.897155	2580.980028
859.210268	2581.413568
859.523339	2578.519945
859.836367	2578.598083
860.149352	2577.912486
860.462295	2579.124884
860.775195	2576.294276
861.088054	2572.213462
861.400869	2577.756211
861.713642	2570.668348
862.026373	2574.928123
862.339062	2577.037846
862.651708	2576.478278
862.964312	2578.242682
863.276873	2579.664287
863.589392	2582.043712
863.901869	2582.802406
864.214303	2584.735688
864.526696	2587.921697
864.839045	2586.066553
865.151353	2588.458580
865.463619	2587.767942
865.775842	2588.690473
866.088023	2587.465473
866.400162	2588.937490
866.712258	2587.314238
867.024313	2585.317941
867.336325	2585.804413
867.648296	2586.333734
867.960224	2586.300966
868.272110	2585.680904
868.583954	2585.184351
868.895755	2585.554876
869.207515	2583.961871
869.519233	2590.747264
869.830909	2586.699217
870.142542	2588.158632
870.454134	2587.709969
870.765684	2591.800865
871.077191	2594.107193
871.388657	2594.066864
871.700081	2594.185331
872.011463	2593.277923
872.322803	2593.081318
872.634101	2594.139961
872.945357	2597.978799
873.256571	2600.968203
873.567744	2601.618512
873.878874	2603.095570
874.189963	2600.874942
874.501010	2602.588934
874.812015	2601.991558
875.122979	2604.570108
875.433900	2599.506269
875.744780	2600.801845
876.055618	2603.055241
876.366415	2605.472474
876.677169	2603.876949
876.987882	2599.972576
877.298554	2596.539550
877.609183	2600.897627
877.919771	2603.700509
878.230317	2607.425922
878.540822	2613.636623
878.851285	2623.020731
879.161707	2632.523306
879.472087	2652.372849
879.782425	2679.809329
880.092722	2742.440624
880.402977	2853.845083
880.713191	3038.973897
881.023363	3261.361878
881.333494	3421.186619
881.643583	3512.292872
881.953631	3479.147286
882.263637	3351.961495
882.573602	3201.843495
882.883526	3103.180553
883.193408	3021.382790
883.503248	2950.486523
883.813048	2881.778117
884.122806	2820.132367
884.432522	2770.562701
884.742197	2737.712022
885.051831	2711.266129
885.361424	2693.589323
885.670975	2674.385047
885.980485	2656.655309
886.289954	2648.990235
886.599382	2641.095788
886.908768	2637.340128
887.218113	2626.105917
887.527417	2618.423199
887.836680	2616.994032
888.145901	2611.398351
888.455082	2605.348966
888.764221	2597.729262
889.073319	2597.610795
889.382376	2593.330855
889.691392	2594.215578
890.000366	2596.093408
890.309300	2596.552153
890.618193	2596.184148
890.927044	2598.001484
891.235855	2598.210692
891.544625	2598.412338
891.853353	2596.867225
892.162041	2603.307299
892.470687	2613.223248
892.779293	2618.612242
893.087858	2626.909981
893.396381	2637.549336
893.704864	2663.470949
894.013306	2699.434541
894.321707	2752.825401
894.630068	2780.927313
894.938387	2791.667492
895.246665	2783.147942
895.554903	2754.292377
895.863100	2725.711555
896.171256	2694.562266
896.479371	2664.849705
896.787446	2647.740029
897.095480	2636.301651
897.403473	2631.283182
897.711425	2624.598612
898.019336	2614.095368
898.327207	2606.291662
898.635038	2604.723863
898.942827	2606.352156
899.250576	2600.917792
899.558284	2595.445619
899.865952	2591.979826
900.173579	2593.308170
900.481165	2587.964547
900.788711	2584.375246
901.096216	2585.764083
901.403681	2579.208063
901.711105	2582.326017
902.018489	2579.598752
902.325832	2583.699731
902.633135	2585.408682
902.940397	2591.463108
903.247619	2608.240068
903.554800	2649.494350
903.861941	2722.767522
904.169041	2797.495066
904.476101	2831.956393
904.783121	2824.886175
905.090100	2785.965947
905.397039	2737.999368
905.703938	2698.438913
906.010796	2666.508245
906.317614	2642.051087
906.624391	2620.462345
906.931129	2608.335850
907.237826	2596.955445
907.544483	2588.403128
907.851099	2581.632858
908.157675	2573.987948
908.464211	2572.639439
908.770707	2563.129303
909.077163	2564.566032
909.383578	2561.402708
909.689954	2561.513613
909.996289	2557.629404
910.302584	2560.742316
910.608839	2557.037068
910.915054	2560.568397
911.221229	2560.041596
911.527363	2563.129303
911.833458	2560.633932
912.139513	2562.766340
912.445527	2563.310784
912.751502	2563.071329
913.057436	2568.508214
913.363331	2570.121383
913.669186	2577.514235
913.975000	2582.772159
914.280775	2592.320104
914.586510	2606.644543
914.892205	2627.020887
915.197859	2663.171001
915.503475	2708.170861
915.809050	2744.202508
916.114585	2759.124323
916.420081	2764.636825
916.725536	2764.639345
917.030952	2741.893659
917.336328	2716.319886
917.641665	2691.759384
917.946961	2668.116373
918.252218	2648.982673
918.557435	2634.612864
918.862612	2622.486369
919.167750	2612.396499
919.472848	2603.133379
919.777906	2597.197420
920.082925	2589.207192
920.387904	2584.372725
920.692843	2579.359297
920.997743	2578.340984
921.302603	2575.487691
921.607423	2571.515262
921.912204	2569.665159
922.216946	2568.253636
922.521647	2568.563667
922.826310	2562.554611
923.130932	2564.918912
923.435516	2559.610577
923.740059	2558.511606
924.044564	2555.282747
924.349028	2556.389280
924.653454	2549.866027
924.957840	2552.152190
925.262186	2549.114895
925.566493	2549.959288
925.870761	2544.928217
926.174989	2550.513815
926.479178	2548.018444
926.783328	2549.432488
927.087438	2549.616490
927.391509	2548.451983
927.695541	2547.045501
927.999533	2546.375028
928.303486	2545.540717
928.607400	2545.944009
928.911275	2545.515511
929.215110	2546.657333
929.518906	2547.080789
929.822663	2546.460727
930.126381	2544.930737
930.430060	2547.229503
930.733699	2547.403423
931.037299	2549.437529
931.340861	2546.790923
931.644383	2546.221273
931.947866	2545.011396
932.251309	2546.496016
932.554714	2545.485264
932.858080	2546.732950
933.161407	2543.967877
933.464694	2542.584080
933.767943	2546.856458
934.071153	2545.500388
934.374323	2543.178936
934.677455	2545.696993
934.980548	2544.640871
935.283602	2544.847558
935.586617	2540.870088
935.889593	2544.182126
936.192530	2544.040974
936.495428	2542.921838
936.798287	2543.315048
937.101108	2543.002496
937.403890	2545.071890
937.706632	2546.705223
938.009336	2547.128680
938.312002	2550.876778
938.614628	2551.862324
938.917216	2555.721327
939.219765	2555.512119
939.522275	2553.503219
939.824747	2554.824002
940.127179	2550.221428
940.429573	2545.760007
940.731929	2550.047508
941.034246	2547.017775
941.336524	2548.499874
941.638763	2550.211346
941.940964	2552.033723
942.243126	2549.308979
942.545250	2547.289997
942.847335	2546.145655
943.149381	2549.659340
943.451389	2544.764379
943.753359	2545.817980
944.055290	2545.507949
944.357182	2546.445604
944.659036	2544.474513
944.960851	2545.906201
945.262628	2544.053577
945.564367	2544.469472
945.866067	2545.402085
946.167729	2544.903011
946.469352	2546.191026
946.770937	2544.509801
947.072484	2544.295552
947.373992	2544.454348
947.675462	2542.538710
947.976893	2543.793957
948.278286	2542.120294
948.579641	2543.675490
948.880958	2543.783875
949.182236	2543.446118
949.483476	2542.823535
949.784678	2544.287990
950.085841	2540.943185
950.386967	2543.322609
950.688054	2542.967208
950.989103	2544.257743
951.290114	2546.173382
951.591087	2545.480223
951.892021	2545.457538
952.192917	2544.900490
952.493776	2546.770758
952.794596	2547.741181
953.095378	2548.648588
953.396122	2550.223949
953.696828	2546.884184
953.997496	2542.432846
954.298126	2545.676828
954.598718	2545.301262
954.899272	2542.884029
955.199788	2540.623071
955.500266	2543.302445
955.800706	2540.761703
956.101108	2539.839172
956.401472	2538.563760
956.701798	2535.244160
957.002087	2537.716846
957.302337	2540.575180
957.602550	2540.497043
957.902724	2535.642411
958.202861	2536.297761
958.502960	2534.873635
958.803022	2541.545602
959.103045	2537.666435
959.403031	2536.149047
959.702979	2535.879346
960.002889	2539.849254
960.302762	2535.806249
960.602596	2537.621064
960.902393	2534.702236
961.202153	2535.755837
961.501875	2537.179963
961.801559	2537.366486
962.101205	2537.134593
962.400814	2537.016126
962.700385	2535.667617
962.999918	2534.490508
963.299414	2536.721218
963.598873	2535.191228
963.898293	2532.141330
964.197677	2535.786084
964.497022	2535.753317
964.796331	2537.457227
965.095601	2535.264325
965.394835	2537.444624
965.694030	2533.555374
965.993189	2535.337422
966.292309	2535.549150
966.591393	2535.407998
966.890439	2534.440096
967.189447	2534.624098
967.488419	2533.749458
967.787353	2533.678882
968.086249	2534.503111
968.385108	2533.404139
968.683930	2535.183666
968.982714	2533.711649
969.281462	2534.500590
969.580172	2533.600744
969.878844	2534.573687
970.177480	2535.798687
970.476078	2532.267359
970.774639	2535.440765
971.073162	2535.597041
971.371649	2533.540250
971.670098	2530.329035
971.968510	2531.685106
972.266885	2529.862728
972.565223	2535.592000
972.863524	2532.277441
973.161788	2532.804242
973.460014	2536.023018
973.758204	2534.956814
974.056356	2535.962525
974.354471	2534.747607
974.652550	2535.680220
974.950591	2533.444468
975.248595	2538.082330
975.546563	2535.120652
975.844493	2534.503111
976.142386	2535.962525
976.440243	2532.811803
976.738062	2536.000333
977.035845	2534.291382
977.333590	2531.843902
977.631299	2536.133924
977.928971	2535.017308
978.226606	2532.826927
978.524204	2534.666948
978.821765	2532.098480
979.119290	2533.336083
979.416777	2533.661238
979.714228	2533.731814
980.011642	2534.205682
980.309020	2535.990251
980.606360	2533.525127
980.903664	2535.498738
981.200931	2533.878007
981.498162	2533.575538
981.795356	2536.519572
982.092513	2537.686599
982.389633	2538.412525
982.686717	2537.684079
982.983764	2544.038453
983.280775	2543.156251
983.577749	2539.937474
983.874686	2540.847403
984.171587	2538.369676
984.468451	2537.777340
984.765279	2539.587114
985.062070	2534.929088
985.358824	2535.105528
985.655543	2536.254912
985.952224	2534.825744
986.248869	2531.717873
986.545478	2527.163191
986.842050	2531.617050
987.138586	2528.163860
987.435086	2532.017822
987.731549	2529.363654
988.027975	2532.534540
988.324366	2528.897348
988.620719	2530.807945
988.917037	2533.424304
989.213318	2531.440610
989.509563	2533.910775
989.805772	2533.583100
990.101944	2532.826927
990.398080	2531.652338
990.694180	2532.320291
990.990244	2531.922040
991.286271	2528.622605
991.582262	2533.741896
991.878217	2531.697708
992.174136	2532.489170
992.470019	2532.950435
992.765865	2532.408511
993.061676	2533.328522
993.357450	2531.589324
993.653188	2531.289375
993.948890	2533.845240
994.244556	2532.685775
994.540186	2531.375075
994.835780	2534.031763
995.131337	2530.576052
995.426859	2533.862884
995.722345	2530.550846
996.017795	2535.672658
996.313208	2531.816176
996.608586	2534.833306
996.903928	2533.653676
997.199234	2533.273069
997.494504	2533.273069
997.789738	2529.217461
998.084936	2533.557894
998.380099	2530.016484
998.675225	2530.649148
998.970316	2530.039169
999.265371	2531.904396
999.560390	2530.409694
999.855373	2531.758202
1000.150320	2531.279293
1000.445232	2530.414735
1000.740108	2530.424817
1001.034948	2531.793490
1001.329752	2529.963552
1001.624521	2531.725435
1001.919254	2524.955165
1002.213951	2528.342821
1002.508613	2525.739065
1002.803239	2528.199148
1003.097829	2528.569672
1003.392384	2531.412883
1003.686903	2529.298119
1003.981386	2529.320804
1004.275834	2527.987419
1004.570246	2532.511855
1004.864623	2529.983716
1005.158964	2529.746782
1005.453270	2530.689478
1005.747540	2530.742410
1006.041775	2528.584796
1006.335974	2529.514889
1006.630138	2527.432892
1006.924266	2530.336597
1007.218359	2528.746113
1007.512416	2531.092770
1007.806438	2527.939528
1008.100425	2531.571680
1008.394376	2529.179652
1008.688292	2530.061854
1008.982172	2528.418438
1009.276017	2530.535722
1009.569827	2531.238963
1009.863602	2530.606299
1010.157341	2530.240815
1010.451045	2529.328366
1010.744714	2527.853829
1011.038347	2530.097142
1011.331945	2529.184693
1011.625508	2529.282996
1011.919036	2531.170908
1012.212528	2528.504138
1012.505986	2528.872142
1012.799408	2529.857687
1013.092795	2528.443644
1013.386147	2529.890455
1013.679464	2528.332738
1013.972745	2529.061185
1014.265992	2529.890455
1014.559204	2528.252080
1014.852380	2531.120496
1015.145521	2529.328366
1015.438628	2532.456402
1015.731699	2529.489683
1016.024736	2529.734179
1016.317737	2529.822399
1016.610703	2529.875331
1016.903635	2527.407687
1017.196531	2527.241328
1017.489393	2527.546318
1017.782219	2525.217305
1018.075011	2527.112779
1018.367768	2528.380629
1018.660490	2529.943387
1018.953177	2529.943387
1019.245829	2529.943387
