Dividing Wavelength (nm)	Counts (n)	Blue Motor Position (mm): 0.000000	Red Motor Position (mm): 30.600000	
326.493990	2129.043107
326.888308	2129.043107
327.282561	2129.043107
327.676750	2094.443147
328.070874	2095.063209
328.464933	2099.156626
328.858929	2102.695516
329.252859	2115.439553
329.646726	2125.975565
330.040528	2139.052318
330.434265	2156.459422
330.827938	2173.362411
331.221547	2190.751871
331.615091	2209.870447
332.008571	2227.693446
332.401986	2249.153638
332.795338	2268.549478
333.188625	2285.485234
333.581847	2306.000210
333.975006	2325.643066
334.368100	2342.296517
334.761129	2360.542974
335.154095	2376.289018
335.546996	2393.320556
335.939833	2413.908628
336.332606	2429.445464
336.725315	2441.030036
337.117960	2449.834411
337.510540	2457.239866
337.903056	2472.433904
338.295508	2475.987917
338.687896	2486.654999
339.080220	2491.615494
339.472480	2504.546054
339.864676	2502.506907
340.256807	2508.210973
340.648875	2510.814729
341.040879	2512.712723
341.432818	2518.867972
341.824694	2515.192971
342.216506	2518.840246
342.608253	2516.803619
342.999937	2518.260513
343.391557	2516.954854
343.783113	2515.860924
344.174605	2514.953516
344.566033	2515.157683
344.957397	2514.726664
345.348697	2511.875892
345.739934	2509.791374
346.131106	2509.216683
346.522215	2504.815756
346.913260	2502.433810
347.304241	2503.870539
347.695159	2503.578152
348.086012	2502.312823
348.476802	2496.518016
348.867528	2496.419714
349.258191	2495.842502
349.648789	2495.585403
350.039324	2494.493993
350.429796	2491.587768
350.820203	2488.648775
351.210548	2488.154742
351.600828	2488.648775
351.991045	2490.355206
352.381198	2488.197592
352.771288	2487.910246
353.161314	2489.097438
353.551276	2489.508292
353.941175	2486.602067
354.331010	2489.505771
354.720782	2485.677015
355.110490	2487.428816
355.500135	2487.055771
355.889717	2488.376553
356.279235	2487.912767
356.668689	2490.990391
357.058080	2489.742706
357.447408	2485.808085
357.836672	2486.481079
358.225873	2487.829588
358.615010	2486.034937
359.004084	2489.306646
359.393095	2488.031234
359.782043	2492.964003
360.170927	2489.780514
360.559748	2492.928715
360.948505	2494.022645
361.337199	2495.328304
361.725830	2492.903509
362.114398	2496.540702
362.502903	2493.074908
362.891344	2496.666730
363.279722	2499.257883
363.668037	2500.084633
364.056289	2500.765188
364.444478	2497.445589
364.832603	2501.738131
365.220665	2497.652276
365.608665	2499.958604
365.996601	2501.725528
366.384474	2501.619664
366.772284	2505.370282
367.160031	2506.350787
367.547715	2507.285921
367.935336	2509.541837
368.322893	2511.833042
368.710388	2516.695235
369.097820	2520.256810
369.485189	2524.433406
369.872495	2531.327184
370.259738	2537.162319
370.646918	2548.285625
371.034035	2551.726213
371.421090	2564.240877
371.808081	2573.907290
372.195010	2581.083372
372.581875	2595.468305
372.968678	2608.134204
373.355418	2618.521501
373.742096	2637.665283
374.128710	2654.013745
374.515262	2664.660662
374.901751	2683.416275
375.288177	2693.838860
375.674540	2716.821481
376.060841	2733.530385
376.447079	2756.938983
376.833254	2774.961108
377.219367	2789.217491
377.605417	2824.445074
377.991404	2834.330777
378.377329	2857.237780
378.763191	2873.792929
379.148991	2912.771131
379.534727	2939.685851
379.920402	2965.012608
380.306013	2977.771768
380.691563	3026.307998
381.077049	3049.088972
381.462474	3065.215623
381.847835	3105.842282
382.233134	3127.867083
382.618371	3127.128554
383.003545	3197.349306
383.388657	3202.461036
383.773706	3234.565625
384.158693	3248.539703
384.543618	3275.262860
384.928480	3310.898776
385.313280	3362.157228
385.698017	3358.756970
386.082692	3412.467944
386.467305	3419.762493
386.851856	3447.458593
387.236344	3470.002633
387.620770	3502.220647
388.005133	3530.521685
388.389435	3553.731157
388.773674	3563.949576
389.157851	3605.801235
389.541965	3626.303608
389.926018	3587.300200
390.310008	3658.879544
390.693936	3680.864016
391.077802	3722.476220
391.461606	3709.230588
391.845348	3771.982872
392.229027	3770.692336
392.612645	3782.849079
392.996200	3862.151470
393.379694	3903.688057
393.763125	3966.954538
394.146494	3932.904064
394.529801	3995.008559
394.913047	4045.717525
395.296230	4007.230836
395.679351	4062.701173
396.062410	4090.377107
396.445408	4065.241914
396.828343	4106.735652
397.211217	4129.088128
397.594028	4046.019995
397.976778	4111.524748
398.359466	4142.759737
398.742092	4168.454498
399.124656	4090.256120
399.507158	4169.198068
399.889598	4197.799055
400.271977	4257.773662
400.654294	4226.006831
401.036549	4234.158377
401.418742	4205.650652
401.800874	4305.493224
402.182944	4327.797809
402.564952	4390.930700
402.946898	4381.912075
403.328783	4377.430490
403.710606	4295.718427
404.092367	4484.428980
404.474067	4445.692754
404.855705	4455.444866
405.237282	4388.299217
405.618797	4496.910877
406.000250	4527.903891
406.381642	4609.525213
406.762972	4571.656065
407.144240	4579.868105
407.525447	4580.498249
407.906593	4640.031755
408.287677	4680.166902
408.668700	4608.022949
409.049661	4658.263088
409.430560	4703.877969
409.811399	4630.897184
410.192176	4792.985404
410.572891	4734.445005
410.953545	4834.887475
411.334138	4716.705185
411.714669	4783.634064
412.095139	4678.014329
412.475547	4821.510773
412.855894	4799.748112
413.236180	4809.641376
413.616405	4763.673615
413.996568	4851.011605
414.376670	4794.865754
414.756711	4749.513014
415.136691	4781.998209
415.516609	4858.820353
415.896466	4892.419643
416.276262	4924.781330
416.655997	4910.552673
417.035670	5096.117547
417.415283	5180.655176
417.794834	5125.943533
418.174324	5078.102983
418.553753	4986.953881
418.933121	5171.772663
419.312428	5235.192899
419.691674	5176.793652
420.070859	5307.541018
420.449983	5214.274631
420.829045	5330.652188
421.208047	5237.025358
421.586988	5313.237522
421.965867	5322.425025
422.344686	5454.714984
422.723444	5306.076563
423.102141	5125.814984
423.480777	5423.348925
423.859352	5192.854768
424.237866	5449.749448
424.616319	5448.138799
424.994712	5555.714502
425.373044	5432.322179
425.751314	5572.562038
426.129524	5376.211616
426.507673	5571.082459
426.885762	5652.539943
427.263789	5580.804324
427.641756	5462.657322
428.019662	5585.290951
428.397508	5594.450728
428.775292	5542.307553
429.153016	5643.710362
429.530679	5567.273867
429.908282	5653.109594
430.285824	5526.601838
430.663305	5798.347757
431.040726	5534.554258
431.418086	5532.615935
431.795385	5638.762470
432.172624	5651.483822
432.549802	5644.070805
432.926920	5657.860881
433.303977	5666.042674
433.680974	5703.132963
434.057910	5723.587445
434.434786	5725.593824
434.811601	5697.630544
435.188355	5931.537562
435.565050	5806.721113
435.941683	5787.758813
436.318257	6000.117419
436.694770	5984.202496
437.071222	6016.702815
437.447614	5945.781342
437.823946	5860.734556
438.200218	6021.640625
438.576429	5881.254573
438.952580	5983.952959
439.328670	6024.680441
439.704700	5931.598056
440.080670	5920.837713
440.456580	6187.255132
440.832429	6068.470424
441.208218	5916.915695
441.583947	6073.128450
441.959616	6080.710345
442.335224	6005.193861
442.710773	6138.366022
443.086261	6171.584705
443.461689	5963.924455
443.837057	6113.084635
444.212365	6267.800167
444.587612	6160.058107
444.962800	6311.617877
445.337927	6294.213293
445.712995	5907.448408
446.088002	6481.799669
446.462949	6310.100489
446.837837	6242.254120
447.212664	6412.400624
447.587431	6554.407408
447.962139	7101.148269
448.336786	8028.586986
448.711374	7766.212572
449.085901	6843.537745
449.460369	6762.526403
449.834776	6695.181629
450.209124	7088.552946
450.583412	7240.722695
450.957640	7383.762915
451.331808	7149.195506
451.705917	6696.731784
452.079965	6625.134796
452.453954	6834.579615
452.827883	6709.228804
453.201752	6807.375028
453.575562	6607.831036
453.949311	6807.712786
454.323001	6701.853596
454.696632	6768.991683
455.070202	6911.121974
455.443713	7066.676859
455.817164	7168.603948
456.190556	7242.804692
456.563888	7320.413255
456.937160	7365.965121
457.310373	7015.584764
457.683526	7044.165586
458.056619	6935.415295
458.429653	6921.726042
458.802628	6856.591813
459.175542	6966.042825
459.548398	7321.915519
459.921194	7479.242369
460.293930	7485.952145
460.666607	8014.126436
461.039224	8322.783683
461.411782	8447.307745
461.784280	8469.403122
462.156719	8356.418262
462.529099	8235.450734
462.901419	7818.809451
463.273680	7716.131229
463.645882	7728.976089
464.018024	7592.975841
464.390106	7755.401818
464.762130	8141.473544
465.134094	8614.333775
465.505999	9627.464545
465.877845	10846.700371
466.249631	11479.276958
466.621358	11100.275450
466.993026	10467.923194
467.364634	10216.576304
467.736184	9840.929684
468.107674	9511.394499
468.479105	9539.410711
468.850477	9300.828023
469.221790	9068.995440
469.593043	8740.576870
469.964238	8598.499510
470.335373	8599.326260
470.706449	8652.885999
471.077467	8630.084860
471.448425	9910.253112
471.819324	10966.929369
472.190164	10981.604168
472.560945	9743.653059
472.931667	8957.464952
473.302330	8818.540835
473.672934	8459.197306
474.043479	8802.613309
474.413965	8725.213953
474.784393	8605.927651
475.154761	8742.207683
475.525070	8822.137698
475.895321	8635.541909
476.265513	8800.559039
476.635645	8948.282491
477.005719	8929.846991
477.375734	9022.452987
477.745691	9239.948529
478.115588	9346.465589
478.485427	9557.352178
478.855207	10041.570128
479.224928	10768.749009
479.594591	11340.509116
479.964194	11146.114662
480.333739	11062.461755
480.703226	10956.090888
481.072653	11012.082984
481.442022	11181.269148
481.811333	11317.818883
482.180584	11117.294386
482.549777	10807.160080
482.918912	10612.896696
483.287988	10589.914076
483.657005	10576.953269
484.025964	10235.485673
484.394864	10320.734105
484.763706	10258.662377
485.132489	10001.193006
485.501213	9922.697200
485.869879	9950.179050
486.238487	9752.971632
486.607036	9816.268360
486.975527	9564.694618
487.343959	9690.819246
487.712333	9675.657976
488.080648	9569.730731
488.448905	9536.244867
488.817104	9442.212224
489.185244	9605.714487
489.553326	9666.984671
489.921350	10023.658908
490.289315	10759.382545
490.657222	10966.662188
491.025070	10812.692747
491.392861	10651.529579
491.760593	10301.630652
492.128267	9974.578235
492.495883	9659.533846
492.863440	9338.059465
493.230939	9014.102316
493.598380	8894.866424
493.965763	8714.788847
494.333088	8592.676978
494.700354	8449.362015
495.067563	8442.478319
495.434713	8237.240343
495.801805	8257.997294
496.168839	8131.728993
496.535815	8007.673759
496.902733	7950.333155
497.269593	7821.481262
497.636395	7826.494690
498.003139	7725.280923
498.369825	7583.049809
498.736453	7591.909637
499.103023	7483.091290
499.469535	7425.859070
499.835989	7345.452666
500.202385	7247.452636
500.568723	7086.428099
500.935003	7148.008314
501.301226	6939.087775
501.667390	7021.747575
502.033497	6996.922413
502.399546	6853.846905
502.765537	6728.294448
503.131470	6683.836512
503.497345	6695.595003
503.863163	6438.372649
504.228923	6506.579461
504.594625	6469.385827
504.960269	6275.997084
505.325856	6301.568337
505.691385	6132.180526
506.056856	6129.569208
506.422270	6066.398510
506.787625	5959.662159
507.152924	5926.761069
507.518164	5852.439338
507.883347	5746.280199
508.248472	5652.076157
508.613540	5666.191388
508.978550	5548.785436
509.343503	5473.727696
509.708398	5446.596206
510.073236	5416.082102
510.438016	5346.360423
510.802738	5261.868164
511.167403	5211.958221
511.532010	5112.924753
511.896561	5131.476200
512.261053	5085.147996
512.625488	4976.246470
512.989866	4906.166870
513.354186	4841.309905
513.718449	4748.068723
514.082655	4749.359259
514.446803	4661.766690
514.810894	4634.070591
515.174927	4542.319070
515.538904	4496.646216
515.902822	4471.054799
516.266684	4394.330958
516.630488	4324.763035
516.994235	4293.487716
517.357925	4241.926795
517.721558	4210.999316
518.085133	4162.032068
518.448651	4116.659163
518.812112	4055.169689
519.175516	4002.063654
519.538863	3977.142710
519.902152	3920.512908
520.265385	3894.951737
520.628560	3844.467102
520.991678	3791.688742
521.354739	3762.114813
521.717743	3713.807956
522.080690	3673.692974
522.443580	3645.780106
522.806413	3602.532047
523.169189	3567.720359
523.531908	3540.107439
523.894569	3485.105930
524.257174	3451.320117
524.619722	3426.628545
524.982213	3398.153588
525.344647	3364.919781
525.707025	3330.806293
526.069345	3308.925164
526.431608	3272.984258
526.793815	3254.102616
527.155964	3211.338508
527.518057	3188.860003
527.880093	3161.844460
528.242072	3143.081285
528.603995	3114.855865
528.965860	3087.608428
529.327669	3068.169739
529.689421	3045.403888
530.051117	3026.877648
530.412755	3006.423166
530.774337	2987.843994
531.135862	2966.862711
531.497331	2953.319652
531.858743	2924.990888
532.220098	2918.485278
532.581396	2897.148595
532.942638	2885.836246
533.303824	2870.372506
533.664953	2859.226515
534.026025	2840.488546
534.387040	2832.977227
534.747999	2822.413489
535.108902	2813.609114
535.469748	2797.540436
535.830537	2790.434930
536.191270	2781.315482
536.551947	2773.920110
536.912567	2765.329983
537.273131	2759.930908
537.633638	2748.779875
537.994089	2741.883577
538.354483	2732.459140
538.714821	2731.932339
539.075103	2724.315156
539.435328	2719.420195
539.795497	2712.907025
540.155609	2712.092878
540.515665	2706.028370
540.875665	2700.233564
541.235609	2694.990764
541.595496	2690.683098
541.955328	2686.514064
542.315102	2682.745801
542.674821	2680.792354
543.034483	2677.145079
543.394090	2672.489574
543.753640	2668.184428
544.113134	2668.887669
544.472571	2665.326094
544.831953	2667.491270
545.191278	2659.788387
545.550548	2657.661020
545.909761	2658.013900
546.268918	2655.853766
546.628019	2654.117088
546.987064	2651.707417
547.346053	2649.461583
547.704986	2646.812457
548.063863	2648.357570
548.422684	2642.872795
548.781449	2643.671818
549.140158	2645.534524
549.498811	2642.532517
549.857408	2635.789974
550.215949	2637.536733
550.574434	2633.332411
550.932864	2636.349542
551.291237	2631.686474
551.649555	2634.265025
552.007817	2633.065230
552.366022	2630.463995
552.724173	2632.901392
553.082267	2629.793521
553.440305	2631.752009
553.798288	2630.453912
554.156215	2629.105404
554.514086	2630.191772
554.871902	2630.282513
555.229661	2626.254631
555.587365	2627.237656
555.945014	2625.480814
556.302606	2625.589199
556.660143	2624.389404
557.017625	2626.148767
557.375050	2621.871348
557.732421	2624.084414
558.089735	2624.598612
558.446994	2619.938065
558.804197	2624.167593
559.161345	2622.849332
559.518437	2622.272120
559.875474	2621.342027
560.232455	2621.604167
560.589381	2622.511574
560.946251	2621.213477
561.303065	2619.980915
561.659825	2621.316821
562.016528	2620.207767
562.373177	2620.681636
562.729770	2618.082921
563.086307	2618.755915
563.442789	2619.237345
563.799216	2617.974536
564.155587	2618.672736
564.511904	2618.254320
564.868164	2614.032354
565.224370	2616.346243
565.580520	2617.107457
565.936615	2618.942438
566.292654	2613.256016
566.648638	2614.430605
567.004567	2613.666870
567.360441	2615.043105
567.716260	2611.410954
568.072023	2614.725512
568.427732	2609.308792
568.783385	2613.492950
569.138982	2609.487753
569.494525	2611.322733
569.850013	2606.168154
570.205445	2612.547734
570.560823	2609.293669
570.916145	2611.161417
571.271412	2611.179061
571.626625	2610.765686
571.981782	2610.503546
572.336884	2609.986828
572.691931	2609.341560
573.046923	2609.419698
573.401860	2609.384410
573.756743	2608.610593
574.111570	2607.562033
574.466342	2610.027157
574.821059	2608.134204
575.175722	2607.246961
575.530330	2606.941971
575.884882	2608.555140
576.239380	2605.467433
576.593823	2608.166971
576.948211	2605.868205
577.302544	2607.332660
577.656823	2605.318719
578.011047	2606.427773
578.365216	2605.583380
578.719330	2606.309306
579.073389	2604.600355
579.427394	2604.612958
579.781344	2604.302927
580.135239	2604.439038
580.489080	2603.430807
580.842866	2601.084150
581.196597	2603.612289
581.550273	2604.179418
581.903895	2604.333174
582.257463	2604.222268
582.610975	2602.921651
582.964434	2603.713112
583.317837	2600.433841
583.671186	2603.829058
584.024481	2602.258739
584.377721	2604.481888
584.730906	2600.907710
585.084037	2603.508945
585.437113	2600.559870
585.790135	2599.717997
586.143103	2600.524582
586.496016	2601.701691
586.848874	2597.426793
587.201679	2597.895620
587.554428	2593.013263
587.907124	2602.344438
588.259765	2598.243460
588.612352	2599.932246
588.964884	2598.291351
589.317362	2596.836978
589.669786	2596.640373
590.022155	2602.455344
590.374470	2598.540888
590.726731	2599.818820
591.078937	2597.356217
591.431090	2598.916454
591.783188	2597.895620
592.135232	2596.607605
592.487222	2596.484097
592.839157	2599.597010
593.191038	2597.257914
593.542866	2595.579210
593.894639	2594.999477
594.246358	2598.535847
594.598022	2596.715990
594.949633	2596.620208
595.301190	2596.030393
595.652692	2596.383274
596.004141	2595.816144
596.355535	2594.674323
596.706876	2594.303798
597.058162	2594.359251
597.409395	2593.754312
597.760573	2595.957297
598.111698	2594.480238
598.462768	2594.397059
598.813785	2592.678026
599.164748	2593.489652
599.515657	2593.686257
599.866511	2594.175249
600.217312	2591.921853
600.568060	2592.299939
600.918753	2596.108531
601.269392	2593.938314
601.619978	2593.250197
601.970510	2593.923191
602.320988	2593.514857
602.671412	2594.996957
603.021783	2591.097624
603.372100	2594.041658
603.722363	2589.270206
604.072572	2592.705752
604.422728	2593.716504
604.772830	2588.057808
605.122878	2586.169896
605.472872	2591.626945
605.822813	2587.069742
606.172701	2590.540577
606.522534	2589.925556
606.872314	2591.649631
607.222041	2591.228694
607.571714	2594.041658
607.921333	2593.209868
608.270899	2593.204827
608.620411	2595.007039
608.969870	2593.224991
609.319276	2595.001998
609.668627	2598.011567
610.017926	2600.559870
610.367171	2601.328646
610.716362	2598.999633
611.065500	2598.792946
611.414585	2597.323449
611.763616	2597.464602
612.112594	2596.847060
612.461518	2594.502924
612.810389	2596.347986
613.159207	2594.059302
613.507971	2595.186000
613.856682	2596.219437
614.205340	2595.117944
614.553945	2594.966710
614.902496	2594.870928
615.250994	2593.807244
615.599439	2592.678026
615.947830	2592.781370
616.296169	2593.519899
616.644454	2594.651638
616.992686	2591.886565
617.340864	2594.152563
617.688990	2592.221802
618.037063	2594.092070
618.385082	2591.737851
618.733048	2593.897985
619.080961	2594.099631
619.428821	2593.771956
619.776628	2591.001842
620.124382	2596.327821
620.472083	2595.198603
620.819731	2595.503593
621.167326	2591.049733
621.514868	2592.501586
621.862357	2593.174580
622.209793	2591.357244
622.557176	2590.979157
622.904506	2588.713158
623.251783	2585.774166
623.599007	2586.235431
623.946179	2584.675194
624.293297	2587.687284
624.640363	2588.887078
624.987376	2592.758684
625.334336	2586.847932
625.681243	2587.949424
626.028097	2588.486307
626.374899	2586.729464
626.721647	2587.278950
627.068343	2587.334403
627.414987	2586.956316
627.761577	2585.975812
628.108115	2587.306677
628.454600	2586.948755
628.801032	2586.323652
629.147412	2586.600915
629.493739	2586.989084
629.840014	2587.669640
630.186236	2585.219639
630.532405	2584.725606
630.878521	2585.811974
631.224585	2586.520257
631.570597	2582.436922
631.916556	2583.992118
632.262462	2583.445153
632.608316	2581.920204
632.954117	2582.091603
633.299866	2583.067066
633.645562	2583.457756
633.991206	2583.089751
634.336797	2579.513053
634.682336	2581.189236
635.027823	2579.618917
635.373257	2583.840883
635.718639	2577.418453
636.063968	2581.718558
636.409245	2582.996490
636.754470	2579.361818
637.099642	2580.390213
637.444762	2577.108422
637.789829	2576.392578
638.134845	2577.874678
638.479808	2582.142014
638.824719	2576.503484
639.169577	2577.773855
639.514383	2577.123546
639.859137	2575.817887
640.203839	2579.565985
640.548489	2577.562126
640.893086	2575.843093
641.237632	2569.304716
641.582125	2574.497105
641.926566	2572.223544
642.270955	2577.289904
642.615292	2573.244378
642.959576	2574.988617
643.303809	2577.073134
643.647990	2576.042218
643.992118	2577.262178
644.336195	2576.758062
644.680219	2576.571539
645.024192	2577.088258
645.368112	2576.634554
645.711981	2578.777044
646.055797	2577.176478
646.399562	2580.496078
646.743274	2576.937023
647.086935	2578.451890
647.430544	2579.734863
647.774101	2578.139338
648.117606	2579.240830
648.461059	2577.426015
648.804460	2580.352405
649.147810	2576.977352
649.491108	2579.860892
649.834354	2578.323340
650.177548	2575.946436
650.520690	2579.480285
650.863781	2573.902248
651.206820	2577.622620
651.549807	2577.471385
651.892742	2575.170099
652.235626	2575.344018
652.578458	2577.438618
652.921238	2575.154975
653.263967	2574.217321
653.606644	2573.814028
653.949269	2574.229923
654.291843	2572.500808
654.634365	2571.406877
654.976836	2572.757907
655.319255	2573.718246
655.661622	2570.300344
656.003938	2573.171281
656.346203	2572.445355
656.688416	2571.129614
657.030577	2571.648853
657.372687	2572.084912
657.714746	2570.668348
658.056753	2571.842937
658.398708	2567.978893
658.740612	2569.549212
659.082465	2570.411249
659.424266	2568.833368
659.766016	2568.830848
660.107715	2570.154151
660.449362	2574.260170
660.790958	2573.405695
661.132503	2573.105746
661.473996	2571.258163
661.815438	2575.346539
662.156829	2571.081723
662.498168	2571.401836
662.839456	2572.553740
663.180693	2571.434604
663.521879	2573.514080
663.863013	2572.372258
664.204097	2571.182546
664.545129	2572.435273
664.886110	2573.652711
665.227040	2572.357135
665.567918	2572.780592
665.908746	2572.457958
666.249522	2573.957701
666.590248	2572.621795
666.930922	2572.306723
667.271545	2569.967628
667.612118	2574.431570
667.952639	2573.879563
668.293109	2572.342011
668.633528	2571.762279
668.973896	2570.885118
669.314213	2572.838565
669.654480	2570.844789
669.994695	2572.478122
670.334859	2570.973338
670.674973	2571.386713
671.015035	2573.015005
671.355047	2573.433421
671.695008	2568.800601
672.034918	2570.383523
672.374777	2569.541650
672.714585	2574.376117
673.054342	2573.088102
673.394049	2572.929306
673.733705	2572.105077
674.073310	2572.518452
674.412864	2571.265725
674.752368	2571.968966
675.091820	2570.514593
675.431223	2570.519634
675.770574	2572.324367
676.109875	2567.033676
676.449125	2565.851526
676.788324	2568.767833
677.127473	2567.570559
677.466571	2565.811197
677.805619	2569.299675
678.144616	2569.186249
678.483562	2572.644481
678.822458	2568.407391
679.161303	2568.160374
679.500098	2569.062741
679.838842	2572.556260
680.177535	2568.135168
680.516179	2569.972669
680.854771	2567.862946
681.193314	2572.367217
681.531805	2571.835375
681.870247	2571.810170
682.208638	2571.986610
682.546978	2575.028946
682.885268	2573.564491
683.223508	2572.720098
683.561697	2570.925447
683.899836	2573.060376
684.237925	2572.906621
684.575963	2573.577094
684.913951	2571.043914
685.251889	2571.606003
685.589776	2569.261866
685.927614	2570.446537
686.265401	2571.805128
686.603137	2571.762279
686.940824	2571.646332
687.278460	2573.297310
687.616046	2573.443503
687.953582	2570.789336
688.291068	2574.794533
688.628504	2576.082547
688.965889	2572.563822
689.303224	2573.327557
689.640510	2571.812690
689.977745	2569.856722
690.314930	2569.677762
690.652065	2567.502504
690.989150	2566.617781
691.326185	2567.323543
691.663170	2567.701629
692.000105	2567.303378
692.336990	2566.133830
692.673825	2566.108625
693.010610	2565.549057
693.347345	2562.325239
693.684030	2559.875238
694.020665	2562.529405
694.357251	2562.166442
694.693786	2562.816751
695.030272	2566.353121
695.366707	2563.149467
695.703093	2563.865311
696.039429	2563.817420
696.375716	2563.386402
696.711952	2560.462532
697.048139	2562.166442
697.384276	2562.877245
697.720363	2560.936401
698.056400	2562.907492
698.392388	2562.345403
698.728326	2560.684343
699.064214	2560.631411
699.400053	2562.373130
699.735842	2560.260886
700.071581	2557.952038
700.407270	2560.482697
700.742910	2559.124106
701.078501	2561.780794
701.414042	2560.477656
701.749533	2559.108983
702.084974	2556.583364
702.420366	2559.784497
702.755709	2558.597305
703.091002	2560.240722
703.426246	2559.010680
703.761440	2559.030845
704.096584	2558.662840
704.431679	2556.729558
704.766725	2558.688046
705.101721	2554.579506
705.436668	2560.044117
705.771565	2557.868859
706.106413	2558.713252
706.441212	2558.166287
706.775961	2558.015052
707.110661	2557.800803
707.445311	2559.028324
707.779913	2555.391132
708.114465	2559.431616
708.448967	2559.678633
708.783421	2558.390618
709.117825	2557.301729
709.452180	2561.198541
709.786485	2562.340362
710.120742	2560.223077
710.454949	2562.461350
710.789107	2560.651576
711.123216	2558.809034
711.457275	2563.769529
711.791286	2559.839950
712.125247	2562.307595
712.459159	2563.376319
712.793023	2563.630897
713.126837	2562.481514
713.460602	2561.566545
713.794318	2563.565362
714.127985	2563.915723
714.461602	2559.217367
714.795171	2565.070147
715.128691	2560.384394
715.462162	2561.110321
715.795584	2557.105124
716.128957	2558.879610
716.462281	2560.434806
716.795556	2559.744168
717.128782	2556.104455
717.461960	2557.495813
717.795088	2559.613098
718.128167	2557.160577
718.461198	2555.358364
718.794180	2557.566389
719.127113	2556.379198
719.459997	2556.132181
719.792833	2556.006152
720.125619	2554.544218
720.458357	2555.620504
720.791046	2555.708724
721.123686	2552.623538
721.456278	2555.887685
721.788821	2556.394321
722.121315	2556.664023
722.453761	2555.741492
722.786158	2553.079763
723.118506	2552.684032
723.450805	2554.148487
723.783056	2551.438867
724.115259	2553.089845
724.447412	2556.134702
724.779518	2559.393808
725.111574	2553.112530
725.443582	2558.151163
725.775542	2555.270144
726.107453	2555.255020
726.439315	2555.854918
726.771129	2559.456822
727.102895	2559.124106
727.434612	2558.919939
727.766281	2556.346430
728.097901	2556.535473
728.429473	2555.436502
728.760996	2554.705535
729.092471	2551.973229
729.423897	2558.151163
729.755276	2555.512119
730.086606	2561.080074
730.417887	2558.307439
730.749120	2561.687533
731.080305	2560.928839
731.411442	2561.054868
731.742530	2557.437840
732.073570	2559.459343
732.404562	2562.783984
732.735506	2560.276010
733.066401	2560.084446
733.397249	2559.585372
733.728048	2560.444888
734.058798	2555.096224
734.389501	2555.408776
734.720156	2555.456667
735.050762	2554.715617
735.381320	2554.924825
735.711831	2556.989177
736.042293	2554.168652
736.372707	2552.522715
736.703073	2553.871224
737.033391	2552.885678
737.363661	2552.868034
737.693883	2554.887016
738.024056	2556.096893
738.354182	2554.241748
738.684260	2554.377860
739.014290	2554.302242
739.344272	2556.689229
739.674207	2556.394321
740.004093	2556.369115
740.333931	2555.744012
740.663722	2557.742830
740.993464	2555.333158
741.323159	2556.860628
741.652806	2552.878116
741.982405	2554.914742
742.311956	2553.916594
742.641460	2553.954403
742.970915	2554.680329
743.300323	2551.517005
743.629683	2552.928528
743.958996	2552.520194
744.288260	2554.395504
744.617477	2552.111861
744.946647	2547.030378
745.275768	2549.079607
745.604842	2548.144473
745.933869	2549.261088
746.262847	2548.671273
746.591778	2551.975750
746.920662	2547.995759
747.249498	2551.116233
747.578286	2551.436346
747.907027	2551.522046
748.235720	2551.527087
748.564365	2555.121430
748.892963	2551.176727
749.221514	2554.145967
749.550017	2553.188147
749.878473	2551.879968
750.206881	2552.142108
750.535242	2553.747715
750.863555	2552.253013
751.191821	2550.014741
751.520039	2551.554813
751.848210	2551.091027
752.176334	2550.158414
752.504411	2550.831408
752.832440	2550.228990
753.160421	2551.426264
753.488356	2549.190512
753.816243	2553.203271
754.144082	2550.430636
754.471875	2549.094730
754.799620	2550.702858
755.127318	2548.270502
755.454969	2549.752601
755.782572	2549.145142
756.110129	2550.584391
756.437638	2553.024310
756.765100	2550.513815
757.092515	2550.654967
757.419882	2548.819987
757.747203	2552.684032
758.074477	2552.401727
758.401703	2549.457693
758.728882	2548.499874
759.056014	2551.522046
759.383099	2550.428116
759.710138	2553.745195
760.037129	2551.015410
760.364073	2550.821326
760.690970	2552.424412
761.017820	2551.378373
761.344623	2550.811243
761.671379	2555.416337
761.998088	2551.746377
762.324751	2554.138405
762.651366	2553.967006
762.977935	2566.280024
763.304456	2571.154820
763.630931	2574.834862
763.957359	2568.369582
764.283740	2567.560477
764.610074	2561.027142
764.936362	2555.973385
765.262602	2555.136553
765.588796	2556.275854
765.914943	2552.437015
766.241044	2552.852911
766.567097	2549.510626
766.893104	2549.051881
767.219064	2549.334185
767.544978	2550.344937
767.870845	2548.514998
768.196665	2549.074566
768.522438	2546.105326
768.848165	2547.463917
769.173846	2547.501726
769.499479	2549.714792
769.825066	2546.264123
770.150607	2546.493495
770.476101	2548.134391
770.801548	2547.952909
771.126949	2545.346632
771.452303	2544.668597
771.777611	2545.989380
772.102872	2546.276725
772.428087	2547.438711
772.753256	2544.449307
773.078378	2547.852086
773.403453	2546.044832
773.728482	2543.685572
774.053465	2543.698175
774.378401	2544.471992
774.703291	2541.399409
775.028135	2542.755479
775.352932	2543.819163
775.677683	2543.831766
776.002388	2545.603731
776.327046	2542.889070
776.651658	2545.601211
776.976224	2541.769934
777.300743	2542.863864
777.625216	2542.604245
777.949643	2544.255223
778.274024	2545.487785
778.598359	2538.450334
778.922647	2540.184491
779.246889	2541.313709
779.571086	2538.057124
779.895236	2541.434697
780.219339	2540.537372
780.543397	2544.514842
780.867409	2538.525951
781.191374	2541.739687
781.515294	2543.564585
781.839167	2544.066179
782.162995	2540.343287
782.486776	2544.610624
782.810511	2542.019471
783.134201	2542.092568
783.457844	2538.606610
783.781441	2540.933102
784.104993	2545.921324
784.428498	2543.453679
784.751958	2544.096426
785.075372	2541.296065
785.398739	2543.007537
785.722061	2544.109029
786.045337	2542.548792
786.368568	2544.466951
786.691752	2538.725077
787.014891	2544.008206
787.337983	2542.878988
787.661030	2543.221786
787.984031	2546.175902
788.306987	2544.706406
788.629897	2550.861655
788.952760	2546.221273
789.275579	2548.585574
789.598351	2544.318237
789.921078	2543.872095
790.243759	2543.635161
790.566395	2546.120450
790.888984	2543.108360
791.211529	2542.301776
791.534027	2541.893442
791.856480	2542.468134
792.178888	2543.178936
792.501249	2539.821528
792.823566	2542.866385
793.145836	2541.832948
793.468062	2542.296734
793.790241	2541.719522
794.112375	2541.636343
794.434464	2540.887732
794.756507	2543.075593
795.078505	2544.260264
795.400457	2541.646426
795.722364	2537.411856
796.044226	2542.712630
796.366042	2543.365459
796.687812	2541.079296
797.009538	2545.334030
797.331218	2546.150697
797.652852	2544.217414
797.974442	2540.799512
798.295986	2544.978628
798.617484	2544.867723
798.938938	2542.959646
799.260346	2540.660880
799.581709	2542.904193
799.903026	2543.131045
800.224299	2543.882177
800.545526	2539.461085
800.866708	2542.992414
801.187845	2540.731456
801.508936	2541.076775
801.829983	2539.299768
802.150984	2541.979142
802.471940	2543.551982
802.792851	2541.056611
803.113717	2540.358411
803.434538	2541.890922
803.755314	2541.414532
804.076045	2539.093081
804.396731	2542.412681
804.717372	2542.180788
805.037967	2539.065355
805.358518	2541.651467
805.679024	2540.499563
805.999485	2542.059800
806.319901	2542.316899
806.640272	2539.579553
806.960598	2542.263967
807.280879	2541.170037
807.601115	2540.983514
807.921306	2542.684903
808.241453	2541.643905
808.561554	2540.935623
808.881611	2542.498381
809.201623	2542.760521
809.521590	2540.791950
809.841513	2540.764224
810.161390	2540.739018
810.481223	2540.713812
810.801011	2537.091743
811.120755	2544.149358
811.440453	2541.520397
811.760107	2542.042156
812.079716	2534.820703
812.399281	2536.905220
812.718801	2539.307330
813.038276	2536.759027
813.357707	2541.270860
813.677093	2540.330684
813.996434	2539.085519
814.315731	2540.255067
814.634983	2539.846734
814.954191	2541.006199
815.273354	2539.990407
815.592473	2543.899821
815.911547	2539.975283
816.230577	2541.419574
816.549562	2542.659697
816.868502	2541.744728
817.187399	2543.181457
817.506250	2541.414532
817.825058	2542.503422
818.143821	2542.458051
818.462539	2545.671787
818.781213	2542.934440
819.099843	2546.768238
819.418429	2546.037271
819.736970	2552.182437
820.055466	2551.007848
820.373919	2556.187634
820.692327	2557.210988
821.010691	2565.768347
821.329011	2578.209914
821.647286	2606.815942
821.965517	2640.924389
822.283704	2661.126813
822.601847	2667.168636
822.919945	2653.595329
823.237999	2635.789974
823.556010	2616.626027
823.873976	2601.361413
824.191897	2586.558065
824.509775	2576.730336
824.827609	2570.496949
825.145398	2569.065261
825.463144	2565.496124
825.780845	2567.114335
826.098502	2570.413770
826.416116	2578.542631
826.733685	2590.258272
827.051210	2596.789087
827.368692	2592.264651
827.686129	2581.335430
828.003522	2570.433935
828.320872	2561.543860
828.638177	2555.315514
828.955439	2552.948692
829.272656	2546.427960
829.589830	2543.902342
829.906960	2547.574822
830.224046	2547.390820
830.541088	2545.641540
830.858086	2544.882846
831.175041	2544.330840
831.491952	2544.895449
831.808819	2545.034081
832.125642	2543.635161
832.442421	2544.590459
832.759157	2551.307797
833.075849	2555.524722
833.392497	2565.286917
833.709101	2569.894531
834.025662	2568.861095
834.342179	2564.858418
834.658653	2556.016235
834.975083	2555.265103
835.291469	2557.185782
835.607811	2543.471323
835.924110	2547.252189
836.240366	2543.703216
836.556578	2541.568288
836.872746	2542.465613
837.188871	2541.543082
837.504952	2540.020653
837.820990	2543.413350
838.136984	2541.512835
838.452935	2540.529810
838.768842	2539.793802
839.084706	2541.427135
839.400526	2544.560213
839.716303	2544.479554
840.032037	2550.589433
840.347727	2549.268650
840.663373	2545.157589
840.978977	2543.940151
841.294537	2542.183308
841.610054	2540.413863
841.925527	2539.410674
842.240957	2541.049049
842.556344	2540.229861
842.871687	2537.280786
843.186987	2541.051569
843.502244	2536.549819
843.817458	2534.669469
844.132629	2538.823379
844.447756	2537.363965
844.762840	2531.980013
845.077881	2535.639891
845.392879	2529.998840
845.707833	2533.976310
846.022745	2532.262318
846.337613	2536.201979
846.652438	2537.759696
846.967221	2537.845396
847.281960	2535.846578
847.596656	2537.432021
847.911309	2535.327339
848.225919	2536.191897
848.540485	2534.188038
848.855009	2537.361445
849.169490	2534.954294
849.483928	2537.840354
849.798323	2535.047555
850.112675	2532.663089
850.426984	2535.665097
850.741251	2536.738862
851.055474	2536.204500
851.369654	2536.544778
851.683792	2539.171219
851.997887	2535.743234
852.311938	2534.666948
852.625947	2534.077133
852.939914	2536.577545
853.253837	2536.731301
853.567718	2536.877494
853.881555	2536.010416
854.195350	2536.005374
854.509103	2537.520241
854.822812	2533.726773
855.136479	2536.882535
855.450103	2536.262473
855.763685	2535.198790
856.077224	2534.170394
856.390720	2535.748276
856.704173	2539.219110
857.017584	2535.723070
857.330953	2535.879346
857.644278	2536.479243
857.957561	2538.601569
858.270802	2536.448996
858.584000	2537.104346
858.897155	2533.646114
859.210268	2530.939015
859.523339	2535.531506
859.836367	2535.138296
860.149352	2536.595189
860.462295	2537.547968
860.775195	2530.076978
861.088054	2531.183511
861.400869	2533.691485
861.713642	2532.408511
862.026373	2531.566638
862.339062	2536.958152
862.651708	2535.982689
862.964312	2538.009233
863.276873	2533.961187
863.589392	2537.190046
863.901869	2536.028060
864.214303	2534.273738
864.526696	2535.576876
864.839045	2537.616023
865.151353	2538.326826
865.463619	2534.908923
865.775842	2536.693492
866.088023	2536.149047
866.400162	2540.388658
866.712258	2536.431352
867.024313	2538.518390
867.336325	2535.816331
867.648296	2536.527134
867.960224	2538.435211
868.272110	2534.974458
868.583954	2536.171733
868.895755	2534.470343
869.207515	2535.866743
869.519233	2534.263656
869.830909	2536.128883
870.142542	2537.784902
870.454134	2537.134593
870.765684	2537.474871
871.077191	2534.636701
871.388657	2539.904707
871.700081	2536.199459
872.011463	2535.503780
872.322803	2535.833975
872.634101	2536.194418
872.945357	2536.290200
873.256571	2537.237937
873.567744	2539.451003
873.878874	2540.151723
874.189963	2539.435880
874.501010	2539.350180
874.812015	2536.690971
875.122979	2536.814480
875.433900	2537.653832
875.744780	2540.234902
876.055618	2539.173740
876.366415	2540.683565
876.677169	2540.660880
876.987882	2537.442103
877.298554	2535.995292
877.609183	2536.285158
877.919771	2536.126362
878.230317	2535.778522
878.540822	2541.331353
878.851285	2542.702547
879.161707	2542.195911
879.472087	2544.683721
879.782425	2549.306459
880.092722	2553.573796
880.402977	2564.419838
880.713191	2581.191757
881.023363	2597.353696
881.333494	2609.759976
881.643583	2611.436159
881.953631	2609.502877
882.263637	2606.778133
882.573602	2599.309664
882.883526	2591.077460
883.193408	2585.612849
883.503248	2576.768144
883.813048	2568.036866
884.122806	2564.949159
884.432522	2561.314487
884.742197	2556.298539
885.051831	2552.739485
885.361424	2549.588763
885.670975	2550.458363
885.980485	2546.740512
886.289954	2543.186498
886.599382	2543.776313
886.908768	2544.285470
887.218113	2542.616848
887.527417	2542.067362
887.836680	2541.606096
888.145901	2539.037628
888.455082	2540.169368
888.764221	2540.050900
889.073319	2540.950746
889.382376	2540.003009
889.691392	2538.412525
890.000366	2541.555685
890.309300	2538.878832
890.618193	2540.552495
890.927044	2538.256250
891.235855	2538.904038
891.544625	2539.211548
891.853353	2540.590304
892.162041	2540.746580
892.470687	2542.468134
892.779293	2541.664070
893.087858	2539.214069
893.396381	2540.920499
893.704864	2546.685059
894.013306	2547.441232
894.321707	2557.755433
894.630068	2561.301884
894.938387	2563.209961
895.246665	2562.547049
895.554903	2562.466391
895.863100	2555.398693
896.171256	2549.734957
896.479371	2553.016748
896.787446	2547.658002
897.095480	2546.372507
897.403473	2543.284801
897.711425	2545.447456
898.019336	2542.415202
898.327207	2542.722712
898.635038	2542.344625
898.942827	2540.925541
899.250576	2540.076106
899.558284	2539.894625
899.865952	2536.728780
900.173579	2535.806249
900.481165	2537.127031
900.788711	2538.936805
901.096216	2534.765251
901.403681	2537.366486
901.711105	2535.791125
902.018489	2535.380271
902.325832	2539.067875
902.633135	2537.774819
902.940397	2541.641384
903.247619	2541.001158
903.554800	2544.419060
903.861941	2554.216543
904.169041	2569.453430
904.476101	2573.319995
904.783121	2574.774368
905.090100	2568.001578
905.397039	2561.609395
905.703938	2556.018755
906.010796	2550.430636
906.317614	2548.867878
906.624391	2544.635830
906.931129	2543.776313
907.237826	2541.139790
907.544483	2540.313040
907.851099	2539.110725
908.157675	2536.817000
908.464211	2537.348842
908.770707	2533.739376
909.077163	2535.405477
909.383578	2533.389016
909.689954	2533.326001
909.996289	2531.685106
910.302584	2537.328677
910.608839	2532.864736
910.915054	2533.976310
911.221229	2534.707277
911.527363	2536.658204
911.833458	2533.416742
912.139513	2532.705939
912.445527	2536.469161
912.751502	2536.877494
913.057436	2537.144675
913.363331	2537.792463
913.669186	2538.684748
913.975000	2538.331867
914.280775	2539.750952
914.586510	2543.436035
914.892205	2547.494164
915.197859	2550.854093
915.503475	2555.257541
915.809050	2561.319528
916.114585	2567.784808
916.420081	2569.375292
916.725536	2567.328584
917.030952	2565.657441
917.336328	2561.372461
917.641665	2556.739640
917.946961	2553.838456
918.252218	2548.693959
918.557435	2545.817980
918.862612	2546.473330
919.167750	2546.188505
919.472848	2544.509801
919.777906	2539.922351
920.082925	2542.967208
920.387904	2541.197763
920.692843	2536.393543
920.997743	2537.542926
921.302603	2538.289017
921.607423	2537.537885
921.912204	2537.341280
922.216946	2535.907072
922.521647	2538.359593
922.826310	2536.635519
923.130932	2537.452186
923.435516	2535.896990
923.740059	2534.319108
924.044564	2535.365148
924.349028	2533.847761
924.653454	2528.766277
924.957840	2531.017153
925.262186	2529.124199
925.566493	2530.255938
925.870761	2529.676206
926.174989	2532.526978
926.479178	2532.058151
926.783328	2533.502442
927.087438	2530.346679
927.391509	2534.228368
927.695541	2533.537730
927.999533	2529.847605
928.303486	2528.965403
928.607400	2531.501103
928.911275	2532.300126
929.215110	2530.089580
929.518906	2531.531350
929.822663	2530.581093
930.126381	2533.177287
930.430060	2533.121834
930.733699	2532.968079
931.037299	2532.249715
931.340861	2531.997657
931.644383	2533.605785
931.947866	2531.405322
932.251309	2531.211237
932.554714	2530.150074
932.858080	2532.998326
933.161407	2530.762574
933.464694	2532.403470
933.767943	2531.901875
934.071153	2532.920188
934.374323	2533.109232
934.677455	2532.630322
934.980548	2532.156453
935.283602	2531.425486
935.586617	2532.249715
935.889593	2530.381967
936.192530	2531.581762
936.495428	2532.136289
936.798287	2532.133768
937.101108	2529.275434
937.403890	2532.980682
937.706632	2531.657379
938.009336	2533.452030
938.312002	2533.459592
938.614628	2534.125024
938.917216	2535.206352
939.219765	2533.721732
939.522275	2534.440096
939.824747	2533.699047
940.127179	2529.923222
940.429573	2531.826258
940.731929	2530.588655
941.034246	2526.979188
941.336524	2532.103521
941.638763	2529.840043
941.940964	2533.683923
942.243126	2530.197965
942.545250	2534.273738
942.847335	2533.683923
943.149381	2531.901875
943.451389	2533.116793
943.753359	2532.632842
944.055290	2531.206196
944.357182	2532.678213
944.659036	2530.323994
944.960851	2529.671165
945.262628	2532.688295
945.564367	2535.579397
945.866067	2531.511186
946.167729	2531.634694
946.469352	2529.172090
946.770937	2531.700229
947.072484	2531.160826
947.373992	2533.507483
947.675462	2530.381967
947.976893	2532.952956
948.278286	2531.559077
948.579641	2533.401618
948.880958	2533.149561
949.182236	2531.170908
949.483476	2531.496062
949.784678	2530.024045
950.085841	2532.300126
950.386967	2532.799201
950.688054	2529.671165
950.989103	2532.887421
951.290114	2529.046062
951.591087	2532.789118
951.892021	2531.647297
952.192917	2532.229550
952.493776	2530.523120
952.794596	2533.300795
953.095378	2534.268697
953.396122	2534.619057
953.696828	2530.639066
953.997496	2532.136289
954.298126	2532.859694
954.598718	2533.464633
954.899272	2531.589324
955.199788	2530.402132
955.500266	2529.424148
955.800706	2530.104704
956.101108	2526.333921
956.401472	2527.715197
956.701798	2526.197810
957.002087	2529.129241
957.302337	2529.106555
957.602550	2530.419776
957.902724	2528.610002
958.202861	2528.932636
958.502960	2532.474046
958.803022	2528.201668
959.103045	2532.794159
959.403031	2529.696370
959.702979	2530.293747
960.002889	2527.445495
960.302762	2530.286185
960.602596	2531.405322
960.902393	2529.499765
961.202153	2527.158149
961.501875	2529.517409
961.801559	2531.589324
962.101205	2527.853829
962.400814	2530.560928
962.700385	2528.809127
962.999918	2531.168387
963.299414	2530.558408
963.598873	2529.547656
963.898293	2528.753675
964.197677	2527.606812
964.497022	2526.817872
964.796331	2527.092614
965.095601	2530.374406
965.394835	2530.755013
965.694030	2529.484642
965.993189	2528.652852
966.292309	2527.997502
966.591393	2525.144208
966.890439	2527.967255
967.189447	2526.976668
967.488419	2529.119158
967.787353	2529.865249
968.086249	2527.828623
968.385108	2526.835516
968.683930	2528.461288
968.982714	2527.009435
969.281462	2529.053623
969.580172	2529.230064
969.878844	2526.437264
970.177480	2529.477080
970.476078	2528.027748
970.774639	2528.015146
971.073162	2528.252080
971.371649	2523.145391
971.670098	2527.024559
971.968510	2526.797707
972.266885	2524.642614
972.565223	2529.260311
972.863524	2528.935156
973.161788	2529.277955
973.460014	2527.352234
973.758204	2530.268541
974.056356	2531.715353
974.354471	2527.687471
974.652550	2526.585978
974.950591	2532.776515
975.248595	2529.335928
975.546563	2527.818541
975.844493	2529.555218
976.142386	2529.829961
976.440243	2530.263500
976.738062	2529.842564
977.035845	2528.403314
977.333590	2528.673016
977.631299	2529.882893
977.928971	2528.211751
978.226606	2526.996833
978.524204	2529.280475
978.821765	2528.889786
979.119290	2528.221833
979.416777	2526.928777
979.714228	2527.410207
980.011642	2529.376257
980.309020	2531.296937
980.606360	2527.122861
980.903664	2528.262162
981.200931	2528.730989
981.498162	2530.066895
981.795356	2530.870959
982.092513	2528.756195
982.389633	2529.041020
982.686717	2528.662934
982.983764	2530.255938
983.280775	2531.354910
983.577749	2529.943387
983.874686	2530.213089
984.171587	2526.439785
984.468451	2529.540095
984.765279	2526.890968
985.062070	2528.912471
985.358824	2528.453726
985.655543	2527.659744
985.952224	2528.857018
986.248869	2525.676050
986.545478	2522.457273
986.842050	2528.362985
987.138586	2524.544311
987.435086	2524.982892
987.731549	2523.808303
988.027975	2530.689478
988.324366	2527.677388
988.620719	2525.955834
988.917037	2527.984899
989.213318	2525.930628
989.509563	2528.236956
989.805772	2529.802235
990.101944	2526.409538
990.398080	2527.984899
990.694180	2527.352234
990.990244	2526.873324
991.286271	2527.659744
991.582262	2528.912471
991.878217	2525.217305
992.174136	2527.541277
992.470019	2528.794004
992.765865	2528.899868
993.061676	2525.784435
993.357450	2529.091432
993.653188	2527.430372
993.948890	2528.027748
994.244556	2527.067409
994.540186	2526.722090
994.835780	2527.879034
995.131337	2527.271575
995.426859	2526.210412
995.722345	2525.227388
996.017795	2527.899199
996.313208	2529.164529
996.608586	2528.541946
996.903928	2529.474560
997.199234	2525.119003
997.494504	2529.908099
997.789738	2529.270393
998.084936	2530.434899
998.380099	2529.083870
998.675225	2527.939528
998.970316	2523.573889
999.265371	2527.773170
999.560390	2529.386339
999.855373	2526.041534
1000.150320	2524.057840
1000.445232	2527.412728
1000.740108	2529.981196
1001.034948	2527.702594
1001.329752	2525.786956
1001.624521	2526.180166
1001.919254	2521.839732
1002.213951	2524.115813
1002.508613	2524.304856
1002.803239	2525.970958
1003.097829	2522.545494
1003.392384	2527.425331
1003.686903	2527.828623
1003.981386	2526.238139
1004.275834	2527.460619
1004.570246	2530.142513
1004.864623	2524.345186
1005.158964	2526.732172
1005.453270	2524.967768
1005.747540	2526.263345
1006.041775	2526.500279
1006.335974	2530.107224
1006.630138	2529.343490
1006.924266	2530.243336
1007.218359	2528.262162
1007.512416	2525.970958
1007.806438	2525.081194
1008.100425	2525.819723
1008.394376	2528.052954
1008.688292	2526.114631
1008.982172	2526.470032
1009.276017	2527.964734
1009.569827	2527.667306
1009.863602	2525.522295
1010.157341	2528.811648
1010.451045	2526.432223
1010.744714	2528.552028
1011.038347	2525.668488
1011.331945	2526.427182
1011.625508	2526.830474
1011.919036	2525.252593
1012.212528	2525.413910
1012.505986	2527.064888
1012.799408	2528.569673
1013.092795	2527.649662
1013.386147	2526.286030
1013.679464	2527.987419
1013.972745	2525.154291
1014.265992	2527.740403
1014.559204	2528.373067
1014.852380	2526.606143
1015.145521	2528.496576
1015.438628	2526.520443
1015.731699	2526.507841
1016.024736	2527.110258
1016.317737	2526.051616
1016.610703	2528.244518
1016.903635	2524.231760
1017.196531	2523.223529
1017.489393	2523.155473
1017.782219	2523.037006
1018.075011	2525.963396
1018.367768	2527.097656
1018.660490	2525.527336
1018.953177	2525.527336
1019.245829	2525.527336
