Dividing Wavelength (nm)	Counts (n)	Blue Motor Position (mm): 0.000000	Red Motor Position (mm): 34.000000	
326.493990	2076.337843
326.888308	2076.337843
327.282561	2076.337843
327.676750	2056.851263
328.070874	2055.346479
328.464933	2062.426779
328.858929	2073.124108
329.252859	2084.975860
329.646726	2100.386668
330.040528	2116.273864
330.434265	2136.115846
330.827938	2153.207878
331.221547	2176.792916
331.615091	2193.378312
332.008571	2215.440922
332.401986	2237.027143
332.795338	2256.039854
333.188625	2273.076434
333.581847	2294.334980
333.975006	2311.313586
334.368100	2331.775629
334.761129	2345.510253
335.154095	2362.970289
335.546996	2390.263096
335.939833	2425.541091
336.332606	2441.448452
336.725315	2451.135029
337.117960	2462.412090
337.510540	2467.362503
337.903056	2479.675521
338.295508	2481.432363
338.687896	2492.807727
339.080220	2500.490446
339.472480	2500.371978
339.864676	2505.624861
340.256807	2509.985459
340.648875	2509.501508
341.040879	2511.883453
341.432818	2514.073835
341.824694	2511.528052
342.216506	2514.477127
342.608253	2514.560306
342.999937	2511.341529
343.391557	2512.241375
343.783113	2512.238855
344.174605	2511.850686
344.566033	2509.670387
344.957397	2505.430776
345.348697	2504.868688
345.739934	2503.250477
346.131106	2500.576145
346.522215	2500.888697
346.913260	2498.148830
347.304241	2499.330980
347.695159	2494.428458
348.086012	2492.578355
348.476802	2491.290340
348.867528	2493.321925
349.258191	2488.469814
349.648789	2490.680360
350.039324	2490.193889
350.429796	2488.227839
350.820203	2487.277581
351.210548	2491.386122
351.600828	2487.154073
351.991045	2490.831595
352.381198	2485.689618
352.771288	2488.101810
353.161314	2486.463435
353.551276	2484.711634
353.941175	2485.798003
354.331010	2486.213898
354.720782	2487.673312
355.110490	2489.722541
355.500135	2489.901502
355.889717	2487.285143
356.279235	2491.038282
356.668689	2492.119610
357.058080	2487.854793
357.447408	2488.225318
357.836672	2489.301605
358.225873	2492.417038
358.615010	2486.400421
359.004084	2495.310660
359.393095	2493.521050
359.782043	2495.267810
360.170927	2496.273520
360.559748	2496.394508
360.948505	2498.552122
361.337199	2498.078253
361.725830	2501.090343
362.114398	2500.190497
362.502903	2500.553460
362.891344	2500.676968
363.279722	2503.656290
363.668037	2503.303409
364.056289	2502.532113
364.444478	2506.451610
364.832603	2503.331136
365.220665	2506.769203
365.608665	2507.817763
365.996601	2508.629388
366.384474	2508.407578
366.772284	2510.766838
367.160031	2510.207270
367.547715	2511.593587
367.935336	2513.489061
368.322893	2511.966632
368.710388	2516.473424
369.097820	2518.051305
369.485189	2517.705986
369.872495	2518.792355
370.259738	2520.992818
370.646918	2521.237314
371.034035	2522.648837
371.421090	2526.081863
371.808081	2527.173273
372.195010	2534.689633
372.581875	2537.898328
372.968678	2545.553320
373.355418	2548.290666
373.742096	2558.156204
374.128710	2568.256156
374.515262	2579.230748
374.901751	2593.935794
375.288177	2605.323760
375.674540	2625.080042
376.060841	2643.187867
376.447079	2660.942811
376.833254	2686.209074
377.219367	2708.838813
377.605417	2737.875860
377.991404	2764.021804
378.377329	2800.945735
378.763191	2835.283555
379.148991	2875.683362
379.534727	2923.349992
379.920402	2967.911271
380.306013	3012.374248
380.691563	3075.544947
381.077049	3124.597895
381.462474	3177.167047
381.847835	3248.827049
382.233134	3312.151503
382.618371	3371.823641
383.003545	3452.325827
383.388657	3528.457332
383.773706	3615.777678
384.158693	3685.612783
384.543618	3773.414559
384.928480	3848.598328
385.313280	3947.904017
385.698017	4045.309192
386.082692	4159.743384
386.467305	4217.643557
386.851856	4337.529757
387.236344	4485.142303
387.620770	4548.955749
388.005133	4662.341382
388.389435	4797.550169
388.773674	4882.029825
389.157851	5002.833515
389.541965	5133.459894
389.926018	5159.149614
390.310008	5327.020037
390.693936	5445.441782
391.077802	5558.777002
391.461606	5686.787022
391.845348	5797.392458
392.229027	5915.821765
392.612645	6124.202900
392.996200	6240.441826
393.379694	6407.316621
393.763125	6623.138499
394.146494	6713.360030
394.529801	6846.708631
394.913047	7077.570792
395.296230	7078.223622
395.679351	7134.177909
396.062410	7381.093624
396.445408	7282.894468
396.828343	7432.538599
397.211217	7567.916265
397.594028	7458.908875
397.976778	7655.629821
398.359466	7817.682753
398.742092	7794.501007
399.124656	7941.319572
399.507158	8132.152450
399.889598	8152.695152
400.271977	8359.667285
400.654294	8393.944611
401.036549	8586.960309
401.418742	8615.158003
401.800874	8910.967870
402.182944	8993.315118
402.564952	9346.594138
402.946898	9188.294346
403.328783	9245.902131
403.710606	9430.637735
404.092367	9690.662971
404.474067	10042.190190
404.855705	9841.794242
405.237282	9803.047934
405.618797	10224.909332
406.000250	10461.828439
406.381642	10821.567698
406.762972	10769.369071
407.144240	10591.028171
407.525447	10834.036992
407.906593	10788.656525
408.287677	11051.590507
408.668700	11186.403564
409.049661	11180.684375
409.430560	11341.623211
409.811399	11309.879065
410.192176	11475.412914
410.572891	11562.226624
410.953545	12026.247192
411.334138	11513.846671
411.714669	12094.736308
412.095139	11444.722369
412.475547	11917.411201
412.855894	11791.689865
413.236180	12104.546393
413.616405	11808.945734
413.996568	12084.248187
414.376670	12057.625854
414.756711	11942.574120
415.136691	12216.374309
415.516609	12387.017367
415.896466	12476.323927
416.276262	12763.606682
416.655997	13216.874469
417.035670	13267.893466
417.415283	13878.621693
417.794834	13965.563953
418.174324	13716.382239
418.553753	13628.439310
418.933121	14115.102220
419.312428	13941.860447
419.691674	13852.536242
420.070859	14313.758969
420.449983	13971.066372
420.829045	14530.762998
421.208047	14283.012972
421.586988	14731.665582
421.965867	14977.449558
422.344686	14988.766949
422.723444	15556.776438
423.102141	14255.074898
423.480777	15446.198728
423.859352	14946.761534
424.237866	16043.590583
424.616319	15769.490445
424.994712	16409.926191
425.373044	16197.814602
425.751314	16895.984163
426.129524	16030.382759
426.507673	17099.510667
426.885762	16829.151066
427.263789	17007.292840
427.641756	17197.435081
428.019662	17245.502482
428.397508	17306.659240
428.775292	17585.014112
429.153016	17569.938541
429.530679	17649.850912
429.908282	17680.017177
430.285824	17414.313081
430.663305	18123.953787
431.040726	17738.247545
431.418086	17582.700222
431.795385	18218.707315
432.172624	18658.454727
432.549802	18212.766315
432.926920	18425.560981
433.303977	18305.871385
433.680974	18558.463440
434.057910	18864.302682
434.434786	18902.088651
434.811601	18830.731118
435.188355	19880.286746
435.565050	19541.059942
435.941683	19505.847482
436.318257	20397.478884
436.694770	20209.358146
437.071222	20810.518262
437.447614	19875.018740
437.823946	19904.723739
438.200218	20078.439380
438.576429	19861.974755
438.952580	20161.825106
439.328670	20127.799838
439.704700	20546.167716
440.080670	20126.020311
440.456580	20737.582848
440.832429	20902.496635
441.208218	19918.410472
441.583947	20375.673373
441.959616	20480.811677
442.335224	20736.882128
442.710773	20883.458717
443.086261	21421.717837
443.461689	20764.416910
443.837057	20923.354409
444.212365	21582.908731
444.587612	21571.228378
444.962800	21184.488699
445.337927	21621.796192
445.712995	20318.184054
446.088002	22222.885733
446.462949	22433.313576
446.837837	22624.156538
447.212664	22625.759624
447.587431	25584.306953
447.962139	28555.210149
448.336786	30873.868696
448.711374	29197.102788
449.085901	25485.921273
449.460369	25498.216648
449.834776	25480.416333
450.209124	28032.926446
450.583412	27537.282720
450.957640	28007.329987
451.331808	26662.889544
451.705917	25283.060202
452.079965	25332.927295
452.453954	25713.715892
452.827883	25618.861542
453.201752	25420.590440
453.575562	25594.996719
453.949311	26730.360347
454.323001	26800.165205
454.696632	26575.554074
455.070202	28174.295523
455.443713	28361.501292
455.817164	28955.102198
456.190556	29495.997841
456.563888	28912.801876
456.937160	29356.279742
457.310373	27649.798753
457.683526	28088.706813
458.056619	28077.381861
458.429653	28073.865656
458.802628	28702.600884
459.175542	28816.818307
459.548398	30183.200372
459.921194	31823.740547
460.293930	32568.455082
460.666607	34662.338661
461.039224	36463.674000
461.411782	36801.156565
461.784280	35522.248602
462.156719	34965.564065
462.529099	34396.334616
462.901419	33057.212591
463.273680	32006.822652
463.645882	32156.597853
464.018024	32142.626296
464.390106	33078.758482
464.762130	35993.218400
465.134094	40341.750475
465.505999	45830.639441
465.877845	50364.890144
466.249631	51379.276162
466.621358	49499.281179
466.993026	47273.513454
467.364634	45131.570034
467.736184	43187.832181
468.107674	41906.869948
468.479105	41103.955292
468.850477	40379.286906
469.221790	38933.415928
469.593043	37158.231574
469.964238	36246.768273
470.335373	36205.945010
470.706449	38066.992816
471.077467	40836.706083
471.448425	45501.794893
471.819324	48263.187736
472.190164	46253.735922
472.560945	42638.664005
472.931667	39467.455602
473.302330	38351.888585
473.672934	37515.863631
474.043479	38061.046775
474.413965	37258.275793
474.784393	36892.356079
475.154761	37812.338930
475.525070	37861.810293
475.895321	37388.508961
476.265513	38004.812704
476.635645	39013.822332
477.005719	38832.050927
477.375734	39360.769663
477.745691	40086.632802
478.115588	41459.218007
478.485427	43574.408023
478.855207	47057.943633
479.224928	49714.656916
479.594591	51254.331164
479.964194	50143.275980
480.333739	50282.976436
480.703226	50344.065138
481.072653	51013.943743
481.442022	51483.040753
481.811333	51679.877646
482.180584	50387.887888
482.549777	49862.652590
482.918912	49324.915229
483.287988	49007.619965
483.657005	48181.228656
484.025964	47488.301896
484.394864	47483.805186
484.763706	47044.045172
485.132489	46147.959911
485.501213	45992.712537
485.869879	46133.224618
486.238487	45709.220730
486.607036	45900.522436
486.975527	45334.678123
487.343959	45558.102061
487.712333	45634.115099
488.080648	45504.827147
488.448905	45960.401262
488.817104	45757.666218
489.185244	46779.629091
489.553326	48524.450575
489.921350	51305.125831
490.289315	54121.767198
490.657222	54634.518080
491.025070	54863.383944
491.392861	53940.593170
491.760593	52644.696519
492.128267	50946.712395
492.495883	49386.923942
492.863440	47964.209504
493.230939	46576.636949
493.598380	45475.013763
493.965763	45125.061905
494.333088	44289.684739
494.700354	43788.679746
495.067563	43491.448274
495.434713	43321.664733
495.801805	43394.668203
496.168839	42977.595901
496.535815	42646.185406
496.902733	42645.104079
497.269593	42205.386914
497.636395	42127.070068
498.003139	42511.241279
498.369825	41945.712038
498.736453	42241.559713
499.103023	41746.692325
499.469535	41610.913888
499.835989	41693.485467
500.202385	41322.859836
500.568723	41321.617192
500.935003	41497.944151
501.301226	41273.625407
501.667390	41867.967363
502.033497	42082.922163
502.399546	41507.713907
502.765537	40770.798038
503.131470	41131.623665
503.497345	41465.832001
503.863163	40103.240883
504.228923	40702.268592
504.594625	41071.767525
504.960269	40309.051030
505.325856	40972.149284
505.691385	40317.573101
506.056856	40411.134396
506.422270	40808.271455
506.787625	40331.973157
507.152924	40505.179641
507.518164	40561.562427
507.883347	39753.682235
508.248472	39930.911560
508.613540	40381.003419
508.978550	40617.146189
509.343503	40338.604795
509.708398	40477.450775
510.073236	40952.577004
510.438016	40884.178629
510.802738	40295.265995
511.167403	40857.561336
511.532010	41013.859791
511.896561	41237.956723
512.261053	42004.804443
512.625488	41484.010401
512.989866	41313.193424
513.354186	41074.048647
513.718449	40995.573005
514.082655	41573.629514
514.446803	41182.461181
514.810894	41606.535646
515.174927	41438.740840
515.538904	41255.295772
515.902822	41808.557365
516.266684	41199.056660
516.630488	41501.626713
516.994235	41272.390325
517.357925	41707.325955
517.721558	41782.035855
518.085133	41982.267965
518.448651	41980.889210
518.812112	41654.703871
519.175516	41642.295070
519.538863	41833.362363
519.902152	41685.291072
520.265385	42007.640092
520.628560	41886.788511
520.991678	41588.871443
521.354739	41670.568382
521.717743	41827.930520
522.080690	41602.525408
522.443580	41984.168480
522.806413	41889.084757
523.169189	41695.471682
523.531908	41715.270813
523.894569	41441.432816
524.257174	41451.520165
524.619722	41558.425394
524.982213	41396.069993
525.344647	41192.367048
525.707025	41076.435633
526.069345	41279.747889
526.431608	41043.138812
526.793815	41161.280773
527.155964	40583.347773
527.518057	40567.574003
527.880093	40215.293131
528.242072	40500.698056
528.603995	40082.456206
528.965860	39913.701061
529.327669	39815.466616
529.689421	39553.702182
530.051117	39342.760141
530.412755	39288.177047
530.774337	39169.568780
531.135862	38819.851334
531.497331	38798.275196
531.858743	38533.574290
532.220098	38626.858321
532.581396	38187.032772
532.942638	37726.646876
533.303824	37784.892367
533.664953	37581.696059
534.026025	37132.330126
534.387040	37321.305339
534.747999	37093.896369
535.108902	37019.118413
535.469748	36429.053876
535.830537	36315.731258
536.191270	36262.789060
536.551947	35785.016225
536.912567	35834.497671
537.273131	35723.458696
537.633638	35122.527951
537.994089	35181.955593
538.354483	34641.680012
538.714821	34877.240529
539.075103	34918.479688
539.435328	34525.277249
539.795497	34219.934561
540.155609	33986.640043
540.515665	34140.435565
540.875665	33486.726460
541.235609	33511.662528
541.595496	33267.400980
541.955328	33538.302505
542.315102	32843.447503
542.674821	32468.264669
543.034483	32281.192491
543.394090	32029.643956
543.753640	31776.537703
544.113134	32240.386872
544.472571	31323.007777
544.831953	31939.248505
545.191278	31170.268377
545.550548	30765.688055
545.909761	30845.464314
546.268918	30741.881206
546.628019	30704.246472
546.987064	30179.099393
547.346053	29484.259514
547.704986	29809.673557
548.063863	29305.086824
548.422684	29165.908128
548.781449	28840.620115
549.140158	28853.386837
549.498811	28527.932465
549.857408	27938.946735
550.215949	28216.694147
550.574434	27929.113964
550.932864	27562.228870
551.291237	27757.989477
551.649555	27281.015664
552.007817	27196.220936
552.366022	26766.533147
552.724173	26635.301830
553.082267	26620.264068
553.440305	26537.405143
553.798288	25929.910816
554.156215	25869.220365
554.514086	25760.709528
554.871902	25363.920309
555.229661	25165.268601
555.587365	24840.411606
555.945014	24659.769419
556.302606	24399.902980
556.660143	24293.993379
557.017625	24108.322641
557.375050	23776.226549
557.732421	23716.221695
558.089735	23489.891532
558.446994	23214.901630
558.804197	23225.450245
559.161345	22954.949491
559.518437	22369.421993
559.875474	22309.565852
560.232455	22180.524917
560.589381	22029.249972
560.946251	21683.888084
561.303065	21754.940627
561.659825	21451.458124
562.016528	21093.606777
562.373177	20755.746126
562.729770	20759.037999
563.086307	20335.555870
563.442789	20326.401135
563.799216	20135.651435
564.155587	19845.830459
564.511904	19651.746036
564.868164	19479.719182
565.224370	19371.122646
565.580520	19061.847857
565.936615	18936.421429
566.292654	18634.239544
566.648638	18536.116005
567.004567	18317.813879
567.360441	18142.061612
567.716260	17882.084267
568.072023	17795.169733
568.427732	17590.168692
568.783385	17248.837206
569.138982	17194.080193
569.494525	16989.001013
569.850013	16726.803040
570.205445	16538.500820
570.560823	16341.275758
570.916145	16134.028882
571.271412	15967.083511
571.626625	15706.816300
571.981782	15545.322936
572.336884	15296.068126
572.691931	15213.640219
573.046923	14927.161528
573.401860	14730.944697
573.756743	14550.289908
574.111570	14429.745837
574.466342	14224.281009
574.821059	14099.903141
575.175722	13805.466989
575.530330	13667.271318
575.884882	13429.757354
576.239380	13265.914813
576.593823	13107.814146
576.948211	12937.453393
577.302544	12668.772496
577.656823	12523.095753
578.011047	12437.743977
578.365216	12234.177144
578.719330	12041.698328
579.073389	11869.227852
579.427394	11759.156778
579.781344	11621.886159
580.135239	11412.302709
580.489080	11297.326592
580.842866	11060.720037
581.196597	11038.670030
581.550273	10898.006714
581.903895	10742.451830
582.257463	10701.691580
582.610975	10471.888062
582.964434	10399.756712
583.317837	10219.595956
583.671186	10070.652545
584.024481	9990.616666
584.377721	9788.635275
584.730906	9728.998425
585.084037	9625.974884
585.437113	9463.682498
585.790135	9355.433802
586.143103	9178.098612
586.496016	9091.007638
586.848874	8989.476279
587.201679	8890.031958
587.554428	8708.789874
587.907124	8640.451993
588.259765	8505.641457
588.612352	8447.844628
588.964884	8261.828571
589.317362	8211.510294
589.669786	8107.430632
590.022155	7986.420254
590.374470	7939.363604
590.726731	7792.532436
591.078937	7634.071327
591.431090	7552.414717
591.783188	7430.363341
592.135232	7302.864999
592.487222	7244.042295
592.839157	7170.950605
593.191038	7052.478449
593.542866	6947.350227
593.894639	6804.156252
594.246358	6762.801146
594.598022	6675.324524
594.949633	6563.194139
595.301190	6485.220092
595.652692	6399.578450
596.004141	6353.570359
596.355535	6193.032294
596.706876	6120.124607
597.058162	6038.979674
597.409395	6006.247462
597.760573	5951.203103
598.111698	5853.324060
598.462768	5786.168329
598.813785	5727.267488
599.164748	5626.835100
599.515657	5593.928968
599.866511	5501.091079
600.217312	5492.700078
600.568060	5358.832238
600.918753	5360.896591
601.269392	5298.217404
601.619978	5222.791660
601.970510	5183.503428
602.320988	5147.653262
602.671412	5119.649653
603.021783	5052.642636
603.372100	4982.706708
603.722363	4942.511068
604.072572	4901.284512
604.422728	4855.994786
604.772830	4796.262154
605.122878	4756.162296
605.472872	4708.677147
605.822813	4682.526162
606.172701	4635.338441
606.522534	4608.937918
606.872314	4580.367179
607.222041	4528.508829
607.571714	4509.876725
607.921333	4444.407260
608.270899	4419.894649
608.620411	4402.469901
608.969870	4355.521635
609.319276	4323.943847
609.668627	4294.291780
610.017926	4277.015746
610.367171	4253.649998
610.716362	4227.221749
611.065500	4192.757901
611.414585	4170.231505
611.763616	4152.728619
612.112594	4122.728712
612.461518	4096.355916
612.810389	4084.350408
613.159207	4051.040984
613.507971	4026.432591
613.856682	4013.925489
614.205340	3981.493225
614.553945	3984.044049
614.902496	3940.632153
615.250994	3930.388528
615.599439	3907.811721
615.947830	3892.474010
616.296169	3872.120352
616.644454	3855.217363
616.992686	3837.238088
617.340864	3835.813962
617.688990	3807.225578
618.037063	3805.607368
618.385082	3789.760501
618.733048	3776.403963
619.080961	3759.039709
619.428821	3739.205289
619.776628	3724.714493
620.124382	3698.908826
620.472083	3681.831917
620.819731	3665.148219
621.167326	3635.501193
621.514868	3616.150724
621.862357	3584.255343
622.209793	3571.019794
622.557176	3545.619940
622.904506	3520.068852
623.251783	3496.297291
623.599007	3476.193170
623.946179	3455.673153
624.293297	3436.206737
624.640363	3414.030702
624.987376	3403.046027
625.334336	3385.709499
625.681243	3367.210985
626.028097	3356.201105
626.374899	3341.614527
626.721647	3331.247394
627.068343	3317.893377
627.414987	3303.642035
627.761577	3290.482103
628.108115	3288.979839
628.454600	3269.460492
628.801032	3264.812548
629.147412	3255.501537
629.493739	3243.082654
629.840014	3232.130747
630.186236	3229.262331
630.532405	3219.051474
630.878521	3211.666183
631.224585	3203.043290
631.570597	3191.584747
631.916556	3190.934438
632.262462	3184.088551
632.608316	3178.596214
632.954117	3167.084739
633.299866	3166.487362
633.645562	3155.684170
633.991206	3137.669607
634.336797	3125.938842
634.682336	3121.598408
635.027823	3110.459979
635.373257	3098.411621
635.718639	3089.816454
636.063968	3085.017275
636.409245	3070.385326
636.754470	3065.843247
637.099642	3057.427040
637.444762	3045.280380
637.789829	3045.940771
638.134845	3038.792415
638.479808	3027.422093
638.824719	3026.708769
639.169577	3016.699558
639.514383	3011.315606
639.859137	3004.315964
640.203839	3004.731859
640.548489	2995.982937
640.893086	2991.317349
641.237632	2982.134887
641.582125	2981.575319
641.926566	2976.365286
642.270955	2974.898311
642.615292	2972.039976
642.959576	2967.749954
643.303809	2966.237608
643.647990	2967.147537
643.992118	2960.813327
644.336195	2958.943059
644.680219	2957.120682
645.024192	2955.739405
645.368112	2958.945579
645.711981	2954.244703
646.055797	2964.553863
646.399562	2959.177472
646.743274	2969.907568
647.086935	2973.030563
647.430544	2967.722228
647.774101	2963.810293
648.117606	2966.736683
648.461059	2968.995119
648.804460	2961.816516
649.147810	2953.667491
649.491108	2946.751028
649.834354	2940.013526
650.177548	2928.791918
650.520690	2921.998963
650.863781	2917.421595
651.206820	2919.289343
651.549807	2909.995975
651.892742	2902.051117
652.235626	2897.982906
652.578458	2897.022566
652.921238	2886.552089
653.263967	2889.254148
653.606644	2883.204763
653.949269	2883.933210
654.291843	2874.798639
654.634365	2874.836448
654.976836	2869.172712
655.319255	2866.231198
655.661622	2868.514841
656.003938	2866.694984
656.346203	2859.123171
656.688416	2861.618542
657.030577	2859.092924
657.372687	2857.134436
657.714746	2854.555886
658.056753	2852.577233
658.398708	2845.869978
658.740612	2844.970132
659.082465	2842.439473
659.424266	2844.148424
659.766016	2841.544668
660.107715	2844.150944
660.449362	2843.576253
660.790958	2840.612054
661.132503	2840.317147
661.473996	2838.797239
661.815438	2839.089626
662.156829	2842.086592
662.498168	2835.477639
662.839456	2835.888493
663.180693	2836.122907
663.521879	2836.296827
663.863013	2834.398832
664.204097	2835.134841
664.545129	2837.887311
664.886110	2835.848164
665.227040	2833.849347
665.567918	2834.376147
665.908746	2832.309274
666.249522	2836.196004
666.590248	2834.681137
666.930922	2830.812051
667.271545	2832.954542
667.612118	2832.863801
667.952639	2828.261227
668.293109	2830.784325
668.633528	2826.330466
668.973896	2822.355516
669.314213	2826.327945
669.654480	2820.575988
669.994695	2820.674291
670.334859	2818.519198
670.674973	2814.818991
671.015035	2815.804536
671.355047	2814.181285
671.695008	2816.124650
672.034918	2815.280256
672.374777	2812.603404
672.714585	2811.703558
673.054342	2813.883857
673.394049	2810.599545
673.733705	2815.199598
674.073310	2809.982004
674.412864	2809.656849
674.752368	2806.657363
675.091820	2807.995789
675.431223	2801.429686
675.770574	2801.371713
676.109875	2794.644293
676.449125	2795.554221
676.788324	2791.483490
677.127473	2788.365536
677.466571	2782.623662
677.805619	2788.715896
678.144616	2786.402007
678.483562	2783.105092
678.822458	2783.611728
679.161303	2780.992848
679.500098	2779.465379
679.838842	2777.569905
680.177535	2779.374638
680.516179	2779.344391
680.854771	2781.620472
681.193314	2788.017696
681.531805	2794.674540
681.870247	2800.567649
682.208638	2806.715336
682.546978	2807.383289
682.885268	2805.709626
683.223508	2804.567804
683.561697	2799.723256
683.899836	2796.945580
684.237925	2795.115641
684.575963	2794.813172
684.913951	2789.068777
685.251889	2791.014662
685.589776	2788.592388
685.927614	2789.237656
686.265401	2788.627676
686.603137	2789.880403
686.940824	2790.298818
687.278460	2797.666465
687.616046	2796.564973
687.953582	2799.897175
688.291068	2798.921712
688.628504	2802.682413
688.965889	2802.538740
689.303224	2797.666465
689.640510	2794.770322
689.977745	2788.983077
690.314930	2782.449742
690.652065	2780.493774
690.989150	2770.272835
691.326185	2765.897113
691.663170	2760.475352
692.000105	2754.385638
692.336990	2747.486819
692.673825	2745.132601
693.010610	2741.510532
693.347345	2738.059862
693.684030	2728.234653
694.020665	2722.840618
694.357251	2720.269630
694.693786	2723.221225
695.030272	2721.769373
695.366707	2715.861141
695.703093	2714.711758
696.039429	2716.851727
696.375716	2713.305276
696.711952	2712.458362
697.048139	2711.820656
697.384276	2711.450131
697.720363	2709.521890
698.056400	2709.146324
698.392388	2707.560881
698.728326	2707.500387
699.064214	2705.310006
699.400053	2702.746579
699.735842	2700.793132
700.071581	2701.471167
700.407270	2696.119982
700.742910	2697.254242
701.078501	2693.730475
701.414042	2691.056143
701.749533	2687.650844
702.084974	2686.796368
702.420366	2686.342664
702.755709	2683.070956
703.091002	2681.767817
703.426246	2684.371573
703.761440	2680.235307
704.096584	2678.632220
704.431679	2680.073990
704.766725	2679.469051
705.101721	2676.925789
705.436668	2677.288752
705.771565	2674.400171
706.106413	2679.897549
706.441212	2678.818742
706.775961	2678.617096
707.110661	2678.458300
707.445311	2683.620441
707.779913	2680.797395
708.114465	2683.864937
708.448967	2685.435257
708.783421	2691.640917
709.117825	2689.722758
709.452180	2692.936494
709.786485	2698.297761
710.120742	2702.106352
710.454949	2703.825386
710.789107	2705.506611
711.123216	2709.017774
711.457275	2710.951057
711.791286	2711.830738
712.125247	2718.921121
712.459159	2716.927345
712.793023	2725.033520
713.126837	2711.956767
713.460602	2717.975905
713.794318	2712.007179
714.127985	2709.768906
714.461602	2704.032073
714.795171	2704.137937
715.128691	2692.936494
715.462162	2692.996987
715.795584	2687.101358
716.128957	2685.926769
716.462281	2682.009793
716.795556	2680.527693
717.128782	2677.167764
717.461960	2672.756755
717.795088	2670.021929
718.128167	2670.097546
718.461198	2663.382729
718.794180	2664.060764
719.127113	2660.945331
719.459997	2662.871052
719.792833	2657.537511
720.125619	2658.306287
720.458357	2655.077428
720.791046	2654.706903
721.123686	2651.561223
721.456278	2651.480565
721.788821	2650.714310
722.121315	2647.422436
722.453761	2647.382107
722.786158	2647.689617
723.118506	2648.876809
723.450805	2647.031747
723.783056	2649.320431
724.115259	2646.953609
724.447412	2647.586274
724.779518	2649.169196
725.111574	2650.366470
725.443582	2650.333702
725.775542	2652.894609
726.107453	2655.954589
726.439315	2658.470125
726.771129	2661.893068
727.102895	2661.204951
727.434612	2663.460867
727.766281	2666.301557
728.097901	2665.089160
728.429473	2662.923984
728.760996	2664.156546
729.092471	2662.525733
729.423897	2665.943635
729.755276	2665.237874
730.086606	2666.351969
730.417887	2670.185766
730.749120	2678.004596
731.080305	2678.538958
731.411442	2683.307890
731.742530	2681.364525
732.073570	2681.243537
732.404562	2685.876358
732.735506	2684.182530
733.066401	2683.456604
733.397249	2679.653053
733.728048	2670.349604
734.058798	2666.336845
734.389501	2659.695125
734.720156	2659.445588
735.050762	2654.316214
735.381320	2647.389669
735.711831	2646.346150
736.042293	2644.087713
736.372707	2645.937816
736.703073	2642.507311
737.033391	2644.032260
737.363661	2642.955974
737.693883	2643.659215
738.024056	2648.725574
738.354182	2649.209525
738.684260	2650.406799
739.014290	2653.081131
739.344272	2653.408806
739.674207	2658.500372
740.004093	2658.230670
740.333931	2658.820485
740.663722	2658.696977
740.993464	2658.114723
741.323159	2658.714621
741.652806	2655.362253
741.982405	2652.982829
742.311956	2654.462407
742.641460	2649.620379
742.970915	2647.389669
743.300323	2646.358753
743.629683	2641.851961
743.958996	2638.154275
744.288260	2636.432721
744.617477	2634.575056
744.946647	2630.617750
745.275768	2631.663789
745.604842	2628.898716
745.933869	2624.301184
746.262847	2625.160701
746.591778	2628.029117
746.920662	2628.424848
747.249498	2630.189252
747.578286	2629.755712
747.907027	2628.921402
748.235720	2632.203193
748.564365	2634.759058
748.892963	2630.325363
749.221514	2634.275107
749.550017	2630.592544
749.878473	2631.431896
750.206881	2630.637914
750.535242	2630.053141
750.863555	2628.674385
751.191821	2627.131792
751.520039	2624.540639
751.848210	2627.945938
752.176334	2626.597430
752.504411	2626.965434
752.832440	2623.577778
753.160421	2624.943931
753.488356	2624.187758
753.816243	2623.434106
754.144082	2623.083745
754.471875	2623.161883
754.799620	2621.493261
755.127318	2621.135339
755.454969	2621.609208
755.782572	2622.496451
756.110129	2621.024434
756.437638	2618.476131
756.765100	2618.140894
757.092515	2620.061574
757.419882	2619.890174
757.747203	2620.452263
758.074477	2623.839918
758.401703	2622.758591
758.728882	2625.163221
759.056014	2624.820423
759.383099	2626.209261
759.710138	2625.190948
760.037129	2628.439971
760.364073	2630.665641
760.690970	2628.629015
761.017820	2629.675054
761.344623	2629.818727
761.671379	2634.534726
761.998088	2637.385499
762.324751	2655.581544
762.651366	2683.265040
762.977935	2719.808364
763.304456	2740.648494
763.630931	2749.609145
763.957359	2741.011457
764.283740	2722.570917
764.610074	2705.136086
764.936362	2681.714885
765.262602	2664.963131
765.588796	2654.943838
765.914943	2644.329688
766.241044	2632.235960
766.567097	2624.432254
766.893104	2616.326079
767.219064	2613.288783
767.544978	2610.153186
767.870845	2605.394337
768.196665	2603.367793
768.522438	2602.626743
768.848165	2602.099942
769.173846	2598.455188
769.499479	2596.514344
769.825066	2593.383787
770.150607	2592.524271
770.476101	2594.649117
770.801548	2593.499734
771.126949	2588.995463
771.452303	2587.619228
771.777611	2585.179310
772.102872	2588.292222
772.428087	2583.614031
772.753256	2583.331727
773.078378	2580.914493
773.403453	2581.025399
773.728482	2580.639751
774.053465	2579.966757
774.378401	2577.937692
774.703291	2574.464337
775.028135	2575.507856
775.352932	2574.547516
775.677683	2577.360480
776.002388	2574.393761
776.327046	2571.711867
776.651658	2573.224213
776.976224	2573.776220
777.300743	2573.703123
777.625216	2568.135168
777.949643	2572.374779
778.274024	2570.711198
778.598359	2567.905796
778.922647	2565.682647
779.246889	2570.416291
779.571086	2564.603840
779.895236	2568.278841
780.219339	2568.959397
780.543397	2571.706826
780.867409	2568.483008
781.191374	2568.518296
781.515294	2571.066599
781.839167	2570.902762
782.162995	2570.996023
782.486776	2570.698595
782.810511	2568.087277
783.134201	2569.607185
783.457844	2570.360838
783.781441	2569.145920
784.104993	2567.598286
784.428498	2568.215827
784.751958	2568.440158
785.075372	2568.362020
785.398739	2567.104252
785.722061	2568.636763
786.045337	2568.798080
786.368568	2570.925447
786.691752	2569.098029
787.014891	2573.549368
787.337983	2577.325192
787.661030	2585.113775
787.984031	2588.282140
788.306987	2591.594178
788.629897	2592.201637
788.952760	2593.189703
789.275579	2591.190886
789.598351	2586.237952
789.921078	2582.701583
790.243759	2580.811150
790.566395	2577.839390
790.888984	2574.865109
791.211529	2574.287897
791.534027	2569.070302
791.856480	2570.968297
792.178888	2569.816393
792.501249	2565.692729
792.823566	2567.247925
793.145836	2564.432441
793.468062	2563.159550
793.790241	2563.404046
794.112375	2567.815055
794.434464	2565.506207
794.756507	2568.876218
795.078505	2570.522155
795.400457	2573.314954
795.722364	2572.213462
796.044226	2579.157651
796.366042	2579.523135
796.687812	2578.993814
797.009538	2582.842735
797.331218	2580.314596
797.652852	2580.491037
797.974442	2579.203022
798.295986	2576.619430
798.617484	2575.921231
798.938938	2572.465520
799.260346	2572.067268
799.581709	2571.059038
799.903026	2570.559963
800.224299	2567.414283
800.545526	2566.136351
800.866708	2562.476473
801.187845	2566.653069
801.508936	2562.773901
801.829983	2565.173491
802.150984	2561.662327
802.471940	2561.717780
802.792851	2562.504200
803.113717	2560.331462
803.434538	2563.131823
803.755314	2562.675599
804.076045	2561.919426
804.396731	2561.092677
804.717372	2561.662327
805.037967	2562.892368
805.358518	2560.255845
805.679024	2562.960424
805.999485	2561.069991
806.319901	2563.709035
806.640272	2562.350444
806.960598	2565.231464
807.280879	2564.011505
807.601115	2563.741803
807.921306	2562.289951
808.241453	2563.991340
808.561554	2566.693398
808.881611	2564.485373
809.201623	2566.209448
809.521590	2564.845816
809.841513	2563.504869
810.161390	2562.347924
810.481223	2561.619477
810.801011	2562.352965
811.120755	2564.117369
811.440453	2564.533264
811.760107	2560.407080
812.079716	2558.108313
812.399281	2556.056564
812.718801	2554.153528
813.038276	2556.074208
813.357707	2560.497820
813.677093	2558.209137
813.996434	2556.719476
814.315731	2559.610577
814.634983	2561.546380
814.954191	2558.070505
815.273354	2561.274158
815.592473	2561.170814
815.911547	2561.503531
816.230577	2562.650393
816.549562	2568.586352
816.868502	2564.981927
817.187399	2568.533420
817.506250	2568.356979
817.825058	2570.290262
818.143821	2574.910479
818.462539	2579.260995
818.781213	2584.574371
819.099843	2589.398755
819.418429	2601.147164
819.736970	2615.297683
820.055466	2625.591719
820.373919	2643.933958
820.692327	2673.981755
821.010691	2723.564024
821.329011	2827.245435
821.647286	2994.495796
821.965517	3166.036179
822.283704	3267.232302
822.601847	3300.763536
822.919945	3222.502143
823.237999	3139.050883
823.556010	3053.951165
823.873976	2970.898155
824.191897	2899.948956
824.509775	2848.209073
824.827609	2795.602112
825.145398	2768.127824
825.463144	2752.676687
825.780845	2757.291864
826.098502	2775.336674
826.416116	2816.737150
826.733685	2854.182841
827.051210	2864.305477
827.368692	2845.648167
827.686129	2803.612506
828.003522	2755.940834
828.320872	2716.082952
828.638177	2684.669001
828.955439	2662.026659
829.272656	2644.654843
829.589830	2624.286061
829.906960	2613.102261
830.224046	2601.094232
830.541088	2594.981833
830.858086	2588.430854
831.175041	2587.170565
831.491952	2582.762076
831.808819	2583.994638
832.125642	2589.590319
832.442421	2599.191197
832.759157	2624.573406
833.075849	2655.770587
833.392497	2690.415917
833.709101	2710.396530
834.025662	2709.703371
834.342179	2689.773170
834.658653	2666.495642
834.975083	2643.833135
835.291469	2630.300157
835.607811	2614.274329
835.924110	2602.286465
836.240366	2592.463777
836.556578	2580.667477
836.872746	2575.021385
837.188871	2566.360682
837.504952	2559.938252
837.820990	2557.044630
838.136984	2555.123950
838.452935	2551.252344
838.768842	2555.617983
839.084706	2562.388253
839.400526	2576.357290
839.716303	2593.429158
840.032037	2609.170161
840.347727	2604.118925
840.663373	2598.334201
840.978977	2582.479772
841.294537	2571.157340
841.610054	2563.676268
841.925527	2559.114024
842.240957	2553.926676
842.556344	2548.857796
842.871687	2546.430481
843.186987	2545.568443
843.502244	2539.589635
843.817458	2538.299099
844.132629	2538.367155
844.447756	2536.552340
844.762840	2527.987419
845.077881	2532.242153
845.392879	2528.713345
845.707833	2529.086391
846.022745	2527.508510
846.337613	2531.813655
846.652438	2531.322143
846.967221	2532.388347
847.281960	2526.964065
847.596656	2532.383305
847.911309	2528.141174
848.225919	2527.037162
848.540485	2529.076308
848.855009	2530.326515
849.169490	2529.046062
849.483928	2526.744775
849.798323	2527.876514
850.112675	2525.239990
850.426984	2528.650331
850.741251	2529.010773
851.055474	2527.485824
851.369654	2527.168232
851.683792	2526.860721
851.997887	2528.178983
852.311938	2528.199148
852.625947	2528.037831
852.939914	2525.008097
853.253837	2528.481452
853.567718	2526.543129
853.881555	2527.760567
854.195350	2526.817872
854.509103	2528.453726
854.822812	2525.403828
855.136479	2528.685619
855.450103	2529.051103
855.763685	2527.132944
856.077224	2528.730989
856.390720	2529.053623
856.704173	2526.152439
857.017584	2529.782070
857.330953	2524.312418
857.644278	2527.327028
857.957561	2528.756195
858.270802	2529.524971
858.584000	2530.535722
858.897155	2528.549508
859.210268	2528.826771
859.523339	2530.127389
859.836367	2527.871473
860.149352	2529.651000
860.462295	2530.369364
860.775195	2526.288550
861.088054	2525.038344
861.400869	2528.032790
861.713642	2521.890144
862.026373	2527.037162
862.339062	2526.245701
862.651708	2528.178983
862.964312	2527.190917
863.276873	2527.435413
863.589392	2529.023376
863.901869	2529.376257
864.214303	2530.233253
864.526696	2531.879190
864.839045	2531.110414
865.151353	2532.539581
865.463619	2532.118645
865.775842	2534.732483
866.088023	2527.828623
866.400162	2534.666948
866.712258	2531.886752
867.024313	2535.773481
867.336325	2532.025383
867.648296	2532.806762
867.960224	2532.670651
868.272110	2534.729963
868.583954	2535.667617
868.895755	2534.316588
869.207515	2531.186031
869.519233	2534.281300
869.830909	2532.224509
870.142542	2535.821372
870.454134	2534.074612
870.765684	2536.055786
871.077191	2536.693492
871.388657	2540.451672
871.700081	2536.980838
872.011463	2541.298586
872.322803	2539.917310
872.634101	2539.302289
872.945357	2539.947557
873.256571	2539.110725
873.567744	2542.689944
873.878874	2540.958308
874.189963	2541.885880
874.501010	2543.183978
874.812015	2540.809594
875.122979	2544.338402
875.433900	2543.597352
875.744780	2545.628937
876.055618	2543.998124
876.366415	2542.193391
876.677169	2546.458207
876.987882	2544.167002
877.298554	2545.011396
877.609183	2547.204298
877.919771	2546.327137
878.230317	2554.282078
878.540822	2556.306101
878.851285	2564.674416
879.161707	2569.944943
879.472087	2588.458580
879.782425	2610.148145
880.092722	2647.608959
880.402977	2703.157433
880.713191	2767.243101
881.023363	2832.581496
881.333494	2864.665920
881.643583	2881.339536
881.953631	2874.292003
882.263637	2858.485465
882.573602	2829.332473
882.883526	2805.354224
883.193408	2777.254833
883.503248	2751.630648
883.813048	2728.320352
884.122806	2702.935622
884.432522	2684.318641
884.742197	2660.945331
885.051831	2642.759369
885.361424	2626.539456
885.670975	2612.414143
885.980485	2601.618512
886.289954	2593.139292
886.599382	2583.079669
886.908768	2577.168916
887.218113	2569.745817
887.527417	2569.977710
887.836680	2562.002605
888.145901	2559.797100
888.455082	2555.401214
888.764221	2556.374157
889.073319	2549.598846
889.382376	2547.852086
889.691392	2548.635985
890.000366	2548.935934
890.309300	2545.583567
890.618193	2545.414688
890.927044	2545.956612
891.235855	2548.603218
891.544625	2548.051212
891.853353	2549.533311
892.162041	2550.105482
892.470687	2553.722510
892.779293	2559.287943
893.087858	2562.632749
893.396381	2574.512228
893.704864	2589.116451
894.013306	2608.693772
894.321707	2629.400311
894.630068	2640.755510
894.938387	2648.261788
895.246665	2642.983700
895.554903	2632.719911
895.863100	2622.282202
896.171256	2609.555809
896.479371	2604.043307
896.787446	2594.613829
897.095480	2586.782397
897.403473	2584.075297
897.711425	2574.098853
898.019336	2572.132803
898.327207	2566.002760
898.635038	2562.310115
898.942827	2559.615618
899.250576	2557.231153
899.558284	2553.440205
899.865952	2547.713454
900.173579	2546.054915
900.481165	2545.772610
900.788711	2545.530635
901.096216	2543.514173
901.403681	2543.914945
901.711105	2539.824048
902.018489	2542.745397
902.325832	2544.739173
902.633135	2545.865871
902.940397	2554.181255
903.247619	2570.658266
903.554800	2598.006526
903.861941	2635.381640
904.169041	2658.467604
904.476101	2667.045127
904.783121	2662.122441
905.090100	2646.630975
905.397039	2633.511372
905.703938	2620.386728
906.010796	2607.582197
906.317614	2597.764550
906.624391	2586.469845
906.931129	2579.054308
907.237826	2569.808832
907.544483	2562.811710
907.851099	2557.417675
908.157675	2549.177909
908.464211	2542.843700
908.770707	2538.702392
909.077163	2535.118131
909.383578	2526.981709
909.689954	2527.374919
909.996289	2525.242511
910.302584	2529.953469
910.608839	2528.262162
910.915054	2526.901051
911.221229	2527.619415
911.527363	2529.300640
911.833458	2526.379291
912.139513	2530.598737
912.445527	2528.486493
912.751502	2532.398429
913.057436	2532.161495
913.363331	2535.211393
913.669186	2540.192053
913.975000	2543.627599
914.280775	2550.697817
914.586510	2565.866649
914.892205	2582.010944
915.197859	2602.374685
915.503475	2626.443674
915.809050	2647.009062
916.114585	2659.165804
916.420081	2661.885507
916.725536	2659.521205
917.030952	2650.792447
917.336328	2645.678197
917.641665	2637.466157
917.946961	2626.063067
918.252218	2616.530245
918.557435	2611.279884
918.862612	2602.248657
919.167750	2593.277923
919.472848	2581.630337
919.777906	2578.837538
920.082925	2570.670869
920.387904	2565.352452
920.692843	2560.328942
920.997743	2553.394835
921.302603	2550.738147
921.607423	2545.535676
921.912204	2542.011909
922.216946	2541.802701
922.521647	2539.387989
922.826310	2535.289531
923.130932	2534.271217
923.435516	2531.339787
923.740059	2529.731658
924.044564	2527.206040
924.349028	2527.836185
924.653454	2521.451563
924.957840	2522.215298
925.262186	2521.517098
925.566493	2521.191944
925.870761	2517.917714
926.174989	2521.960720
926.479178	2521.544825
926.783328	2519.611542
927.087438	2517.678260
927.391509	2519.329238
927.695541	2517.133815
927.999533	2515.439987
928.303486	2517.343023
928.607400	2513.242044
928.911275	2516.410409
929.215110	2512.861437
929.518906	2516.213804
929.822663	2515.606345
930.126381	2515.200533
930.430060	2515.558454
930.733699	2512.155676
931.037299	2514.724143
931.340861	2514.066273
931.644383	2514.008300
931.947866	2516.057529
932.251309	2513.063083
932.554714	2514.686335
932.858080	2516.750687
933.161407	2516.191119
933.464694	2513.509225
933.767943	2513.975532
934.071153	2514.600635
934.374323	2513.794051
934.677455	2513.428567
934.980548	2513.494102
935.283602	2514.325892
935.586617	2515.618948
935.889593	2513.458814
936.192530	2515.810512
936.495428	2514.646006
936.798287	2513.983094
937.101108	2516.523835
937.403890	2514.555265
937.706632	2516.808661
938.009336	2518.560462
938.312002	2521.668333
938.614628	2522.580782
938.917216	2523.949455
939.219765	2526.321318
939.522275	2525.912984
939.824747	2527.732841
940.127179	2522.081707
940.429573	2521.149094
940.731929	2521.738909
941.034246	2519.097344
941.336524	2526.144878
941.638763	2522.399300
941.940964	2523.684794
942.243126	2523.629342
942.545250	2523.838550
942.847335	2521.985926
943.149381	2520.481141
943.451389	2515.540810
943.753359	2521.844773
944.055290	2519.598939
944.357182	2517.101047
944.659036	2517.577437
944.960851	2515.797909
945.262628	2516.493588
945.564367	2517.118692
945.866067	2520.118178
946.167729	2515.626510
946.469352	2518.189937
946.770937	2512.132990
947.072484	2519.402334
947.373992	2516.967457
947.675462	2515.243382
947.976893	2514.381345
948.278286	2516.695235
948.579641	2514.492250
948.880958	2514.356139
949.182236	2515.623989
949.483476	2514.729185
949.784678	2514.504853
950.085841	2515.566016
950.386967	2519.891326
950.688054	2516.730523
950.989103	2515.553413
951.290114	2519.183044
951.591087	2516.155831
951.892021	2516.218846
952.192917	2518.419309
952.493776	2521.196985
952.794596	2517.335461
953.095378	2522.348889
953.396122	2519.553569
953.696828	2520.329907
953.997496	2518.507529
954.298126	2518.399145
954.598718	2517.557272
954.899272	2517.602642
955.199788	2518.555420
955.500266	2516.090296
955.800706	2513.380676
956.101108	2510.111488
956.401472	2511.384379
956.701798	2511.021416
957.002087	2509.335150
957.302337	2511.434791
957.602550	2512.090141
957.902724	2509.130983
958.202861	2510.303052
958.502960	2508.442866
958.803022	2508.536127
959.103045	2505.826507
959.403031	2507.774913
959.702979	2505.909686
960.002889	2509.617455
960.302762	2505.287103
960.602596	2503.976403
960.902393	2506.320540
961.202153	2504.919099
961.501875	2506.459172
961.801559	2506.572598
962.101205	2503.225272
962.400814	2506.529748
962.700385	2503.744510
962.999918	2505.390447
963.299414	2504.057062
963.598873	2505.907165
963.898293	2504.057062
964.197677	2503.063955
964.497022	2503.439521
964.796331	2504.679644
965.095601	2502.169150
965.394835	2503.729387
965.694030	2503.361383
965.993189	2504.104953
966.292309	2501.849037
966.591393	2500.775271
966.890439	2506.302896
967.189447	2502.839623
967.488419	2501.778460
967.787353	2502.806856
968.086249	2503.560508
968.385108	2503.557988
968.683930	2506.663338
968.982714	2504.420025
969.281462	2506.013030
969.580172	2505.234171
969.878844	2505.561846
970.177480	2505.085457
970.476078	2502.653101
970.774639	2504.898935
971.073162	2504.387257
971.371649	2502.965652
971.670098	2501.443224
971.968510	2504.709891
972.266885	2497.783346
972.565223	2506.280211
972.863524	2503.391630
973.161788	2503.749552
973.460014	2502.796773
973.758204	2502.930364
974.056356	2507.903462
974.354471	2507.880777
974.652550	2503.537823
974.950591	2506.229799
975.248595	2505.176198
975.546563	2506.983452
975.844493	2505.488750
976.142386	2503.363903
976.440243	2503.958759
976.738062	2505.695437
977.035845	2503.255518
977.333590	2507.028822
977.631299	2506.867505
977.928971	2504.067144
978.226606	2502.577483
978.524204	2501.763337
978.821765	2503.457165
979.119290	2504.316681
979.416777	2504.886332
979.714228	2502.300220
980.011642	2505.231651
980.309020	2505.077896
980.606360	2506.340705
980.903664	2504.820797
981.200931	2505.455982
981.498162	2510.177023
981.795356	2510.734070
982.092513	2513.612569
982.389633	2515.021572
982.686717	2519.989629
982.983764	2519.634227
983.280775	2521.292767
983.577749	2520.307221
983.874686	2521.227232
984.171587	2521.093641
984.468451	2520.526512
984.765279	2516.377642
985.062070	2516.934689
985.358824	2515.026613
985.655543	2512.001920
985.952224	2510.320696
986.248869	2508.339522
986.545478	2504.155364
986.842050	2501.899448
987.138586	2503.222751
987.435086	2502.370796
987.731549	2499.983810
988.027975	2500.397184
988.324366	2500.432472
988.620719	2503.936074
988.917037	2502.317864
989.213318	2500.755106
989.509563	2500.802997
989.805772	2502.867350
990.101944	2502.494304
990.398080	2502.091012
990.694180	2500.193017
990.990244	2501.639829
991.286271	2501.460868
991.582262	2499.575476
991.878217	2500.034221
992.174136	2500.881135
992.470019	2503.250477
992.765865	2501.604541
993.061676	2500.208141
993.357450	2500.460199
993.653188	2498.098418
993.948890	2501.107987
994.244556	2504.062103
994.540186	2502.375837
994.835780	2504.397340
995.131337	2503.442041
995.426859	2506.280211
995.722345	2506.859943
996.017795	2512.221211
996.313208	2508.906652
996.608586	2512.440501
996.903928	2508.026971
997.199234	2514.842611
997.494504	2509.700634
997.789738	2509.894718
998.084936	2509.529234
998.380099	2509.554440
998.675225	2508.221055
998.970316	2507.091837
999.265371	2506.726353
999.560390	2503.353821
999.855373	2506.605365
1000.150320	2502.184273
1000.445232	2505.173677
1000.740108	2500.258553
1001.034948	2500.838285
1001.329752	2500.218223
1001.624521	2500.775271
1001.919254	2494.254538
1002.213951	2497.410301
1002.508613	2495.676144
1002.803239	2496.979282
1003.097829	2495.270331
1003.392384	2498.768892
1003.686903	2497.601864
1003.981386	2501.130672
1004.275834	2498.791577
1004.570246	2500.240908
1004.864623	2500.341732
1005.158964	2500.477843
1005.453270	2498.867194
1005.747540	2499.227637
1006.041775	2495.524909
1006.335974	2498.111021
1006.630138	2495.925681
1006.924266	2498.295023
1007.218359	2499.711587
1007.512416	2498.390805
1007.806438	2497.821155
1008.100425	2497.455671
1008.394376	2497.226298
1008.688292	2499.414159
1008.982172	2497.380054
1009.276017	2496.901144
1009.569827	2497.032214
1009.863602	2499.507421
1010.157341	2501.140754
1010.451045	2500.208141
1010.744714	2497.899292
1011.038347	2496.346617
1011.331945	2497.929539
1011.625508	2495.807214
1011.919036	2499.951042
1012.212528	2495.900475
1012.505986	2494.899806
1012.799408	2496.838130
1013.092795	2498.910044
1013.386147	2498.287461
1013.679464	2498.877276
1013.972745	2497.372492
1014.265992	2497.674961
1014.559204	2497.964827
1014.852380	2496.147492
1015.145521	2499.121772
1015.438628	2495.451812
1015.731699	2497.743017
1016.024736	2498.206803
1016.317737	2500.603872
1016.610703	2498.385764
1016.903635	2495.829899
1017.196531	2494.947697
1017.489393	2493.838643
1017.782219	2493.969713
1018.075011	2496.969200
1018.367768	2496.152533
1018.660490	2496.931391
1018.953177	2496.931391
1019.245829	2496.931391
