Dividing Wavelength (nm)	Counts (n)	Blue Motor Position (mm): 0.000000	Red Motor Position (mm): 24.000000	
326.493990	2081.603328
326.888308	2081.603328
327.282561	2081.603328
327.676750	2058.093908
328.070874	2058.287992
328.464933	2064.647408
328.858929	2076.771383
329.252859	2086.092476
329.646726	2100.973962
330.040528	2118.005500
330.434265	2135.977214
330.827938	2156.282982
331.221547	2176.561023
331.615091	2197.128931
332.008571	2217.038968
332.401986	2237.188460
332.795338	2259.737541
333.188625	2278.422578
333.581847	2296.227933
333.975006	2315.941365
334.368100	2335.674962
334.761129	2351.297498
335.154095	2364.265866
335.546996	2385.645399
335.939833	2407.629871
336.332606	2420.799886
336.725315	2434.388316
337.117960	2439.179932
337.510540	2450.202415
337.903056	2456.466049
338.295508	2463.909313
338.687896	2470.833337
339.080220	2476.817187
339.472480	2482.483444
339.864676	2486.682725
340.256807	2490.755978
340.648875	2490.158601
341.040879	2493.463077
341.432818	2493.170690
341.824694	2493.553818
342.216506	2495.414004
342.608253	2491.832264
342.999937	2494.801503
343.391557	2491.857470
343.783113	2490.990391
344.174605	2490.372850
344.566033	2489.168014
344.957397	2488.164824
345.348697	2482.077631
345.739934	2486.899495
346.131106	2482.059987
346.522215	2480.345995
346.913260	2478.526138
347.304241	2478.773155
347.695159	2476.481950
348.086012	2476.741570
348.476802	2472.181846
348.867528	2471.692854
349.258191	2471.327371
349.648789	2469.807463
350.039324	2470.361990
350.429796	2469.406691
350.820203	2466.465178
351.210548	2467.203707
351.600828	2466.326546
351.991045	2465.893007
352.381198	2465.935857
352.771288	2467.511217
353.161314	2463.563994
353.551276	2467.929633
353.941175	2463.962245
354.331010	2465.557770
354.720782	2467.629684
355.110490	2469.124386
355.500135	2466.707153
355.889717	2468.527010
356.279235	2469.749489
356.668689	2469.414253
357.058080	2469.492391
357.447408	2469.666310
357.836672	2466.807976
358.225873	2467.715384
358.615010	2469.081537
359.004084	2473.880715
359.393095	2474.641929
359.782043	2476.786940
360.170927	2473.467340
360.559748	2477.447331
360.948505	2475.889615
361.337199	2478.629482
361.725830	2477.449852
362.114398	2481.550831
362.502903	2480.106540
362.891344	2480.542600
363.279722	2480.199801
363.668037	2482.304483
364.056289	2478.689976
364.444478	2482.738022
364.832603	2486.402941
365.220665	2481.886067
365.608665	2486.289515
365.996601	2484.172231
366.384474	2486.599546
366.772284	2485.881182
367.160031	2486.539052
367.547715	2490.692963
367.935336	2488.812613
368.322893	2493.815958
368.710388	2493.576503
369.097820	2496.225629
369.485189	2494.882162
369.872495	2495.794611
370.259738	2497.082626
370.646918	2501.208810
371.034035	2497.816113
371.421090	2500.722339
371.808081	2506.698627
372.195010	2509.209121
372.581875	2514.837569
372.968678	2520.352592
373.355418	2528.521782
373.742096	2537.827752
374.128710	2543.239430
374.515262	2554.728220
374.901751	2567.691547
375.288177	2584.589495
375.674540	2597.149529
376.060841	2619.343209
376.447079	2638.108904
376.833254	2663.314674
377.219367	2684.605987
377.605417	2719.886502
377.991404	2742.259143
378.377329	2776.798608
378.763191	2809.843372
379.148991	2854.654188
379.534727	2900.594223
379.920402	2944.633743
380.306013	2988.476658
380.691563	3046.223076
381.077049	3098.479677
381.462474	3152.901453
381.847835	3219.099365
382.233134	3286.204684
382.618371	3341.846420
383.003545	3422.794748
383.388657	3496.619925
383.773706	3589.475458
384.158693	3657.473062
384.543618	3743.898603
384.928480	3817.597752
385.313280	3918.564502
385.698017	4015.813401
386.082692	4128.095020
386.467305	4188.286397
386.851856	4307.277793
387.236344	4452.546203
387.620770	4510.322867
388.005133	4628.812667
388.389435	4764.570940
388.773674	4844.387529
389.157851	4973.446109
389.541965	5100.432774
389.926018	5123.372545
390.310008	5292.415036
390.693936	5409.473149
391.077802	5519.642525
391.461606	5649.225385
391.845348	5760.201346
392.229027	5877.181321
392.612645	6088.511531
392.996200	6201.183840
393.379694	6375.189347
393.763125	6583.888075
394.146494	6678.253434
394.529801	6806.397044
394.913047	7039.593260
395.296230	7035.807353
395.679351	7093.490756
396.062410	7337.901018
396.445408	7243.956595
396.828343	7395.365131
397.211217	7527.266921
397.594028	7412.124447
397.976778	7616.724717
398.359466	7775.609283
398.742092	7763.644104
399.124656	7901.577635
399.507158	8088.521264
399.889598	8111.849203
400.271977	8321.846028
400.654294	8353.857355
401.036549	8548.753404
401.418742	8571.153771
401.800874	8870.850368
402.182944	8953.232904
402.564952	9305.591913
402.946898	9147.332450
403.328783	9203.221202
403.710606	9393.232373
404.092367	9639.286051
404.474067	9999.579837
404.855705	9806.223861
405.237282	9758.312735
405.618797	10175.221199
406.000250	10415.427138
406.381642	10769.656416
406.762972	10719.509538
407.144240	10543.381705
407.525447	10789.669797
407.906593	10738.159287
408.287677	10993.513894
408.668700	11146.044086
409.049661	11133.156376
409.430560	11291.309975
409.811399	11270.479928
410.192176	11431.922879
410.572891	11504.288643
410.953545	11974.895478
411.334138	11458.855244
411.714669	12043.152701
412.095139	11398.558003
412.475547	11870.160466
412.855894	11734.220711
413.236180	12058.762634
413.616405	11755.748958
413.996568	12033.791278
414.376670	12012.429389
414.756711	11894.332798
415.136691	12159.363900
415.516609	12338.960047
415.896466	12415.273034
416.276262	12715.052809
416.655997	13169.291017
417.035670	13207.777707
417.415283	13826.032376
417.794834	13909.929779
418.174324	13664.501204
418.553753	13571.494436
418.933121	14059.284044
419.312428	13883.594791
419.691674	13789.620122
420.070859	14254.900978
420.449983	13918.335903
420.829045	14467.942660
421.208047	14227.174632
421.586988	14672.636191
421.965867	14915.672739
422.344686	14915.019909
422.723444	15482.699203
423.102141	14192.902347
423.480777	15378.954777
423.859352	14882.181833
424.237866	15973.755478
424.616319	15690.266192
424.994712	16333.557752
425.373044	16125.441277
425.751314	16810.125751
426.129524	15947.072651
426.507673	17020.024274
426.885762	16747.842295
427.263789	16915.369920
427.641756	17105.360926
428.019662	17154.365983
428.397508	17208.407152
428.775292	17491.021798
429.153016	17474.262482
429.530679	17551.971869
429.908282	17577.875838
430.285824	17312.249880
430.663305	18012.783742
431.040726	17623.334443
431.418086	17456.487374
431.795385	18091.095546
432.172624	18537.235141
432.549802	18092.847347
432.926920	18299.695972
433.303977	18175.055964
433.680974	18422.874046
434.057910	18734.684534
434.434786	18757.664634
434.811601	18682.385084
435.188355	19715.156190
435.565050	19379.639675
435.941683	19327.587241
436.318257	20218.666636
436.694770	20007.190232
437.071222	20583.784806
437.447614	19651.219236
437.823946	19661.508231
438.200218	19825.522171
438.576429	19586.465615
438.952580	19867.086485
439.328670	19822.293312
439.704700	20225.567976
440.080670	19772.834552
440.456580	20353.557831
440.832429	20483.110443
441.208218	19486.184462
441.583947	19889.012983
441.959616	19973.064141
442.335224	20184.928714
442.710773	20275.493043
443.086261	20777.561719
443.461689	20081.716130
443.837057	20194.280054
444.212365	20771.555184
444.587612	20708.878518
444.962800	20265.738410
445.337927	20617.560537
445.712995	19331.121090
446.088002	21059.526057
446.462949	21175.550733
446.837837	21261.010893
447.212664	21177.428563
447.587431	23837.708462
447.962139	26463.940408
448.336786	28480.449837
448.711374	26813.310013
449.085901	23304.719868
449.460369	23191.949257
449.834776	23052.231158
450.209124	25181.901888
450.583412	24592.437248
450.957640	24869.730957
451.331808	23545.440006
451.705917	22175.582065
452.079965	22051.146224
452.453954	22236.779153
452.827883	22014.418898
453.201752	21666.536432
453.575562	21647.992548
453.949311	22416.826483
454.323001	22309.089463
454.696632	21929.160383
455.070202	23030.602087
455.443713	22967.557417
455.817164	23230.630030
456.190556	23450.066416
456.563888	22783.870374
456.937160	22901.483013
457.310373	21387.659802
457.683526	21493.697952
458.056619	21275.237030
458.429653	21024.900891
458.802628	21225.309442
459.175542	21088.071590
459.548398	21822.567706
459.921194	22697.139842
460.293930	22943.581689
460.666607	24097.343008
461.039224	25027.582086
461.411782	24947.853718
461.784280	23792.249857
462.156719	23124.087764
462.529099	22437.190224
462.901419	21294.209412
463.273680	20339.387147
463.645882	20143.707199
464.018024	19840.912814
464.390106	20093.671227
464.762130	21484.644040
465.134094	23657.474609
465.505999	26519.493923
465.877845	28842.487862
466.249631	29022.527631
466.621358	27437.016691
466.993026	25707.976539
467.364634	24094.232616
467.736184	22629.956385
468.107674	21592.653282
468.479105	20819.085703
468.850477	20114.748291
469.221790	19080.195137
469.593043	17903.642761
469.964238	17153.647618
470.335373	16814.627502
470.706449	17287.429759
471.077467	18141.678484
471.448425	19796.462440
471.819324	20656.425313
472.190164	19447.271795
472.560945	17616.962424
472.931667	16055.646502
473.302330	15323.151725
473.672934	14721.308532
474.043479	14613.853817
474.413965	14069.774685
474.784393	13673.608048
475.154761	13696.449516
475.525070	13441.533490
475.895321	13036.678424
476.265513	12954.063995
476.635645	12988.119510
477.005719	12677.579392
477.375734	12549.783621
477.745691	12479.041109
478.115588	12597.548554
478.485427	12907.685380
478.855207	13571.665835
479.224928	13994.238036
479.594591	14101.843985
479.964194	13496.577849
480.333739	13214.432030
480.703226	12911.577151
481.072653	12791.191876
481.442022	12621.055454
481.811333	12380.252138
482.180584	11815.161477
482.549777	11435.877665
482.918912	11070.023486
483.287988	10762.520663
483.657005	10362.941165
484.025964	10007.113842
484.394864	9762.784238
484.763706	9459.309297
485.132489	9097.112476
485.501213	8867.581179
485.869879	8690.830764
486.238487	8431.629756
486.607036	8267.139427
486.975527	8013.085438
487.343959	7860.230091
487.712333	7692.604164
488.080648	7509.267481
488.448905	7388.632670
488.817104	7206.541152
489.185244	7154.670199
489.553326	7194.354162
489.921350	7344.116761
490.289315	7509.764035
490.657222	7416.472442
491.025070	7276.933303
491.392861	7012.318097
491.760593	6718.665844
492.128267	6409.133957
492.495883	6137.720754
492.863440	5892.821500
493.230939	5661.929093
493.598380	5476.568386
493.965763	5345.720197
494.333088	5194.299059
494.700354	5067.483793
495.067563	4960.336588
495.434713	4863.911918
495.801805	4785.436276
496.168839	4690.576884
496.535815	4595.841001
496.902733	4525.262326
497.269593	4435.769243
497.636395	4367.194427
498.003139	4320.709947
498.369825	4234.665013
498.736453	4192.697407
499.103023	4117.367445
499.469535	4060.528435
499.835989	4011.982124
500.202385	3956.116057
500.568723	3906.488418
500.935003	3872.062378
501.301226	3824.083197
501.667390	3802.547387
502.033497	3778.485960
502.399546	3724.291036
502.765537	3668.140143
503.131470	3644.827328
503.497345	3628.441057
503.863163	3562.356571
504.228923	3548.758059
504.594625	3533.256511
504.960269	3490.268071
505.325856	3479.119559
505.691385	3444.973304
506.056856	3425.426230
506.422270	3412.888880
506.787625	3389.598749
507.152924	3368.234339
507.518164	3353.708255
507.883347	3318.188285
508.248472	3304.309988
508.613540	3300.113228
508.978550	3288.165693
509.343503	3271.421500
509.708398	3261.795417
510.073236	3255.645209
510.438016	3241.343456
510.802738	3217.334961
511.167403	3219.661453
511.532010	3207.476984
511.896561	3202.287117
512.261053	3206.627550
512.625488	3185.643747
512.989866	3170.351407
513.354186	3158.963440
513.718449	3148.399702
514.082655	3148.490443
514.446803	3137.714977
514.810894	3137.460399
515.174927	3122.112606
515.538904	3117.452059
515.902822	3119.937348
516.266684	3104.531582
516.630488	3101.053186
516.994235	3091.641351
517.357925	3092.334510
517.721558	3086.239755
518.085133	3084.530804
518.448651	3081.528797
518.812112	3072.570666
519.175516	3067.279975
519.538863	3063.741085
519.902152	3058.977195
520.265385	3056.323028
520.628560	3053.920918
520.991678	3044.735935
521.354739	3042.235523
521.717743	3042.245605
522.080690	3034.736807
522.443580	3040.723177
522.806413	3033.211858
523.169189	3029.756147
523.531908	3029.786394
523.894569	3022.943027
524.257174	3020.046884
524.619722	3020.462780
524.982213	3018.869775
525.344647	3011.502129
525.707025	3008.805111
526.069345	3008.709329
526.431608	3004.530213
526.793815	3004.641118
527.155964	2998.115345
527.518057	2997.039058
527.880093	2991.861793
528.242072	2992.265086
528.603995	2987.614621
528.965860	2988.148983
529.327669	2982.081955
529.689421	2979.921820
530.051117	2975.392344
530.412755	2977.199597
530.774337	2973.953094
531.135862	2972.516365
531.497331	2970.346149
531.858743	2962.560087
532.220098	2968.619553
532.581396	2962.481949
532.942638	2955.285702
533.303824	2958.128912
533.664953	2955.172276
534.026025	2950.700772
534.387040	2954.343006
534.747999	2950.148766
535.108902	2953.261678
535.469748	2944.684155
535.830537	2944.850513
536.191270	2944.853034
536.551947	2942.448403
536.912567	2940.890687
537.273131	2942.939916
537.633638	2934.818617
537.994089	2935.980603
538.354483	2932.628236
538.714821	2933.770057
539.075103	2938.561674
539.435328	2932.456836
539.795497	2927.201433
540.155609	2930.276537
540.515665	2931.572114
540.875665	2926.258738
541.235609	2925.346289
541.595496	2923.355033
541.955328	2926.876279
542.315102	2920.547110
542.674821	2918.926379
543.034483	2917.759352
543.394090	2916.494023
543.753640	2915.682397
544.113134	2918.974270
544.472571	2912.851789
544.831953	2921.275557
545.191278	2913.144176
545.550548	2908.839031
545.909761	2910.888260
546.268918	2916.501584
546.628019	2912.929927
546.987064	2911.634350
547.346053	2901.799059
547.704986	2907.445152
548.063863	2904.266704
548.422684	2902.794687
548.781449	2901.294944
549.140158	2902.877866
549.498811	2903.225706
549.857408	2895.071639
550.215949	2898.471898
550.574434	2895.530384
550.932864	2894.955693
551.291237	2895.810168
551.649555	2900.092629
552.007817	2898.567680
552.366022	2895.908471
552.724173	2894.386043
553.082267	2897.425858
553.440305	2900.780746
553.798288	2892.374622
554.156215	2895.174983
554.514086	2895.434602
554.871902	2894.025600
555.229661	2892.470404
555.587365	2890.209447
555.945014	2891.144581
556.302606	2889.486041
556.660143	2888.560989
557.017625	2886.713406
557.375050	2885.140566
557.732421	2888.649209
558.089735	2888.142573
558.446994	2886.930176
558.804197	2890.179200
559.161345	2888.056874
559.518437	2884.049157
559.875474	2883.219887
560.232455	2881.727705
560.589381	2885.637120
560.946251	2883.638303
561.303065	2886.481513
561.659825	2885.112840
562.016528	2880.230483
562.373177	2878.506408
562.729770	2880.800133
563.086307	2878.929865
563.442789	2881.425236
563.799216	2879.116388
564.155587	2882.244423
564.511904	2877.309134
564.868164	2878.493805
565.224370	2882.768703
565.580520	2877.689741
565.936615	2879.610421
566.292654	2874.612117
566.648638	2878.052704
567.004567	2877.107488
567.360441	2873.797970
567.716260	2875.143958
568.072023	2875.678321
568.427732	2870.619523
568.783385	2870.871580
569.138982	2873.009030
569.494525	2873.790408
569.850013	2870.110366
570.205445	2871.773947
570.560823	2869.291179
570.916145	2870.347300
571.271412	2870.831251
571.626625	2866.551312
571.981782	2867.355376
572.336884	2862.571321
572.691931	2865.535519
573.046923	2863.859335
573.401860	2860.620394
573.756743	2859.501258
574.111570	2861.434540
574.466342	2857.129395
574.821059	2858.931607
575.175722	2855.054960
575.530330	2856.474045
575.884882	2852.272243
576.239380	2852.272243
576.593823	2849.867613
576.948211	2850.291070
577.302544	2850.152438
577.656823	2845.796881
578.011047	2848.519104
578.365216	2842.058866
578.719330	2838.658607
579.073389	2840.004595
579.427394	2840.259174
579.781344	2839.069461
580.135239	2835.515448
580.489080	2834.784481
580.842866	2835.903617
581.196597	2837.085767
581.550273	2834.766837
581.903895	2833.743482
582.257463	2836.266580
582.610975	2829.579489
582.964434	2834.103925
583.317837	2829.251814
583.671186	2829.382884
584.024481	2828.465394
584.377721	2824.283757
584.730906	2826.983295
585.084037	2826.637976
585.437113	2824.077070
585.790135	2822.806699
586.143103	2823.099086
586.496016	2825.324755
586.848874	2816.538024
587.201679	2818.635144
587.554428	2813.606593
587.907124	2813.964515
588.259765	2813.437715
588.612352	2818.609938
588.964884	2811.080975
589.317362	2813.420071
589.669786	2813.183136
590.022155	2813.636840
590.374470	2812.222797
590.726731	2810.783547
591.078937	2804.729121
591.431090	2803.970428
591.783188	2800.832309
592.135232	2799.128399
592.487222	2801.555715
592.839157	2801.810293
593.191038	2798.223512
593.542866	2797.873152
593.894639	2792.895013
594.246358	2795.786114
594.598022	2793.255455
594.949633	2790.261010
595.301190	2788.390742
595.652692	2788.541976
596.004141	2792.537091
596.355535	2785.577778
596.706876	2782.076697
597.058162	2782.190122
597.409395	2784.352777
597.760573	2783.881430
598.111698	2779.805657
598.462768	2779.122580
598.813785	2778.870523
599.164748	2777.428753
599.515657	2779.157868
599.866511	2774.373813
600.217312	2779.208280
600.568060	2771.384409
600.918753	2774.593104
601.269392	2773.398350
601.619978	2772.818617
601.970510	2770.928185
602.320988	2772.125459
602.671412	2774.673762
603.021783	2769.665376
603.372100	2768.354676
603.722363	2768.901641
604.072572	2769.982968
604.422728	2770.605551
604.772830	2763.295878
605.122878	2762.043151
605.472872	2762.113727
605.822813	2760.399735
606.172701	2764.339397
606.522534	2763.983995
606.872314	2767.384254
607.222041	2763.116917
607.571714	2765.496342
607.921333	2761.150867
608.270899	2761.241608
608.620411	2764.747730
608.969870	2763.124479
609.319276	2761.017276
609.668627	2761.851587
610.017926	2761.496186
610.367171	2762.254880
610.716362	2763.109355
611.065500	2760.646752
611.414585	2761.226484
611.763616	2764.770415
612.112594	2761.712956
612.461518	2762.814448
612.810389	2760.379570
613.159207	2764.067174
613.507971	2760.790424
613.856682	2763.250507
614.205340	2761.549118
614.553945	2764.662031
614.902496	2757.680032
615.250994	2762.733789
615.599439	2762.423758
615.947830	2762.411155
616.296169	2761.158429
616.644454	2764.611619
616.992686	2763.810076
617.340864	2761.102976
617.688990	2760.641710
618.037063	2760.654313
618.385082	2761.360075
618.733048	2765.065323
619.080961	2760.797986
619.428821	2761.556680
619.776628	2760.185486
620.124382	2759.038623
620.472083	2760.757657
620.819731	2759.235228
621.167326	2754.579723
621.514868	2755.461925
621.862357	2753.158117
622.209793	2750.292222
622.557176	2748.452200
622.904506	2742.357445
623.251783	2740.477095
623.599007	2739.355438
623.946179	2733.860581
624.293297	2737.669172
624.640363	2734.042062
624.987376	2732.149109
625.334336	2729.873028
625.681243	2727.672564
626.028097	2727.813717
626.374899	2728.501834
626.721647	2725.552759
627.068343	2723.886658
627.414987	2726.800445
627.761577	2721.986143
628.108115	2724.862121
628.454600	2719.009341
628.801032	2719.901626
629.147412	2719.357181
629.493739	2717.809547
629.840014	2713.660677
630.186236	2715.233517
630.532405	2712.274360
630.878521	2714.313507
631.224585	2711.598845
631.570597	2710.449462
631.916556	2711.273691
632.262462	2709.342929
632.608316	2707.994420
632.954117	2708.831252
633.299866	2708.785881
633.645562	2706.419060
633.991206	2704.533668
634.336797	2701.713142
634.682336	2702.789429
635.027823	2702.086188
635.373257	2697.312215
635.718639	2693.632173
636.063968	2692.361802
636.409245	2689.367357
636.754470	2689.672347
637.099642	2688.502799
637.444762	2689.511030
637.789829	2684.863086
638.134845	2685.069773
638.479808	2685.808302
638.824719	2684.626152
639.169577	2682.140863
639.514383	2681.641788
639.859137	2677.641633
640.203839	2678.843948
640.548489	2675.610048
640.893086	2672.418998
641.237632	2670.548729
641.582125	2671.995541
641.926566	2668.615447
642.270955	2673.349090
642.615292	2671.264573
642.959576	2672.119049
643.303809	2672.716426
643.647990	2675.668021
643.992118	2670.662155
644.336195	2671.325067
644.680219	2670.760458
645.024192	2671.284738
645.368112	2669.825324
645.711981	2671.831703
646.055797	2673.628874
646.399562	2674.004440
646.743274	2678.455779
647.086935	2679.970646
647.430544	2677.107271
647.774101	2679.080882
648.117606	2678.317147
648.461059	2679.942920
648.804460	2676.688855
649.147810	2674.115346
649.491108	2670.780622
649.834354	2670.543688
650.177548	2665.898265
650.520690	2665.046310
650.863781	2663.657472
651.206820	2665.704181
651.549807	2660.836947
651.892742	2660.468942
652.235626	2657.290495
652.578458	2656.882161
652.921238	2653.907881
653.263967	2656.171359
653.606644	2653.214722
653.949269	2653.093734
654.291843	2650.618528
654.634365	2654.918632
654.976836	2650.464772
655.319255	2650.200112
655.661622	2650.794968
656.003938	2649.068373
656.346203	2647.369504
656.688416	2649.602735
657.030577	2646.764566
657.372687	2647.523259
657.714746	2646.015954
658.056753	2646.789771
658.398708	2639.885911
658.740612	2641.617547
659.082465	2640.657208
659.424266	2640.931951
659.766016	2638.353400
660.107715	2645.927734
660.449362	2644.939668
660.790958	2643.717188
661.132503	2641.945222
661.473996	2643.180305
661.815438	2641.259626
662.156829	2644.256592
662.498168	2642.348515
662.839456	2641.257105
663.180693	2642.724081
663.521879	2642.366159
663.863013	2641.007568
664.204097	2640.442959
664.545129	2643.727270
664.886110	2645.458907
665.227040	2643.971766
665.567918	2644.155768
665.908746	2643.465130
666.249522	2643.276087
666.590248	2644.440594
666.930922	2644.425470
667.271545	2640.271559
667.612118	2644.904380
667.952639	2640.687455
668.293109	2642.492188
668.633528	2642.955974
668.973896	2640.979842
669.314213	2642.777013
669.654480	2639.651497
669.994695	2637.093112
670.334859	2638.623102
670.674973	2635.812659
671.015035	2636.062196
671.355047	2638.602938
671.695008	2637.251908
672.034918	2635.742083
672.374777	2636.508338
672.714585	2635.177473
673.054342	2636.155457
673.394049	2637.221661
673.733705	2636.886425
674.073310	2635.951291
674.412864	2636.379789
674.752368	2633.256794
675.091820	2634.869963
675.431223	2635.190076
675.770574	2633.385343
676.109875	2628.354272
676.449125	2628.175311
676.788324	2624.674229
677.127473	2627.759416
677.466571	2622.967799
677.805619	2624.414610
678.144616	2625.697584
678.483562	2625.455608
678.822458	2625.281688
679.161303	2623.323200
679.500098	2624.538118
679.838842	2623.686163
680.177535	2623.600464
680.516179	2622.690535
680.854771	2624.371760
681.193314	2627.409055
681.531805	2630.446351
681.870247	2633.871815
682.208638	2637.077988
682.546978	2635.714356
682.885268	2635.278297
683.223508	2635.391722
683.561697	2634.766619
683.899836	2631.837709
684.237925	2631.875518
684.575963	2631.890641
684.913951	2630.615229
685.251889	2630.199334
685.589776	2629.425517
685.927614	2628.853346
686.265401	2631.089098
686.603137	2627.535084
686.940824	2632.188069
687.278460	2634.045734
687.616046	2632.379633
687.953582	2636.369706
688.291068	2634.038173
688.628504	2636.717546
688.965889	2639.263329
689.303224	2634.922895
689.640510	2630.509365
689.977745	2631.507513
690.314930	2625.725310
690.652065	2626.862090
690.989150	2623.542490
691.326185	2618.009824
691.663170	2617.898919
692.000105	2617.667026
692.336990	2613.487909
692.673825	2611.955398
693.010610	2610.773248
693.347345	2603.340066
693.684030	2601.106835
694.020665	2598.089705
694.357251	2594.094590
694.693786	2598.157760
695.030272	2598.603902
695.366707	2597.204982
695.703093	2597.159612
696.039429	2593.923191
696.375716	2596.799169
696.711952	2594.356730
697.048139	2594.321442
697.384276	2595.773294
697.720363	2592.753643
698.056400	2593.252717
698.392388	2595.206165
698.728326	2593.076277
699.064214	2590.477562
699.400053	2592.713314
699.735842	2590.583427
700.071581	2592.131061
700.407270	2587.969588
700.742910	2587.694845
701.078501	2587.422623
701.414042	2585.416244
701.749533	2582.830132
702.084974	2584.755853
702.420366	2587.387335
702.755709	2581.055646
703.091002	2580.082703
703.426246	2582.015986
703.761440	2579.288721
704.096584	2580.238979
704.431679	2579.724781
704.766725	2580.987590
705.101721	2579.896180
705.436668	2577.814184
705.771565	2578.749318
706.106413	2579.034143
706.441212	2579.505491
706.775961	2579.550861
707.110661	2579.576067
707.445311	2581.206880
707.779913	2577.909966
708.114465	2582.789803
708.448967	2580.672518
708.783421	2586.527818
709.117825	2584.226532
709.452180	2587.780545
709.786485	2587.639393
710.120742	2589.560072
710.454949	2590.875813
710.789107	2590.298601
711.123216	2591.216091
711.457275	2592.791452
711.791286	2598.717328
712.125247	2597.419231
712.459159	2597.686412
712.793023	2601.190014
713.126837	2596.380753
713.460602	2596.441247
713.794318	2595.329673
714.127985	2594.742378
714.461602	2589.436564
714.795171	2590.510330
715.128691	2588.871955
715.462162	2586.905905
715.795584	2582.457087
716.128957	2583.699731
716.462281	2582.169741
716.795556	2578.076324
717.128782	2577.781416
717.461960	2576.533731
717.795088	2577.370562
718.128167	2576.571539
718.461198	2570.144068
718.794180	2574.865109
719.127113	2571.190108
719.459997	2569.725653
719.792833	2569.138358
720.125619	2569.503842
720.458357	2565.483522
720.791046	2567.545353
721.123686	2567.562998
721.456278	2566.426217
721.788821	2566.348079
722.121315	2567.081567
722.453761	2567.421845
722.786158	2567.328584
723.118506	2566.464026
723.450805	2564.641649
723.783056	2565.859087
724.115259	2563.860270
724.447412	2563.371278
724.779518	2566.713563
725.111574	2562.715928
725.443582	2569.345045
725.775542	2566.423697
726.107453	2569.158523
726.439315	2568.500652
726.771129	2576.014492
727.102895	2572.495767
727.434612	2573.687999
727.766281	2571.485015
728.097901	2573.085582
728.429473	2570.585169
728.760996	2572.601631
729.092471	2569.776064
729.423897	2576.979873
729.755276	2572.886456
730.086606	2574.565160
730.417887	2575.195304
730.749120	2578.214956
731.080305	2580.483475
731.411442	2581.451376
731.742530	2579.664287
732.073570	2582.580595
732.404562	2582.522622
732.735506	2582.018506
733.066401	2578.678742
733.397249	2579.291242
733.728048	2578.330902
734.058798	2572.135324
734.389501	2571.583318
734.720156	2565.780950
735.050762	2566.937894
735.381320	2566.224571
735.711831	2564.573593
736.042293	2564.104766
736.372707	2564.482852
736.703073	2562.163922
737.033391	2563.535116
737.363661	2563.396484
737.693883	2566.627863
738.024056	2566.804304
738.354182	2567.711712
738.684260	2566.204407
739.014290	2566.610219
739.344272	2565.871690
739.674207	2570.703636
740.004093	2569.743297
740.333931	2568.009140
740.663722	2572.667166
740.993464	2565.859087
741.323159	2570.746486
741.652806	2568.916547
741.982405	2567.532751
742.311956	2564.586196
742.641460	2566.920250
742.970915	2563.656103
743.300323	2563.840105
743.629683	2563.177194
743.958996	2561.435475
744.288260	2561.869014
744.617477	2555.035730
744.946647	2556.588406
745.275768	2553.987170
745.604842	2553.893909
745.933869	2554.826522
746.262847	2549.011551
746.591778	2555.738971
746.920662	2553.901471
747.249498	2555.025648
747.578286	2556.434650
747.907027	2557.929353
748.235720	2557.672254
748.564365	2557.140412
748.892963	2557.387428
749.221514	2558.234342
749.550017	2555.507078
749.878473	2555.658313
750.206881	2557.518498
750.535242	2555.512119
750.863555	2556.255689
751.191821	2557.102603
751.520039	2553.152859
751.848210	2554.725699
752.176334	2554.198899
752.504411	2554.980278
752.832440	2554.723179
753.160421	2555.060936
753.488356	2552.588250
753.816243	2554.942469
754.144082	2553.236038
754.471875	2552.976419
754.799620	2550.717982
755.127318	2550.309648
755.454969	2548.550286
755.782572	2551.695966
756.110129	2551.496840
756.437638	2550.569268
756.765100	2551.312838
757.092515	2550.294525
757.419882	2549.049360
757.747203	2551.322920
758.074477	2553.528425
758.401703	2551.300235
758.728882	2553.041954
759.056014	2553.014228
759.383099	2555.164280
759.710138	2555.459187
760.037129	2556.926163
760.364073	2556.046482
760.690970	2556.003632
761.017820	2556.573282
761.344623	2558.098231
761.671379	2559.287943
761.998088	2555.305432
762.324751	2565.808676
762.651366	2577.794019
762.977935	2596.269848
763.304456	2606.707557
763.630931	2613.548403
763.957359	2605.268308
764.283740	2598.319077
764.610074	2590.051585
764.936362	2580.702765
765.262602	2573.259501
765.588796	2569.226578
765.914943	2558.420865
766.241044	2557.795762
766.567097	2553.422561
766.893104	2549.641696
767.219064	2549.024154
767.544978	2548.212528
767.870845	2544.683721
768.196665	2545.828063
768.522438	2543.781354
768.848165	2544.257743
769.173846	2543.602393
769.499479	2542.039636
769.825066	2539.718184
770.150607	2542.072403
770.476101	2539.486291
770.801548	2538.188194
771.126949	2538.029398
771.452303	2540.338246
771.777611	2537.137113
772.102872	2537.525282
772.428087	2532.635363
772.753256	2537.500077
773.078378	2534.243491
773.403453	2532.874818
773.728482	2537.686599
774.053465	2534.644263
774.378401	2534.223327
774.703291	2533.666279
775.028135	2531.130579
775.352932	2530.749972
775.677683	2531.909437
776.002388	2531.806093
776.327046	2533.207534
776.651658	2532.138809
776.976224	2530.071936
777.300743	2532.380785
777.625216	2531.644776
777.949643	2530.071936
778.274024	2529.449354
778.598359	2527.362316
778.922647	2528.771319
779.246889	2531.269210
779.571086	2524.151101
779.895236	2529.716535
780.219339	2528.189065
780.543397	2529.633356
780.867409	2530.215609
781.191374	2531.291896
781.515294	2529.109076
781.839167	2529.638397
782.162995	2529.459436
782.486776	2529.580424
782.810511	2531.054961
783.134201	2530.346679
783.457844	2528.544467
783.781441	2528.413397
784.104993	2527.498427
784.428498	2530.946577
784.751958	2527.266534
785.075372	2528.864580
785.398739	2526.633869
785.722061	2527.410207
786.045337	2528.350382
786.368568	2531.183511
786.691752	2530.134951
787.014891	2532.164015
787.337983	2531.803573
787.661030	2534.629139
787.984031	2539.481250
788.306987	2536.257432
788.629897	2540.267670
788.952760	2538.778009
789.275579	2540.557536
789.598351	2541.505273
789.921078	2532.605116
790.243759	2535.392874
790.566395	2532.305167
790.888984	2530.008922
791.211529	2530.482790
791.534027	2528.569672
791.856480	2531.417924
792.178888	2528.582275
792.501249	2528.428520
792.823566	2529.013294
793.145836	2526.137316
793.468062	2526.467511
793.790241	2525.731503
794.112375	2527.803417
794.434464	2526.313756
794.756507	2526.729651
795.078505	2528.720907
795.400457	2529.880373
795.722364	2527.637059
796.044226	2533.878007
796.366042	2530.664272
796.687812	2532.164015
797.009538	2533.525127
797.331218	2536.554860
797.652852	2534.485467
797.974442	2531.722914
798.295986	2530.790301
798.617484	2532.448840
798.938938	2533.893131
799.260346	2529.716535
799.581709	2530.160157
799.903026	2529.232584
800.224299	2528.214271
800.545526	2527.750485
800.866708	2526.787625
801.187845	2526.633869
801.508936	2528.025228
801.829983	2529.787111
802.150984	2527.765608
802.471940	2529.895496
802.792851	2527.342152
803.113717	2528.405835
803.434538	2526.401976
803.755314	2527.846267
804.076045	2525.547501
804.396731	2525.050947
804.717372	2526.654034
805.037967	2528.171421
805.358518	2525.040865
805.679024	2527.281658
805.999485	2524.365350
806.319901	2528.567152
806.640272	2527.498427
806.960598	2526.704446
807.280879	2526.223015
807.601115	2529.172090
807.921306	2525.849970
808.241453	2529.184693
808.561554	2525.509692
808.881611	2528.330218
809.201623	2528.428520
809.521590	2527.211082
809.841513	2527.170752
810.161390	2525.618077
810.481223	2524.584640
810.801011	2527.644621
811.120755	2524.231760
811.440453	2527.816020
811.760107	2526.775022
812.079716	2524.274609
812.399281	2522.401821
812.718801	2522.999197
813.038276	2520.632376
813.357707	2525.141688
813.677093	2527.745444
813.996434	2522.341327
814.315731	2523.566327
814.634983	2526.817872
814.954191	2525.539939
815.273354	2526.432223
815.592473	2526.603623
815.911547	2528.385670
816.230577	2527.800897
816.549562	2528.171421
816.868502	2526.601102
817.187399	2528.771319
817.506250	2531.284334
817.825058	2530.553367
818.143821	2532.408511
818.462539	2533.875487
818.781213	2534.729962
819.099843	2537.633667
819.418429	2542.752959
819.736970	2549.175389
820.055466	2554.319886
820.373919	2562.768860
820.692327	2574.045921
821.010691	2594.102152
821.329011	2646.789771
821.647286	2716.219063
821.965517	2792.811834
822.283704	2837.365551
822.601847	2848.330061
822.919945	2815.895277
823.237999	2777.088475
823.556010	2741.329050
823.873976	2702.134079
824.191897	2674.601817
824.509775	2651.079793
824.827609	2627.525002
825.145398	2615.191819
825.463144	2611.252157
825.780845	2610.891715
826.098502	2621.911677
826.416116	2639.220479
826.733685	2657.295536
827.051210	2658.507933
827.368692	2650.928559
827.686129	2633.128244
828.003522	2610.629575
828.320872	2589.025710
828.638177	2578.416602
828.955439	2567.719273
829.272656	2559.323232
829.589830	2550.251675
829.906960	2546.291849
830.224046	2539.501415
830.541088	2540.461754
830.858086	2536.842206
831.175041	2536.693492
831.491952	2534.160312
831.808819	2533.205013
832.125642	2537.106867
832.442421	2539.992927
832.759157	2551.219577
833.075849	2565.715415
833.392497	2582.290728
833.709101	2591.964703
834.025662	2591.039651
834.342179	2580.105388
834.658653	2571.774882
834.975083	2563.686350
835.291469	2557.349620
835.607811	2546.221273
835.924110	2543.080634
836.240366	2539.082999
836.556578	2534.394726
836.872746	2529.714014
837.188871	2529.242667
837.504952	2525.219826
837.820990	2523.115144
838.136984	2522.406862
838.452935	2526.409538
838.768842	2521.532222
839.084706	2523.374763
839.400526	2535.715508
839.716303	2540.688606
840.032037	2546.180943
840.347727	2545.069369
840.663373	2539.206507
840.978977	2533.091588
841.294537	2529.976154
841.610054	2528.103366
841.925527	2526.928777
842.240957	2523.399969
842.556344	2520.148425
842.871687	2520.206398
843.186987	2518.694052
843.502244	2515.288753
843.817458	2515.629031
844.132629	2513.216838
844.447756	2513.242044
844.762840	2510.907990
845.077881	2512.248937
845.392879	2510.676097
845.707833	2508.271467
846.022745	2508.624347
846.337613	2513.095851
846.652438	2513.398320
846.967221	2511.502846
847.281960	2512.901766
847.596656	2513.700789
847.911309	2512.337157
848.225919	2510.711385
848.540485	2512.251458
848.855009	2511.787671
849.169490	2511.293638
849.483928	2509.103257
849.798323	2509.498988
850.112675	2512.518639
850.426984	2511.180212
850.741251	2513.665501
851.055474	2508.475633
851.369654	2511.155007
851.683792	2512.316992
851.997887	2513.413443
852.311938	2511.134842
852.625947	2512.763135
852.939914	2512.596777
853.253837	2512.581653
853.567718	2511.563340
853.881555	2509.572084
854.195350	2511.913700
854.509103	2512.006962
854.822812	2510.537465
855.136479	2510.512259
855.450103	2507.437156
855.763685	2510.328257
856.077224	2511.495284
856.390720	2511.883453
856.704173	2511.795233
857.017584	2514.547703
857.330953	2512.037208
857.644278	2513.622651
857.957561	2510.061076
858.270802	2510.655932
858.584000	2511.293638
858.897155	2513.078207
859.210268	2511.119718
859.523339	2511.207939
859.836367	2507.530417
860.149352	2512.284225
860.462295	2511.936385
860.775195	2509.143586
861.088054	2502.945488
861.400869	2512.627023
861.713642	2505.894563
862.026373	2512.163237
862.339062	2506.867505
862.651708	2510.799605
862.964312	2512.359842
863.276873	2513.262209
863.589392	2509.536796
863.901869	2511.696931
864.214303	2511.485202
864.526696	2513.032836
864.839045	2514.235152
865.151353	2513.166427
865.463619	2511.966632
865.775842	2514.676252
866.088023	2512.566530
866.400162	2516.251613
866.712258	2514.479647
867.024313	2513.756242
867.336325	2512.589215
867.648296	2511.321365
867.960224	2515.462672
868.272110	2513.201715
868.583954	2513.930162
868.895755	2513.617610
869.207515	2512.190964
869.519233	2514.265398
869.830909	2514.991325
870.142542	2511.994359
870.454134	2513.138701
870.765684	2515.422343
871.077191	2513.189112
871.388657	2514.489730
871.700081	2517.675739
872.011463	2514.353619
872.322803	2511.898577
872.634101	2513.728516
872.945357	2517.617766
873.256571	2518.994001
873.567744	2518.787313
873.878874	2516.821263
874.189963	2518.189937
874.501010	2517.388393
874.812015	2517.075842
875.122979	2519.540966
875.433900	2517.166582
875.744780	2518.212622
876.055618	2519.525843
876.366415	2518.663805
876.677169	2519.682118
876.987882	2518.651202
877.298554	2514.333454
877.609183	2519.167921
877.919771	2517.617766
878.230317	2518.913342
878.540822	2526.001205
878.851285	2525.325690
879.161707	2526.848118
879.472087	2537.868081
879.782425	2542.815973
880.092722	2561.448078
880.402977	2587.087386
880.713191	2617.982098
881.023363	2647.480409
881.333494	2666.777946
881.643583	2671.410767
881.953631	2667.082936
882.263637	2655.856287
882.573602	2647.596356
882.883526	2634.406177
883.193408	2621.672222
883.503248	2610.851386
883.813048	2597.875456
884.122806	2589.832295
884.432522	2581.690831
884.742197	2566.592575
885.051831	2558.257027
885.361424	2552.807540
885.670975	2547.673125
885.980485	2541.724563
886.289954	2539.224151
886.599382	2532.491690
886.908768	2535.828934
887.218113	2529.008253
887.527417	2526.623787
887.836680	2522.855525
888.145901	2524.428365
888.455082	2521.602798
888.764221	2519.626666
889.073319	2518.089114
889.382376	2519.805627
889.691392	2518.641120
890.000366	2520.420647
890.309300	2517.552231
890.618193	2522.490041
890.927044	2517.038033
891.235855	2520.367715
891.544625	2520.539114
891.853353	2521.083559
892.162041	2521.512057
892.470687	2523.243693
892.779293	2525.681091
893.087858	2521.960720
893.396381	2530.419776
893.704864	2536.988399
894.013306	2542.644574
894.321707	2555.209650
894.630068	2560.076884
894.938387	2564.361865
895.246665	2557.669733
895.554903	2554.748384
895.863100	2549.072045
896.171256	2547.947868
896.479371	2543.703216
896.787446	2542.100129
897.095480	2537.222813
897.403473	2533.479756
897.711425	2532.877338
898.019336	2529.255269
898.327207	2526.308715
898.635038	2525.514733
898.942827	2523.929290
899.250576	2521.743950
899.558284	2519.639268
899.865952	2522.059022
900.173579	2517.257323
900.481165	2519.442663
900.788711	2517.159021
901.096216	2515.760101
901.403681	2515.142559
901.711105	2514.905625
902.018489	2513.605007
902.325832	2517.733712
902.633135	2518.222704
902.940397	2521.199506
903.247619	2529.288037
903.554800	2543.085675
903.861941	2553.170503
904.169041	2568.125086
904.476101	2572.931826
904.783121	2568.515776
905.090100	2560.117213
905.397039	2555.489434
905.703938	2550.891902
906.010796	2542.493339
906.317614	2537.482432
906.624391	2535.498738
906.931129	2531.773326
907.237826	2526.969106
907.544483	2527.911802
907.851099	2519.538445
908.157675	2519.412417
908.464211	2516.785975
908.770707	2512.100223
909.077163	2511.402023
909.383578	2509.395644
909.689954	2508.894049
909.996289	2506.804491
910.302584	2513.347908
910.608839	2509.274656
910.915054	2510.953360
911.221229	2508.889008
911.527363	2510.020747
911.833458	2509.786333
912.139513	2513.927641
912.445527	2511.220542
912.751502	2509.975377
913.057436	2515.601304
913.363331	2514.111643
913.669186	2516.470903
913.975000	2519.253620
914.280775	2523.672192
914.586510	2528.073119
914.892205	2531.420445
915.197859	2545.505429
915.503475	2552.580688
915.809050	2564.182904
916.114585	2568.230950
916.420081	2570.393605
916.725536	2567.928481
917.030952	2565.700291
917.336328	2557.858776
917.641665	2556.001111
917.946961	2555.333158
918.252218	2546.377548
918.557435	2545.427291
918.862612	2542.417722
919.167750	2540.938143
919.472848	2537.583256
919.777906	2533.063861
920.082925	2528.705784
920.387904	2524.471214
920.692843	2522.157325
920.997743	2521.280164
921.302603	2520.095493
921.607423	2517.862262
921.912204	2517.053157
922.216946	2515.457631
922.521647	2514.058711
922.826310	2510.963443
923.130932	2514.247754
923.435516	2510.348422
923.740059	2510.787002
924.044564	2511.490243
924.349028	2510.015706
924.653454	2505.551764
924.957840	2503.918430
925.262186	2506.312978
925.566493	2507.565705
925.870761	2505.695437
926.174989	2505.856754
926.479178	2504.760303
926.783328	2506.716271
927.087438	2505.055210
927.391509	2504.674603
927.695541	2503.936074
927.999533	2505.231651
928.303486	2505.065293
928.607400	2506.998575
928.911275	2505.095540
929.215110	2503.822648
929.518906	2505.614778
929.822663	2504.162926
930.126381	2506.391116
930.430060	2504.843482
930.733699	2504.646877
931.037299	2504.188132
931.340861	2506.373472
931.644383	2505.261898
931.947866	2502.829541
932.251309	2504.664521
932.554714	2505.874398
932.858080	2508.561333
933.161407	2504.674603
933.464694	2505.566888
933.767943	2504.878770
934.071153	2506.189470
934.374323	2503.842813
934.677455	2505.110663
934.980548	2503.832731
935.283602	2505.274501
935.586617	2505.206445
935.889593	2505.153513
936.192530	2503.147134
936.495428	2502.489263
936.798287	2504.220899
937.101108	2503.497494
937.403890	2505.695437
937.706632	2507.434635
938.009336	2508.984790
938.312002	2508.825993
938.614628	2508.354646
938.917216	2508.432783
939.219765	2510.900428
939.522275	2508.992352
939.824747	2509.874553
940.127179	2506.174347
940.429573	2503.626043
940.731929	2505.692916
941.034246	2502.978255
941.336524	2505.876918
941.638763	2509.514111
941.940964	2506.370952
942.243126	2507.711898
942.545250	2509.027640
942.847335	2507.273318
943.149381	2507.374141
943.451389	2508.689882
943.753359	2505.098060
944.055290	2505.942453
944.357182	2507.175016
944.659036	2505.309789
944.960851	2504.485560
945.262628	2502.864829
945.564367	2501.962462
945.866067	2504.039418
946.167729	2506.141579
946.469352	2505.110663
946.770937	2507.895901
947.072484	2506.106291
947.373992	2505.123266
947.675462	2503.820128
947.976893	2506.091168
948.278286	2503.184942
948.579641	2506.002947
948.880958	2506.668380
949.182236	2504.457834
949.483476	2503.361383
949.784678	2503.860457
950.085841	2503.200066
950.386967	2508.299193
950.688054	2504.556136
950.989103	2507.532938
951.290114	2505.297186
951.591087	2505.392968
951.892021	2505.917248
952.192917	2507.187618
952.493776	2504.437669
952.794596	2507.147289
953.095378	2504.457834
953.396122	2506.345746
953.696828	2506.602845
953.997496	2506.837258
954.298126	2503.928513
954.598718	2509.481343
954.899272	2503.096722
955.199788	2506.103770
955.500266	2503.036228
955.800706	2504.104953
956.101108	2500.674448
956.401472	2502.736280
956.701798	2498.242091
957.002087	2498.584889
957.302337	2504.021774
957.602550	2501.841475
957.902724	2501.861639
958.202861	2501.082781
958.502960	2502.663183
958.803022	2502.317864
959.103045	2501.034890
959.403031	2500.044303
959.702979	2502.819459
960.002889	2502.990858
960.302762	2501.455827
960.602596	2501.859119
960.902393	2499.053717
961.202153	2500.498007
961.501875	2500.472802
961.801559	2498.347955
962.101205	2499.835096
962.400814	2501.123110
962.700385	2497.337204
962.999918	2498.635301
963.299414	2499.701505
963.598873	2502.824500
963.898293	2501.571773
964.197677	2503.124448
964.497022	2501.748213
964.796331	2498.955414
965.095601	2500.593789
965.394835	2501.231495
965.694030	2498.983141
965.993189	2502.088491
966.292309	2496.628922
966.591393	2499.646052
966.890439	2496.812924
967.189447	2499.880466
967.488419	2498.809221
967.787353	2502.000271
968.086249	2499.242760
968.385108	2501.697802
968.683930	2502.436331
968.982714	2499.116731
969.281462	2501.009684
969.580172	2499.484735
969.878844	2498.844509
970.177480	2499.542709
970.476078	2499.341062
970.774639	2500.558501
971.073162	2498.922647
971.371649	2497.498521
971.670098	2495.613129
971.968510	2498.544560
972.266885	2497.062461
972.565223	2500.369458
972.863524	2501.153357
973.161788	2500.808038
973.460014	2500.944149
973.758204	2499.888028
974.056356	2499.872904
974.354471	2501.097905
974.652550	2498.040445
974.950591	2499.560353
975.248595	2501.977586
975.546563	2500.891217
975.844493	2498.942811
976.142386	2498.489108
976.440243	2496.984323
976.738062	2501.173522
977.035845	2497.793428
977.333590	2500.775271
977.631299	2502.564880
977.928971	2501.775940
978.226606	2499.202431
978.524204	2499.958604
978.821765	2500.994561
979.119290	2500.767709
979.416777	2501.523882
979.714228	2498.184118
980.011642	2498.652945
980.309020	2504.041938
980.606360	2499.028511
980.903664	2499.512462
981.200931	2501.377689
981.498162	2499.787205
981.795356	2504.321723
982.092513	2504.588904
982.389633	2503.953718
982.686717	2504.137720
982.983764	2506.471775
983.280775	2504.694768
983.577749	2507.842968
983.874686	2506.214676
984.171587	2506.653256
984.468451	2509.073010
984.765279	2505.584532
985.062070	2503.240395
985.358824	2504.566218
985.655543	2504.609068
985.952224	2501.972545
986.248869	2503.550426
986.545478	2498.247132
986.842050	2497.995074
987.138586	2496.548263
987.435086	2495.701349
987.731549	2497.571617
988.027975	2499.250322
988.324366	2499.358707
988.620719	2502.554798
988.917037	2498.721001
989.213318	2499.300733
989.509563	2499.179746
989.805772	2499.525065
990.101944	2500.785353
990.398080	2498.179077
990.694180	2499.562873
990.990244	2496.999447
991.286271	2497.518685
991.582262	2499.721670
991.878217	2497.634632
992.174136	2499.391474
992.470019	2497.823675
992.765865	2496.981802
993.061676	2502.191835
993.357450	2498.854591
993.653188	2499.419200
993.948890	2502.963132
994.244556	2498.249653
994.540186	2502.327946
994.835780	2498.105980
995.131337	2501.473471
995.426859	2501.400374
995.722345	2501.307112
996.017795	2500.838285
996.313208	2502.481701
996.608586	2502.869870
996.903928	2504.059582
997.199234	2503.384068
997.494504	2501.420538
997.789738	2501.244098
998.084936	2502.194356
998.380099	2503.285765
998.675225	2503.016064
998.970316	2503.893224
999.265371	2498.514313
999.560390	2498.998264
999.855373	2499.008346
1000.150320	2496.593634
1000.445232	2500.019098
1000.740108	2500.498007
1001.034948	2499.278048
1001.329752	2500.858450
1001.624521	2500.621516
1001.919254	2492.195227
1002.213951	2493.576503
1002.508613	2493.934425
1002.803239	2495.822337
1003.097829	2492.860659
1003.392384	2500.044303
1003.686903	2497.216216
1003.981386	2501.140754
1004.275834	2496.175218
1004.570246	2498.819303
1004.864623	2498.859632
1005.158964	2497.909375
1005.453270	2499.393995
1005.747540	2499.240239
1006.041775	2499.983810
1006.335974	2496.757471
1006.630138	2496.616319
1006.924266	2497.012049
1007.218359	2496.820486
1007.512416	2496.956597
1007.806438	2499.063799
1008.100425	2497.455671
1008.394376	2498.219406
1008.688292	2496.880979
1008.982172	2493.165649
1009.276017	2496.941473
1009.569827	2496.747389
1009.863602	2496.334014
1010.157341	2497.213696
1010.451045	2494.123468
1010.744714	2498.786536
1011.038347	2498.889879
1011.331945	2494.768736
1011.625508	2497.493480
1011.919036	2496.863335
1012.212528	2497.843840
1012.505986	2496.245794
1012.799408	2494.892244
1013.092795	2494.526761
1013.386147	2496.830568
1013.679464	2497.430465
1013.972745	2495.948366
1014.265992	2495.718993
1014.559204	2497.488438
1014.852380	2494.582213
1015.145521	2499.066320
1015.438628	2495.991216
1015.731699	2496.497852
1016.024736	2497.148161
1016.317737	2497.521206
1016.610703	2497.543891
1016.903635	2491.698673
1017.196531	2494.052892
1017.489393	2495.766884
1017.782219	2493.909219
1018.075011	2497.541371
1018.367768	2500.805518
1018.660490	2498.088336
1018.953177	2498.088336
1019.245829	2498.088336
