Dividing Wavelength (nm)	Counts (n)	Blue Motor Position (mm): 0.000000	Red Motor Position (mm): 27.700000	
326.493990	2128.438168
326.888308	2128.438168
327.282561	2128.438168
327.676750	2094.007088
328.070874	2094.430544
328.464933	2094.584300
328.858929	2103.371031
329.252859	2112.188009
329.646726	2123.880965
330.040528	2138.795219
330.434265	2153.152425
330.827938	2172.618841
331.221547	2187.941428
331.615091	2207.531352
332.008571	2227.035576
332.401986	2245.080386
332.795338	2266.522934
333.188625	2285.505399
333.581847	2305.496094
333.975006	2323.286326
334.368100	2340.408605
334.761129	2356.686491
335.154095	2375.305993
335.546996	2392.745864
335.939833	2409.477454
336.332606	2426.060330
336.725315	2437.266815
337.117960	2444.400047
337.510540	2456.299691
337.903056	2468.801753
338.295508	2473.797536
338.687896	2483.337920
339.080220	2491.287819
339.472480	2496.843171
339.864676	2502.842144
340.256807	2504.016733
340.648875	2505.803822
341.040879	2510.749194
341.432818	2513.201715
341.824694	2515.855882
342.216506	2513.753721
342.608253	2516.291942
342.999937	2515.082065
343.391557	2516.002076
343.783113	2516.125584
344.174605	2511.840603
344.566033	2510.867661
344.957397	2511.099554
345.348697	2508.732732
345.739934	2506.565036
346.131106	2506.554954
346.522215	2507.230468
346.913260	2503.338698
347.304241	2499.094046
347.695159	2498.695795
348.086012	2498.352996
348.476802	2494.620022
348.867528	2493.319404
349.258191	2491.996101
349.648789	2491.744044
350.039324	2487.204485
350.429796	2489.684732
350.820203	2487.451501
351.210548	2485.515698
351.600828	2484.434371
351.991045	2484.406644
352.381198	2484.199957
352.771288	2484.189875
353.161314	2485.245996
353.551276	2480.414050
353.941175	2483.980667
354.331010	2482.634679
354.720782	2482.609473
355.110490	2485.641727
355.500135	2482.622076
355.889717	2483.539566
356.279235	2483.675677
356.668689	2489.599033
357.058080	2485.654330
357.447408	2482.851448
357.836672	2482.037302
358.225873	2484.020996
358.615010	2483.075780
359.004084	2488.532829
359.393095	2486.667602
359.782043	2489.195740
360.170927	2488.931080
360.559748	2491.605412
360.948505	2490.975268
361.337199	2489.213384
361.725830	2493.543736
362.114398	2492.366626
362.502903	2492.636328
362.891344	2492.653972
363.279722	2494.617501
363.668037	2495.857625
364.056289	2496.709580
364.444478	2492.510299
364.832603	2497.004488
365.220665	2495.814775
365.608665	2496.255876
365.996601	2496.366782
366.384474	2502.101094
366.772284	2498.390805
367.160031	2501.352483
367.547715	2503.711743
367.935336	2508.095026
368.322893	2510.822290
368.710388	2513.020233
369.097820	2521.209588
369.485189	2521.847294
369.872495	2528.224353
370.259738	2535.773481
370.646918	2544.043494
371.034035	2548.590615
371.421090	2559.431616
371.808081	2572.049624
372.195010	2578.595563
372.581875	2594.205496
372.968678	2606.584049
373.355418	2616.648712
373.742096	2636.914151
374.128710	2650.361429
374.515262	2660.718479
374.901751	2681.107426
375.288177	2692.145032
375.674540	2713.804350
376.060841	2733.966445
376.447079	2750.226687
376.833254	2771.391971
377.219367	2786.333951
377.605417	2822.438695
377.991404	2831.490087
378.377329	2855.183510
378.763191	2870.906868
379.148991	2910.253074
379.534727	2932.776950
379.920402	2963.129737
380.306013	2975.104998
380.691563	3023.850435
381.077049	3045.870195
381.462474	3063.204203
381.847835	3104.108125
382.233134	3126.906743
382.618371	3126.049747
383.003545	3191.998122
383.388657	3203.091181
383.773706	3229.945407
384.158693	3250.785537
384.543618	3272.170112
384.928480	3309.051193
385.313280	3359.664378
385.698017	3357.065663
386.082692	3410.227151
386.467305	3415.782503
386.851856	3447.410702
387.236344	3467.736634
387.620770	3501.877848
388.005133	3528.621170
388.389435	3553.116136
388.773674	3563.987384
389.157851	3606.123869
389.541965	3623.576343
389.926018	3588.389090
390.310008	3658.428361
390.693936	3678.615661
391.077802	3719.073441
391.461606	3706.954508
391.845348	3768.557408
392.229027	3769.429527
392.612645	3786.463586
392.996200	3858.660471
393.379694	3898.873755
393.763125	3962.493117
394.146494	3932.137809
394.529801	3993.329855
394.913047	4042.360117
395.296230	4005.733614
395.679351	4061.914753
396.062410	4087.082713
396.445408	4066.408941
396.828343	4103.234570
397.211217	4125.803816
397.594028	4046.428328
397.976778	4110.335035
398.359466	4136.233963
398.742092	4167.549611
399.124656	4089.938527
399.507158	4173.054551
399.889598	4192.495761
400.271977	4256.243672
400.654294	4226.337027
401.036549	4234.428078
401.418742	4207.127710
401.800874	4307.678564
402.182944	4331.336699
402.564952	4395.782810
402.946898	4383.671438
403.328783	4377.163308
403.710606	4287.612252
404.092367	4484.025688
404.474067	4444.616468
404.855705	4455.553251
405.237282	4381.284452
405.618797	4489.681862
406.000250	4523.611348
406.381642	4607.198720
406.762972	4568.333945
407.144240	4581.171243
407.525447	4577.680244
407.906593	4638.295078
408.287677	4681.313764
408.668700	4609.684009
409.049661	4657.590094
409.430560	4699.081311
409.811399	4631.454232
410.192176	4792.420795
410.572891	4728.786310
410.953545	4829.395138
411.334138	4715.180236
411.714669	4779.293630
412.095139	4675.239174
412.475547	4816.988858
412.855894	4797.819871
413.236180	4806.936797
413.616405	4761.271505
413.996568	4846.945915
414.376670	4790.928613
414.756711	4743.720728
415.136691	4774.481849
415.516609	4855.740208
415.896466	4893.445518
416.276262	4928.731074
416.655997	4904.059667
417.035670	5086.012554
417.415283	5175.956821
417.794834	5124.254747
418.174324	5076.520061
418.553753	4985.645701
418.933121	5171.243342
419.312428	5236.594340
419.691674	5175.445143
420.070859	5297.985511
420.449983	5214.078026
420.829045	5328.930634
421.208047	5237.814299
421.586988	5307.656965
421.965867	5319.433100
422.344686	5448.277431
422.723444	5304.450791
423.102141	5123.478409
423.480777	5424.117701
423.859352	5190.253533
424.237866	5446.797852
424.616319	5439.435247
424.994712	5548.989602
425.373044	5428.823618
425.751314	5572.191513
426.129524	5375.208426
426.507673	5568.579526
426.885762	5652.219830
427.263789	5582.780457
427.641756	5461.971725
428.019662	5583.763482
428.397508	5591.801601
428.775292	5535.864958
429.153016	5638.512933
429.530679	5566.522735
429.908282	5649.106918
430.285824	5517.174880
430.663305	5794.105626
431.040726	5527.489081
431.418086	5531.395975
431.795385	5634.298528
432.172624	5647.040045
432.549802	5637.708869
432.926920	5657.593700
433.303977	5662.871788
433.680974	5700.146080
434.057910	5717.084357
434.434786	5723.446293
434.811601	5693.973187
435.188355	5925.241161
435.565050	5800.172654
435.941683	5785.528103
436.318257	5998.158931
436.694770	5976.275282
437.071222	6016.319687
437.447614	5944.647083
437.823946	5855.680799
438.200218	6010.252659
438.576429	5874.489344
438.952580	5972.804447
439.328670	6019.460326
439.704700	5929.153096
440.080670	5911.738430
440.456580	6186.216654
440.832429	6070.597791
441.208218	5909.553090
441.583947	6068.467903
441.959616	6068.901442
442.335224	5996.220607
442.710773	6132.598942
443.086261	6161.406616
443.461689	5954.643691
443.837057	6103.289673
444.212365	6258.559733
444.587612	6150.346324
444.962800	6298.367204
445.337927	6281.093690
445.712995	5888.607096
446.088002	6467.870961
446.462949	6292.330422
446.837837	6222.981789
447.212664	6396.959570
447.587431	6534.507453
447.962139	7068.900008
448.336786	7986.611818
448.711374	7727.751089
449.085901	6804.463762
449.460369	6722.542491
449.834776	6648.810575
450.209124	7036.187960
450.583412	7173.103178
450.957640	7316.834036
451.331808	7079.872079
451.705917	6627.819211
452.079965	6550.394649
452.453954	6750.019300
452.827883	6620.164218
453.201752	6703.539862
453.575562	6500.663667
453.949311	6693.666762
454.323001	6578.559576
454.696632	6634.022350
455.070202	6757.545743
455.443713	6893.130096
455.817164	6980.294167
456.190556	7046.713889
456.563888	7101.241530
456.937160	7123.904037
457.310373	6790.729138
457.683526	6796.776002
458.056619	6679.914494
458.429653	6651.996584
458.802628	6571.701086
459.175542	6654.832233
459.548398	6966.509132
459.921194	7085.964313
460.293930	7060.652680
460.666607	7501.620051
461.039224	7758.101356
461.411782	7841.227462
461.784280	7829.763878
462.156719	7707.094961
462.529099	7571.389620
462.901419	7182.520053
463.273680	7058.500107
463.645882	7040.977056
464.018024	6889.785291
464.390106	6994.361507
464.762130	7276.676204
465.134094	7616.026517
465.505999	8392.104590
465.877845	9310.320516
466.249631	9793.888157
466.621358	9445.005023
466.993026	8891.146053
467.364634	8637.848237
467.736184	8297.925753
468.107674	7968.425856
468.479105	7916.388545
468.850477	7688.518309
469.221790	7459.884338
469.593043	7152.648696
469.964238	6980.909188
470.335373	6934.187774
470.706449	6913.186327
471.077467	6840.563465
471.448425	7657.295923
471.819324	8319.610277
472.190164	8269.443234
472.560945	7363.084102
472.931667	6766.433297
473.302330	6611.364884
473.672934	6324.538354
474.043479	6475.979657
474.413965	6375.101127
474.784393	6220.919957
475.154761	6253.130410
475.525070	6228.176698
475.895321	6070.169293
476.265513	6095.821204
476.635645	6121.387416
477.005719	6039.995466
477.375734	6029.456934
477.745691	6079.636580
478.115588	6067.263068
478.485427	6105.028872
478.855207	6280.750892
479.224928	6574.481282
479.594591	6777.957375
479.964194	6592.596669
480.333739	6470.068904
480.703226	6322.015257
481.072653	6272.846362
481.442022	6264.150372
481.811333	6254.315081
482.180584	6082.063895
482.549777	5868.321493
482.918912	5725.679524
483.287988	5641.661133
483.657005	5566.537859
484.025964	5369.378332
484.394864	5320.287576
484.763706	5223.056321
485.132489	5075.753806
485.501213	4982.205114
485.869879	4934.367084
486.238487	4801.608298
486.607036	4770.111168
486.975527	4632.268378
487.343959	4614.367241
487.712333	4553.487747
488.080648	4476.055623
488.448905	4405.489552
488.817104	4328.012058
489.185244	4322.118950
489.553326	4287.463538
489.921350	4339.135364
490.289315	4473.444306
490.657222	4475.211230
491.025070	4382.481726
491.392861	4294.117861
491.760593	4155.675173
492.128267	4032.774363
492.495883	3916.074172
492.863440	3807.752379
493.230939	3709.434755
493.598380	3654.052639
493.965763	3584.913214
494.333088	3536.603837
494.700354	3479.900938
495.067563	3451.458748
495.434713	3384.063563
495.801805	3365.065974
496.168839	3319.057884
496.535815	3276.535751
496.902733	3245.439393
497.269593	3202.519010
497.636395	3184.665763
498.003139	3146.352994
498.369825	3111.531224
498.736453	3093.952720
499.103023	3062.508523
499.469535	3036.990202
499.835989	3010.604803
500.202385	2985.575474
500.568723	2957.808799
500.935003	2948.185236
501.301226	2915.107705
501.667390	2915.826070
502.033497	2899.091960
502.399546	2873.825697
502.765537	2848.836697
503.131470	2836.460664
503.497345	2827.648727
503.863163	2804.416570
504.228923	2798.334418
504.594625	2788.615073
504.960269	2770.572783
505.325856	2765.932401
505.691385	2750.045205
506.056856	2743.710995
506.422270	2736.665983
506.787625	2725.124261
507.152924	2720.388097
507.518164	2709.985676
507.883347	2703.780016
508.248472	2695.610826
508.613540	2694.345496
508.978550	2685.402489
509.343503	2679.380831
509.708398	2678.354956
510.073236	2674.173319
510.438016	2671.045283
510.802738	2667.150992
511.167403	2663.155877
511.532010	2656.289826
511.896561	2658.429796
512.261053	2656.032727
512.625488	2646.661222
512.989866	2643.442445
513.354186	2644.047384
513.718449	2636.382309
514.082655	2641.315078
514.446803	2640.140489
514.810894	2640.422794
515.174927	2636.218472
515.538904	2633.995323
515.902822	2633.987761
516.266684	2632.591362
516.630488	2628.061885
516.994235	2629.488531
517.357925	2625.289250
517.721558	2630.559777
518.085133	2626.156329
518.448651	2623.897892
518.812112	2624.245731
519.175516	2624.139867
519.538863	2619.015534
519.902152	2620.643827
520.265385	2621.551235
520.628560	2621.268930
520.991678	2618.319855
521.354739	2619.098713
521.717743	2616.898250
522.080690	2616.973867
522.443580	2616.439505
522.806413	2619.381018
523.169189	2617.583847
523.531908	2615.148969
523.894569	2611.284925
524.257174	2615.166613
524.619722	2612.910697
524.982213	2612.736777
525.344647	2613.271139
525.707025	2611.330295
526.069345	2610.380038
526.431608	2611.559668
526.793815	2609.248299
527.155964	2611.438680
527.518057	2612.555296
527.880093	2610.518669
528.242072	2610.170830
528.603995	2608.671087
528.965860	2606.150510
529.327669	2607.776282
529.689421	2606.604213
530.051117	2604.612958
530.412755	2605.860643
530.774337	2602.402412
531.135862	2606.815942
531.497331	2603.569439
531.858743	2598.608943
532.220098	2604.030704
532.581396	2600.519541
532.942638	2603.418204
533.303824	2603.675303
533.664953	2605.124635
534.026025	2605.553133
534.387040	2604.696137
534.747999	2605.222937
535.108902	2604.814604
535.469748	2601.948708
535.830537	2604.078595
536.191270	2603.758482
536.551947	2604.948194
536.912567	2601.651280
537.273131	2601.568101
537.633638	2602.697319
537.994089	2600.418718
538.354483	2601.497525
538.714821	2602.528441
539.075103	2601.663883
539.435328	2604.615478
539.795497	2599.644901
540.155609	2602.286465
540.515665	2600.847216
540.875665	2602.374685
541.235609	2601.016094
541.595496	2601.348811
541.955328	2601.767226
542.315102	2601.101794
542.674821	2602.422576
543.034483	2601.474839
543.394090	2602.314192
543.753640	2602.480550
544.113134	2600.451485
544.472571	2601.069027
544.831953	2602.271342
545.191278	2602.467947
545.550548	2600.315374
545.909761	2602.236054
546.268918	2602.914089
546.628019	2605.008688
546.987064	2600.882504
547.346053	2599.196238
547.704986	2600.413677
548.063863	2598.873604
548.422684	2600.532144
548.781449	2602.624222
549.140158	2601.754623
549.498811	2602.336877
549.857408	2601.232864
550.215949	2599.349993
550.574434	2596.042996
550.932864	2599.571804
551.291237	2596.877307
551.649555	2602.382247
552.007817	2600.191866
552.366022	2601.734459
552.724173	2603.380396
553.082267	2601.890735
553.440305	2602.664552
553.798288	2600.262442
554.156215	2602.780498
554.514086	2604.975921
554.871902	2600.743872
555.229661	2602.069696
555.587365	2601.938626
555.945014	2602.538523
556.302606	2601.926023
556.660143	2602.599017
557.017625	2600.133892
557.375050	2599.637339
557.732421	2604.300406
558.089735	2601.169850
558.446994	2597.719180
558.804197	2603.561877
559.161345	2602.024325
559.518437	2600.864860
559.875474	2601.522730
560.232455	2603.425766
560.589381	2599.465940
560.946251	2603.660180
561.303065	2602.331836
561.659825	2600.033069
562.016528	2600.264962
562.373177	2600.900148
562.729770	2601.585745
563.086307	2600.942998
563.442789	2601.973914
563.799216	2601.321084
564.155587	2601.389140
564.511904	2600.433841
564.868164	2600.010384
565.224370	2600.781681
565.580520	2601.711774
565.936615	2602.488111
566.292654	2597.104159
566.648638	2601.121959
567.004567	2600.426279
567.360441	2599.229005
567.716260	2599.483584
568.072023	2599.995261
568.427732	2595.062492
568.783385	2596.118613
569.138982	2596.123655
569.494525	2596.408480
569.850013	2594.472677
570.205445	2599.203800
570.560823	2599.571804
570.916145	2600.668255
571.271412	2599.803697
571.626625	2599.150867
571.981782	2595.874118
572.336884	2595.148191
572.691931	2598.180445
573.046923	2598.233377
573.401860	2597.270517
573.756743	2596.423603
574.111570	2595.077615
574.466342	2595.947214
574.821059	2596.658017
575.175722	2593.560228
575.530330	2594.833119
575.884882	2595.581731
576.239380	2596.600044
576.593823	2595.168356
576.948211	2596.042996
577.302544	2595.372523
577.656823	2594.190372
578.011047	2596.869745
578.365216	2593.076277
578.719330	2596.118613
579.073389	2594.248345
579.427394	2594.598706
579.781344	2594.414703
580.135239	2595.889241
580.489080	2594.291195
580.842866	2592.851946
581.196597	2597.041145
581.550273	2595.445619
581.903895	2594.828078
582.257463	2593.222471
582.610975	2592.259610
582.964434	2591.284147
583.317837	2592.917481
583.671186	2594.013932
584.024481	2590.830443
584.377721	2591.987388
584.730906	2588.927408
585.084037	2591.170721
585.437113	2591.853797
585.790135	2589.978488
586.143103	2592.935125
586.496016	2592.017635
586.848874	2588.047726
587.201679	2590.719538
587.554428	2588.319948
587.907124	2589.018148
588.259765	2590.033941
588.612352	2591.470670
588.964884	2588.317428
589.317362	2590.250710
589.669786	2589.887747
590.022155	2591.604260
590.374470	2590.049064
590.726731	2591.788262
591.078937	2589.320617
591.431090	2588.773652
591.783188	2590.729620
592.135232	2586.094279
592.487222	2589.781883
592.839157	2589.602922
593.191038	2588.040164
593.542866	2587.299115
593.894639	2588.309866
594.246358	2589.260124
594.598022	2585.592684
594.949633	2590.001173
595.301190	2587.843559
595.652692	2587.641913
596.004141	2590.946390
596.355535	2586.868096
596.706876	2585.945565
597.058162	2585.607808
597.409395	2588.420772
597.760573	2586.404310
598.111698	2586.464804
598.462768	2587.639393
598.813785	2587.120154
599.164748	2585.375915
599.515657	2587.508323
599.866511	2585.839701
600.217312	2587.846080
600.568060	2585.620411
600.918753	2583.934145
601.269392	2586.608477
601.619978	2583.059504
601.970510	2587.488158
602.320988	2586.613518
602.671412	2586.517736
603.021783	2584.801223
603.372100	2586.426995
603.722363	2585.998497
604.072572	2585.161666
604.422728	2586.563106
604.772830	2581.106057
605.122878	2580.470872
605.472872	2583.551017
605.822813	2579.462641
606.172701	2581.085893
606.522534	2583.510688
606.872314	2585.945565
607.222041	2584.614700
607.571714	2588.083014
607.921333	2588.057808
608.270899	2586.603436
608.620411	2585.033116
608.969870	2587.682242
609.319276	2588.541759
609.668627	2589.096286
610.017926	2592.367995
610.367171	2592.862028
610.716362	2591.032089
611.065500	2592.529312
611.414585	2587.583940
611.763616	2587.757860
612.112594	2585.537232
612.461518	2589.436564
612.810389	2584.849114
613.159207	2587.500761
613.507971	2585.451532
613.856682	2587.548652
614.205340	2587.084866
614.553945	2588.582088
614.902496	2585.794330
615.250994	2586.989084
615.599439	2587.972109
615.947830	2585.242324
616.296169	2584.171079
616.644454	2587.329362
616.992686	2585.096131
617.340864	2590.190217
617.688990	2584.738209
618.037063	2585.491861
618.385082	2585.718713
618.733048	2588.511512
619.080961	2585.925400
619.428821	2586.089238
619.776628	2585.658219
620.124382	2588.428333
620.472083	2589.187027
620.819731	2587.324321
621.167326	2588.972778
621.514868	2586.719382
621.862357	2583.442632
622.209793	2585.375915
622.557176	2586.283322
622.904506	2581.469020
623.251783	2578.711509
623.599007	2581.708475
623.946179	2577.854513
624.293297	2580.801068
624.640363	2583.243507
624.987376	2580.012127
625.334336	2579.835687
625.681243	2581.799216
626.028097	2581.655543
626.374899	2582.015986
626.721647	2578.968608
627.068343	2579.616396
627.414987	2579.926427
627.761577	2579.016499
628.108115	2579.661767
628.454600	2575.371745
628.801032	2578.293093
629.147412	2580.095306
629.493739	2578.671180
629.840014	2577.005079
630.186236	2576.727815
630.532405	2578.189750
630.878521	2578.711509
631.224585	2579.722261
631.570597	2577.960377
631.916556	2576.712692
632.262462	2575.714543
632.608316	2578.832497
632.954117	2575.966601
633.299866	2577.872157
633.645562	2575.001220
633.991206	2577.907445
634.336797	2574.565160
634.682336	2577.529359
635.027823	2574.232444
635.373257	2573.698082
635.718639	2572.626837
636.063968	2574.635736
636.409245	2572.367217
636.754470	2574.683627
637.099642	2571.878225
637.444762	2574.751683
637.789829	2576.503484
638.134845	2572.447876
638.479808	2574.469378
638.824719	2571.109449
639.169577	2571.132134
639.514383	2568.384706
639.859137	2573.070458
640.203839	2572.944429
640.548489	2571.301013
640.893086	2570.670869
641.237632	2567.736917
641.582125	2568.931671
641.926566	2564.656772
642.270955	2570.537278
642.615292	2569.677762
642.959576	2569.390416
643.303809	2571.742114
643.647990	2572.304203
643.992118	2572.102557
644.336195	2570.242371
644.680219	2570.328070
645.024192	2568.593913
645.368112	2569.672720
645.711981	2570.595252
646.055797	2573.786302
646.399562	2573.705643
646.743274	2571.749676
647.086935	2570.958215
647.430544	2572.042063
647.774101	2576.354770
648.117606	2571.797567
648.461059	2571.472412
648.804460	2575.928792
649.147810	2575.454924
649.491108	2573.897207
649.834354	2570.401167
650.177548	2573.040211
650.520690	2570.428893
650.863781	2570.499470
651.206820	2571.053997
651.549807	2571.648853
651.892742	2567.593244
652.235626	2569.460992
652.578458	2568.805642
652.921238	2567.883111
653.263967	2568.462843
653.606644	2567.444530
653.949269	2570.801939
654.291843	2568.175498
654.634365	2568.961918
654.976836	2567.005950
655.319255	2568.097360
655.661622	2570.461661
656.003938	2566.143913
656.346203	2565.894376
656.688416	2568.178018
657.030577	2566.431258
657.372687	2566.756413
657.714746	2565.750703
658.056753	2566.274983
658.398708	2561.785835
658.740612	2566.259859
659.082465	2563.431772
659.424266	2562.501679
659.766016	2563.179714
660.107715	2568.336815
660.449362	2566.826989
660.790958	2566.375806
661.132503	2565.614592
661.473996	2568.064592
661.815438	2570.817062
662.156829	2567.343707
662.498168	2568.261197
662.839456	2565.581824
663.180693	2565.420507
663.521879	2568.074675
663.863013	2564.853377
664.204097	2567.923440
664.545129	2565.443192
664.886110	2567.565518
665.227040	2565.601989
665.567918	2568.508214
665.908746	2567.878070
666.249522	2567.152143
666.590248	2565.927143
666.930922	2568.719942
667.271545	2567.167267
667.612118	2569.576938
667.952639	2565.735579
668.293109	2565.841443
668.633528	2569.370251
668.973896	2566.090981
669.314213	2567.943605
669.654480	2567.016032
669.994695	2567.026115
670.334859	2567.905796
670.674973	2567.144582
671.015035	2569.541650
671.355047	2565.919581
671.695008	2567.673903
672.034918	2566.073337
672.374777	2567.137020
672.714585	2569.907134
673.054342	2568.019222
673.394049	2566.597617
673.733705	2567.875549
674.073310	2566.300188
674.412864	2568.392267
674.752368	2563.356155
675.091820	2565.458316
675.431223	2567.394119
675.770574	2566.874880
676.109875	2560.139898
676.449125	2561.826164
676.788324	2560.830537
677.127473	2563.804817
677.466571	2558.635114
677.805619	2566.116186
678.144616	2564.331618
678.483562	2563.729200
678.822458	2565.922102
679.161303	2564.097204
679.500098	2566.607699
679.838842	2562.622667
680.177535	2563.290620
680.516179	2566.562328
680.854771	2564.364385
681.193314	2561.788356
681.531805	2566.063254
681.870247	2567.585683
682.208638	2568.445199
682.546978	2569.526527
682.885268	2566.874880
683.223508	2565.947308
683.561697	2567.414283
683.899836	2566.307750
684.237925	2563.285578
684.575963	2562.509241
684.913951	2563.945970
685.251889	2566.085939
685.589776	2565.002091
685.927614	2564.639128
686.265401	2564.225754
686.603137	2566.610219
686.940824	2565.730538
687.278460	2568.329253
687.616046	2566.350600
687.953582	2564.666855
688.291068	2566.590055
688.628504	2571.235478
688.965889	2569.460992
689.303224	2569.627350
689.640510	2564.462688
689.977745	2566.179201
690.314930	2562.584858
690.652065	2565.087791
690.989150	2566.501835
691.326185	2563.010836
691.663170	2561.369940
692.000105	2560.356668
692.336990	2559.683674
692.673825	2557.954558
693.010610	2562.108469
693.347345	2553.699824
693.684030	2553.530946
694.020665	2556.601008
694.357251	2554.350133
694.693786	2559.086297
695.030272	2558.509085
695.366707	2558.022614
695.703093	2556.006152
696.039429	2554.730740
696.375716	2560.759960
696.711952	2555.998591
697.048139	2558.312480
697.384276	2557.962120
697.720363	2557.029507
698.056400	2559.126627
698.392388	2556.611091
698.728326	2556.321224
699.064214	2555.413817
699.400053	2557.357182
699.735842	2556.394321
700.071581	2553.382232
700.407270	2553.195709
700.742910	2556.328786
701.078501	2554.889537
701.414042	2557.092521
701.749533	2555.305432
702.084974	2553.525905
702.420366	2554.400545
702.755709	2555.998591
703.091002	2554.503888
703.426246	2553.659495
703.761440	2555.214691
704.096584	2555.207129
704.431679	2552.343754
704.766725	2553.112530
705.101721	2549.752601
705.436668	2552.868034
705.771565	2553.843497
706.106413	2554.324928
706.441212	2551.779145
706.775961	2554.347613
707.110661	2554.123281
707.445311	2555.260062
707.779913	2556.467418
708.114465	2555.607901
708.448967	2554.897098
708.783421	2553.319217
709.117825	2554.317366
709.452180	2556.411965
709.786485	2556.979095
710.120742	2557.601677
710.454949	2558.506565
710.789107	2555.733930
711.123216	2552.862993
711.457275	2556.553117
711.791286	2553.656975
712.125247	2556.041440
712.459159	2559.504713
712.793023	2561.228788
713.126837	2557.377346
713.460602	2557.377346
713.794318	2556.227963
714.127985	2558.148643
714.461602	2556.026317
714.795171	2557.717624
715.128691	2556.074208
715.462162	2557.042109
715.795584	2553.919115
716.128957	2556.966492
716.462281	2554.690411
716.795556	2556.522871
717.128782	2550.995245
717.461960	2553.629248
717.795088	2555.751574
718.128167	2554.433312
718.461198	2552.290822
718.794180	2553.609084
719.127113	2552.200081
719.459997	2552.258054
719.792833	2554.118240
720.125619	2550.602035
720.458357	2551.756460
720.791046	2553.959444
721.123686	2552.542880
721.456278	2548.903167
721.788821	2551.832077
722.121315	2551.426264
722.453761	2548.905687
722.786158	2550.165976
723.118506	2550.725544
723.450805	2548.469627
723.783056	2548.759494
724.115259	2547.544576
724.447412	2550.735626
724.779518	2549.198074
725.111574	2551.111192
725.443582	2553.223435
725.775542	2552.479865
726.107453	2549.709751
726.439315	2548.681356
726.771129	2552.474824
727.102895	2550.531459
727.434612	2552.084135
727.766281	2552.232849
728.097901	2550.075235
728.429473	2548.343598
728.760996	2549.140101
729.092471	2547.844524
729.423897	2554.405586
729.755276	2554.627397
730.086606	2551.431305
730.417887	2552.971378
730.749120	2556.810216
731.080305	2553.107489
731.411442	2552.840308
731.742530	2553.997252
732.073570	2557.165618
732.404562	2553.609084
732.735506	2555.812068
733.066401	2552.784855
733.397249	2553.026830
733.728048	2553.132695
734.058798	2553.677139
734.389501	2551.867365
734.720156	2553.823333
735.050762	2549.487940
735.381320	2550.050029
735.711831	2550.304607
736.042293	2550.846531
736.372707	2548.855276
736.703073	2549.248486
737.033391	2549.268650
737.363661	2551.335523
737.693883	2548.809905
738.024056	2552.124464
738.354182	2550.402910
738.684260	2549.714792
739.014290	2550.667570
739.344272	2550.385266
739.674207	2550.110523
740.004093	2552.986501
740.333931	2550.702858
740.663722	2547.771427
740.993464	2552.106820
741.323159	2554.337530
741.652806	2549.719833
741.982405	2548.751932
742.311956	2549.029195
742.641460	2547.221942
742.970915	2547.511808
743.300323	2551.229659
743.629683	2550.849052
743.958996	2548.860317
744.288260	2551.711089
744.617477	2545.263453
744.946647	2543.383103
745.275768	2548.774617
745.604842	2540.333205
745.933869	2544.101468
746.262847	2540.358411
746.591778	2546.405275
746.920662	2546.899308
747.249498	2548.580533
747.578286	2547.703372
747.907027	2549.689587
748.235720	2548.673794
748.564365	2549.911397
748.892963	2548.154555
749.221514	2546.793444
749.550017	2545.676828
749.878473	2547.383259
750.206881	2547.158927
750.535242	2546.652291
750.863555	2548.008362
751.191821	2547.105995
751.520039	2548.885522
751.848210	2548.116747
752.176334	2547.368135
752.504411	2546.289328
752.832440	2547.990718
753.160421	2546.581715
753.488356	2548.714123
753.816243	2546.042312
754.144082	2543.604914
754.471875	2547.491643
754.799620	2545.986859
755.127318	2546.455686
755.454969	2545.200439
755.782572	2545.449976
756.110129	2544.756817
756.437638	2546.690100
756.765100	2544.366128
757.092515	2547.027857
757.419882	2545.916283
757.747203	2543.602393
758.074477	2550.057591
758.401703	2546.677497
758.728882	2547.053063
759.056014	2547.524411
759.383099	2546.201108
759.710138	2548.273022
760.037129	2548.167158
760.364073	2545.908721
760.690970	2546.856458
761.017820	2548.204967
761.344623	2547.176571
761.671379	2546.788403
761.998088	2543.630120
762.324751	2547.564740
762.651366	2551.174206
762.977935	2559.184600
763.304456	2560.180228
763.630931	2564.785322
763.957359	2560.432285
764.283740	2556.033879
764.610074	2556.064126
764.936362	2554.506409
765.262602	2550.370142
765.588796	2550.047508
765.914943	2548.446942
766.241044	2546.173382
766.567097	2546.077600
766.893104	2544.189688
767.219064	2544.782023
767.544978	2542.238761
767.870845	2544.643392
768.196665	2544.701365
768.522438	2542.261446
768.848165	2542.246323
769.173846	2542.044677
769.499479	2541.961498
769.825066	2542.263967
770.150607	2542.266488
770.476101	2543.491488
770.801548	2543.443597
771.126949	2541.444779
771.452303	2543.531817
771.777611	2542.168185
772.102872	2541.535520
772.428087	2540.703730
772.753256	2539.665252
773.078378	2538.276414
773.403453	2543.945192
773.728482	2542.090047
774.053465	2538.425128
774.378401	2541.487629
774.703291	2539.438400
775.028135	2540.484440
775.352932	2541.291024
775.677683	2539.277083
776.002388	2542.967208
776.327046	2539.390509
776.651658	2541.348998
776.976224	2539.629964
777.300743	2539.022505
777.625216	2540.865047
777.949643	2540.872608
778.274024	2541.694317
778.598359	2537.237937
778.922647	2536.330529
779.246889	2538.326826
779.571086	2532.201824
779.895236	2539.927392
780.219339	2540.088709
780.543397	2540.161806
780.867409	2538.901517
781.191374	2537.860519
781.515294	2538.173071
781.839167	2540.812115
782.162995	2539.791281
782.486776	2539.864378
782.810511	2542.954605
783.134201	2540.260108
783.457844	2540.676003
783.781441	2538.644418
784.104993	2538.014274
784.428498	2538.236085
784.751958	2538.699871
785.075372	2539.382947
785.398739	2537.973945
785.722061	2539.453524
786.045337	2539.062834
786.368568	2538.231044
786.691752	2538.780530
787.014891	2541.631302
787.337983	2541.908566
787.661030	2541.714481
787.984031	2540.945705
788.306987	2542.561395
788.629897	2541.727084
788.952760	2541.013761
789.275579	2540.882691
789.598351	2543.017619
789.921078	2539.723225
790.243759	2538.044521
790.566395	2537.348842
790.888984	2539.486291
791.211529	2540.305479
791.534027	2537.595858
791.856480	2538.614172
792.178888	2537.971424
792.501249	2539.531662
792.823566	2539.534182
793.145836	2535.672658
793.468062	2537.994110
793.790241	2538.984696
794.112375	2538.480581
794.434464	2538.914120
794.756507	2537.792463
795.078505	2538.720036
795.400457	2539.478729
795.722364	2535.143337
796.044226	2538.173071
796.366042	2536.512010
796.687812	2539.294727
797.009538	2538.815818
797.331218	2542.032074
797.652852	2538.606610
797.974442	2541.563247
798.295986	2536.549819
798.617484	2540.192053
798.938938	2539.844213
799.260346	2541.245654
799.581709	2539.017464
799.903026	2539.942516
800.224299	2538.543595
800.545526	2537.711805
800.866708	2538.205838
801.187845	2536.330529
801.508936	2537.598379
801.829983	2539.110725
802.150984	2536.504449
802.471940	2539.597197
802.792851	2540.068544
803.113717	2539.277083
803.434538	2539.186343
803.755314	2540.295396
804.076045	2539.161137
804.396731	2537.822710
804.717372	2535.602082
805.037967	2535.614685
805.358518	2534.729963
805.679024	2539.937474
805.999485	2537.651311
806.319901	2539.191384
806.640272	2540.111394
806.960598	2538.077289
807.280879	2536.204500
807.601115	2536.905220
807.921306	2538.389840
808.241453	2534.697195
808.561554	2538.934285
808.881611	2537.835313
809.201623	2539.075437
809.521590	2539.236754
809.841513	2538.790612
810.161390	2538.523431
810.481223	2539.992927
810.801011	2537.888245
811.120755	2540.358411
811.440453	2540.295396
811.760107	2535.937319
812.079716	2534.185518
812.399281	2532.859694
812.718801	2537.091743
813.038276	2533.623429
813.357707	2534.777853
813.677093	2535.007226
813.996434	2539.166178
814.315731	2536.867412
814.634983	2539.955118
814.954191	2537.832793
815.273354	2538.634336
815.592473	2535.032432
815.911547	2537.767258
816.230577	2537.774819
816.549562	2537.001002
816.868502	2537.729449
817.187399	2538.788091
817.506250	2537.580735
817.825058	2537.469830
818.143821	2538.044521
818.462539	2541.220448
818.781213	2539.602238
819.099843	2540.149203
819.418429	2540.040818
819.736970	2543.695655
820.055466	2548.663712
820.373919	2547.594987
820.692327	2552.011038
821.010691	2557.878941
821.329011	2570.678431
821.647286	2598.465271
821.965517	2624.028962
822.283704	2639.122176
822.601847	2647.465286
822.919945	2633.841568
823.237999	2616.310955
823.556010	2601.711774
823.873976	2585.978332
824.191897	2576.997517
824.509775	2569.607185
824.827609	2564.508058
825.145398	2562.037893
825.463144	2561.203582
825.780845	2560.336503
826.098502	2565.591906
826.416116	2569.314798
826.733685	2578.464493
827.051210	2585.537232
827.368692	2578.467013
827.686129	2565.531413
828.003522	2563.174673
828.320872	2551.302756
828.638177	2550.702858
828.955439	2542.979811
829.272656	2543.867054
829.589830	2538.901517
829.906960	2542.115253
830.224046	2542.737835
830.541088	2540.877650
830.858086	2540.935623
831.175041	2540.975952
831.491952	2539.750952
831.808819	2540.756662
832.125642	2539.403112
832.442421	2540.509645
832.759157	2545.225645
833.075849	2549.437529
833.392497	2554.513971
833.709101	2558.587223
834.025662	2559.129147
834.342179	2556.694270
834.658653	2550.070194
834.975083	2549.563558
835.291469	2549.611449
835.607811	2544.328319
835.924110	2541.543082
836.240366	2540.534851
836.556578	2541.457382
836.872746	2541.263298
837.188871	2538.835982
837.504952	2540.131559
837.820990	2536.043183
838.136984	2537.699202
838.452935	2536.655683
838.768842	2537.099305
839.084706	2535.584438
839.400526	2538.253729
839.716303	2544.454348
840.032037	2546.369987
840.347727	2544.290511
840.663373	2545.139945
840.978977	2541.525438
841.294537	2537.285827
841.610054	2537.109387
841.925527	2538.359593
842.240957	2536.663245
842.556344	2536.890097
842.871687	2534.399767
843.186987	2534.845909
843.502244	2533.026052
843.817458	2532.390867
844.132629	2533.210055
844.447756	2533.215096
844.762840	2526.275947
845.077881	2533.595703
845.392879	2527.400125
845.707833	2533.610826
846.022745	2530.515558
846.337613	2534.586290
846.652438	2533.315919
846.967221	2534.694674
847.281960	2533.141999
847.596656	2537.006043
847.911309	2529.630835
848.225919	2530.772657
848.540485	2530.830630
848.855009	2533.593182
849.169490	2533.096629
849.483928	2533.711649
849.798323	2534.109901
850.112675	2533.076464
850.426984	2533.585621
850.741251	2533.182328
851.055474	2532.446320
851.369654	2534.523275
851.683792	2532.579910
851.997887	2532.285003
852.311938	2534.845909
852.625947	2530.482790
852.939914	2531.980013
853.253837	2533.641073
853.567718	2533.212575
853.881555	2534.586290
854.195350	2530.928932
854.509103	2531.556556
854.822812	2531.468336
855.136479	2531.748120
855.450103	2530.346679
855.763685	2534.051927
856.077224	2530.835671
856.390720	2530.828109
856.704173	2531.241484
857.017584	2531.687626
857.330953	2531.617050
857.644278	2532.262318
857.957561	2535.811290
858.270802	2536.184335
858.584000	2533.449509
858.897155	2530.820548
859.210268	2532.806762
859.523339	2533.583100
859.836367	2533.666279
860.149352	2534.954294
860.462295	2535.087884
860.775195	2530.301309
861.088054	2528.521782
861.400869	2528.826771
861.713642	2528.715866
862.026373	2533.182328
862.339062	2530.437420
862.651708	2535.239119
862.964312	2531.324663
863.276873	2534.185518
863.589392	2533.086546
863.901869	2531.395239
864.214303	2532.532019
864.526696	2533.076464
864.839045	2532.534540
865.151353	2534.056968
865.463619	2532.940353
865.775842	2536.275076
866.088023	2534.288862
866.400162	2532.310209
866.712258	2533.515044
867.024313	2534.319108
867.336325	2534.099818
867.648296	2536.101156
867.960224	2529.192255
868.272110	2534.177956
868.583954	2533.207534
868.895755	2534.619057
869.207515	2532.310209
869.519233	2531.995137
869.830909	2534.593851
870.142542	2534.992102
870.454134	2535.181146
870.765684	2534.913965
871.077191	2530.810465
871.388657	2536.224665
871.700081	2532.126207
872.011463	2531.826258
872.322803	2535.478574
872.634101	2534.616537
872.945357	2532.040507
873.256571	2532.882380
873.567744	2534.498069
873.878874	2534.520755
874.189963	2535.634850
874.501010	2534.732483
874.812015	2534.551002
875.122979	2536.196938
875.433900	2533.996475
875.744780	2538.107536
876.055618	2534.558563
876.366415	2534.150230
876.677169	2533.603265
876.987882	2532.842050
877.298554	2528.990609
877.609183	2532.894982
877.919771	2532.032945
878.230317	2534.984541
878.540822	2540.655839
878.851285	2542.145500
879.161707	2538.281455
879.472087	2539.960160
879.782425	2542.558874
880.092722	2547.259750
880.402977	2556.679146
880.713191	2569.289593
881.023363	2586.474886
881.333494	2593.489652
881.643583	2594.228181
881.953631	2595.435537
882.263637	2591.238777
882.573602	2590.364136
882.883526	2579.341653
883.193408	2573.778740
883.503248	2566.373285
883.813048	2561.206102
884.122806	2556.437171
884.432522	2552.651264
884.742197	2549.777807
885.051831	2546.105326
885.361424	2542.972249
885.670975	2544.179605
885.980485	2536.935467
886.289954	2542.359749
886.599382	2537.535365
886.908768	2538.160468
887.218113	2538.818338
887.527417	2537.285828
887.836680	2537.202648
888.145901	2535.786084
888.455082	2537.646270
888.764221	2537.986548
889.073319	2533.515044
889.382376	2536.736342
889.691392	2533.550332
890.000366	2535.355066
890.309300	2536.522093
890.618193	2535.027391
890.927044	2535.332380
891.235855	2536.774150
891.544625	2534.515713
891.853353	2533.404139
892.162041	2535.952442
892.470687	2537.265663
892.779293	2536.416228
893.087858	2536.474202
893.396381	2534.803059
893.704864	2541.623740
894.013306	2539.725746
894.321707	2548.467107
894.630068	2553.127653
894.938387	2558.206616
895.246665	2553.901471
895.554903	2551.002807
895.863100	2548.477189
896.171256	2547.630275
896.479371	2544.688762
896.787446	2542.843700
897.095480	2542.291693
897.403473	2541.699358
897.711425	2536.701054
898.019336	2539.037628
898.327207	2538.646939
898.635038	2539.246836
898.942827	2536.506969
899.250576	2537.139634
899.558284	2534.639222
899.865952	2536.363296
900.173579	2533.227699
900.481165	2531.980013
900.788711	2535.609644
901.096216	2534.871115
901.403681	2535.992772
901.711105	2534.989582
902.018489	2536.330529
902.325832	2535.097967
902.633135	2535.594520
902.940397	2539.148534
903.247619	2538.339429
903.554800	2541.011240
903.861941	2549.739998
904.169041	2557.231153
904.476101	2563.646021
904.783121	2564.608881
905.090100	2557.768036
905.397039	2554.887016
905.703938	2548.847714
906.010796	2545.122301
906.317614	2543.746066
906.624391	2541.359080
906.931129	2538.664583
907.237826	2538.016795
907.544483	2534.220806
907.851099	2535.765920
908.157675	2532.413552
908.464211	2533.280631
908.770707	2527.642100
909.077163	2533.525127
909.383578	2529.333407
909.689954	2531.511186
909.996289	2527.967255
910.302584	2530.404653
910.608839	2534.167874
910.915054	2533.933460
911.221229	2530.543284
911.527363	2533.439427
911.833458	2530.278624
912.139513	2529.522451
912.445527	2531.780888
912.751502	2532.668131
913.057436	2530.326515
913.363331	2533.338604
913.669186	2534.495549
913.975000	2535.057637
914.280775	2537.253060
914.586510	2537.706764
914.892205	2543.032743
915.197859	2545.639019
915.503475	2546.743032
915.809050	2557.213509
916.114585	2558.420865
916.420081	2560.308777
916.725536	2561.246432
917.030952	2558.141081
917.336328	2551.484237
917.641665	2553.014227
917.946961	2548.401572
918.252218	2547.327806
918.557435	2544.184647
918.862612	2540.179450
919.167750	2538.251208
919.472848	2539.571991
919.777906	2539.776158
920.082925	2538.326826
920.387904	2534.740045
920.692843	2533.555374
920.997743	2533.187369
921.302603	2532.680733
921.607423	2535.705426
921.912204	2535.758358
922.216946	2532.960518
922.521647	2534.167874
922.826310	2532.879859
923.130932	2534.359438
923.435516	2532.121165
923.740059	2534.014119
924.044564	2534.276259
924.349028	2531.879190
924.653454	2524.564476
924.957840	2531.165867
925.262186	2528.418438
925.566493	2529.131761
925.870761	2524.940042
926.174989	2528.562111
926.479178	2532.559746
926.783328	2532.554705
927.087438	2530.404652
927.391509	2530.941535
927.695541	2529.068747
927.999533	2528.267203
928.303486	2530.858356
928.607400	2529.414066
928.911275	2531.806093
929.215110	2530.538243
929.518906	2527.760567
929.822663	2529.482121
930.126381	2528.042872
930.430060	2530.467667
930.733699	2529.033459
931.037299	2528.995650
931.340861	2528.478932
931.644383	2530.381967
931.947866	2530.964221
932.251309	2529.580424
932.554714	2529.237625
932.858080	2530.686957
933.161407	2528.133613
933.464694	2526.507841
933.767943	2529.572862
934.071153	2528.935156
934.374323	2531.221319
934.677455	2529.353572
934.980548	2530.898686
935.283602	2531.982534
935.586617	2531.259128
935.889593	2529.194776
936.192530	2530.044210
936.495428	2530.649148
936.798287	2530.462626
937.101108	2530.225692
937.403890	2528.375588
937.706632	2530.613860
938.009336	2530.404652
938.312002	2528.645290
938.614628	2530.061854
938.917216	2532.088398
939.219765	2528.768798
939.522275	2531.123017
939.824747	2531.652338
940.127179	2526.588499
940.429573	2528.607481
940.731929	2529.237625
941.034246	2524.377953
941.336524	2528.191586
941.638763	2531.458254
941.940964	2527.206040
942.243126	2529.973634
942.545250	2530.155115
942.847335	2528.665454
943.149381	2527.453057
943.451389	2530.238294
943.753359	2527.236287
944.055290	2528.541946
944.357182	2531.823737
944.659036	2529.930784
944.960851	2530.414735
945.262628	2527.848787
945.564367	2528.325177
945.866067	2530.656710
946.167729	2533.348686
946.469352	2528.191586
946.770937	2531.896834
947.072484	2528.804086
947.373992	2527.659744
947.675462	2528.857018
947.976893	2529.109076
948.278286	2530.238294
948.579641	2529.620753
948.880958	2531.352389
949.182236	2529.920702
949.483476	2527.294261
949.784678	2526.359127
950.085841	2528.015146
950.386967	2529.628315
950.688054	2528.098325
950.989103	2529.093952
951.290114	2526.780063
951.591087	2529.482121
951.892021	2529.688809
952.192917	2529.088911
952.493776	2531.244005
952.794596	2530.266021
953.095378	2530.565969
953.396122	2528.244518
953.696828	2529.219981
953.997496	2532.572349
954.298126	2527.417769
954.598718	2531.347348
954.899272	2530.540764
955.199788	2528.695701
955.500266	2529.509848
955.800706	2526.142357
956.101108	2523.362161
956.401472	2528.393232
956.701798	2521.605318
957.002087	2523.037006
957.302337	2527.916843
957.602550	2526.883407
957.902724	2528.305012
958.202861	2528.776360
958.502960	2528.642769
958.803022	2529.257790
959.103045	2527.843746
959.403031	2530.364323
959.702979	2525.597912
960.002889	2529.444313
960.302762	2525.328211
960.602596	2526.626308
960.902393	2528.970444
961.202153	2526.747295
961.501875	2525.522295
961.801559	2527.148067
962.101205	2525.358457
962.400814	2528.453726
962.700385	2527.150588
962.999918	2526.160001
963.299414	2524.902233
963.598873	2526.407018
963.898293	2526.023890
964.197677	2526.722090
964.497022	2524.120854
964.796331	2528.761236
965.095601	2528.743592
965.394835	2529.136802
965.694030	2526.096987
965.993189	2528.877183
966.292309	2526.470032
966.591393	2527.415248
966.890439	2527.200999
967.189447	2526.540608
967.488419	2525.129085
967.787353	2527.117820
968.086249	2524.735875
968.385108	2525.988602
968.683930	2527.042203
968.982714	2525.086235
969.281462	2527.369878
969.580172	2525.875176
969.878844	2525.640762
970.177480	2525.136647
970.476078	2525.764270
970.774639	2530.059333
971.073162	2528.050434
971.371649	2525.749147
971.670098	2523.788138
971.968510	2523.349558
972.266885	2521.128929
972.565223	2523.836029
972.863524	2526.883407
973.161788	2527.258973
973.460014	2525.444157
973.758204	2525.698735
974.056356	2524.723272
974.354471	2525.968437
974.652550	2530.069416
974.950591	2527.959693
975.248595	2526.747295
975.546563	2528.110927
975.844493	2524.004908
976.142386	2528.408356
976.440243	2525.124044
976.738062	2527.775691
977.035845	2526.696884
977.333590	2528.453726
977.631299	2526.938859
977.928971	2525.048427
978.226606	2529.585465
978.524204	2528.428520
978.821765	2525.731503
979.119290	2525.691174
979.416777	2525.925587
979.714228	2528.189065
980.011642	2525.562624
980.309020	2527.241328
980.606360	2526.641431
980.903664	2524.650175
981.200931	2525.673530
981.498162	2528.370547
981.795356	2528.393232
982.092513	2527.309384
982.389633	2527.148067
982.686717	2525.726462
982.983764	2526.618746
983.280775	2530.407173
983.577749	2527.032121
983.874686	2527.591689
984.171587	2528.713345
984.468451	2527.165711
984.765279	2527.117820
985.062070	2526.306194
985.358824	2528.136133
985.655543	2527.803417
985.952224	2527.717717
986.248869	2525.403828
986.545478	2522.510206
986.842050	2526.086904
987.138586	2522.648837
987.435086	2523.475587
987.731549	2523.788138
988.027975	2527.261493
988.324366	2525.010618
988.620719	2525.928108
988.917037	2524.788807
989.213318	2528.839374
989.509563	2526.076822
989.805772	2525.005577
990.101944	2527.014477
990.398080	2525.088756
990.694180	2524.887110
990.990244	2525.474404
991.286271	2525.658406
991.582262	2525.766791
991.878217	2527.077491
992.174136	2526.792666
992.470019	2525.507172
992.765865	2527.463139
993.061676	2526.888448
993.357450	2526.573376
993.653188	2524.561955
993.948890	2525.292923
994.244556	2527.024559
994.540186	2527.644621
994.835780	2527.062368
995.131337	2526.417100
995.426859	2527.500948
995.722345	2525.247552
996.017795	2526.906092
996.313208	2525.774353
996.608586	2527.523633
996.903928	2525.960875
997.199234	2525.025741
997.494504	2525.040865
997.789738	2526.021369
998.084936	2526.578417
998.380099	2525.970958
998.675225	2528.189065
998.970316	2526.533046
999.265371	2527.440454
999.560390	2525.446678
999.855373	2525.418951
1000.150320	2526.865762
1000.445232	2528.040351
1000.740108	2526.911133
1001.034948	2525.408869
1001.329752	2524.937521
1001.624521	2525.529857
1001.919254	2518.431912
1002.213951	2521.307890
1002.508613	2521.196985
1002.803239	2525.958355
1003.097829	2520.266892
1003.392384	2525.348375
1003.686903	2524.022552
1003.981386	2524.204033
1004.275834	2525.199661
1004.570246	2525.849970
1004.864623	2524.314939
1005.158964	2525.698735
1005.453270	2523.052130
1005.747540	2527.198479
1006.041775	2525.512213
1006.335974	2526.338962
1006.630138	2525.663447
1006.924266	2524.582120
1007.218359	2527.558921
1007.512416	2524.458612
1007.806438	2527.919364
1008.100425	2524.357788
1008.394376	2526.258303
1008.688292	2523.178158
1008.982172	2524.869466
1009.276017	2526.676719
1009.569827	2524.229239
1009.863602	2528.231915
1010.157341	2524.922398
1010.451045	2525.360978
1010.744714	2523.543642
1011.038347	2524.733354
1011.331945	2528.904909
1011.625508	2526.288550
1011.919036	2525.164373
1012.212528	2525.154291
1012.505986	2522.472397
1012.799408	2522.225380
1013.092795	2524.587161
1013.386147	2525.676050
1013.679464	2526.737213
1013.972745	2525.930628
1014.265992	2525.416431
1014.559204	2525.396266
1014.852380	2525.779394
1015.145521	2526.139836
1015.438628	2524.108251
1015.731699	2521.116327
1016.024736	2522.485000
1016.317737	2527.090094
1016.610703	2528.395753
1016.903635	2522.177489
1017.196531	2520.541635
1017.489393	2523.745288
1017.782219	2523.520957
1018.075011	2523.906605
1018.367768	2521.839732
1018.660490	2524.594723
1018.953177	2524.594723
1019.245829	2524.594723
