Dividing Wavelength (nm)	Counts (n)	Blue Motor Position (mm): 0.000000	Red Motor Position (mm): 28.100000	
326.493990	2129.562346
326.888308	2129.562346
327.282561	2129.562346
327.676750	2095.877356
328.070874	2094.264186
328.464933	2096.598241
328.858929	2104.182657
329.252859	2113.284460
329.646726	2123.328959
330.040528	2137.366052
330.434265	2152.764256
330.827938	2172.422236
331.221547	2187.560821
331.615091	2208.789119
332.008571	2226.904506
332.401986	2249.256982
332.795338	2265.917995
333.188625	2286.866510
333.581847	2306.826959
333.975006	2320.866572
334.368100	2342.656960
334.761129	2361.253776
335.154095	2376.621734
335.546996	2392.793755
335.939833	2411.330078
336.332606	2424.795000
336.725315	2438.859819
337.117960	2449.168979
337.510540	2456.818930
337.903056	2466.162708
338.295508	2473.253091
338.687896	2482.594349
339.080220	2494.405773
339.472480	2495.908037
339.864676	2503.401712
340.256807	2507.628719
340.648875	2507.568226
341.040879	2513.350429
341.432818	2512.115346
341.824694	2517.378311
342.216506	2516.836387
342.608253	2516.120543
342.999937	2515.041736
343.391557	2517.978208
343.783113	2513.574760
344.174605	2514.817405
344.566033	2514.807322
344.957397	2513.983094
345.348697	2505.695437
345.739934	2507.313647
346.131106	2504.256187
346.522215	2507.081754
346.913260	2504.165447
347.304241	2501.571773
347.695159	2497.385095
348.086012	2499.146978
348.476802	2496.321411
348.867528	2495.053561
349.258191	2493.329487
349.648789	2493.594147
350.039324	2490.889568
350.429796	2489.790597
350.820203	2487.484269
351.210548	2490.151039
351.600828	2485.976964
351.991045	2487.393528
352.381198	2486.700369
352.771288	2485.397231
353.161314	2485.309011
353.551276	2484.220122
353.941175	2483.713486
354.331010	2482.957312
354.720782	2484.555358
355.110490	2481.936479
355.500135	2486.677684
355.889717	2482.831284
356.279235	2485.301449
356.668689	2486.470997
357.058080	2487.902684
357.447408	2485.059474
357.836672	2485.127529
358.225873	2485.984525
358.615010	2479.441108
359.004084	2486.927221
359.393095	2486.402941
359.782043	2491.491986
360.170927	2490.266986
360.559748	2492.532984
360.948505	2489.258755
361.337199	2493.379898
361.725830	2492.893427
362.114398	2494.257059
362.502903	2494.645228
362.891344	2495.227481
363.279722	2496.139930
363.668037	2494.738489
364.056289	2496.192862
364.444478	2496.061792
364.832603	2499.089005
365.220665	2497.649755
365.608665	2501.264263
365.996601	2500.941629
366.384474	2502.824500
366.772284	2504.654439
367.160031	2501.665034
367.547715	2503.331136
367.935336	2507.721981
368.322893	2510.033350
368.710388	2512.075017
369.097820	2522.789990
369.485189	2521.635565
369.872495	2529.068747
370.259738	2535.833975
370.646918	2544.393854
371.034035	2548.076417
371.421090	2560.109652
371.808081	2571.923596
372.195010	2581.799216
372.581875	2591.442943
372.968678	2606.848709
373.355418	2616.293311
373.742096	2634.880045
374.128710	2652.584578
374.515262	2665.341217
374.901751	2682.365194
375.288177	2693.838860
375.674540	2718.364074
376.060841	2733.769840
376.447079	2753.148035
376.833254	2774.373813
377.219367	2787.458128
377.605417	2822.113540
377.991404	2836.024604
378.377329	2858.651823
378.763191	2873.757641
379.148991	2910.553023
379.534727	2934.735438
379.920402	2964.962196
380.306013	2976.090543
380.691563	3028.153060
381.077049	3047.914383
381.462474	3067.446333
381.847835	3105.580142
382.233134	3127.161321
382.618371	3128.819861
383.003545	3194.475849
383.388657	3204.164946
383.773706	3232.087897
384.158693	3250.364601
384.543618	3278.595062
384.928480	3310.752583
385.313280	3360.072711
385.698017	3358.825026
386.082692	3410.312851
386.467305	3417.471289
386.851856	3449.815332
387.236344	3470.363075
387.620770	3502.598733
388.005133	3526.329965
388.389435	3551.865930
388.773674	3564.834298
389.157851	3609.128397
389.541965	3622.280767
389.926018	3588.510077
390.310008	3660.875841
390.693936	3680.168337
391.077802	3721.578895
391.461606	3710.868963
391.845348	3770.273920
392.229027	3773.127213
392.612645	3781.361938
392.996200	3862.791696
393.379694	3901.895927
393.763125	3964.769197
394.146494	3934.555042
394.529801	3993.765914
394.913047	4046.498904
395.296230	4013.749048
395.679351	4064.067325
396.062410	4089.149586
396.445408	4069.491607
396.828343	4105.382102
397.211217	4127.658961
397.594028	4046.118297
397.976778	4114.438535
398.359466	4136.919560
398.742092	4165.742357
399.124656	4086.954164
399.507158	4171.229653
399.889598	4195.228066
400.271977	4256.291563
400.654294	4223.551789
401.036549	4232.378849
401.418742	4206.144685
401.800874	4308.596054
402.182944	4329.559693
402.564952	4394.199888
402.946898	4379.971231
403.328783	4378.032908
403.710606	4292.277839
404.092367	4483.019978
404.474067	4449.148465
404.855705	4453.534269
405.237282	4382.085995
405.618797	4495.378366
406.000250	4527.714847
406.381642	4608.237198
406.762972	4571.066250
407.144240	4579.769802
407.525447	4578.688475
407.906593	4638.713493
408.287677	4684.194783
408.668700	4611.118217
409.049661	4661.494468
409.430560	4705.213874
409.811399	4631.245024
410.192176	4794.575888
410.572891	4731.553903
410.953545	4832.697093
411.334138	4712.972210
411.714669	4784.002068
412.095139	4677.237991
412.475547	4817.278724
412.855894	4803.604595
413.236180	4809.482580
413.616405	4761.263943
413.996568	4848.775854
414.376670	4794.505312
414.756711	4747.753651
415.136691	4778.227426
415.516609	4857.812122
415.896466	4895.068769
416.276262	4923.886525
416.655997	4909.425976
417.035670	5090.400878
417.415283	5179.054610
417.794834	5125.560406
418.174324	5080.285803
418.553753	4985.202080
418.933121	5171.331562
419.312428	5236.092745
419.691674	5178.502603
420.070859	5302.628414
420.449983	5210.123241
420.829045	5328.418957
421.208047	5235.331531
421.586988	5304.780987
421.965867	5321.177339
422.344686	5453.830262
422.723444	5306.757119
423.102141	5121.761896
423.480777	5422.101239
423.859352	5192.816960
424.237866	5449.086536
424.616319	5441.159322
424.994712	5548.795518
425.373044	5425.413278
425.751314	5569.628086
426.129524	5377.171956
426.507673	5566.500050
426.885762	5652.202186
427.263789	5585.187607
427.641756	5463.365604
428.019662	5587.022587
428.397508	5592.676242
428.775292	5542.121030
429.153016	5638.926307
429.530679	5564.912087
429.908282	5649.439634
430.285824	5522.057238
430.663305	5795.028157
431.040726	5527.983114
431.418086	5529.069483
431.795385	5635.374815
432.172624	5644.620291
432.549802	5638.255834
432.926920	5656.111601
433.303977	5664.217776
433.680974	5704.332758
434.057910	5717.797680
434.434786	5725.558536
434.811601	5694.119380
435.188355	5927.781902
435.565050	5804.422347
435.941683	5783.330159
436.318257	5999.388972
436.694770	5980.640921
437.071222	6014.013359
437.447614	5945.652793
437.823946	5854.909503
438.200218	6008.871382
438.576429	5876.669643
438.952580	5976.991126
439.328670	6018.442013
439.704700	5928.185195
440.080670	5913.001239
440.456580	6184.956366
440.832429	6067.189971
441.208218	5913.311270
441.583947	6066.189302
441.959616	6069.254323
442.335224	6001.465928
442.710773	6137.080528
443.086261	6160.718498
443.461689	5956.637467
443.837057	6109.863338
444.212365	6255.368682
444.587612	6155.936964
444.962800	6306.846425
445.337927	6286.147447
445.712995	5895.142952
446.088002	6470.532690
446.462949	6301.628830
446.837837	6226.707202
447.212664	6402.719088
447.587431	6544.609925
447.962139	7087.443892
448.336786	8009.044953
448.711374	7749.498627
449.085901	6818.392470
449.460369	6742.611325
449.834776	6671.621796
450.209124	7054.648666
450.583412	7206.132818
450.957640	7346.849066
451.331808	7117.184179
451.705917	6660.480846
452.079965	6585.375216
452.453954	6788.052286
452.827883	6660.511093
453.201752	6749.822695
453.575562	6548.395832
453.949311	6744.665595
454.323001	6626.808459
454.696632	6693.024015
455.070202	6823.294992
455.443713	6966.481405
455.817164	7058.142185
456.190556	7122.555528
456.563888	7190.699326
456.937160	7222.786270
457.310373	6878.548559
457.683526	6893.888790
458.056619	6775.051150
458.429653	6748.690956
458.802628	6680.927766
459.175542	6776.510564
459.548398	7093.795746
459.921194	7227.928247
460.293930	7216.666309
460.666607	7685.314656
461.039224	7949.879451
461.411782	8046.200777
461.784280	8045.263123
462.156719	7929.394722
462.529099	7796.472098
462.901419	7393.691467
463.273680	7277.215608
463.645882	7262.104749
464.018024	7111.044054
464.390106	7235.711788
464.762130	7556.177938
465.134094	7928.857839
465.505999	8762.130323
465.877845	9761.617211
466.249631	10288.672366
466.621358	9931.640207
466.993026	9357.659471
467.364634	9100.999205
467.736184	8739.225841
468.107674	8414.598218
468.479105	8370.122638
468.850477	8144.029409
469.221790	7910.066938
469.593043	7587.165911
469.964238	7415.537308
470.335373	7379.919035
470.706449	7374.144393
471.077467	7302.537324
471.448425	8239.070282
471.819324	8971.640677
472.190164	8950.795506
472.560945	7955.097045
472.931667	7298.373331
473.302330	7141.653940
473.672934	6827.322874
474.043479	7014.815988
474.413965	6916.604229
474.784393	6761.843327
475.154761	6806.182795
475.525070	6799.410005
475.895321	6620.476770
476.265513	6671.188257
476.635645	6720.841102
477.005719	6634.413040
477.375734	6645.382591
477.745691	6710.678136
478.115588	6710.259720
478.485427	6770.390603
478.855207	6998.833010
479.224928	7352.288471
479.594591	7624.228474
479.964194	7417.906650
480.333739	7297.571787
480.703226	7135.889380
481.072653	7096.051662
481.442022	7103.890656
481.811333	7108.452901
482.180584	6918.103972
482.549777	6681.966244
482.918912	6511.481983
483.287988	6436.262926
483.657005	6345.766653
484.025964	6117.856087
484.394864	6077.839408
484.763706	5975.231763
485.132489	5796.916069
485.501213	5693.090985
485.869879	5645.870497
486.238487	5492.536241
486.607036	5461.250840
486.975527	5295.568278
487.343959	5280.505310
487.712333	5217.072471
488.080648	5119.516062
488.448905	5045.418662
488.817104	4958.783913
489.185244	4957.579077
489.553326	4923.805867
489.921350	4999.713041
490.289315	5199.148649
490.657222	5215.240012
491.025070	5097.909677
491.392861	4987.952029
491.760593	4816.308302
492.128267	4652.942150
492.495883	4503.582844
492.863440	4362.695197
493.230939	4225.051532
493.598380	4155.556706
493.965763	4062.567582
494.333088	4000.382429
494.700354	3924.268567
495.067563	3888.128536
495.434713	3800.546049
495.801805	3777.134931
496.168839	3718.632340
496.535815	3656.996673
496.902733	3618.585601
497.269593	3562.512847
497.636395	3538.043086
498.003139	3485.534428
498.369825	3434.964093
498.736453	3411.051380
499.103023	3367.979761
499.469535	3333.934329
499.835989	3297.912764
500.202385	3261.248452
500.568723	3213.191132
500.935003	3201.898948
501.301226	3156.258861
501.667390	3152.203253
502.033497	3125.190230
502.399546	3087.439550
502.765537	3054.369580
503.131470	3032.052392
503.497345	3019.136956
503.863163	2982.848210
504.228923	2971.651808
504.594625	2954.063222
504.960269	2921.328489
505.325856	2913.000503
505.691385	2884.959085
506.056856	2876.366438
506.422270	2858.810620
506.787625	2839.979390
507.152924	2830.683502
507.518164	2813.987200
507.883347	2798.329377
508.248472	2784.582150
508.613540	2777.446397
508.978550	2764.281423
509.343503	2752.563261
509.708398	2749.198291
510.073236	2741.109760
510.438016	2733.255642
510.802738	2723.780793
511.167403	2716.876933
511.532010	2708.390151
511.896561	2706.149358
512.261053	2703.044007
512.625488	2689.100176
512.989866	2684.311079
513.354186	2682.970132
513.718449	2671.524193
514.082655	2675.975532
514.446803	2671.143586
514.810894	2669.021260
515.174927	2664.637977
515.538904	2659.901812
515.902822	2658.749909
516.266684	2654.011224
516.630488	2648.871768
516.994235	2646.363794
517.357925	2648.861686
517.721558	2646.673825
518.085133	2644.793474
518.448651	2643.253402
518.812112	2640.294245
519.175516	2639.830458
519.538863	2636.888945
519.902152	2634.927936
520.265385	2634.844757
520.628560	2632.790487
520.991678	2629.803603
521.354739	2631.724283
521.717743	2628.223202
522.080690	2627.154477
522.443580	2630.060702
522.806413	2626.761267
523.169189	2626.461318
523.531908	2625.301853
523.894569	2624.326390
524.257174	2621.979733
524.619722	2622.231790
524.982213	2622.251955
525.344647	2623.237501
525.707025	2621.243724
526.069345	2618.433281
526.431608	2619.733899
526.793815	2620.147273
527.155964	2616.482354
527.518057	2616.109309
527.880093	2614.964967
528.242072	2616.091665
528.603995	2614.670060
528.965860	2615.055708
529.327669	2615.824484
529.689421	2612.577981
530.051117	2613.951695
530.412755	2611.010182
530.774337	2611.105964
531.135862	2609.928854
531.497331	2608.020778
531.858743	2605.918617
532.220098	2606.881477
532.581396	2608.464399
532.942638	2605.422063
533.303824	2609.555809
533.664953	2608.252671
534.026025	2607.282249
534.387040	2609.094543
534.747999	2606.778133
535.108902	2608.464399
535.469748	2604.749069
535.830537	2607.143617
536.191270	2606.742845
536.551947	2608.386261
536.912567	2607.456168
537.273131	2607.748555
537.633638	2604.557505
537.994089	2607.340222
538.354483	2605.858123
538.714821	2606.624378
539.075103	2606.684872
539.435328	2605.848040
539.795497	2604.350818
540.155609	2605.220417
540.515665	2605.263267
540.875665	2602.583893
541.235609	2605.406939
541.595496	2605.984152
541.955328	2604.234871
542.315102	2606.924327
542.674821	2604.988524
543.034483	2604.670931
543.394090	2604.028184
543.753640	2604.186980
544.113134	2603.783688
544.472571	2602.730087
544.831953	2603.382916
545.191278	2604.171857
545.550548	2602.528441
545.909761	2604.204624
546.268918	2604.310488
546.628019	2604.587752
546.987064	2605.167485
547.346053	2603.750920
547.704986	2604.164295
548.063863	2605.230499
548.422684	2602.309150
548.781449	2604.292844
549.140158	2601.452154
549.498811	2600.433841
549.857408	2602.725046
550.215949	2601.714294
550.574434	2600.370827
550.932864	2601.177411
551.291237	2602.785539
551.649555	2603.196393
552.007817	2603.221599
552.366022	2602.387288
552.724173	2603.037597
553.082267	2606.936930
553.440305	2603.529110
553.798288	2603.135900
554.156215	2601.263111
554.514086	2603.375354
554.871902	2602.546085
555.229661	2602.389809
555.587365	2603.176229
555.945014	2600.985847
556.302606	2602.914089
556.660143	2601.500045
557.017625	2602.674634
557.375050	2600.640528
557.732421	2603.922320
558.089735	2602.561208
558.446994	2603.476177
558.804197	2604.819645
559.161345	2604.590273
559.518437	2604.711260
559.875474	2601.137082
560.232455	2607.133535
560.589381	2605.180087
560.946251	2603.151023
561.303065	2604.333174
561.659825	2601.812597
562.016528	2603.415684
562.373177	2601.353852
562.729770	2603.145982
563.086307	2603.052721
563.442789	2603.642536
563.799216	2604.126486
564.155587	2603.115735
564.511904	2601.626074
564.868164	2603.140941
565.224370	2603.145982
565.580520	2599.261773
565.936615	2604.267639
566.292654	2600.411156
566.648638	2603.483739
567.004567	2602.926692
567.360441	2603.841661
567.716260	2601.792432
568.072023	2603.289655
568.427732	2598.724890
568.783385	2598.772781
569.138982	2596.322780
569.494525	2599.138265
569.850013	2597.134406
570.205445	2601.114397
570.560823	2600.244798
570.916145	2601.063985
571.271412	2598.452668
571.626625	2598.868563
571.981782	2598.903851
572.336884	2600.524582
572.691931	2597.744386
573.046923	2599.753285
573.401860	2598.876125
573.756743	2595.213726
574.111570	2599.009715
574.466342	2598.268666
574.821059	2599.339911
575.175722	2597.734303
575.530330	2597.527616
575.884882	2597.313367
576.239380	2596.849581
576.593823	2595.377564
576.948211	2600.650611
577.302544	2596.748758
577.656823	2597.293202
578.011047	2600.496856
578.365216	2600.385950
578.719330	2598.646752
579.073389	2597.056268
579.427394	2596.471494
579.781344	2593.746751
580.135239	2597.797318
580.489080	2594.858325
580.842866	2594.235742
581.196597	2594.515527
581.550273	2595.090218
581.903895	2596.010229
582.257463	2596.635332
582.610975	2594.825557
582.964434	2594.636514
583.317837	2593.799683
583.671186	2592.373036
584.024481	2594.825557
584.377721	2596.085846
584.730906	2592.867069
585.084037	2593.270362
585.437113	2591.642069
585.790135	2593.403952
586.143103	2591.982347
586.496016	2591.548807
586.848874	2589.557552
587.201679	2594.760022
587.554428	2590.038982
587.907124	2594.959148
588.259765	2587.513364
588.612352	2590.134764
588.964884	2591.420258
589.317362	2592.766246
589.669786	2590.437233
590.022155	2592.173911
590.374470	2592.375557
590.726731	2591.432861
591.078937	2588.987901
591.431090	2587.838518
591.783188	2591.967223
592.135232	2590.202819
592.487222	2593.310691
592.839157	2592.063005
593.191038	2589.003025
593.542866	2588.009917
593.894639	2589.875144
594.246358	2588.871955
594.598022	2590.487645
594.949633	2585.915318
595.301190	2587.722572
595.652692	2588.438416
596.004141	2590.464959
596.355535	2590.820361
596.706876	2588.582088
597.058162	2588.980340
597.409395	2588.854311
597.760573	2587.636872
598.111698	2589.471852
598.462768	2589.396235
598.813785	2588.864393
599.164748	2586.842890
599.515657	2589.066039
599.866511	2587.881368
600.217312	2585.902715
600.568060	2587.276430
600.918753	2589.066039
601.269392	2586.724423
601.619978	2586.616038
601.970510	2588.703076
602.320988	2588.801379
602.671412	2589.290371
603.021783	2587.800710
603.372100	2588.347675
603.722363	2587.571337
604.072572	2586.658888
604.422728	2589.053436
604.772830	2586.326172
605.122878	2582.114288
605.472872	2583.331727
605.822813	2584.899526
606.172701	2584.914649
606.522534	2585.554876
606.872314	2586.129567
607.222041	2584.934814
607.571714	2588.652665
607.921333	2586.149732
608.270899	2587.099989
608.620411	2586.358940
608.969870	2588.698035
609.319276	2589.681060
609.668627	2591.198447
610.017926	2595.201123
610.367171	2595.838829
610.716362	2594.389498
611.065500	2592.292378
611.414585	2589.358426
611.763616	2592.128540
612.112594	2589.660895
612.461518	2591.894127
612.810389	2588.524115
613.159207	2592.393201
613.507971	2587.115113
613.856682	2587.399938
614.205340	2591.132912
614.553945	2590.623756
614.902496	2588.592171
615.250994	2588.186358
615.599439	2588.032603
615.947830	2589.507140
616.296169	2589.060998
616.644454	2589.517222
616.992686	2589.504620
617.340864	2588.093097
617.688990	2588.385483
618.037063	2590.480083
618.385082	2587.089907
618.733048	2588.617377
619.080961	2587.757860
619.428821	2589.008066
619.776628	2588.929928
620.124382	2591.127871
620.472083	2589.812130
620.819731	2587.442788
621.167326	2584.402972
621.514868	2589.655854
621.862357	2585.522108
622.209793	2586.500092
622.557176	2590.858169
622.904506	2585.196954
623.251783	2580.768300
623.599007	2580.433063
623.946179	2584.677715
624.293297	2577.665470
624.640363	2586.563106
624.987376	2582.245358
625.334336	2584.385328
625.681243	2584.264340
626.028097	2582.376428
626.374899	2580.385172
626.721647	2581.227045
627.068343	2584.460945
627.414987	2580.949782
627.761577	2581.516911
628.108115	2581.879874
628.454600	2581.257292
628.801032	2582.245358
629.147412	2581.595049
629.493739	2581.574885
629.840014	2580.455748
630.186236	2580.770821
630.532405	2582.167220
630.878521	2579.835687
631.224585	2583.082190
631.570597	2578.167065
631.916556	2577.433577
632.262462	2580.702765
632.608316	2580.750656
632.954117	2580.475913
633.299866	2578.993814
633.645562	2577.834348
633.991206	2576.662280
634.336797	2577.685634
634.682336	2577.610017
635.027823	2577.516756
635.373257	2578.366190
635.718639	2577.804102
636.063968	2574.855027
636.409245	2575.033987
636.754470	2573.304872
637.099642	2574.653380
637.444762	2576.967270
637.789829	2574.736559
638.134845	2574.101374
638.479808	2574.784450
638.824719	2575.507856
639.169577	2574.010633
639.514383	2569.781105
639.859137	2571.149778
640.203839	2572.740262
640.548489	2574.297979
640.893086	2571.865622
641.237632	2566.181721
641.582125	2570.592731
641.926566	2568.057031
642.270955	2570.749007
642.615292	2571.469892
642.959576	2570.373441
643.303809	2575.452403
643.647990	2572.788153
643.992118	2570.806980
644.336195	2573.279666
644.680219	2571.754717
645.024192	2572.054666
645.368112	2571.422001
645.711981	2571.606003
646.055797	2572.158009
646.399562	2574.789492
646.743274	2571.981569
647.086935	2574.902918
647.430544	2576.712692
647.774101	2574.345870
648.117606	2574.799574
648.461059	2575.656570
648.804460	2578.857703
649.147810	2576.367373
649.491108	2570.864953
649.834354	2575.177660
650.177548	2574.340829
650.520690	2571.132134
650.863781	2568.639284
651.206820	2573.909810
651.549807	2573.171281
651.892742	2571.779923
652.235626	2570.302865
652.578458	2571.278328
652.921238	2567.931002
653.263967	2571.928637
653.606644	2569.443348
653.949269	2570.771692
654.291843	2568.752710
654.634365	2569.115673
654.976836	2569.831517
655.319255	2568.301527
655.661622	2567.426886
656.003938	2565.833882
656.346203	2566.219530
656.688416	2567.182390
657.030577	2567.250446
657.372687	2569.334963
657.714746	2565.518810
658.056753	2569.869325
658.398708	2567.394119
658.740612	2567.164746
659.082465	2561.301884
659.424266	2566.012843
659.766016	2562.718449
660.107715	2567.346228
660.449362	2567.709191
660.790958	2574.091292
661.132503	2566.703481
661.473996	2568.959397
661.815438	2569.501321
662.156829	2567.777247
662.498168	2568.999726
662.839456	2565.788511
663.180693	2564.928995
663.521879	2567.106773
663.863013	2567.913358
664.204097	2568.057031
664.545129	2568.493090
664.886110	2568.760272
665.227040	2568.830848
665.567918	2569.337484
665.908746	2569.642473
666.249522	2568.051989
666.590248	2564.760116
666.930922	2570.166753
667.271545	2570.186918
667.612118	2568.281362
667.952639	2571.071641
668.293109	2568.356979
668.633528	2570.275138
668.973896	2565.397822
669.314213	2570.189439
669.654480	2568.931671
669.994695	2570.353276
670.334859	2570.063410
670.674973	2568.256156
671.015035	2569.992834
671.355047	2571.479974
671.695008	2567.628532
672.034918	2567.585683
672.374777	2572.899059
672.714585	2568.838409
673.054342	2568.515776
673.394049	2567.434448
673.733705	2568.233471
674.073310	2567.273131
674.412864	2568.064592
674.752368	2566.065775
675.091820	2566.383368
675.431223	2568.359500
675.770574	2565.785991
676.109875	2560.631411
676.449125	2564.044272
676.788324	2563.726679
677.127473	2566.640466
677.466571	2561.929508
677.805619	2565.105435
678.144616	2567.484860
678.483562	2566.872359
678.822458	2565.307081
679.161303	2566.378326
679.500098	2565.218861
679.838842	2564.124931
680.177535	2566.007802
680.516179	2565.596947
680.854771	2565.569221
681.193314	2568.069633
681.531805	2566.826989
681.870247	2568.977041
682.208638	2570.277659
682.546978	2571.016188
682.885268	2568.843451
683.223508	2569.302196
683.561697	2567.343707
683.899836	2568.488049
684.237925	2566.378326
684.575963	2570.358317
684.913951	2568.576269
685.251889	2569.161043
685.589776	2567.532751
685.927614	2567.931002
686.265401	2567.666341
686.603137	2568.349418
686.940824	2566.869839
687.278460	2570.864953
687.616046	2571.157340
687.953582	2565.760785
688.291068	2569.423183
688.628504	2569.793708
688.965889	2567.010991
689.303224	2569.345045
689.640510	2568.225909
689.977745	2566.229612
690.314930	2565.788511
690.652065	2567.603327
690.989150	2566.771536
691.326185	2563.232646
691.663170	2562.388253
692.000105	2564.984447
692.336990	2562.930177
692.673825	2563.865311
693.010610	2562.053016
693.347345	2560.013870
693.684030	2556.532953
694.020665	2556.238045
694.357251	2553.856100
694.693786	2558.811554
695.030272	2557.926832
695.366707	2559.449260
695.703093	2560.149981
696.039429	2559.552604
696.375716	2557.417675
696.711952	2556.810216
697.048139	2557.427758
697.384276	2561.995043
697.720363	2558.720814
698.056400	2557.405073
698.392388	2557.823488
698.728326	2558.526729
699.064214	2558.579661
699.400053	2557.757953
699.735842	2558.662840
700.071581	2557.861297
700.407270	2559.350958
700.742910	2556.366595
701.078501	2557.939435
701.414042	2556.931204
701.749533	2552.530277
702.084974	2556.233004
702.420366	2555.708724
702.755709	2553.246121
703.091002	2556.391801
703.426246	2555.091183
703.761440	2556.243087
704.096584	2557.147974
704.431679	2557.621842
704.766725	2560.724672
705.101721	2554.710576
705.436668	2554.743343
705.771565	2553.765359
706.106413	2555.640669
706.441212	2555.224773
706.775961	2556.142263
707.110661	2554.574465
707.445311	2557.057233
707.779913	2555.381049
708.114465	2556.245607
708.448967	2554.304763
708.783421	2558.728375
709.117825	2555.602860
709.452180	2555.771739
709.786485	2559.512275
710.120742	2558.446071
710.454949	2556.477500
710.789107	2559.487069
711.123216	2555.781821
711.457275	2556.142263
711.791286	2556.676626
712.125247	2555.421378
712.459159	2558.650237
712.793023	2563.305743
713.126837	2558.488921
713.460602	2559.224929
713.794318	2559.023283
714.127985	2557.122768
714.461602	2561.564024
714.795171	2559.855073
715.128691	2558.209137
715.462162	2556.754764
715.795584	2556.555638
716.128957	2556.671585
716.462281	2557.465566
716.795556	2558.874569
717.128782	2555.186965
717.461960	2555.013045
717.795088	2554.408107
718.128167	2555.038251
718.461198	2552.197561
718.794180	2554.526574
719.127113	2549.843342
719.459997	2552.580688
719.792833	2550.554144
720.125619	2554.418189
720.458357	2551.869886
720.791046	2553.142777
721.123686	2553.115051
721.456278	2552.643703
721.788821	2550.163455
722.121315	2551.741336
722.453761	2551.809392
722.786158	2549.311500
723.118506	2548.779658
723.450805	2549.639175
723.783056	2552.759649
724.115259	2550.889381
724.447412	2552.217725
724.779518	2552.298384
725.111574	2552.396686
725.443582	2553.810730
725.775542	2551.597663
726.107453	2551.900133
726.439315	2552.989022
726.771129	2554.982798
727.102895	2553.344423
727.434612	2555.237376
727.766281	2555.325597
728.097901	2553.412479
728.429473	2549.893753
728.760996	2552.152190
729.092471	2549.457693
729.423897	2555.328117
729.755276	2550.463404
730.086606	2555.376008
730.417887	2554.687891
730.749120	2554.738302
731.080305	2553.162942
731.411442	2556.840463
731.742530	2556.230484
732.073570	2555.418858
732.404562	2556.404403
732.735506	2552.910884
733.066401	2553.828374
733.397249	2556.921122
733.728048	2554.503888
734.058798	2553.220915
734.389501	2552.777293
734.720156	2554.236707
735.050762	2551.297715
735.381320	2552.177396
735.711831	2548.852755
736.042293	2552.348795
736.372707	2550.402910
736.703073	2547.804195
737.033391	2551.630431
737.363661	2549.714792
737.693883	2549.513146
738.024056	2552.563044
738.354182	2551.499361
738.684260	2554.660164
739.014290	2550.405430
739.344272	2552.026161
739.674207	2554.521532
740.004093	2553.982129
740.333931	2552.197561
740.663722	2551.935421
740.993464	2550.395348
741.323159	2553.387273
741.652806	2554.045143
741.982405	2553.223435
742.311956	2550.236552
742.641460	2550.506253
742.970915	2553.147818
743.300323	2550.473486
743.629683	2551.232180
743.958996	2549.709751
744.288260	2549.555996
744.617477	2548.325954
744.946647	2548.469627
745.275768	2549.003990
745.604842	2545.646581
745.933869	2548.146993
746.262847	2545.364277
746.591778	2546.974925
746.920662	2549.379556
747.249498	2546.662374
747.578286	2548.489792
747.907027	2548.409133
748.235720	2549.913918
748.564365	2549.946685
748.892963	2548.603218
749.221514	2547.582384
749.550017	2547.310162
749.878473	2549.881150
750.206881	2547.189174
750.535242	2550.067673
750.863555	2550.566747
751.191821	2547.864689
751.520039	2550.319731
751.848210	2550.211346
752.176334	2551.075904
752.504411	2549.334185
752.832440	2548.169679
753.160421	2550.773435
753.488356	2546.130532
753.816243	2550.014741
754.144082	2547.237065
754.471875	2549.772766
754.799620	2545.709596
755.127318	2545.608772
755.454969	2547.784030
755.782572	2547.975594
756.110129	2548.578012
756.437638	2545.023999
756.765100	2548.212528
757.092515	2549.571119
757.419882	2546.690100
757.747203	2547.889895
758.074477	2547.259750
758.401703	2545.777651
758.728882	2548.308310
759.056014	2552.565565
759.383099	2548.993907
759.710138	2549.813095
760.037129	2548.540203
760.364073	2549.155224
760.690970	2548.819987
761.017820	2549.180430
761.344623	2550.493651
761.671379	2550.770914
761.998088	2544.966025
762.324751	2548.520039
762.651366	2551.088507
762.977935	2560.223077
763.304456	2563.714077
763.630931	2567.744479
763.957359	2566.143913
764.283740	2561.823644
764.610074	2554.708055
764.936362	2556.101934
765.262602	2552.893240
765.588796	2550.022303
765.914943	2548.031047
766.241044	2550.055070
766.567097	2546.312013
766.893104	2545.921324
767.219064	2545.286139
767.544978	2548.646068
767.870845	2546.644730
768.196665	2544.179605
768.522438	2545.966694
768.848165	2544.325799
769.173846	2547.239586
769.499479	2545.089534
769.825066	2543.519214
770.150607	2545.316386
770.476101	2542.359749
770.801548	2546.120450
771.126949	2541.994265
771.452303	2543.357897
771.777611	2540.917979
772.102872	2541.724563
772.428087	2544.277908
772.753256	2543.798998
773.078378	2542.137938
773.403453	2543.741025
773.728482	2541.412012
774.053465	2542.785726
774.378401	2540.297917
774.703291	2541.240613
775.028135	2540.229861
775.352932	2542.034594
775.677683	2540.991076
776.002388	2542.339584
776.327046	2541.795140
776.651658	2543.584749
776.976224	2542.087527
777.300743	2540.063503
777.625216	2541.883360
777.949643	2540.585263
778.274024	2540.060983
778.598359	2539.783719
778.922647	2537.600900
779.246889	2538.278935
779.571086	2534.614016
779.895236	2540.144162
780.219339	2539.718184
780.543397	2541.989224
780.867409	2542.014430
781.191374	2542.105171
781.515294	2542.581560
781.839167	2540.842362
782.162995	2544.436704
782.486776	2542.180788
782.810511	2541.469985
783.134201	2540.744059
783.457844	2537.885725
783.781441	2542.175747
784.104993	2541.790098
784.428498	2540.517207
784.751958	2540.169368
785.075372	2540.187012
785.398739	2542.165664
785.722061	2539.650129
786.045337	2540.086188
786.368568	2543.516694
786.691752	2536.998482
787.014891	2542.251364
787.337983	2539.710623
787.661030	2540.454193
787.984031	2544.492157
788.306987	2544.469472
788.629897	2543.743546
788.952760	2543.965356
789.275579	2545.583567
789.598351	2543.481406
789.921078	2543.294883
790.243759	2542.407640
790.566395	2539.198945
790.888984	2540.212217
791.211529	2538.591486
791.534027	2541.543082
791.856480	2539.491332
792.178888	2542.833617
792.501249	2540.383617
792.823566	2540.988555
793.145836	2540.555016
793.468062	2540.464275
793.790241	2538.936805
794.112375	2539.740869
794.434464	2538.997299
794.756507	2542.594163
795.078505	2540.688606
795.400457	2536.965714
795.722364	2537.800025
796.044226	2539.544264
796.366042	2538.483102
796.687812	2537.832793
797.009538	2542.223638
797.331218	2542.379913
797.652852	2542.200952
797.974442	2540.275232
798.295986	2541.825387
798.617484	2542.102650
798.938938	2539.939995
799.260346	2540.431508
799.581709	2537.006043
799.903026	2542.485778
800.224299	2537.167360
800.545526	2539.627443
800.866708	2540.923020
801.187845	2540.940664
801.508936	2541.512835
801.829983	2537.961342
802.150984	2538.684748
802.471940	2540.575180
802.792851	2540.030736
803.113717	2540.822197
803.434538	2539.970242
803.755314	2538.213400
804.076045	2540.723894
804.396731	2541.502753
804.717372	2541.505273
805.037967	2539.650129
805.358518	2539.395550
805.679024	2539.161137
805.999485	2540.844882
806.319901	2536.322967
806.640272	2539.798843
806.960598	2536.703574
807.280879	2536.529654
807.601115	2538.578883
807.921306	2540.388658
808.241453	2539.519059
808.561554	2539.612320
808.881611	2539.040149
809.201623	2540.456713
809.521590	2538.387320
809.841513	2540.905376
810.161390	2539.733308
810.481223	2538.689789
810.801011	2536.796836
811.120755	2536.363296
811.440453	2539.854295
811.760107	2538.594007
812.079716	2533.557894
812.399281	2532.605116
812.718801	2536.310364
813.038276	2534.414890
813.357707	2538.783050
813.677093	2540.003009
813.996434	2538.893956
814.315731	2539.783719
814.634983	2538.805735
814.954191	2539.965201
815.273354	2539.319933
815.592473	2537.605941
815.911547	2539.191384
816.230577	2541.104502
816.549562	2540.035777
816.868502	2540.176929
817.187399	2539.650129
817.506250	2539.531662
817.825058	2539.224151
818.143821	2541.107022
818.462539	2541.104502
818.781213	2543.854451
819.099843	2543.375541
819.418429	2543.292362
819.736970	2546.543907
820.055466	2547.824360
820.373919	2551.854762
820.692327	2552.621017
821.010691	2560.984292
821.329011	2573.294789
821.647286	2597.895620
821.965517	2627.966103
822.283704	2644.599390
822.601847	2650.936120
822.919945	2635.583286
823.237999	2617.583847
823.556010	2603.670262
823.873976	2588.892119
824.191897	2579.626479
824.509775	2570.010478
824.827609	2566.471588
825.145398	2561.803479
825.463144	2564.813048
825.780845	2561.256514
826.098502	2566.320353
826.416116	2570.554922
826.733685	2579.540779
827.051210	2585.716192
827.368692	2581.874833
827.686129	2569.508883
828.003522	2563.348593
828.320872	2554.665205
828.638177	2551.796789
828.955439	2549.261088
829.272656	2545.291180
829.589830	2540.935623
829.906960	2542.410160
830.224046	2543.025181
830.541088	2543.700696
830.858086	2539.476209
831.175041	2540.960829
831.491952	2542.425284
831.808819	2542.402599
832.125642	2543.284801
832.442421	2543.796478
832.759157	2542.513504
833.075849	2553.651933
833.392497	2558.325083
833.709101	2561.621998
834.025662	2558.493962
834.342179	2559.245094
834.658653	2554.065308
834.975083	2549.543393
835.291469	2551.199412
835.607811	2543.481406
835.924110	2544.096426
836.240366	2544.197249
836.556578	2539.317413
836.872746	2539.037628
837.188871	2539.892104
837.504952	2541.827907
837.820990	2535.463450
838.136984	2536.615354
838.452935	2536.234747
838.768842	2538.384799
839.084706	2543.055428
839.400526	2540.489481
839.716303	2545.076931
840.032037	2544.958464
840.347727	2548.096582
840.663373	2545.543237
840.978977	2540.285314
841.294537	2541.580891
841.610054	2541.109543
841.925527	2539.105684
842.240957	2539.284645
842.556344	2538.485622
842.871687	2536.353214
843.186987	2538.599048
843.502244	2535.912113
843.817458	2534.513193
844.132629	2533.396577
844.447756	2536.426311
844.762840	2531.899355
845.077881	2533.078985
845.392879	2531.433048
845.707833	2533.560415
846.022745	2527.919364
846.337613	2532.342976
846.652438	2533.953625
846.967221	2535.476053
847.281960	2533.230219
847.596656	2537.462268
847.911309	2534.848430
848.225919	2534.518234
848.540485	2534.735004
848.855009	2533.608306
849.169490	2533.091588
849.483928	2534.583769
849.798323	2533.930940
850.112675	2532.892462
850.426984	2533.565456
850.741251	2533.225178
851.055474	2533.991433
851.369654	2530.568490
851.683792	2535.662576
851.997887	2533.285672
852.311938	2533.318439
852.625947	2532.698378
852.939914	2535.123172
853.253837	2534.467822
853.567718	2532.700898
853.881555	2534.868594
854.195350	2533.512524
854.509103	2534.046886
854.822812	2531.891793
855.136479	2535.415559
855.450103	2534.006557
855.763685	2534.248532
856.077224	2531.753161
856.390720	2535.322298
856.704173	2531.818696
857.017584	2533.600744
857.330953	2533.154602
857.644278	2535.236598
857.957561	2537.323636
858.270802	2534.044366
858.584000	2536.494366
858.897155	2535.997813
859.210268	2535.788605
859.523339	2534.193080
859.836367	2534.377082
860.149352	2533.381454
860.462295	2535.471012
860.775195	2531.654859
861.088054	2531.271731
861.400869	2534.177956
861.713642	2531.342307
862.026373	2534.417411
862.339062	2534.571166
862.651708	2533.787267
862.964312	2534.684592
863.276873	2535.518903
863.589392	2534.092257
863.901869	2532.093439
864.214303	2535.135775
864.526696	2533.225178
864.839045	2532.900024
865.151353	2532.733666
865.463619	2535.642411
865.775842	2537.394212
866.088023	2534.752648
866.400162	2532.960518
866.712258	2534.770292
867.024313	2533.772143
867.336325	2534.165353
867.648296	2534.858512
867.960224	2534.735004
868.272110	2534.523275
868.583954	2533.099149
868.895755	2534.949253
869.207515	2530.341638
869.519233	2534.888759
869.830909	2533.759540
870.142542	2534.072092
870.454134	2532.436237
870.765684	2535.574356
871.077191	2533.809952
871.388657	2535.518903
871.700081	2533.779705
872.011463	2537.169881
872.322803	2536.524613
872.634101	2535.450848
872.945357	2535.158461
873.256571	2536.733821
873.567744	2535.284489
873.878874	2537.739531
874.189963	2537.540406
874.501010	2537.608461
874.812015	2536.935467
875.122979	2534.777853
875.433900	2536.421270
875.744780	2538.314223
876.055618	2536.050745
876.366415	2536.784233
876.677169	2535.937319
876.987882	2535.922195
877.298554	2534.377082
877.609183	2535.100487
877.919771	2532.796680
878.230317	2532.925229
878.540822	2539.113246
878.851285	2538.626774
879.161707	2539.367824
879.472087	2542.931920
879.782425	2542.894111
880.092722	2550.034906
880.402977	2559.509754
880.713191	2569.234140
881.023363	2589.993612
881.333494	2598.992071
881.643583	2597.870414
881.953631	2596.436206
882.263637	2593.686257
882.573602	2590.757346
882.883526	2580.649833
883.193408	2573.146075
883.503248	2566.751372
883.813048	2560.389436
884.122806	2559.890361
884.432522	2553.041954
884.742197	2549.911397
885.051831	2548.802343
885.361424	2545.802857
885.670975	2545.245809
885.980485	2540.660880
886.289954	2544.464431
886.599382	2542.412681
886.908768	2542.364790
887.218113	2539.292207
887.527417	2542.974770
887.836680	2536.343132
888.145901	2539.037628
888.455082	2536.504449
888.764221	2535.902031
889.073319	2534.518234
889.382376	2538.825900
889.691392	2539.287166
890.000366	2534.740045
890.309300	2540.212217
890.618193	2537.752134
890.927044	2536.378420
891.235855	2538.026877
891.544625	2537.502597
891.853353	2538.359593
892.162041	2537.676517
892.470687	2538.687268
892.779293	2536.965714
893.087858	2537.699202
893.396381	2538.024357
893.704864	2543.357897
894.013306	2543.136087
894.321707	2551.733774
894.630068	2554.385421
894.938387	2560.278530
895.246665	2557.606719
895.554903	2554.254351
895.863100	2551.980791
896.171256	2547.973074
896.479371	2546.233876
896.787446	2547.032898
897.095480	2541.245654
897.403473	2540.794471
897.711425	2543.040305
898.019336	2541.596014
898.327207	2540.461754
898.635038	2539.657690
898.942827	2540.340767
899.250576	2536.950591
899.558284	2537.220293
899.865952	2536.262473
900.173579	2535.869263
900.481165	2538.755324
900.788711	2536.610313
901.096216	2536.075951
901.403681	2534.346835
901.711105	2535.430683
902.018489	2536.486805
902.325832	2539.355221
902.633135	2536.380940
902.940397	2537.212731
903.247619	2540.791950
903.554800	2539.781199
903.861941	2552.106820
904.169041	2560.744837
904.476101	2565.690209
904.783121	2565.148285
905.090100	2561.395146
905.397039	2555.749053
905.703938	2549.709751
906.010796	2547.473999
906.317614	2545.240768
906.624391	2542.289173
906.931129	2541.918648
907.237826	2536.726259
907.544483	2535.322298
907.851099	2536.078471
908.157675	2533.807431
908.464211	2534.072092
908.770707	2528.282327
909.077163	2533.731814
909.383578	2529.033459
909.689954	2528.985568
909.996289	2529.030938
910.302584	2533.010929
910.608839	2533.867925
910.915054	2533.966228
911.221229	2532.395908
911.527363	2533.255425
911.833458	2532.307688
912.139513	2536.481763
912.445527	2534.145189
912.751502	2534.397246
913.057436	2536.317926
913.363331	2535.221475
913.669186	2534.682072
913.975000	2536.350693
914.280775	2539.566950
914.586510	2540.612989
914.892205	2543.015099
915.197859	2549.860986
915.503475	2551.259906
915.809050	2558.219219
916.114585	2562.017728
916.420081	2565.607030
916.725536	2563.661144
917.030952	2561.107800
917.336328	2553.296532
917.641665	2554.846687
917.946961	2547.315203
918.252218	2547.413506
918.557435	2543.912424
918.862612	2542.881508
919.167750	2539.675334
919.472848	2539.448483
919.777906	2537.174922
920.082925	2539.166178
920.387904	2536.176774
920.692843	2534.735004
920.997743	2537.237937
921.302603	2532.864736
921.607423	2535.518903
921.912204	2534.671989
922.216946	2533.220137
922.521647	2532.998326
922.826310	2538.238606
923.130932	2535.201310
923.435516	2533.217616
923.740059	2532.532019
924.044564	2532.912627
924.349028	2535.405477
924.653454	2527.321987
924.957840	2530.321473
925.262186	2530.618902
925.566493	2529.058664
925.870761	2528.602440
926.174989	2531.685106
926.479178	2528.884745
926.783328	2531.395239
927.087438	2533.804911
927.391509	2530.603778
927.695541	2531.498583
927.999533	2530.074457
928.303486	2528.529343
928.607400	2532.302647
928.911275	2530.258459
929.215110	2533.618388
929.518906	2531.024714
929.822663	2531.717873
930.126381	2531.387677
930.430060	2530.830630
930.733699	2530.482790
931.037299	2532.700898
931.340861	2529.088911
931.644383	2528.017666
931.947866	2531.191072
932.251309	2530.631504
932.554714	2533.003367
932.858080	2531.730476
933.161407	2530.460105
933.464694	2528.325177
933.767943	2532.476567
934.071153	2530.689478
934.374323	2530.359282
934.677455	2528.264683
934.980548	2529.083870
935.283602	2529.613191
935.586617	2528.957841
935.889593	2529.577903
936.192530	2529.966072
936.495428	2529.981196
936.798287	2527.042203
937.101108	2529.361134
937.403890	2527.674868
937.706632	2531.407842
938.009336	2531.811134
938.312002	2531.279293
938.614628	2531.896834
938.917216	2531.430527
939.219765	2532.963038
939.522275	2532.030425
939.824747	2531.788449
940.127179	2526.848118
940.429573	2527.982378
940.731929	2529.598068
941.034246	2529.295599
941.336524	2529.603109
941.638763	2532.325332
941.940964	2532.680733
942.243126	2532.249715
942.545250	2531.707791
942.847335	2529.963552
943.149381	2529.247708
943.451389	2530.891124
943.753359	2530.034128
944.055290	2530.177801
944.357182	2530.054292
944.659036	2531.581762
944.960851	2530.860877
945.262628	2528.526823
945.564367	2530.359282
945.866067	2529.605630
946.167729	2530.616381
946.469352	2531.299457
946.770937	2530.482790
947.072484	2529.973634
947.373992	2530.298788
947.675462	2529.139323
947.976893	2529.174611
948.278286	2530.981865
948.579641	2530.893644
948.880958	2530.573531
949.182236	2532.295085
949.483476	2531.440610
949.784678	2529.406504
950.085841	2531.778367
950.386967	2528.441123
950.688054	2527.697553
950.989103	2528.985568
951.290114	2527.926925
951.591087	2531.806093
951.892021	2531.712832
952.192917	2531.518748
952.493776	2529.066226
952.794596	2530.853315
953.095378	2530.147554
953.396122	2533.169725
953.696828	2529.235105
953.997496	2529.799714
954.298126	2527.500948
954.598718	2531.876669
954.899272	2530.444982
955.199788	2530.397091
955.500266	2530.757533
955.800706	2525.212264
956.101108	2523.689836
956.401472	2525.902902
956.701798	2524.814013
957.002087	2525.749147
957.302337	2526.611184
957.602550	2526.313756
957.902724	2527.992460
958.202861	2529.600588
958.502960	2527.190917
958.803022	2529.411545
959.103045	2528.736031
959.403031	2525.847449
959.702979	2527.241328
960.002889	2530.301309
960.302762	2526.742254
960.602596	2527.755526
960.902393	2530.636546
961.202153	2529.530012
961.501875	2526.485155
961.801559	2527.052285
962.101205	2528.678057
962.400814	2529.162008
962.700385	2527.843746
962.999918	2526.535567
963.299414	2526.838036
963.598873	2529.396422
963.898293	2527.964734
964.197677	2528.851977
964.497022	2527.836185
964.796331	2528.511699
965.095601	2526.389373
965.394835	2530.323994
965.694030	2528.297450
965.993189	2528.746113
966.292309	2528.504138
966.591393	2527.632018
966.890439	2528.005063
967.189447	2526.016328
967.488419	2527.899199
967.787353	2529.882893
968.086249	2527.821061
968.385108	2525.991122
968.683930	2526.767460
968.982714	2530.230733
969.281462	2529.217461
969.580172	2529.207378
969.878844	2525.476925
970.177480	2528.778880
970.476078	2528.468849
970.774639	2530.812986
971.073162	2529.093953
971.371649	2525.469363
971.670098	2524.884589
971.968510	2524.158663
972.266885	2523.951976
972.565223	2529.043541
972.863524	2528.693181
973.161788	2531.370033
973.460014	2528.370547
973.758204	2525.827285
974.056356	2527.185876
974.354471	2528.070598
974.652550	2525.476925
974.950591	2526.578417
975.248595	2528.068078
975.546563	2526.223015
975.844493	2525.663447
976.142386	2528.935156
976.440243	2525.602953
976.738062	2528.914992
977.035845	2528.499096
977.333590	2528.509179
977.631299	2526.280989
977.928971	2527.548839
978.226606	2526.550690
978.524204	2527.548839
978.821765	2525.618077
979.119290	2528.294930
979.416777	2523.553724
979.714228	2527.415248
980.011642	2527.732841
980.309020	2530.036648
980.606360	2528.541946
980.903664	2529.048582
981.200931	2526.336441
981.498162	2528.695701
981.795356	2528.584796
982.092513	2526.943900
982.389633	2527.344672
982.686717	2529.857687
982.983764	2529.585465
983.280775	2532.791639
983.577749	2529.673685
983.874686	2530.455064
984.171587	2528.791483
984.468451	2529.829961
984.765279	2528.877183
985.062070	2528.604961
985.358824	2529.827440
985.655543	2527.004394
985.952224	2527.808458
986.248869	2527.440454
986.545478	2524.592202
986.842050	2525.134126
987.138586	2524.990453
987.435086	2526.238139
987.731549	2521.756553
988.027975	2525.040865
988.324366	2525.965917
988.620719	2526.437264
988.917037	2526.873324
989.213318	2524.607326
989.509563	2528.163860
989.805772	2530.147554
990.101944	2527.919364
990.398080	2526.548170
990.694180	2524.970289
990.990244	2528.269724
991.286271	2526.389373
991.582262	2527.609333
991.878217	2526.986750
992.174136	2525.676050
992.470019	2526.404497
992.765865	2525.948272
993.061676	2524.708149
993.357450	2526.684281
993.653188	2527.533715
993.948890	2525.822244
994.244556	2526.535567
994.540186	2526.253262
994.835780	2526.409538
995.131337	2525.025741
995.426859	2527.445495
995.722345	2526.759898
996.017795	2525.187058
996.313208	2529.754344
996.608586	2526.701925
996.903928	2528.761236
997.199234	2525.981040
997.494504	2528.811648
997.789738	2527.899199
998.084936	2527.067409
998.380099	2525.197141
998.675225	2527.732841
998.970316	2525.481966
999.265371	2526.429703
999.560390	2526.142357
999.855373	2525.343334
1000.150320	2527.818541
1000.445232	2527.579086
1000.740108	2526.255783
1001.034948	2526.177645
1001.329752	2527.808458
1001.624521	2526.608664
1001.919254	2523.704959
1002.213951	2524.566996
1002.508613	2519.785462
1002.803239	2522.895854
1003.097829	2524.551873
1003.392384	2527.226205
1003.686903	2526.754857
1003.981386	2526.966586
1004.275834	2525.618077
1004.570246	2529.900537
1004.864623	2525.411390
1005.158964	2528.587317
1005.453270	2527.697553
1005.747540	2527.052285
1006.041775	2525.418951
1006.335974	2523.861235
1006.630138	2525.882738
1006.924266	2525.703777
1007.218359	2525.209743
1007.512416	2527.385001
1007.806438	2525.459281
1008.100425	2523.132788
1008.394376	2524.965248
1008.688292	2524.892151
1008.982172	2524.788807
1009.276017	2522.883251
1009.569827	2526.061698
1009.863602	2525.492048
1010.157341	2524.340144
1010.451045	2526.959024
1010.744714	2527.558921
1011.038347	2528.320135
1011.331945	2523.629342
1011.625508	2525.945752
1011.919036	2525.769312
1012.212528	2524.703108
1012.505986	2527.803417
1012.799408	2525.517254
1013.092795	2524.483817
1013.386147	2528.080681
1013.679464	2526.699404
1013.972745	2522.931142
1014.265992	2526.008766
1014.559204	2526.036493
1014.852380	2526.404497
1015.145521	2525.005577
1015.438628	2525.882738
1015.731699	2527.432892
1016.024736	2525.154291
1016.317737	2527.702594
1016.610703	2527.175793
1016.903635	2520.975174
1017.196531	2520.879392
1017.489393	2524.501461
1017.782219	2522.122037
1018.075011	2525.078673
1018.367768	2525.557583
1018.660490	2525.834847
1018.953177	2525.834847
1019.245829	2525.834847
