Dividing Wavelength (nm)	Counts (n)	Blue Motor Position (mm): 0.000000	Red Motor Position (mm): 16.300000	
326.493990	2129.063271
326.888308	2129.063271
327.282561	2129.063271
327.676750	2096.827613
328.070874	2094.531368
328.464933	2097.205700
328.858929	2103.696185
329.252859	2113.649943
329.646726	2125.630246
330.040528	2138.260857
330.434265	2157.618887
330.827938	2173.007009
331.221547	2189.771367
331.615091	2211.105530
332.008571	2228.805021
332.401986	2247.510222
332.795338	2267.206010
333.188625	2287.663013
333.581847	2303.567853
333.975006	2322.832622
334.368100	2341.621003
334.761129	2360.782428
335.154095	2376.783051
335.546996	2394.500186
335.939833	2408.292783
336.332606	2423.627973
336.725315	2436.122473
337.117960	2446.103957
337.510540	2453.491768
337.903056	2467.450723
338.295508	2472.829634
338.687896	2480.396406
339.080220	2489.619197
339.472480	2497.760661
339.864676	2501.118069
340.256807	2504.546054
340.648875	2506.746518
341.040879	2509.267094
341.432818	2510.718947
341.824694	2514.651047
342.216506	2514.527538
342.608253	2513.884791
342.999937	2513.108454
343.391557	2513.199194
343.783113	2513.272291
344.174605	2511.374297
344.566033	2510.623165
344.957397	2509.438494
345.348697	2507.331291
345.739934	2504.614109
346.131106	2503.270642
346.522215	2504.346928
346.913260	2499.714108
347.304241	2497.619508
347.695159	2495.822337
348.086012	2493.079949
348.476802	2491.925525
348.867528	2492.285968
349.258191	2489.087356
349.648789	2490.448467
350.039324	2485.946717
350.429796	2486.407982
350.820203	2485.669453
351.210548	2481.573516
351.600828	2484.588126
351.991045	2484.283136
352.381198	2481.006386
352.771288	2482.909422
353.161314	2481.734833
353.551276	2480.961016
353.941175	2481.271047
354.331010	2480.590491
354.720782	2481.833135
355.110490	2480.575367
355.500135	2481.704586
355.889717	2482.596870
356.279235	2484.295739
356.668689	2485.550986
357.058080	2483.254741
357.447408	2480.280460
357.836672	2478.473206
358.225873	2482.133084
358.615010	2481.334061
359.004084	2486.647437
359.393095	2486.544093
359.782043	2488.915956
360.170927	2485.712303
360.559748	2488.540390
360.948505	2486.370174
361.337199	2491.539877
361.725830	2490.251862
362.114398	2492.129692
362.502903	2492.648931
362.891344	2492.144815
363.279722	2491.454177
363.668037	2493.440392
364.056289	2494.388129
364.444478	2492.343941
364.832603	2494.161277
365.220665	2494.579693
365.608665	2496.160094
365.996601	2494.925012
366.384474	2497.191010
366.772284	2499.527585
367.160031	2496.959117
367.547715	2504.659480
367.935336	2504.898935
368.322893	2507.308606
368.710388	2509.161230
369.097820	2518.746984
369.485189	2520.501306
369.872495	2527.024559
370.259738	2532.048069
370.646918	2542.468134
371.034035	2546.185985
371.421090	2556.124619
371.808081	2567.767164
372.195010	2575.989286
372.581875	2591.899168
372.968678	2602.679675
373.355418	2614.463372
373.742096	2631.452061
374.128710	2646.625934
374.515262	2660.698315
374.901751	2674.221210
375.288177	2686.566996
375.674540	2711.447611
376.060841	2729.676423
376.447079	2748.051429
376.833254	2771.979265
377.219367	2782.132149
377.605417	2818.574650
377.991404	2827.754592
378.377329	2848.491378
378.763191	2866.059799
379.148991	2906.878022
379.534727	2932.222423
379.920402	2960.750312
380.306013	2970.951087
380.691563	3020.493027
381.077049	3041.159237
381.462474	3057.734551
381.847835	3098.983792
382.233134	3118.573716
382.618371	3119.201339
383.003545	3190.069880
383.388657	3194.831250
383.773706	3225.027762
384.158693	3244.325298
384.543618	3268.575769
384.928480	3306.197900
385.313280	3352.929396
385.698017	3350.015609
386.082692	3402.897313
386.467305	3409.559198
386.851856	3442.727470
387.236344	3460.764718
387.620770	3494.641272
388.005133	3522.145808
388.389435	3546.111453
388.773674	3560.017476
389.157851	3599.867797
389.541965	3617.297586
389.926018	3581.427256
390.310008	3651.620282
390.693936	3669.397911
391.077802	3713.082030
391.461606	3699.498641
391.845348	3762.253445
392.229027	3759.100203
392.612645	3771.728293
392.996200	3850.859285
393.379694	3891.138104
393.763125	3955.337199
394.146494	3921.816046
394.529801	3984.795181
394.913047	4032.139177
395.296230	3996.959485
395.679351	4049.110222
396.062410	4074.494952
396.445408	4051.393865
396.828343	4082.588525
397.211217	4108.880663
397.594028	4022.717261
397.976778	4086.818053
398.359466	4106.418059
398.742092	4131.850680
399.124656	4046.337587
399.507158	4118.063124
399.889598	4138.119355
400.271977	4189.841593
400.654294	4148.025222
401.036549	4142.845437
401.418742	4101.066874
401.800874	4183.018392
402.182944	4190.323023
402.564952	4231.300043
402.946898	4203.976989
403.328783	4175.779295
403.710606	4081.877722
404.092367	4231.116040
404.474067	4172.764685
404.855705	4160.963343
405.237282	4078.777412
405.618797	4136.670023
406.000250	4142.873163
406.381642	4177.357176
406.762972	4117.581694
407.144240	4093.651337
407.525447	4063.507757
407.906593	4070.963624
408.287677	4070.401535
408.668700	3985.105212
409.049661	3985.014471
409.430560	3972.628356
409.811399	3882.641240
410.192176	3953.245120
410.572891	3875.810476
410.953545	3897.931059
411.334138	3782.728091
411.714669	3782.685241
412.095139	3684.602031
412.475547	3718.050087
412.855894	3663.658558
413.236180	3628.652785
413.616405	3563.364802
413.996568	3562.321283
414.376670	3497.066067
414.756711	3436.458795
415.136691	3409.072727
415.516609	3398.503948
415.896466	3373.671224
416.276262	3345.176102
416.655997	3298.512661
417.035670	3312.232161
417.415283	3303.279072
417.794834	3245.842686
418.174324	3199.572455
418.553753	3138.098105
418.933121	3143.978611
419.312428	3121.976495
419.691674	3071.010429
420.070859	3063.599933
420.449983	3010.650174
420.829045	2999.849502
421.208047	2954.786627
421.586988	2936.192331
421.965867	2907.019174
422.344686	2894.484345
422.723444	2854.087059
423.102141	2805.069399
423.480777	2814.715647
423.859352	2770.615633
424.237866	2771.439862
424.616319	2751.925555
424.994712	2742.034812
425.373044	2716.821481
425.751314	2705.456199
426.129524	2679.675738
426.507673	2673.717095
426.885762	2665.008501
427.263789	2648.715492
427.641756	2633.486166
428.019662	2626.496607
428.397508	2614.077724
428.775292	2606.243771
429.153016	2601.452154
429.530679	2592.665423
429.908282	2582.870461
430.285824	2580.201170
430.663305	2577.214287
431.040726	2568.145251
431.418086	2564.578634
431.795385	2563.146947
432.172624	2556.938766
432.549802	2555.673436
432.926920	2555.585216
433.303977	2552.595812
433.680974	2548.487271
434.057910	2548.096582
434.434786	2547.950388
434.811601	2546.788402
435.188355	2546.642209
435.565050	2542.281611
435.941683	2543.380583
436.318257	2540.411343
436.694770	2540.035777
437.071222	2537.187525
437.447614	2537.384130
437.823946	2538.495704
438.200218	2540.618030
438.576429	2540.849923
438.952580	2536.874973
439.328670	2541.134748
439.704700	2537.827752
440.080670	2539.151054
440.456580	2536.935467
440.832429	2537.608461
441.208218	2536.622916
441.583947	2537.981507
441.959616	2539.317413
442.335224	2537.679038
442.710773	2538.757844
443.086261	2538.624254
443.461689	2536.292720
443.837057	2539.191384
444.212365	2539.153575
444.587612	2540.776827
444.962800	2537.931095
445.337927	2542.689944
445.712995	2537.432021
446.088002	2538.218441
446.462949	2535.586959
446.837837	2537.210210
447.212664	2535.818852
447.587431	2538.339429
447.962139	2542.538710
448.336786	2542.553833
448.711374	2543.085675
449.085901	2541.046528
449.460369	2540.623071
449.834776	2541.298586
450.209124	2541.593493
450.583412	2541.848072
450.957640	2539.773637
451.331808	2546.722867
451.705917	2539.577032
452.079965	2541.316230
452.453954	2543.100798
452.827883	2539.045190
453.201752	2542.198432
453.575562	2537.018646
453.949311	2540.194573
454.323001	2543.831766
454.696632	2541.412012
455.070202	2542.032074
455.443713	2542.359749
455.817164	2541.412012
456.190556	2539.723225
456.563888	2540.222300
456.937160	2538.183153
457.310373	2543.307486
457.683526	2542.183308
458.056619	2543.874616
458.429653	2543.572146
458.802628	2542.979811
459.175542	2545.568443
459.548398	2545.760007
459.921194	2544.797147
460.293930	2546.528783
460.666607	2545.790254
461.039224	2548.890564
461.411782	2552.598332
461.784280	2549.278733
462.156719	2550.738147
462.529099	2550.128167
462.901419	2548.416695
463.273680	2545.901159
463.645882	2549.205636
464.018024	2548.172199
464.390106	2550.057591
464.762130	2552.563044
465.134094	2552.973898
465.505999	2555.285267
465.877845	2558.662840
466.249631	2563.305743
466.621358	2560.656617
466.993026	2561.062430
467.364634	2562.660475
467.736184	2559.166956
468.107674	2555.156718
468.479105	2556.699311
468.850477	2556.288457
469.221790	2556.883313
469.593043	2554.327448
469.964238	2554.327448
470.335373	2554.385421
470.706449	2553.914073
471.077467	2555.315514
471.448425	2560.394477
471.819324	2563.703994
472.190164	2566.262380
472.560945	2557.117727
472.931667	2556.172510
473.302330	2557.571431
473.672934	2557.241235
474.043479	2557.760474
474.413965	2558.504044
474.784393	2554.123281
475.154761	2556.989177
475.525070	2553.329300
475.895321	2553.236038
476.265513	2554.909701
476.635645	2555.963302
477.005719	2559.429096
477.375734	2560.611246
477.745691	2557.117727
478.115588	2561.778273
478.485427	2563.852708
478.855207	2566.143913
479.224928	2569.128276
479.594591	2569.864284
479.964194	2570.761610
480.333739	2569.962587
480.703226	2568.215827
481.072653	2570.096177
481.442022	2566.642987
481.811333	2571.333781
482.180584	2567.217678
482.549777	2567.222720
482.918912	2565.158367
483.287988	2566.703481
483.657005	2566.237174
484.025964	2565.584345
484.394864	2564.467729
484.763706	2565.924622
485.132489	2566.872359
485.501213	2563.472101
485.869879	2563.784653
486.238487	2564.676937
486.607036	2564.747513
486.975527	2562.990671
487.343959	2564.399673
487.712333	2562.415979
488.080648	2560.563355
488.448905	2566.196845
488.817104	2563.739282
489.185244	2565.206258
489.553326	2562.693243
489.921350	2564.644169
490.289315	2570.650704
490.657222	2571.411918
491.025070	2571.089285
491.392861	2571.033832
491.760593	2566.448902
492.128267	2570.123904
492.495883	2567.487380
492.863440	2567.071485
493.230939	2566.378326
493.598380	2563.943449
493.965763	2558.433468
494.333088	2562.688202
494.700354	2560.865825
495.067563	2560.112172
495.434713	2557.820968
495.801805	2563.409087
496.168839	2561.271638
496.535815	2565.420507
496.902733	2562.829354
497.269593	2564.303892
497.636395	2563.880435
498.003139	2563.570404
498.369825	2561.536298
498.736453	2565.415466
499.103023	2565.702812
499.469535	2564.364385
499.835989	2563.348593
500.202385	2563.005794
500.568723	2562.536967
500.935003	2563.585527
501.301226	2562.746175
501.667390	2562.791545
502.033497	2567.754561
502.399546	2561.833726
502.765537	2563.827503
503.131470	2565.438151
503.497345	2562.229457
503.863163	2563.666186
504.228923	2563.295661
504.594625	2564.593758
504.960269	2563.956052
505.325856	2562.063099
505.691385	2565.002091
506.056856	2566.960580
506.422270	2564.767678
506.787625	2561.911864
507.152924	2564.717266
507.518164	2566.325394
507.883347	2562.504200
508.248472	2564.092163
508.613540	2565.027297
508.978550	2562.388253
509.343503	2564.487894
509.708398	2565.279355
510.073236	2564.394632
510.438016	2565.271793
510.802738	2562.889848
511.167403	2567.976372
511.532010	2565.859088
511.896561	2567.958728
512.261053	2565.947308
512.625488	2560.512944
512.989866	2561.468243
513.354186	2561.221226
513.718449	2563.199879
514.082655	2565.443192
514.446803	2564.074519
514.810894	2566.960580
515.174927	2565.044941
515.538904	2564.994530
515.902822	2565.284396
516.266684	2568.145251
516.630488	2568.344376
516.994235	2565.614592
517.357925	2567.905796
517.721558	2566.375806
518.085133	2568.619119
518.448651	2567.386557
518.812112	2567.555436
519.175516	2565.561659
519.538863	2567.668862
519.902152	2567.164746
520.265385	2567.326063
520.628560	2568.611557
520.991678	2564.467729
521.354739	2565.133161
521.717743	2568.881259
522.080690	2569.221537
522.443580	2566.824468
522.806413	2566.411094
523.169189	2567.252967
523.531908	2563.812379
523.894569	2565.329766
524.257174	2564.545867
524.619722	2566.766495
524.982213	2568.278841
525.344647	2567.436969
525.707025	2566.151474
526.069345	2566.123748
526.431608	2567.792370
526.793815	2567.061403
527.155964	2569.680282
527.518057	2567.767164
527.880093	2564.351782
528.242072	2563.920764
528.603995	2565.967472
528.965860	2564.974365
529.327669	2565.831361
529.689421	2564.886145
530.051117	2567.121897
530.412755	2567.532751
530.774337	2567.706670
531.135862	2568.767833
531.497331	2566.958059
531.858743	2561.448078
532.220098	2563.623336
532.581396	2561.924467
532.942638	2563.411607
533.303824	2564.089643
533.664953	2565.176011
534.026025	2564.704663
534.387040	2565.027297
534.747999	2564.997050
535.108902	2565.274314
535.469748	2565.266752
535.830537	2566.146433
536.191270	2564.664334
536.551947	2562.277348
536.912567	2566.191804
537.273131	2566.491752
537.633638	2565.934705
537.994089	2564.772719
538.354483	2562.496638
538.714821	2565.158367
539.075103	2563.711556
539.435328	2565.130641
539.795497	2565.067626
540.155609	2565.506207
540.515665	2562.940259
540.875665	2566.358162
541.235609	2564.245918
541.595496	2565.912020
541.955328	2564.256001
542.315102	2565.155847
542.674821	2564.240877
543.034483	2562.695763
543.394090	2567.205076
543.753640	2566.360682
544.113134	2562.519323
544.472571	2564.616443
544.831953	2563.991340
545.191278	2565.425548
545.550548	2562.915054
545.909761	2561.629559
546.268918	2564.785322
546.628019	2567.056362
546.987064	2563.691391
547.346053	2563.898079
547.704986	2565.095353
548.063863	2567.061403
548.422684	2565.385219
548.781449	2565.468398
549.140158	2562.942780
549.498811	2564.956721
549.857408	2563.275496
550.215949	2561.881617
550.574434	2559.436657
550.932864	2561.523695
551.291237	2560.419682
551.649555	2566.050651
552.007817	2565.085270
552.366022	2566.171639
552.724173	2564.374468
553.082267	2563.328428
553.440305	2562.794066
553.798288	2567.925961
554.156215	2563.562842
554.514086	2566.005281
554.871902	2565.392781
555.229661	2563.492266
555.587365	2561.183417
555.945014	2563.877914
556.302606	2565.917061
556.660143	2565.871690
557.017625	2565.518810
557.375050	2562.937739
557.732421	2564.868501
558.089735	2567.048800
558.446994	2564.258521
558.804197	2565.551577
559.161345	2565.811197
559.518437	2566.002760
559.875474	2565.954869
560.232455	2565.846485
560.589381	2565.208779
560.946251	2566.947977
561.303065	2561.521175
561.659825	2566.050651
562.016528	2563.777091
562.373177	2563.572924
562.729770	2566.171639
563.086307	2565.176011
563.442789	2564.029149
563.799216	2564.407235
564.155587	2565.357493
564.511904	2561.874055
564.868164	2565.486042
565.224370	2565.639797
565.580520	2563.179714
565.936615	2563.187276
566.292654	2562.489076
566.648638	2565.798594
567.004567	2563.504869
567.360441	2561.803479
567.716260	2562.751216
568.072023	2562.443706
568.427732	2559.204764
568.783385	2562.161401
569.138982	2560.664178
569.494525	2561.062430
569.850013	2558.577141
570.205445	2563.814900
570.560823	2565.049982
570.916145	2564.266083
571.271412	2562.068140
571.626625	2566.043090
571.981782	2564.702143
572.336884	2562.138716
572.691931	2562.912533
573.046923	2559.383725
573.401860	2562.973027
573.756743	2562.312636
574.111570	2560.260886
574.466342	2563.197358
574.821059	2561.445557
575.175722	2564.576114
575.530330	2561.826164
575.884882	2563.898079
576.239380	2561.311967
576.593823	2563.512430
576.948211	2560.543191
577.302544	2561.165773
577.656823	2561.001936
578.011047	2563.945970
578.365216	2562.478994
578.719330	2564.805486
579.073389	2562.884807
579.427394	2559.625701
579.781344	2558.851884
580.135239	2560.195351
580.489080	2561.990002
580.842866	2560.205433
581.196597	2562.708366
581.550273	2561.748027
581.903895	2559.711400
582.257463	2562.441185
582.610975	2559.746688
582.964434	2562.620146
583.317837	2559.620660
583.671186	2562.108469
584.024481	2559.502192
584.377721	2560.404559
584.730906	2557.349620
585.084037	2560.770043
585.437113	2563.295661
585.790135	2558.607388
586.143103	2560.228119
586.496016	2557.248797
586.848874	2553.094886
587.201679	2557.594116
587.554428	2553.677139
587.907124	2558.085628
588.259765	2554.700493
588.612352	2557.515978
588.964884	2559.522357
589.317362	2559.706359
589.669786	2558.420865
590.022155	2561.183417
590.374470	2561.818603
590.726731	2557.826009
591.078937	2557.601677
591.431090	2558.468756
591.783188	2559.194682
592.135232	2559.774415
592.487222	2559.378684
592.839157	2556.704352
593.191038	2558.272151
593.542866	2556.487582
593.894639	2555.771739
594.246358	2559.764332
594.598022	2558.650237
594.949633	2557.672254
595.301190	2561.085115
595.652692	2560.790207
596.004141	2558.496482
596.355535	2558.589744
596.706876	2557.836091
597.058162	2555.255020
597.409395	2556.976574
597.760573	2556.694270
598.111698	2557.049671
598.462768	2558.284754
598.813785	2559.406411
599.164748	2556.321224
599.515657	2554.944989
599.866511	2555.991029
600.217312	2556.553118
600.568060	2557.190823
600.918753	2558.466235
601.269392	2556.467418
601.619978	2557.921791
601.970510	2558.098231
602.320988	2558.577141
602.671412	2555.703683
603.021783	2555.108827
603.372100	2558.917419
603.722363	2559.688715
604.072572	2558.052861
604.422728	2558.380536
604.772830	2552.139587
605.122878	2552.043805
605.472872	2552.137067
605.822813	2554.987839
606.172701	2555.065977
606.522534	2558.234342
606.872314	2557.405072
607.222041	2557.858776
607.571714	2557.672254
607.921333	2557.316852
608.270899	2554.753426
608.620411	2557.694939
608.969870	2557.120247
609.319276	2559.887841
609.668627	2562.826833
610.017926	2560.828016
610.367171	2564.818089
610.716362	2563.562842
611.065500	2561.115362
611.414585	2560.838098
611.763616	2562.625187
612.112594	2561.362378
612.461518	2557.712583
612.810389	2559.484548
613.159207	2557.440361
613.507971	2557.931873
613.856682	2561.710218
614.205340	2555.968344
614.553945	2558.982954
614.902496	2555.310473
615.250994	2558.932542
615.599439	2557.510937
615.947830	2556.353992
616.296169	2555.202088
616.644454	2557.805844
616.992686	2554.531615
617.340864	2556.454815
617.688990	2556.981616
618.037063	2558.199054
618.385082	2556.762325
618.733048	2556.414486
619.080961	2556.593447
619.428821	2558.909857
619.776628	2556.570762
620.124382	2555.557490
620.472083	2558.521688
620.819731	2556.459856
621.167326	2555.539846
621.514868	2556.744681
621.862357	2556.948848
622.209793	2554.486244
622.557176	2555.514640
622.904506	2553.848538
623.251783	2552.442057
623.599007	2553.541028
623.946179	2550.899463
624.293297	2554.274516
624.640363	2555.267623
624.987376	2557.238714
625.334336	2554.965154
625.681243	2554.526574
626.028097	2554.206460
626.374899	2556.038920
626.721647	2553.815771
627.068343	2553.863662
627.414987	2555.592778
627.761577	2555.403734
628.108115	2556.520350
628.454600	2552.552962
628.801032	2556.573282
629.147412	2552.711758
629.493739	2553.656975
629.840014	2554.791234
630.186236	2554.932387
630.532405	2553.803168
630.878521	2551.844680
631.224585	2554.677808
631.570597	2553.929197
631.916556	2554.138405
632.262462	2553.513302
632.608316	2554.002294
632.954117	2552.865513
633.299866	2554.619835
633.645562	2552.126984
633.991206	2551.282591
634.336797	2550.213867
634.682336	2556.036399
635.027823	2550.619679
635.373257	2551.716130
635.718639	2548.872920
636.063968	2550.279402
636.409245	2553.319217
636.754470	2551.280071
637.099642	2546.972405
637.444762	2554.445915
637.789829	2549.838301
638.134845	2553.924156
638.479808	2553.523384
638.824719	2551.390976
639.169577	2547.375697
639.514383	2553.001625
639.859137	2548.197405
640.203839	2552.096738
640.548489	2548.789741
640.893086	2547.877292
641.237632	2545.848227
641.582125	2545.076931
641.926566	2544.053577
642.270955	2549.576161
642.615292	2548.825029
642.959576	2551.121274
643.303809	2550.849052
643.647990	2551.885009
643.992118	2552.951213
644.336195	2551.834597
644.680219	2548.388969
645.024192	2552.106820
645.368112	2549.321582
645.711981	2550.536500
646.055797	2549.971891
646.399562	2550.355019
646.743274	2549.286294
647.086935	2553.614125
647.430544	2549.888712
647.774101	2551.799309
648.117606	2550.690256
648.461059	2551.365770
648.804460	2552.484906
649.147810	2549.762683
649.491108	2553.034392
649.834354	2549.172868
650.177548	2549.954247
650.520690	2551.091027
650.863781	2549.555996
651.206820	2550.607077
651.549807	2550.244113
651.892742	2549.591284
652.235626	2550.165976
652.578458	2549.550955
652.921238	2551.038095
653.263967	2549.210677
653.606644	2544.661036
653.949269	2549.160265
654.291843	2547.849565
654.634365	2547.433670
654.976836	2548.346119
655.319255	2549.974412
655.661622	2549.286294
656.003938	2547.063145
656.346203	2548.918290
656.688416	2548.293187
657.030577	2546.498536
657.372687	2548.898125
657.714746	2547.335368
658.056753	2553.230997
658.398708	2541.790098
658.740612	2545.865871
659.082465	2543.166333
659.424266	2546.886705
659.766016	2544.202291
660.107715	2547.468958
660.449362	2547.622713
660.790958	2549.273691
661.132503	2549.266130
661.473996	2548.099102
661.815438	2546.579195
662.156829	2547.572302
662.498168	2548.951058
662.839456	2548.724206
663.180693	2550.816284
663.521879	2550.387786
663.863013	2549.056922
664.204097	2549.291335
664.545129	2548.610780
664.886110	2547.486602
665.227040	2548.721685
665.567918	2546.566592
665.908746	2549.477858
666.249522	2547.695810
666.590248	2546.737991
666.930922	2550.838970
667.271545	2550.294525
667.612118	2549.722354
667.952639	2548.716644
668.293109	2550.123126
668.633528	2548.653629
668.973896	2546.173382
669.314213	2548.204967
669.654480	2546.982487
669.994695	2547.849565
670.334859	2546.264123
670.674973	2546.440563
671.015035	2548.464586
671.355047	2546.629606
671.695008	2549.631613
672.034918	2546.561551
672.374777	2547.514329
672.714585	2548.459545
673.054342	2549.656819
673.394049	2549.543393
673.733705	2549.122457
674.073310	2549.583722
674.412864	2546.614483
674.752368	2548.250337
675.091820	2548.318393
675.431223	2548.504915
675.770574	2548.262940
676.109875	2542.828576
676.449125	2545.886036
676.788324	2545.563402
677.127473	2545.306303
677.466571	2545.029040
677.805619	2549.205636
678.144616	2549.606407
678.483562	2546.614483
678.822458	2545.875954
679.161303	2548.484751
679.500098	2546.122970
679.838842	2547.584905
680.177535	2549.077086
680.516179	2548.751932
680.854771	2546.692621
681.193314	2547.262271
681.531805	2549.233362
681.870247	2549.326623
682.208638	2548.888043
682.546978	2549.619010
682.885268	2547.995759
683.223508	2548.981304
683.561697	2542.863864
683.899836	2549.697148
684.237925	2543.849410
684.575963	2548.819988
684.913951	2549.200595
685.251889	2548.073897
685.589776	2546.669935
685.927614	2549.742519
686.265401	2547.600028
686.603137	2551.355688
686.940824	2549.823177
687.278460	2547.930224
687.616046	2547.373176
687.953582	2548.870399
688.291068	2548.686397
688.628504	2548.585574
688.965889	2547.267312
689.303224	2550.044988
689.640510	2549.268650
689.977745	2546.853937
690.314930	2549.014072
690.652065	2544.645912
690.989150	2546.846376
691.326185	2546.727909
691.663170	2549.074566
692.000105	2546.274205
692.336990	2544.590459
692.673825	2542.783206
693.010610	2546.722868
693.347345	2542.417722
693.684030	2538.594007
694.020665	2539.705581
694.357251	2539.561908
694.693786	2543.350336
695.030272	2545.938968
695.366707	2546.296890
695.703093	2545.505429
696.039429	2546.617003
696.375716	2543.418391
696.711952	2543.516694
697.048139	2543.683052
697.384276	2546.029709
697.720363	2542.795809
698.056400	2545.591128
698.392388	2541.853113
698.728326	2542.810932
699.064214	2546.334699
699.400053	2541.964018
699.735842	2544.285470
700.071581	2542.858823
700.407270	2543.267157
700.742910	2542.450490
701.078501	2545.449976
701.414042	2542.354708
701.749533	2545.054246
702.084974	2545.417209
702.420366	2541.676673
702.755709	2543.443597
703.091002	2543.804039
703.426246	2543.199101
703.761440	2544.154400
704.096584	2543.990562
704.431679	2540.494522
704.766725	2546.669935
705.101721	2543.181457
705.436668	2542.619368
705.771565	2541.868236
706.106413	2543.831766
706.441212	2542.226158
706.775961	2540.434028
707.110661	2543.743546
707.445311	2543.728422
707.779913	2543.723381
708.114465	2545.545758
708.448967	2543.504091
708.783421	2544.194729
709.117825	2547.529452
709.452180	2546.188505
709.786485	2541.066693
710.120742	2544.459389
710.454949	2544.824873
710.789107	2542.334543
711.123216	2539.743390
711.457275	2540.076106
711.791286	2538.898997
712.125247	2543.327650
712.459159	2543.062990
712.793023	2547.262271
713.126837	2544.479554
713.460602	2543.993083
713.794318	2542.828576
714.127985	2543.173895
714.461602	2542.019471
714.795171	2543.408309
715.128691	2544.857641
715.462162	2543.239430
715.795584	2544.766900
716.128957	2545.114739
716.462281	2542.372352
716.795556	2544.837476
717.128782	2542.997455
717.461960	2545.213042
717.795088	2542.508463
718.128167	2542.332022
718.461198	2540.769265
718.794180	2542.732794
719.127113	2539.821528
719.459997	2542.566436
719.792833	2541.807742
720.125619	2543.751107
720.458357	2543.859492
720.791046	2541.863195
721.123686	2540.849923
721.456278	2542.052238
721.788821	2541.313709
722.121315	2544.855120
722.453761	2540.691127
722.786158	2539.894625
723.118506	2538.838503
723.450805	2540.575180
723.783056	2539.239275
724.115259	2539.864378
724.447412	2539.960160
724.779518	2540.466796
725.111574	2541.215407
725.443582	2542.299255
725.775542	2539.640046
726.107453	2538.541075
726.439315	2542.072403
726.771129	2544.535007
727.102895	2544.091385
727.434612	2540.224820
727.766281	2541.006199
728.097901	2540.232382
728.429473	2536.932947
728.760996	2540.365973
729.092471	2535.760878
729.423897	2540.870088
729.755276	2542.062321
730.086606	2544.580377
730.417887	2542.261446
730.749120	2543.367980
731.080305	2542.591642
731.411442	2543.844369
731.742530	2541.527958
732.073570	2545.195398
732.404562	2542.490819
732.735506	2543.519214
733.066401	2541.956457
733.397249	2540.633154
733.728048	2542.405119
734.058798	2543.630120
734.389501	2541.558205
734.720156	2540.849923
735.050762	2541.422094
735.381320	2541.626261
735.711831	2541.548123
736.042293	2541.911086
736.372707	2539.924872
736.703073	2537.046373
737.033391	2541.908566
737.363661	2540.285314
737.693883	2538.644418
738.024056	2540.796991
738.354182	2540.804553
738.684260	2539.163657
739.014290	2540.348328
739.344272	2539.226672
739.674207	2539.398071
740.004093	2540.807073
740.333931	2543.143648
740.663722	2541.001158
740.993464	2539.874460
741.323159	2543.216745
741.652806	2543.103319
741.982405	2539.882022
742.311956	2539.214069
742.641460	2541.036446
742.970915	2542.130376
743.300323	2541.981662
743.629683	2541.379244
743.958996	2538.352032
744.288260	2540.063503
744.617477	2538.667104
744.946647	2535.680220
745.275768	2539.045190
745.604842	2534.596372
745.933869	2536.355735
746.262847	2535.700385
746.591778	2539.541744
746.920662	2539.105684
747.249498	2538.936805
747.578286	2541.285983
747.907027	2539.289686
748.235720	2538.790612
748.564365	2540.340767
748.892963	2541.109543
749.221514	2537.623585
749.550017	2539.380427
749.878473	2540.025695
750.206881	2539.829090
750.535242	2539.158616
750.863555	2537.656352
751.191821	2538.233564
751.520039	2542.190870
751.848210	2538.039480
752.176334	2541.926210
752.504411	2539.203987
752.832440	2536.418749
753.160421	2538.498225
753.488356	2537.295910
753.816243	2537.812628
754.144082	2538.142824
754.471875	2541.774975
754.799620	2540.751621
755.127318	2538.304141
755.454969	2538.528472
755.782572	2539.836651
756.110129	2536.950591
756.437638	2540.587783
756.765100	2539.685417
757.092515	2538.992258
757.419882	2538.016795
757.747203	2535.957483
758.074477	2540.907897
758.401703	2539.423277
758.728882	2540.013092
759.056014	2539.698020
759.383099	2538.087371
759.710138	2542.468134
760.037129	2538.838503
760.364073	2542.238761
760.690970	2538.616692
761.017820	2537.038811
761.344623	2537.139634
761.671379	2540.179450
761.998088	2534.833306
762.324751	2536.718698
762.651366	2541.341436
762.977935	2543.672969
763.304456	2541.525438
763.630931	2545.815460
763.957359	2545.707075
764.283740	2546.750594
764.610074	2539.929913
764.936362	2541.243133
765.262602	2541.250695
765.588796	2541.336395
765.914943	2539.841693
766.241044	2541.527958
766.567097	2537.994110
766.893104	2537.893287
767.219064	2540.597866
767.544978	2538.430169
767.870845	2538.427649
768.196665	2538.735159
768.522438	2536.932947
768.848165	2536.159130
769.173846	2538.329346
769.499479	2538.561239
769.825066	2538.909079
770.150607	2536.166691
770.476101	2537.109387
770.801548	2541.076775
771.126949	2535.289531
771.452303	2537.608461
771.777611	2537.996630
772.102872	2537.326157
772.428087	2536.844727
772.753256	2537.056455
773.078378	2538.518390
773.403453	2537.348842
773.728482	2538.150385
774.053465	2536.645601
774.378401	2537.895807
774.703291	2537.608461
775.028135	2537.636188
775.352932	2534.064530
775.677683	2536.960673
776.002388	2537.353883
776.327046	2537.336239
776.651658	2537.121990
776.976224	2537.346321
777.300743	2538.382278
777.625216	2534.566125
777.949643	2535.876825
778.274024	2538.982176
778.598359	2533.900693
778.922647	2529.545136
779.246889	2535.191228
779.571086	2531.790970
779.895236	2535.213913
780.219339	2537.104346
780.543397	2536.093595
780.867409	2534.576207
781.191374	2537.578214
781.515294	2534.775333
781.839167	2532.607637
782.162995	2535.869263
782.486776	2535.826413
782.810511	2534.402287
783.134201	2535.781043
783.457844	2536.668286
783.781441	2535.992772
784.104993	2534.729963
784.428498	2536.675848
784.751958	2533.089067
785.075372	2538.258770
785.398739	2535.115611
785.722061	2538.069727
786.045337	2534.666948
786.368568	2539.738349
786.691752	2533.736855
787.014891	2535.541588
787.337983	2535.556712
787.661030	2534.790456
787.984031	2535.531506
788.306987	2537.127031
788.629897	2537.714326
788.952760	2535.617206
789.275579	2535.655014
789.598351	2539.362783
789.921078	2536.012936
790.243759	2537.724408
790.566395	2536.199459
790.888984	2534.261135
791.211529	2532.642925
791.534027	2535.718029
791.856480	2534.152750
792.178888	2537.379089
792.501249	2535.385313
792.823566	2535.927237
793.145836	2537.401774
793.468062	2535.781043
793.790241	2537.598379
794.112375	2535.264325
794.434464	2533.787267
794.756507	2536.133924
795.078505	2536.824562
795.400457	2533.847761
795.722364	2532.554705
796.044226	2531.178470
796.366042	2530.785260
796.687812	2534.001516
797.009538	2535.718029
797.331218	2536.973276
797.652852	2537.517721
797.974442	2538.334388
798.295986	2538.649460
798.617484	2533.152081
798.938938	2535.738193
799.260346	2535.188707
799.581709	2535.186187
799.903026	2537.303472
800.224299	2535.985210
800.545526	2534.866074
800.866708	2532.164015
801.187845	2535.039993
801.508936	2535.566794
801.829983	2534.775333
802.150984	2533.948584
802.471940	2535.881866
802.792851	2538.513348
803.113717	2536.728780
803.434538	2535.329860
803.755314	2536.532175
804.076045	2535.108049
804.396731	2536.186856
804.717372	2533.837678
805.037967	2536.259953
805.358518	2536.539737
805.679024	2535.498738
805.999485	2539.067875
806.319901	2532.738707
806.640272	2534.291382
806.960598	2533.681403
807.280879	2535.256763
807.601115	2535.516383
807.921306	2531.937163
808.241453	2534.639222
808.561554	2533.825075
808.881611	2532.892462
809.201623	2533.716691
809.521590	2535.496218
809.841513	2535.103008
810.161390	2533.686444
810.481223	2533.081505
810.801011	2531.803573
811.120755	2535.884387
811.440453	2533.799870
811.760107	2534.145189
812.079716	2533.202493
812.399281	2532.055630
812.718801	2535.632329
813.038276	2529.867770
813.357707	2534.112421
813.677093	2534.664427
813.996434	2533.394057
814.315731	2534.790456
814.634983	2536.098636
814.954191	2534.535878
815.273354	2536.010416
815.592473	2534.356917
815.911547	2537.260622
816.230577	2535.685261
816.549562	2534.533358
816.868502	2536.393543
817.187399	2533.436907
817.506250	2535.075282
817.825058	2535.597041
818.143821	2535.498738
818.462539	2537.371527
818.781213	2536.963194
819.099843	2537.011085
819.418429	2535.796167
819.736970	2539.662732
820.055466	2536.383461
820.373919	2539.622402
820.692327	2539.728267
821.010691	2542.679862
821.329011	2548.512477
821.647286	2559.098900
821.965517	2572.437793
822.283704	2579.891139
822.601847	2583.059504
822.919945	2577.574729
823.237999	2567.235322
823.556010	2560.533108
823.873976	2555.305432
824.191897	2550.864175
824.509775	2547.993238
824.827609	2547.461397
825.145398	2544.023330
825.463144	2545.573484
825.780845	2543.146169
826.098502	2546.271684
826.416116	2550.866696
826.733685	2551.708569
827.051210	2551.043136
827.368692	2553.929197
827.686129	2548.832590
828.003522	2544.008206
828.320872	2537.346321
828.638177	2538.490663
828.955439	2536.012936
829.272656	2533.237781
829.589830	2534.490508
829.906960	2535.574356
830.224046	2539.579553
830.541088	2534.452699
830.858086	2535.813811
831.175041	2534.916485
831.491952	2535.914634
831.808819	2537.737011
832.125642	2536.315405
832.442421	2538.972093
832.759157	2534.717360
833.075849	2538.321785
833.392497	2542.717671
833.709101	2545.633978
834.025662	2544.580377
834.342179	2542.337064
834.658653	2539.398071
834.975083	2540.844882
835.291469	2545.775131
835.607811	2536.121321
835.924110	2537.127031
836.240366	2536.224665
836.556578	2534.104859
836.872746	2535.160981
837.188871	2535.226516
837.504952	2534.916485
837.820990	2534.306506
838.136984	2530.901206
838.452935	2532.766433
838.768842	2533.762061
839.084706	2531.639735
839.400526	2533.520086
839.716303	2534.621578
840.032037	2540.010571
840.347727	2538.614172
840.663373	2536.690971
840.978977	2534.326670
841.294537	2536.418749
841.610054	2532.988244
841.925527	2536.028060
842.240957	2535.322298
842.556344	2532.065713
842.871687	2534.825744
843.186987	2535.168543
843.502244	2531.980013
843.817458	2531.501103
844.132629	2531.208717
844.447756	2531.380116
844.762840	2526.336441
845.077881	2530.689478
845.392879	2528.690660
845.707833	2530.840712
846.022745	2527.949611
846.337613	2532.718542
846.652438	2530.792821
846.967221	2533.555374
847.281960	2532.743748
847.596656	2534.150230
847.911309	2529.416586
848.225919	2531.261649
848.540485	2531.458254
848.855009	2533.842719
849.169490	2534.266176
849.483928	2533.971269
849.798323	2531.599406
850.112675	2531.357431
850.426984	2533.981351
850.741251	2530.218130
851.055474	2529.829961
851.369654	2532.307688
851.683792	2530.374406
851.997887	2532.726104
852.311938	2530.651669
852.625947	2532.017822
852.939914	2530.253418
853.253837	2530.139992
853.567718	2531.599406
853.881555	2531.364992
854.195350	2531.818696
854.509103	2532.852133
854.822812	2532.947915
855.136479	2532.968079
855.450103	2528.728469
855.763685	2534.828265
856.077224	2532.579910
856.390720	2531.755682
856.704173	2529.852646
857.017584	2533.971269
857.330953	2532.020342
857.644278	2530.487832
857.957561	2534.732483
858.270802	2534.424973
858.584000	2533.205013
858.897155	2530.132430
859.210268	2533.787267
859.523339	2531.319622
859.836367	2531.669982
860.149352	2531.629653
860.462295	2533.426824
860.775195	2528.226874
861.088054	2528.572193
861.400869	2529.593027
861.713642	2527.589168
862.026373	2532.302647
862.339062	2532.277441
862.651708	2532.882380
862.964312	2531.092770
863.276873	2530.651669
863.589392	2531.677544
863.901869	2532.368182
864.214303	2531.624612
864.526696	2531.692667
864.839045	2533.623429
865.151353	2530.513037
865.463619	2529.242667
865.775842	2531.579241
866.088023	2530.787780
866.400162	2530.956659
866.712258	2531.687626
867.024313	2532.055630
867.336325	2531.551515
867.648296	2529.358613
867.960224	2531.695188
868.272110	2532.884900
868.583954	2533.620909
868.895755	2533.038655
869.207515	2531.629653
869.519233	2533.885569
869.830909	2530.649148
870.142542	2533.111752
870.454134	2534.319108
870.765684	2533.759540
871.077191	2532.302647
871.388657	2534.515713
871.700081	2533.714170
872.011463	2534.417411
872.322803	2531.581762
872.634101	2534.235929
872.945357	2533.867925
873.256571	2531.294416
873.567744	2532.285003
873.878874	2532.451361
874.189963	2529.686288
874.501010	2534.878677
874.812015	2534.079654
875.122979	2532.990764
875.433900	2529.204858
875.744780	2533.686444
876.055618	2532.272400
876.366415	2533.303316
876.677169	2533.290713
876.987882	2531.813655
877.298554	2524.423323
877.609183	2528.758716
877.919771	2529.940866
878.230317	2531.511186
878.540822	2536.103677
878.851285	2532.058151
879.161707	2535.322298
879.472087	2533.620909
879.782425	2537.293389
880.092722	2537.323636
880.402977	2543.166333
880.713191	2546.826211
881.023363	2554.640000
881.333494	2560.671740
881.643583	2560.155022
881.953631	2558.231822
882.263637	2558.393139
882.573602	2556.752243
882.883526	2552.021120
883.193408	2549.961809
883.503248	2544.852599
883.813048	2542.526107
884.122806	2542.059800
884.432522	2541.144831
884.742197	2540.169367
885.051831	2538.825900
885.361424	2536.128883
885.670975	2538.407484
885.980485	2535.740714
886.289954	2536.650642
886.599382	2533.792308
886.908768	2535.584438
887.218113	2530.818027
887.527417	2535.423121
887.836680	2533.779705
888.145901	2533.010929
888.455082	2534.268697
888.764221	2533.373892
889.073319	2532.857174
889.382376	2533.058820
889.691392	2533.472195
890.000366	2532.824406
890.309300	2534.477905
890.618193	2534.533357
890.927044	2532.068233
891.235855	2533.883049
891.544625	2529.255269
891.853353	2533.131917
892.162041	2530.825589
892.470687	2528.952800
892.779293	2533.068902
893.087858	2531.473377
893.396381	2530.208048
893.704864	2535.619726
894.013306	2531.470857
894.321707	2540.991076
894.630068	2539.733308
894.938387	2542.107691
895.246665	2543.367980
895.554903	2539.025026
895.863100	2540.431507
896.171256	2537.797505
896.479371	2535.642411
896.787446	2534.911444
897.095480	2534.674510
897.403473	2537.079140
897.711425	2532.852133
898.019336	2536.451517
898.327207	2532.826927
898.635038	2535.236598
898.942827	2531.836340
899.250576	2530.976823
899.558284	2534.866074
899.865952	2532.627801
900.173579	2532.781557
900.481165	2531.057482
900.788711	2532.723583
901.096216	2530.800383
901.403681	2533.608306
901.711105	2530.956659
902.018489	2531.503624
902.325832	2533.857843
902.633135	2530.964221
902.940397	2534.450178
903.247619	2535.201310
903.554800	2534.954294
903.861941	2541.742207
904.169041	2543.700696
904.476101	2545.926365
904.783121	2547.544576
905.090100	2542.821014
905.397039	2543.604914
905.703938	2539.942516
906.010796	2538.220962
906.317614	2537.028729
906.624391	2534.384643
906.931129	2534.470343
907.237826	2534.603934
907.544483	2533.961187
907.851099	2533.557894
908.157675	2534.591331
908.464211	2531.801052
908.770707	2529.668644
909.077163	2532.279962
909.383578	2524.642614
909.689954	2528.075639
909.996289	2526.598581
910.302584	2531.422966
910.608839	2530.918850
910.915054	2532.277441
911.221229	2528.851977
911.527363	2531.380116
911.833458	2531.765764
912.139513	2529.391381
912.445527	2531.077647
912.751502	2530.979344
913.057436	2533.283151
913.363331	2532.279962
913.669186	2530.437420
913.975000	2529.504807
914.280775	2533.018491
914.586510	2534.616537
914.892205	2532.627801
915.197859	2538.500746
915.503475	2540.098791
915.809050	2541.364121
916.114585	2541.719522
916.420081	2545.268495
916.725536	2544.577857
917.030952	2542.112732
917.336328	2539.042670
917.641665	2538.218441
917.946961	2538.130221
918.252218	2533.878007
918.557435	2534.926568
918.862612	2533.774664
919.167750	2534.409849
919.472848	2534.182997
919.777906	2535.160981
920.082925	2532.935312
920.387904	2533.580579
920.692843	2532.058151
920.997743	2532.894982
921.302603	2533.623429
921.607423	2531.443130
921.912204	2534.377082
922.216946	2532.027904
922.521647	2529.847605
922.826310	2533.232740
923.130932	2531.755682
923.435516	2532.718542
923.740059	2531.344828
924.044564	2526.434744
924.349028	2531.589324
924.653454	2527.034641
924.957840	2528.544467
925.262186	2528.567152
925.566493	2530.538243
925.870761	2525.484486
926.174989	2529.920702
926.479178	2529.424148
926.783328	2529.799714
927.087438	2529.870290
927.391509	2531.866587
927.695541	2530.946577
927.999533	2529.492204
928.303486	2530.024045
928.607400	2529.545136
928.911275	2530.757533
929.215110	2530.056813
929.518906	2527.049765
929.822663	2526.933818
930.126381	2529.487163
930.430060	2528.816689
930.733699	2528.322656
931.037299	2527.931967
931.340861	2528.617563
931.644383	2530.490352
931.947866	2527.173273
932.251309	2530.361803
932.554714	2529.363654
932.858080	2529.668644
933.161407	2529.222502
933.464694	2527.689991
933.767943	2531.153264
934.071153	2527.112779
934.374323	2533.358769
934.677455	2527.689991
934.980548	2528.937677
935.283602	2528.814168
935.586617	2530.497914
935.889593	2529.386339
936.192530	2529.121679
936.495428	2530.369364
936.798287	2528.481452
937.101108	2529.850126
937.403890	2528.438602
937.706632	2529.860208
938.009336	2526.805269
938.312002	2532.232071
938.614628	2530.838192
938.917216	2531.249046
939.219765	2529.411545
939.522275	2530.765095
939.824747	2530.699560
940.127179	2528.345341
940.429573	2523.195802
940.731929	2527.077491
941.034246	2524.980371
941.336524	2527.962213
941.638763	2529.575383
941.940964	2530.863397
942.243126	2528.426000
942.545250	2530.145033
942.847335	2525.476925
943.149381	2528.816689
943.451389	2528.408356
943.753359	2529.028418
944.055290	2529.812317
944.357182	2530.651669
944.659036	2530.719725
944.960851	2530.102183
945.262628	2527.508510
945.564367	2531.392719
945.866067	2529.492204
946.167729	2529.925743
946.469352	2531.218799
946.770937	2532.285003
947.072484	2527.682429
947.373992	2529.784591
947.675462	2529.991278
947.976893	2530.379447
948.278286	2529.744261
948.579641	2530.024045
948.880958	2529.388860
949.182236	2529.721576
949.483476	2526.659075
949.784678	2527.551359
950.085841	2530.087060
950.386967	2531.125538
950.688054	2530.278624
950.989103	2527.659744
951.290114	2528.388191
951.591087	2529.351051
951.892021	2528.191586
952.192917	2531.281813
952.493776	2528.451205
952.794596	2529.769467
953.095378	2528.872142
953.396122	2531.632173
953.696828	2528.768798
953.997496	2529.668644
954.298126	2527.594209
954.598718	2527.059847
954.899272	2527.160670
955.199788	2529.477080
955.500266	2529.119158
955.800706	2528.927594
956.101108	2525.111441
956.401472	2525.857532
956.701798	2523.982222
957.002087	2526.817872
957.302337	2529.303160
957.602550	2526.250742
957.902724	2527.200999
958.202861	2530.487832
958.502960	2528.050434
958.803022	2527.095135
959.103045	2528.025228
959.403031	2528.491535
959.702979	2527.392563
960.002889	2529.091432
960.302762	2530.818027
960.602596	2528.607481
960.902393	2527.402645
961.202153	2526.747295
961.501875	2526.785104
961.801559	2527.521113
962.101205	2527.153108
962.400814	2527.541277
962.700385	2529.777029
962.999918	2530.603778
963.299414	2527.120341
963.598873	2530.409694
963.898293	2529.860208
964.197677	2527.947090
964.497022	2526.349044
964.796331	2526.822913
965.095601	2528.305012
965.394835	2529.303160
965.694030	2529.688809
965.993189	2530.434899
966.292309	2528.597399
966.591393	2528.942718
966.890439	2528.050434
967.189447	2528.022707
967.488419	2526.197810
967.787353	2528.065557
968.086249	2528.231915
968.385108	2527.541277
968.683930	2527.395084
968.982714	2528.536905
969.281462	2528.166380
969.580172	2527.440454
969.878844	2526.825433
970.177480	2526.961544
970.476078	2532.148892
970.774639	2529.076308
971.073162	2525.696215
971.371649	2524.037675
971.670098	2523.309228
971.968510	2524.372912
972.266885	2523.715041
972.565223	2528.368026
972.863524	2525.935670
973.161788	2528.829292
973.460014	2529.988757
973.758204	2526.908612
974.056356	2526.482635
974.354471	2529.187214
974.652550	2527.687471
974.950591	2526.074301
975.248595	2528.042872
975.546563	2527.137985
975.844493	2526.066740
976.142386	2527.952131
976.440243	2527.158149
976.738062	2529.958510
977.035845	2526.530526
977.333590	2527.228726
977.631299	2526.268386
977.928971	2527.574045
978.226606	2524.821575
978.524204	2527.606812
978.821765	2526.974147
979.119290	2526.664116
979.416777	2529.182173
979.714228	2524.940042
980.011642	2526.896009
980.309020	2531.990095
980.606360	2526.139836
980.903664	2526.490197
981.200931	2526.815351
981.498162	2526.717048
981.795356	2528.148736
982.092513	2530.518078
982.389633	2529.235105
982.686717	2529.464477
982.983764	2525.991122
983.280775	2528.632687
983.577749	2526.812830
983.874686	2529.923222
984.171587	2527.473222
984.468451	2529.434230
984.765279	2526.916174
985.062070	2527.561442
985.358824	2527.311905
985.655543	2528.090763
985.952224	2526.608664
986.248869	2527.067409
986.545478	2524.262007
986.842050	2525.255114
987.138586	2524.871986
987.435086	2523.321831
987.731549	2519.878723
988.027975	2526.028931
988.324366	2522.966430
988.620719	2524.471214
988.917037	2526.522964
989.213318	2526.807789
989.509563	2529.212420
989.805772	2529.310722
990.101944	2527.992460
990.398080	2526.898530
990.694180	2526.520443
990.990244	2526.838036
991.286271	2527.672347
991.582262	2526.648993
991.878217	2526.974147
992.174136	2527.957172
992.470019	2526.177645
992.765865	2524.612367
993.061676	2525.655886
993.357450	2525.696215
993.653188	2524.728313
993.948890	2525.232429
994.244556	2526.301153
994.540186	2527.919364
994.835780	2528.030269
995.131337	2525.366019
995.426859	2527.478263
995.722345	2524.635052
996.017795	2526.749816
996.313208	2524.917357
996.608586	2524.715710
996.903928	2525.663447
997.199234	2526.689322
997.494504	2525.688653
997.789738	2526.966586
998.084936	2526.709487
998.380099	2526.515402
998.675225	2527.601771
998.970316	2527.480783
999.265371	2528.494055
999.560390	2526.023890
999.855373	2526.291071
1000.150320	2526.031452
1000.445232	2526.394415
1000.740108	2525.582789
1001.034948	2525.013138
1001.329752	2528.491535
1001.624521	2528.902389
1001.919254	2521.829650
1002.213951	2521.875020
1002.508613	2523.795700
1002.803239	2524.871986
1003.097829	2521.479290
1003.392384	2527.642100
1003.686903	2527.601771
1003.981386	2528.370547
1004.275834	2525.519774
1004.570246	2525.663447
1004.864623	2526.268386
1005.158964	2528.057995
1005.453270	2524.735875
1005.747540	2526.689322
1006.041775	2526.414579
1006.335974	2525.975999
1006.630138	2525.318128
1006.924266	2527.702594
1007.218359	2525.509692
1007.512416	2525.587830
1007.806438	2523.510875
1008.100425	2525.983561
1008.394376	2526.553211
1008.688292	2528.141174
1008.982172	2525.648324
1009.276017	2527.909281
1009.569827	2526.371729
1009.863602	2527.962213
1010.157341	2527.516071
1010.451045	2527.054806
1010.744714	2527.513551
1011.038347	2528.453726
1011.331945	2524.594723
1011.625508	2527.137985
1011.919036	2523.788138
1012.212528	2526.734693
1012.505986	2529.056144
1012.799408	2525.466842
1013.092795	2526.671678
1013.386147	2525.045906
1013.679464	2525.166894
1013.972745	2525.852491
1014.265992	2525.892820
1014.559204	2526.878365
1014.852380	2523.437778
1015.145521	2525.938190
1015.438628	2522.817716
1015.731699	2526.323838
1016.024736	2525.078673
1016.317737	2525.406348
1016.610703	2530.054292
1016.903635	2522.258148
1017.196531	2521.504495
1017.489393	2521.963240
1017.782219	2522.517767
1018.075011	2524.123375
1018.367768	2523.604136
1018.660490	2525.620597
1018.953177	2525.620597
1019.245829	2525.620597
