Dividing Wavelength (nm)	Counts (n)	Blue Motor Position (mm): 0.000000	Red Motor Position (mm): 30.000000	
326.493990	2077.847669
326.888308	2077.847669
327.282561	2077.847669
327.676750	2056.241283
328.070874	2056.952086
328.464933	2061.307643
328.858929	2074.036557
329.252859	2085.926118
329.646726	2101.485639
330.040528	2118.986005
330.434265	2137.295476
330.827938	2156.625780
331.221547	2176.508091
331.615091	2196.849147
332.008571	2215.183823
332.401986	2239.673748
332.795338	2256.377612
333.188625	2276.368307
333.581847	2295.892696
333.975006	2312.906590
334.368100	2331.752944
334.761129	2349.573423
335.154095	2362.234281
335.546996	2386.956099
335.939833	2419.637900
336.332606	2434.035435
336.725315	2444.445418
337.117960	2453.196861
337.510540	2459.155505
337.903056	2470.394757
338.295508	2474.556230
338.687896	2484.313383
339.080220	2490.118272
339.472480	2495.330825
339.864676	2497.112873
340.256807	2500.606392
340.648875	2504.354490
341.040879	2505.236692
341.432818	2505.697958
341.824694	2505.897083
342.216506	2504.546054
342.608253	2507.008658
342.999937	2504.130159
343.391557	2507.290962
343.783113	2502.161588
344.174605	2500.601351
344.566033	2501.710405
344.957397	2498.204282
345.348697	2498.174035
345.739934	2493.092552
346.131106	2493.450474
346.522215	2490.791266
346.913260	2491.368478
347.304241	2486.778507
347.695159	2486.072746
348.086012	2486.952427
348.476802	2485.147694
348.867528	2483.093424
349.258191	2479.088227
349.648789	2482.105358
350.039324	2479.546972
350.429796	2480.640902
350.820203	2478.069914
351.210548	2478.498412
351.600828	2477.467496
351.991045	2477.059163
352.381198	2477.507825
352.771288	2477.918679
353.161314	2478.226190
353.551276	2479.456231
353.941175	2479.761221
354.331010	2480.093937
354.720782	2479.451190
355.110490	2477.764924
355.500135	2479.839359
355.889717	2479.186529
356.279235	2479.960347
356.668689	2482.208701
357.058080	2482.186016
357.447408	2480.968577
357.836672	2480.706437
358.225873	2481.984370
358.615010	2478.032105
359.004084	2486.241624
359.393095	2484.913280
359.782043	2485.561068
360.170927	2487.454022
360.559748	2488.729434
360.948505	2486.869248
361.337199	2489.853611
361.725830	2491.204640
362.114398	2491.653303
362.502903	2493.841164
362.891344	2492.545587
363.279722	2494.050372
363.668037	2494.171359
364.056289	2492.621204
364.444478	2497.455671
364.832603	2495.061123
365.220665	2499.298213
365.608665	2495.950887
365.996601	2499.998933
366.384474	2498.289982
366.772284	2501.022287
367.160031	2500.056906
367.547715	2499.555312
367.935336	2502.317864
368.322893	2503.373986
368.710388	2502.955570
369.097820	2509.294821
369.485189	2506.151661
369.872495	2503.689058
370.259738	2510.832373
370.646918	2511.114677
371.034035	2515.172806
371.421090	2518.681449
371.808081	2520.670184
372.195010	2525.313087
372.581875	2528.970444
372.968678	2534.911444
373.355418	2540.189532
373.742096	2548.376366
374.128710	2559.638304
374.515262	2571.278328
374.901751	2581.463979
375.288177	2598.997112
375.674540	2617.213322
376.060841	2631.754530
376.447079	2652.846718
376.833254	2679.358146
377.219367	2699.807586
377.605417	2732.224726
377.991404	2753.473190
378.377329	2796.123872
378.763191	2826.670743
379.148991	2866.553832
379.534727	2915.228693
379.920402	2958.441464
380.306013	3003.476612
380.691563	3063.652865
381.077049	3117.439456
381.462474	3170.361489
381.847835	3239.102663
382.233134	3308.209321
382.618371	3364.778628
383.003545	3441.207562
383.388657	3519.942823
383.773706	3606.181842
384.158693	3674.567615
384.543618	3766.876183
384.928480	3841.626412
385.313280	3941.847071
385.698017	4038.758212
386.082692	4154.283815
386.467305	4215.029718
386.851856	4334.091690
387.236344	4479.791118
387.620770	4542.092218
388.005133	4652.962315
388.389435	4792.524138
388.773674	4880.527561
389.157851	4999.839070
389.541965	5127.685252
389.926018	5157.395292
390.310008	5324.267567
390.693936	5443.087563
391.077802	5552.775509
391.461606	5683.835427
391.845348	5788.005830
392.229027	5910.745323
392.612645	6126.050483
392.996200	6242.433081
393.379694	6408.624800
393.763125	6621.079188
394.146494	6717.254321
394.529801	6848.478076
394.913047	7070.306489
395.296230	7074.132725
395.679351	7132.370655
396.062410	7377.292594
396.445408	7279.816843
396.828343	7426.864780
397.211217	7567.702016
397.594028	7450.538039
397.976778	7651.952300
398.359466	7814.138822
398.742092	7794.430431
399.124656	7936.462420
399.507158	8123.272458
399.889598	8151.543249
400.271977	8356.083025
400.654294	8385.054536
401.036549	8588.543232
401.418742	8618.510371
401.800874	8909.074917
402.182944	8987.764807
402.564952	9345.890897
402.946898	9186.335858
403.328783	9236.200431
403.710606	9429.962220
404.092367	9683.673411
404.474067	10036.120641
404.855705	9846.124593
405.237282	9794.851018
405.618797	10221.720802
406.000250	10466.264654
406.381642	10820.408233
406.762972	10768.504513
407.144240	10585.833262
407.525447	10836.320635
407.906593	10784.182501
408.287677	11042.907119
408.668700	11188.165447
409.049661	11179.166987
409.430560	11341.156904
409.811399	11318.015488
410.192176	11478.503141
410.572891	11544.592668
410.953545	12024.470185
411.334138	11513.927329
411.714669	12086.516706
412.095139	11447.406783
412.475547	11923.823548
412.855894	11784.901951
413.236180	12102.237545
413.616405	11808.555045
413.996568	12080.490007
414.376670	12060.040566
414.756711	11951.945625
415.136691	12217.503527
415.516609	12394.616906
415.896466	12471.751601
416.276262	12764.493925
416.655997	13224.461405
417.035670	13262.819545
417.415283	13879.335016
417.794834	13968.170229
418.174324	13714.701014
418.553753	13629.896203
418.933121	14113.300007
419.312428	13943.481178
419.691674	13850.902908
420.070859	14313.937930
420.449983	13970.274911
420.829045	14522.898798
421.208047	14284.873158
421.586988	14734.687754
421.965867	14975.092819
422.344686	14978.684641
422.723444	15562.513271
423.102141	14246.104164
423.480777	15443.509273
423.859352	14941.637202
424.237866	16048.858588
424.616319	15762.362253
424.994712	16411.652787
425.373044	16202.137392
425.751314	16892.609110
426.129524	16029.067018
426.507673	17108.998119
426.885762	16833.352868
427.263789	17001.513157
427.641756	17194.380141
428.019662	17253.477588
428.397508	17301.103889
428.775292	17587.133917
429.153016	17568.970640
429.530679	17645.649110
429.908282	17688.917334
430.285824	17414.421466
430.663305	18132.780848
431.040726	17741.506651
431.418086	17579.010097
431.795385	18214.586172
432.172624	18651.011463
432.549802	18210.223053
432.926920	18426.793543
433.303977	18300.976425
433.680974	18565.251354
434.057910	18862.636581
434.434786	18906.814732
434.811601	18834.539710
435.188355	19883.276150
435.565050	19546.950530
435.941683	19517.472383
436.318257	20404.423073
436.694770	20204.364883
437.071222	20801.729011
437.447614	19875.971518
437.823946	19899.100332
438.200218	20076.024668
438.576429	19859.018118
438.952580	20161.026083
439.328670	20127.235229
439.704700	20553.459745
440.080670	20116.061511
440.456580	20730.036241
440.832429	20899.938249
441.208218	19917.104813
441.583947	20352.355516
441.959616	20472.700461
442.335224	20722.015765
442.710773	20862.842919
443.086261	21416.737177
443.461689	20750.737739
443.837057	20909.476112
444.212365	21575.919171
444.587612	21576.851785
444.962800	21179.432421
445.337927	21608.727001
445.712995	20311.708692
446.088002	22216.942212
446.462949	22412.516296
446.837837	22604.463270
447.212664	22620.300055
447.587431	25571.114253
447.962139	28550.627740
448.336786	30868.908200
448.711374	29188.684062
449.085901	25459.682068
449.460369	25476.259902
449.834776	25473.159592
450.209124	28030.262196
450.583412	27498.294436
450.957640	27986.343663
451.331808	26637.613199
451.705917	25258.305616
452.079965	25312.593801
452.453954	25696.502872
452.827883	25609.505160
453.201752	25397.098663
453.575562	25560.555556
453.949311	26697.572683
454.323001	26760.829081
454.696632	26539.373713
455.070202	28156.056628
455.443713	28325.164655
455.817164	28916.539892
456.190556	29479.777929
456.563888	28872.639003
456.937160	29324.943929
457.310373	27610.467671
457.683526	28038.534729
458.056619	28036.803093
458.429653	28029.586681
458.802628	28637.345668
459.175542	28762.149514
459.548398	30150.541257
459.921194	31772.620727
460.293930	32508.538447
460.666607	34600.818940
461.039224	36389.763123
461.411782	36732.206183
461.784280	35448.418383
462.156719	34898.047891
462.529099	34333.693239
462.901419	32989.489730
463.273680	31945.320575
463.645882	32058.502041
464.018024	32062.978585
464.390106	32994.780421
464.762130	35916.350886
465.134094	40221.778575
465.505999	45702.258897
465.877845	50237.391802
466.249631	51244.085019
466.621358	49361.982834
466.993026	47125.878222
467.364634	44994.077604
467.736184	43018.041078
468.107674	41753.765064
468.479105	40939.230549
468.850477	40212.565866
469.221790	38766.261348
469.593043	36990.588003
469.964238	36089.302792
470.335373	36025.902721
470.706449	37869.392188
471.077467	40630.686728
471.448425	45257.561072
471.819324	48008.554014
472.190164	45987.394120
472.560945	42364.326933
472.931667	39204.831651
473.302330	38087.782535
473.672934	37233.281752
474.043479	37753.130578
474.413965	36952.524771
474.784393	36561.066572
475.154761	37453.859959
475.525070	37493.148192
475.895321	36964.636143
476.265513	37571.152486
476.635645	38538.381030
477.005719	38351.724747
477.375734	38826.235956
477.745691	39504.102269
478.115588	40832.007728
478.485427	42871.769479
478.855207	46241.748058
479.224928	48826.186318
479.594591	50332.805721
479.964194	49182.182520
480.333739	49265.802659
480.703226	49259.337380
481.072653	49867.338342
481.442022	50264.863570
481.811333	50394.159084
482.180584	49042.754287
482.549777	48418.916540
482.918912	47813.284919
483.287988	47416.248684
483.657005	46505.602050
484.025964	45752.539365
484.394864	45664.924111
484.763706	45131.091125
485.132489	44160.563145
485.501213	43895.355603
485.869879	43923.192854
486.238487	43411.679577
486.607036	43473.668125
486.975527	42819.507837
487.343959	42906.044284
487.712333	42815.832836
488.080648	42576.622524
488.448905	42876.644275
488.817104	42526.820965
489.185244	43323.698839
489.553326	44796.247604
489.921350	47263.698327
490.289315	49923.990829
490.657222	50280.198760
491.025070	50332.281441
491.392861	49178.207570
491.760593	47684.632153
492.128267	45830.221025
492.495883	44160.631201
492.863440	42615.595685
493.230939	41166.621876
493.598380	39964.515891
493.965763	39440.099780
494.333088	38486.820108
494.700354	37818.791607
495.067563	37317.327869
495.434713	36972.696948
495.801805	36813.363719
496.168839	36232.519452
496.535815	35704.486313
496.902733	35487.633519
497.269593	34876.433944
497.636395	34581.365127
498.003139	34647.691588
498.369825	33939.371664
498.736453	33927.890436
499.103023	33278.796508
499.469535	32937.991823
499.835989	32714.489747
500.202385	32172.656449
500.568723	31922.002718
500.935003	31775.980656
501.301226	31350.197240
501.667390	31526.050330
502.033497	31405.937278
502.399546	30718.255838
502.765537	29887.209024
503.131470	29881.915812
503.497345	29852.440186
503.863163	28573.396111
504.228923	28723.105778
504.594625	28697.350522
504.960269	27870.762609
505.325856	28052.130721
505.691385	27300.401421
506.056856	27088.241941
506.422270	27057.170789
506.787625	26455.062936
507.152924	26279.524918
507.518164	26017.294177
507.883347	25204.357708
508.248472	25032.051069
508.613540	25024.438927
508.978550	24870.096440
509.343503	24384.721545
509.708398	24199.872516
510.073236	24167.142824
510.438016	23831.906094
510.802738	23200.703221
511.167403	23235.585485
511.532010	23013.147092
511.896561	22849.405374
512.261053	22964.134473
512.625488	22395.971229
512.989866	21997.762925
513.354186	21588.819484
513.718449	21258.066860
514.082655	21257.640882
514.446803	20778.695979
514.810894	20713.851617
515.174927	20339.029225
515.538904	19983.287601
515.902822	19950.966243
516.266684	19398.692716
516.630488	19259.188866
516.994235	18898.118742
517.357925	18809.654054
517.721558	18574.751408
518.085133	18394.177277
518.448651	18119.477242
518.812112	17721.387406
519.175516	17452.633412
519.538863	17284.629398
519.902152	16973.469218
520.265385	16848.791401
520.628560	16563.177268
520.991678	16202.681836
521.354739	16001.355796
521.717743	15835.776577
522.080690	15521.637075
522.443580	15419.508339
522.806413	15162.406973
523.169189	14886.973450
523.531908	14673.790615
523.894569	14381.159196
524.257174	14172.710005
524.619722	13996.821627
524.982213	13751.856838
525.344647	13495.294875
525.707025	13263.492539
526.069345	13128.669400
526.431608	12868.676931
526.793815	12709.512581
527.155964	12373.529759
527.518057	12180.120851
527.880093	11924.685586
528.242072	11824.220431
528.603995	11561.021788
528.965860	11353.293482
529.327669	11179.134220
529.689421	10963.282094
530.051117	10768.595253
530.412755	10610.466860
530.774337	10442.127610
531.135862	10227.152645
531.497331	10085.594525
531.858743	9891.207632
532.220098	9781.670921
532.581396	9570.759126
532.942638	9357.818267
533.303824	9250.381197
533.664953	9092.792207
534.026025	8895.569665
534.387040	8821.411772
534.747999	8668.881580
535.108902	8552.040237
535.469748	8342.101385
535.830537	8227.006801
536.191270	8114.705017
536.551947	7947.862989
536.912567	7851.982764
537.273131	7744.034016
537.633638	7559.663896
537.994089	7477.735064
538.354483	7320.945097
538.714821	7268.149093
539.075103	7192.231836
539.435328	7060.143523
539.795497	6936.756242
540.155609	6838.012641
540.515665	6779.532736
540.875665	6630.841382
541.235609	6557.938736
541.595496	6464.624458
541.955328	6429.800167
542.315102	6282.762312
542.674821	6169.863151
543.034483	6085.564977
543.394090	5999.378890
543.753640	5913.149953
544.113134	5906.699797
544.472571	5744.838429
544.831953	5759.430049
545.191278	5624.899297
545.550548	5527.035377
545.909761	5486.416280
546.268918	5428.369914
546.628019	5375.553745
546.987064	5279.340804
547.346053	5168.647147
547.704986	5153.332122
548.063863	5064.199481
548.422684	5008.109083
548.781449	4940.207261
549.140158	4901.445829
549.498811	4834.443853
549.857408	4751.126183
550.215949	4730.134818
550.574434	4674.092311
550.932864	4611.773567
551.291237	4591.094754
551.649555	4524.826266
552.007817	4489.268488
552.366022	4429.709776
552.724173	4385.022467
553.082267	4357.578426
553.440305	4323.888395
553.798288	4257.884567
554.156215	4223.629927
554.514086	4191.916028
554.871902	4138.620950
555.229661	4102.322121
555.587365	4060.248651
555.945014	4032.338303
556.302606	3994.229701
556.660143	3963.950010
557.017625	3935.447326
557.375050	3894.213208
557.732421	3875.818038
558.089735	3846.735621
558.446994	3813.035508
558.804197	3797.884320
559.161345	3766.805607
559.518437	3719.522104
559.875474	3701.104248
560.232455	3682.187319
560.589381	3660.263341
560.946251	3630.644041
561.303065	3621.925366
561.659825	3595.945779
562.016528	3568.209351
562.373177	3544.904097
562.729770	3535.487221
563.086307	3507.687778
563.442789	3497.040861
563.799216	3480.705002
564.155587	3460.207671
564.511904	3444.567491
564.868164	3428.725665
565.224370	3421.088317
565.580520	3405.054927
565.936615	3393.828278
566.292654	3376.287583
566.648638	3366.812734
567.004567	3355.984336
567.360441	3347.482430
567.716260	3331.209585
568.072023	3324.487206
568.427732	3309.225113
568.783385	3296.879327
569.138982	3291.843215
569.494525	3284.248716
569.850013	3271.658435
570.205445	3263.791714
570.560823	3255.098244
570.916145	3245.290679
571.271412	3239.700040
571.626625	3228.914491
571.981782	3223.139849
572.336884	3212.313972
572.691931	3208.795246
573.046923	3200.381560
573.401860	3190.732792
573.756743	3187.070394
574.111570	3177.842562
574.466342	3171.873835
574.821059	3166.686488
575.175722	3156.785662
575.530330	3153.677791
575.884882	3145.553971
576.239380	3141.949546
576.593823	3133.818165
576.948211	3128.703914
577.302544	3114.381996
577.656823	3109.227417
578.011047	3114.563478
578.365216	3105.207096
578.719330	3102.419338
579.073389	3091.225456
579.427394	3088.543562
579.781344	3087.615990
580.135239	3078.655339
580.489080	3077.689958
580.842866	3070.942374
581.196597	3073.122673
581.550273	3065.497928
581.903895	3061.744788
582.257463	3067.249728
582.610975	3053.419323
582.964434	3052.958057
583.317837	3047.425391
583.671186	3040.632436
584.024481	3042.437169
584.377721	3033.970551
584.730906	3032.654810
585.084037	3032.841333
585.437113	3026.441588
585.790135	3021.697862
586.143103	3020.402286
586.496016	3015.701410
586.848874	3012.359125
587.201679	3013.533714
587.554428	2997.094511
587.907124	3005.160357
588.259765	2997.656600
588.612352	2997.321363
588.964884	2993.298522
589.317362	2994.503358
589.669786	2989.159735
590.022155	2988.461535
590.374470	2986.006493
590.726731	2982.961636
591.078937	2977.408805
591.431090	2975.835965
591.783188	2969.975624
592.135232	2966.038483
592.487222	2965.743575
592.839157	2963.898513
593.191038	2959.260651
593.542866	2957.143367
593.894639	2946.889660
594.246358	2949.707665
594.598022	2950.156328
594.949633	2940.709205
595.301190	2938.024791
595.652692	2935.635284
596.004141	2941.046963
596.355535	2930.624377
596.706876	2928.219747
597.058162	2920.761359
597.409395	2925.986515
597.760573	2927.103131
598.111698	2920.978129
598.462768	2920.453849
598.813785	2920.171544
599.164748	2916.234403
599.515657	2913.459248
599.866511	2910.815163
600.217312	2911.699885
600.568060	2900.763102
600.918753	2910.154772
601.269392	2908.297107
601.619978	2902.938360
601.970510	2903.437434
602.320988	2903.326529
602.671412	2904.909451
603.021783	2903.444996
603.372100	2897.708163
603.722363	2895.805127
604.072572	2897.166239
604.422728	2898.497103
604.772830	2892.755229
605.122878	2894.116341
605.472872	2891.023593
605.822813	2890.345558
606.172701	2888.094683
606.522534	2892.961917
606.872314	2892.220867
607.222041	2891.139539
607.571714	2895.174983
607.921333	2887.494785
608.270899	2887.499826
608.620411	2888.888664
608.969870	2891.510064
609.319276	2887.540156
609.668627	2886.360526
610.017926	2889.846483
610.367171	2887.693911
610.716362	2888.235835
611.065500	2886.259703
611.414585	2887.638458
611.763616	2890.247255
612.112594	2886.481513
612.461518	2888.545866
612.810389	2888.903788
613.159207	2887.605691
613.507971	2883.807181
613.856682	2891.341186
614.205340	2884.903632
614.553945	2890.401010
614.902496	2885.354815
615.250994	2887.703993
615.599439	2887.167110
615.947830	2888.147615
616.296169	2885.954713
616.644454	2886.728530
616.992686	2887.204919
617.340864	2891.643655
617.688990	2883.429095
618.037063	2892.142729
618.385082	2889.942265
618.733048	2889.531411
619.080961	2891.696587
619.428821	2888.702142
619.776628	2890.295146
620.124382	2885.712737
620.472083	2886.703324
620.819731	2887.114178
621.167326	2882.975391
621.514868	2881.677294
621.862357	2877.399875
622.209793	2875.605224
622.557176	2872.094060
622.904506	2868.570294
623.251783	2863.191382
623.599007	2861.066536
623.946179	2858.430013
624.293297	2854.734847
624.640363	2856.146370
624.987376	2854.354240
625.334336	2847.089937
625.681243	2847.689834
626.028097	2847.765452
626.374899	2844.055162
626.721647	2841.716067
627.068343	2842.454596
627.414987	2838.570387
627.761577	2835.008812
628.108115	2836.372444
628.454600	2833.219202
628.801032	2832.725169
629.147412	2832.876404
629.493739	2830.607885
629.840014	2828.243583
630.186236	2830.255004
630.532405	2825.987667
630.878521	2828.301557
631.224585	2826.073367
631.570597	2823.089004
631.916556	2821.672439
632.262462	2820.283602
632.608316	2824.177893
632.954117	2817.326965
633.299866	2820.260916
633.645562	2818.856955
633.991206	2814.209011
634.336797	2807.564770
634.682336	2811.015440
635.027823	2805.654173
635.373257	2803.801549
635.718639	2801.437248
636.063968	2798.165539
636.409245	2794.387194
636.754470	2796.209571
637.099642	2792.355609
637.444762	2791.034827
637.789829	2789.386370
638.134845	2788.002573
638.479808	2784.377983
638.824719	2782.260699
639.169577	2781.718775
639.514383	2782.177520
639.859137	2778.101747
640.203839	2781.688528
640.548489	2777.080913
640.893086	2773.378186
641.237632	2770.973555
641.582125	2773.307609
641.926566	2770.822321
642.270955	2770.852567
642.615292	2772.921961
642.959576	2771.205448
643.303809	2771.081940
643.647990	2773.166457
643.992118	2767.631270
644.336195	2771.671755
644.680219	2769.506579
645.024192	2773.219389
645.368112	2773.826848
645.711981	2773.262239
646.055797	2777.148969
646.399562	2777.340532
646.743274	2783.520987
647.086935	2784.680452
647.430544	2786.215484
647.774101	2783.286573
648.117606	2785.106430
648.461059	2786.754887
648.804460	2786.928807
649.147810	2782.593415
649.491108	2779.712395
649.834354	2774.983793
650.177548	2769.148657
650.520690	2765.652617
650.863781	2764.667072
651.206820	2767.112031
651.549807	2761.110538
651.892742	2760.208171
652.235626	2758.368150
652.578458	2756.646596
652.921238	2751.827253
653.263967	2756.427306
653.606644	2752.487644
653.949269	2753.296749
654.291843	2747.786768
654.634365	2749.586460
654.976836	2744.870461
655.319255	2746.660070
655.661622	2746.917169
656.003938	2748.220307
656.346203	2743.474061
656.688416	2744.794843
657.030577	2743.174112
657.372687	2741.613875
657.714746	2743.325347
658.056753	2742.760738
658.398708	2735.841754
658.740612	2738.248905
659.082465	2737.144892
659.424266	2737.817886
659.766016	2735.519120
660.107715	2736.522310
660.449362	2738.997516
660.790958	2736.378637
661.132503	2740.250243
661.473996	2739.970459
661.815438	2738.758062
662.156829	2737.676734
662.498168	2739.466344
662.839456	2740.711509
663.180693	2737.349059
663.521879	2739.128586
663.863013	2735.738410
664.204097	2737.170098
664.545129	2740.668659
664.886110	2743.204359
665.227040	2741.603793
665.567918	2741.097157
665.908746	2743.153948
666.249522	2745.004051
666.590248	2741.152610
666.930922	2742.922055
667.271545	2740.948443
667.612118	2740.983731
667.952639	2739.337794
668.293109	2740.761920
668.633528	2738.866446
668.973896	2737.023905
669.314213	2740.356107
669.654480	2736.900396
669.994695	2737.386868
670.334859	2736.451734
670.674973	2736.368555
671.015035	2735.612382
671.355047	2735.060375
671.695008	2737.490211
672.034918	2736.401322
672.374777	2734.936867
672.714585	2735.277145
673.054342	2734.886455
673.394049	2734.069788
673.733705	2736.290417
674.073310	2734.805797
674.412864	2734.760427
674.752368	2728.224571
675.091820	2730.583831
675.431223	2728.811865
675.770574	2727.309601
676.109875	2723.634600
676.449125	2725.328428
676.788324	2719.316852
677.127473	2717.307952
677.466571	2712.942313
677.805619	2719.180741
678.144616	2716.846686
678.483562	2716.435832
678.822458	2717.680997
679.161303	2716.942468
679.500098	2714.885677
679.838842	2714.396686
680.177535	2713.612786
680.516179	2716.266954
680.854771	2718.023796
681.193314	2722.989332
681.531805	2730.425034
681.870247	2734.311764
682.208638	2737.926271
682.546978	2741.225706
682.885268	2739.347877
683.223508	2736.134141
683.561697	2733.174984
683.899836	2732.083574
684.237925	2729.268089
684.575963	2729.265569
684.913951	2726.835733
685.251889	2728.731207
685.589776	2727.518809
685.927614	2725.353633
686.265401	2727.745661
686.603137	2728.978223
686.940824	2730.573748
687.278460	2733.109449
687.616046	2732.998543
687.953582	2737.129769
688.291068	2734.465519
688.628504	2740.729153
688.965889	2739.441138
689.303224	2739.040366
689.640510	2734.089953
689.977745	2724.993191
690.314930	2724.148798
690.652065	2719.750391
690.989150	2718.537993
691.326185	2712.065152
691.663170	2707.674307
692.000105	2703.427135
692.336990	2697.420600
692.673825	2697.357586
693.010610	2695.588141
693.347345	2685.851152
693.684030	2683.685976
694.020665	2681.856037
694.357251	2676.502332
694.693786	2679.484175
695.030272	2679.360666
695.366707	2677.243382
695.703093	2671.831703
696.039429	2671.909841
696.375716	2669.338852
696.711952	2671.652742
697.048139	2666.160405
697.384276	2671.433452
697.720363	2669.442196
698.056400	2668.839778
698.392388	2668.562515
698.728326	2664.834582
699.064214	2665.900786
699.400053	2666.213337
699.735842	2661.809889
700.071581	2661.086484
700.407270	2662.001453
700.742910	2657.469456
701.078501	2655.604229
701.414042	2656.909888
701.749533	2652.203971
702.084974	2652.718168
702.420366	2652.493837
702.755709	2650.376552
703.091002	2648.818836
703.426246	2647.966881
703.761440	2646.847745
704.096584	2644.158289
704.431679	2645.801705
704.766725	2646.457055
705.101721	2646.194915
705.436668	2643.291211
705.771565	2640.810963
706.106413	2643.197949
706.441212	2643.460089
706.775961	2645.179123
707.110661	2643.263484
707.445311	2647.195584
707.779913	2647.545944
708.114465	2647.180461
708.448967	2648.907056
708.783421	2655.836122
709.117825	2655.445433
709.452180	2658.722182
709.786485	2659.319559
710.120742	2661.136895
710.454949	2664.917761
710.789107	2666.956907
711.123216	2672.224913
711.457275	2671.113339
711.791286	2675.468896
712.125247	2674.929492
712.459159	2679.343022
712.793023	2679.705985
713.126837	2674.594255
713.460602	2676.335974
713.794318	2673.790191
714.127985	2671.572084
714.461602	2664.511948
714.795171	2665.716783
715.128691	2657.718993
715.462162	2656.632624
715.795584	2651.069711
716.128957	2650.152221
716.462281	2651.977119
716.795556	2646.948568
717.128782	2641.962867
717.461960	2640.450520
717.795088	2637.955149
718.128167	2636.034470
718.461198	2633.319808
718.794180	2633.861732
719.127113	2630.350569
719.459997	2631.585651
719.792833	2628.939046
720.125619	2630.758902
720.458357	2626.126082
720.791046	2623.943262
721.123686	2622.083076
721.456278	2623.232459
721.788821	2622.622480
722.121315	2621.846142
722.453761	2618.813888
722.786158	2621.480658
723.118506	2619.678446
723.450805	2619.832201
723.783056	2618.897067
724.115259	2618.337499
724.447412	2619.249948
724.779518	2622.158694
725.111574	2620.648868
725.443582	2622.413272
725.775542	2621.962089
726.107453	2626.849487
726.439315	2625.682460
726.771129	2633.574387
727.102895	2633.728142
727.434612	2632.757720
727.766281	2632.813172
728.097901	2634.945580
728.429473	2632.132617
728.760996	2632.359468
729.092471	2633.397946
729.423897	2636.130252
729.755276	2635.608492
730.086606	2636.969604
730.417887	2639.250726
730.749120	2643.954122
731.080305	2645.645429
731.411442	2652.519043
731.742530	2648.140801
732.073570	2648.143321
732.404562	2649.829587
732.735506	2650.525266
733.066401	2649.207005
733.397249	2642.719040
733.728048	2642.066210
734.058798	2633.657566
734.389501	2628.843264
734.720156	2627.875362
735.050762	2621.460494
735.381320	2620.842952
735.711831	2618.173662
736.042293	2616.227776
736.372707	2618.017386
736.703073	2616.121912
737.033391	2616.230297
737.363661	2616.900770
737.693883	2619.519650
738.024056	2623.373612
738.354182	2617.740122
738.684260	2622.720782
739.014290	2624.981740
739.344272	2626.115999
739.674207	2628.036679
740.004093	2630.106073
740.333931	2627.015845
740.663722	2631.227729
740.993464	2627.817389
741.323159	2627.703963
741.652806	2625.627007
741.982405	2626.647841
742.311956	2621.518467
742.641460	2621.989815
742.970915	2617.480503
743.300323	2617.351953
743.629683	2616.210132
743.958996	2613.409771
744.288260	2614.047477
744.617477	2606.284100
744.946647	2602.203286
745.275768	2603.463575
745.604842	2602.452823
745.933869	2601.643718
746.262847	2600.383430
746.591778	2605.764861
746.920662	2604.151692
747.249498	2605.079264
747.578286	2602.881321
747.907027	2605.152361
748.235720	2604.300406
748.564365	2607.998092
748.892963	2608.681169
749.221514	2608.731580
749.550017	2604.991044
749.878473	2607.670418
750.206881	2603.556836
750.535242	2604.192021
750.863555	2602.714963
751.191821	2603.672782
751.520039	2604.766713
751.848210	2601.583224
752.176334	2602.626743
752.504411	2602.110025
752.832440	2598.921495
753.160421	2601.376537
753.488356	2600.171701
753.816243	2600.247318
754.144082	2599.554160
754.471875	2596.801690
754.799620	2598.861001
755.127318	2595.622060
755.454969	2595.032245
755.782572	2596.199272
756.110129	2597.797318
756.437638	2595.866556
756.765100	2596.796649
757.092515	2596.242122
757.419882	2597.976279
757.747203	2597.189859
758.074477	2594.903695
758.401703	2597.141968
758.728882	2600.837133
759.056014	2600.275045
759.383099	2600.380909
759.710138	2602.394850
760.037129	2604.008019
760.364073	2604.512135
760.690970	2604.181939
761.017820	2602.314192
761.344623	2604.020622
761.671379	2609.046652
761.998088	2611.690738
762.324751	2624.948972
762.651366	2648.798671
762.977935	2680.996521
763.304456	2694.660568
763.630931	2705.005016
763.957359	2692.870959
764.283740	2680.560461
764.610074	2665.129489
764.936362	2646.177271
765.262602	2636.984727
765.588796	2624.512912
765.914943	2613.538321
766.241044	2606.505911
766.567097	2598.334201
766.893104	2595.175918
767.219064	2589.340782
767.544978	2585.544793
767.870845	2584.465986
768.196665	2583.329206
768.522438	2578.880388
768.848165	2576.997517
769.173846	2576.523648
769.499479	2579.021540
769.825066	2574.136662
770.150607	2573.352763
770.476101	2572.936867
770.801548	2573.052814
771.126949	2571.409398
771.452303	2571.966445
771.777611	2568.009140
772.102872	2569.458471
772.428087	2566.769016
772.753256	2562.327759
773.078378	2563.817420
773.403453	2565.044941
773.728482	2564.702143
774.053465	2563.434293
774.378401	2560.729713
774.703291	2563.330949
775.028135	2558.332645
775.352932	2558.816596
775.677683	2560.371792
776.002388	2556.628735
776.327046	2557.896585
776.651658	2555.068498
776.976224	2556.790052
777.300743	2557.084959
777.625216	2553.404917
777.949643	2553.974567
778.274024	2555.439022
778.598359	2550.760832
778.922647	2550.372663
779.246889	2553.541028
779.571086	2551.201933
779.895236	2551.237221
780.219339	2553.304094
780.543397	2555.517160
780.867409	2554.458518
781.191374	2555.814588
781.515294	2553.520863
781.839167	2555.128992
782.162995	2556.848025
782.486776	2553.593960
782.810511	2557.432799
783.134201	2555.048333
783.457844	2554.662685
783.781441	2553.541028
784.104993	2551.796789
784.428498	2552.265616
784.751958	2553.173024
785.075372	2555.343241
785.398739	2552.066491
785.722061	2552.419371
786.045337	2549.702189
786.368568	2554.178734
786.691752	2553.856100
787.014891	2557.889023
787.337983	2560.139898
787.661030	2566.224571
787.984031	2567.031156
788.306987	2572.440314
788.629897	2570.852350
788.952760	2571.976528
789.275579	2569.914696
789.598351	2568.213306
789.921078	2564.540826
790.243759	2560.331462
790.566395	2560.941442
790.888984	2555.481872
791.211529	2556.142263
791.534027	2558.065464
791.856480	2552.462221
792.178888	2553.185627
792.501249	2549.878630
792.823566	2552.520194
793.145836	2551.191850
793.468062	2550.138249
793.790241	2550.667570
794.112375	2549.926521
794.434464	2551.033054
794.756507	2551.209494
795.078505	2554.158569
795.400457	2553.420040
795.722364	2554.937428
796.044226	2557.523540
796.366042	2558.854404
796.687812	2560.560835
797.009538	2563.265414
797.331218	2560.633932
797.652852	2557.747871
797.974442	2561.571586
798.295986	2558.748540
798.617484	2559.270299
798.938938	2557.679815
799.260346	2557.435319
799.581709	2554.987839
799.903026	2556.200237
800.224299	2554.239228
800.545526	2551.204453
800.866708	2550.745708
801.187845	2549.608928
801.508936	2550.327292
801.829983	2545.946530
802.150984	2546.874102
802.471940	2547.947868
802.792851	2548.673794
803.113717	2547.867209
803.434538	2547.068187
803.755314	2549.182951
804.076045	2545.092054
804.396731	2547.552137
804.717372	2548.726726
805.037967	2545.152548
805.358518	2547.451314
805.679024	2548.267981
805.999485	2547.849565
806.319901	2550.407951
806.640272	2548.598177
806.960598	2546.974925
807.280879	2548.394010
807.601115	2547.584905
807.921306	2549.377035
808.241453	2548.245296
808.561554	2548.328475
808.881611	2548.227652
809.201623	2548.986346
809.521590	2546.523742
809.841513	2547.688248
810.161390	2547.940306
810.481223	2546.359904
810.801011	2545.646581
811.120755	2543.975439
811.440453	2544.678680
811.760107	2547.872251
812.079716	2543.806560
812.399281	2539.692978
812.718801	2543.514173
813.038276	2539.299768
813.357707	2544.131714
813.677093	2545.008875
813.996434	2542.427804
814.315731	2544.313196
814.634983	2543.741025
814.954191	2546.324616
815.273354	2547.065666
815.592473	2546.460727
815.911547	2547.688248
816.230577	2548.580533
816.549562	2550.768393
816.868502	2549.855945
817.187399	2554.612273
817.506250	2553.946841
817.825058	2553.147818
818.143821	2554.975236
818.462539	2559.824826
818.781213	2561.382543
819.099843	2569.524006
819.418429	2575.071796
819.736970	2586.023703
820.055466	2597.323449
820.373919	2610.301900
820.692327	2633.692854
821.010691	2673.976714
821.329011	2760.495517
821.647286	2888.916391
821.965517	3029.889737
822.283704	3105.128958
822.601847	3130.538894
822.919945	3070.886921
823.237999	2999.332783
823.556010	2931.388112
823.873976	2865.865715
824.191897	2812.371511
824.509775	2767.137237
824.827609	2730.525857
825.145398	2707.951570
825.463144	2696.911443
825.780845	2698.587627
826.098502	2714.681511
826.416116	2748.182499
826.733685	2777.821963
827.051210	2784.388066
827.368692	2767.464912
827.686129	2733.681620
828.003522	2699.676516
828.320872	2666.576300
828.638177	2644.024698
828.955439	2624.659106
829.272656	2607.027670
829.589830	2594.192893
829.906960	2583.256109
830.224046	2579.197981
830.541088	2571.583318
830.858086	2568.334294
831.175041	2562.413459
831.491952	2561.899261
831.808819	2561.334652
832.125642	2566.358162
832.442421	2578.532548
832.759157	2596.600044
833.075849	2620.931173
833.392497	2648.256747
833.709101	2665.063954
834.025662	2663.062616
834.342179	2645.290028
834.658653	2631.305867
834.975083	2610.037239
835.291469	2601.497525
835.607811	2584.791141
835.924110	2579.669328
836.240366	2570.905282
836.556578	2560.013870
836.872746	2555.199568
837.188871	2551.406099
837.504952	2545.737322
837.820990	2540.610468
838.136984	2541.651467
838.452935	2540.025695
838.768842	2541.117104
839.084706	2546.324616
839.400526	2556.699311
839.716303	2574.953329
840.032037	2581.985739
840.347727	2580.642271
840.663373	2572.677248
840.978977	2560.878427
841.294537	2552.595812
841.610054	2550.201264
841.925527	2545.220604
842.240957	2539.259439
842.556344	2538.614172
842.871687	2536.617875
843.186987	2530.510517
843.502244	2526.943900
843.817458	2526.550690
844.132629	2525.648324
844.447756	2527.458098
844.762840	2519.009124
845.077881	2522.195133
845.392879	2520.808816
845.707833	2524.486338
846.022745	2515.626510
846.337613	2525.197141
846.652438	2519.372087
846.967221	2520.274454
847.281960	2520.730678
847.596656	2518.275636
847.911309	2520.415606
848.225919	2520.307221
848.540485	2519.344361
848.855009	2520.823940
849.169490	2519.999711
849.483928	2522.232942
849.798323	2521.375946
850.112675	2520.599608
850.426984	2518.474762
850.741251	2521.282685
851.055474	2517.428723
851.369654	2520.788652
851.683792	2518.656243
851.997887	2519.538445
852.311938	2518.620955
852.625947	2517.655574
852.939914	2519.004083
853.253837	2516.349916
853.567718	2518.416789
853.881555	2516.685152
854.195350	2516.291942
854.509103	2519.666995
854.822812	2519.311593
855.136479	2519.951820
855.450103	2516.972498
855.763685	2519.049453
856.077224	2516.715399
856.390720	2520.229083
856.704173	2518.537776
857.017584	2518.358815
857.330953	2520.483662
857.644278	2518.225225
857.957561	2522.946265
858.270802	2518.842766
858.584000	2520.707993
858.897155	2521.340658
859.210268	2519.488034
859.523339	2520.917201
859.836367	2519.059536
860.149352	2520.251769
860.462295	2520.597088
860.775195	2515.359329
861.088054	2514.887981
861.400869	2518.162210
861.713642	2517.153980
862.026373	2518.918383
862.339062	2519.263703
862.651708	2520.813857
862.964312	2519.387211
863.276873	2520.460977
863.589392	2524.405679
863.901869	2518.021058
864.214303	2523.785618
864.526696	2520.627335
864.839045	2522.190092
865.151353	2524.879548
865.463619	2521.386028
865.775842	2524.294774
866.088023	2523.737727
866.400162	2522.575741
866.712258	2520.009793
867.024313	2522.807634
867.336325	2523.765453
867.648296	2522.487520
867.960224	2521.383508
868.272110	2524.483817
868.583954	2521.000380
868.895755	2523.654547
869.207515	2520.725637
869.519233	2525.950793
869.830909	2523.193282
870.142542	2525.897861
870.454134	2524.224198
870.765684	2523.944414
871.077191	2524.703108
871.388657	2528.131092
871.700081	2524.297295
872.011463	2528.834333
872.322803	2528.564631
872.634101	2526.331400
872.945357	2526.921215
873.256571	2528.158818
873.567744	2526.444826
873.878874	2530.767616
874.189963	2527.206040
874.501010	2530.636546
874.812015	2527.445495
875.122979	2529.829961
875.433900	2530.109745
875.744780	2532.138809
876.055618	2530.515558
876.366415	2532.393388
876.677169	2531.075126
876.987882	2530.049251
877.298554	2528.761236
877.609183	2531.526309
877.919771	2533.971269
878.230317	2537.913451
878.540822	2542.112732
878.851285	2547.161448
879.161707	2551.731254
879.472087	2564.180383
879.782425	2580.347364
880.092722	2609.747373
880.402977	2655.440391
880.713191	2707.815459
881.023363	2758.262286
881.333494	2783.258847
881.643583	2798.541105
881.953631	2790.084569
882.263637	2775.480347
882.573602	2753.866400
882.883526	2737.346538
883.193408	2715.387272
883.503248	2690.443643
883.813048	2671.889676
884.122806	2657.194713
884.432522	2640.795839
884.742197	2620.830350
885.051831	2604.282762
885.361424	2594.439909
885.670975	2582.268043
885.980485	2572.647001
886.289954	2567.255487
886.599382	2560.840619
886.908768	2558.357851
887.218113	2551.574978
887.527417	2546.934596
887.836680	2543.325130
888.145901	2539.939995
888.455082	2537.429500
888.764221	2538.016795
889.073319	2534.919006
889.382376	2537.152237
889.691392	2535.027391
890.000366	2534.175436
890.309300	2532.710980
890.618193	2537.164840
890.927044	2535.541588
891.235855	2535.697864
891.544625	2535.592000
891.853353	2533.441948
892.162041	2537.023687
892.470687	2542.548792
892.779293	2541.036446
893.087858	2549.903836
893.396381	2550.932231
893.704864	2564.775239
894.013306	2578.588001
894.321707	2598.782863
894.630068	2605.661518
894.938387	2609.366766
895.246665	2605.800149
895.554903	2598.649273
895.863100	2589.121492
896.171256	2583.218301
896.479371	2574.300500
896.787446	2570.123904
897.095480	2561.490928
897.403473	2559.166956
897.711425	2554.695452
898.019336	2552.585729
898.327207	2547.078269
898.635038	2545.699513
898.942827	2540.862526
899.250576	2534.954294
899.558284	2535.839016
899.865952	2535.443286
900.173579	2530.543284
900.481165	2531.223840
900.788711	2534.056968
901.096216	2531.833820
901.403681	2526.941380
901.711105	2530.132430
902.018489	2527.115300
902.325832	2530.336597
902.633135	2533.436907
902.940397	2539.428318
903.247619	2548.867878
903.554800	2572.009295
903.861941	2599.032400
904.169041	2622.831688
904.476101	2626.105917
904.783121	2620.979064
905.090100	2610.475820
905.397039	2599.826382
905.703938	2588.771132
906.010796	2579.553382
906.317614	2571.653894
906.624391	2562.957903
906.931129	2555.764177
907.237826	2552.585729
907.544483	2543.544420
907.851099	2539.970242
908.157675	2536.645601
908.464211	2529.779549
908.770707	2521.474248
909.077163	2521.401152
909.383578	2518.865451
909.689954	2514.691376
909.996289	2518.268075
910.302584	2518.129443
910.608839	2519.188085
910.915054	2517.416120
911.221229	2519.286388
911.527363	2518.124402
911.833458	2520.511388
912.139513	2518.167252
912.445527	2520.934845
912.751502	2518.157169
913.057436	2521.663292
913.363331	2524.002387
913.669186	2525.764270
913.975000	2533.167205
914.280775	2538.649460
914.586510	2545.636499
914.892205	2559.192162
915.197859	2575.417115
915.503475	2593.945876
915.809050	2610.475820
916.114585	2620.416975
916.420081	2624.301184
916.725536	2621.740278
917.030952	2615.174175
917.336328	2609.805346
917.641665	2604.290324
917.946961	2591.977306
918.252218	2586.449680
918.557435	2580.370049
918.862612	2572.203380
919.167750	2568.667010
919.472848	2562.539488
919.777906	2553.815771
920.082925	2551.360729
920.387904	2544.905532
920.692843	2541.885880
920.997743	2536.328008
921.302603	2536.391023
921.607423	2530.702081
921.912204	2528.998171
922.216946	2526.838036
922.521647	2525.628159
922.826310	2524.234280
923.130932	2521.441481
923.435516	2517.605163
923.740059	2520.874351
924.044564	2517.937879
924.349028	2517.796727
924.653454	2514.091479
924.957840	2514.749349
925.262186	2511.659122
925.566493	2513.940244
925.870761	2510.078720
926.174989	2514.330933
926.479178	2513.703310
926.783328	2511.291118
927.087438	2511.190295
927.391509	2510.088803
927.695541	2510.923113
927.999533	2510.852537
928.303486	2510.708864
928.607400	2510.464368
928.911275	2508.221055
929.215110	2509.317506
929.518906	2507.263236
929.822663	2510.759276
930.126381	2508.677279
930.430060	2509.443535
930.733699	2510.126611
931.037299	2509.123422
931.340861	2508.425222
931.644383	2507.149810
931.947866	2511.046622
932.251309	2511.719616
932.554714	2507.376662
932.858080	2509.526714
933.161407	2508.342043
933.464694	2509.206601
933.767943	2508.256343
934.071153	2507.616117
934.374323	2507.243071
934.677455	2507.706857
934.980548	2508.392454
935.283602	2507.207783
935.586617	2506.280211
935.889593	2510.439163
936.192530	2507.802639
936.495428	2510.154338
936.798287	2507.802639
937.101108	2507.512773
937.403890	2511.011334
937.706632	2513.279853
938.009336	2513.201715
938.312002	2513.466376
938.614628	2517.887468
938.917216	2513.854544
939.219765	2513.942765
939.522275	2517.060718
939.824747	2517.658095
940.127179	2516.503671
940.429573	2511.200377
940.731929	2513.635254
941.034246	2510.542506
941.336524	2515.021572
941.638763	2514.542662
941.940964	2514.129287
942.243126	2511.961591
942.545250	2514.618279
942.847335	2511.618793
943.149381	2511.641478
943.451389	2512.188443
943.753359	2513.259688
944.055290	2512.188443
944.357182	2510.376148
944.659036	2511.409585
944.960851	2512.178361
945.262628	2510.771879
945.564367	2508.384892
945.866067	2509.831704
946.167729	2509.899759
946.469352	2511.051663
946.770937	2509.990500
947.072484	2508.082423
947.373992	2510.257681
947.675462	2509.952691
947.976893	2512.465707
948.278286	2507.480005
948.579641	2509.458658
948.880958	2507.389265
949.182236	2511.286077
949.483476	2508.256343
949.784678	2508.929337
950.085841	2510.141735
950.386967	2508.768020
950.688054	2509.070489
950.989103	2508.924296
951.290114	2509.980418
951.591087	2510.237517
951.892021	2510.925634
952.192917	2511.205418
952.493776	2512.155676
952.794596	2513.670542
953.095378	2511.815398
953.396122	2512.684997
953.696828	2512.982425
953.997496	2509.443535
954.298126	2510.451766
954.598718	2513.108454
954.899272	2511.477640
955.199788	2510.847496
955.500266	2509.637619
955.800706	2505.755931
956.101108	2503.580673
956.401472	2501.745693
956.701798	2505.282062
957.002087	2503.116887
957.302337	2506.426404
957.602550	2505.879439
957.902724	2503.978924
958.202861	2504.851044
958.502960	2502.010353
958.803022	2506.189470
959.103045	2503.258039
959.403031	2503.938595
959.702979	2502.837103
960.002889	2504.732577
960.302762	2499.976248
960.602596	2502.819459
960.902393	2500.422390
961.202153	2504.026815
961.501875	2503.837772
961.801559	2503.348780
962.101205	2503.041269
962.400814	2502.322905
962.700385	2501.886845
962.999918	2501.397853
963.299414	2502.196876
963.598873	2502.776609
963.898293	2500.898779
964.197677	2503.036228
964.497022	2499.646052
964.796331	2501.967504
965.095601	2500.802997
965.394835	2502.229644
965.694030	2499.454488
965.993189	2502.532113
966.292309	2498.456340
966.591393	2501.569253
966.890439	2500.553460
967.189447	2499.507421
967.488419	2496.883500
967.787353	2499.522544
968.086249	2499.111690
968.385108	2500.752586
968.683930	2500.122441
968.982714	2500.631598
969.281462	2500.124962
969.580172	2500.508090
969.878844	2502.141423
970.177480	2499.764519
970.476078	2500.593789
970.774639	2499.094046
971.073162	2500.911382
971.371649	2500.513131
971.670098	2497.992554
971.968510	2500.414828
972.266885	2498.857112
972.565223	2501.284427
972.863524	2502.335508
973.161788	2502.063286
973.460014	2501.453306
973.758204	2500.591269
974.056356	2500.944149
974.354471	2500.929026
974.652550	2500.485404
974.950591	2500.268635
975.248595	2500.679489
975.546563	2503.973883
975.844493	2502.511948
976.142386	2502.864829
976.440243	2500.868532
976.738062	2503.651249
977.035845	2504.273832
977.333590	2499.835096
977.631299	2502.038080
977.928971	2500.835765
978.226606	2498.912564
978.524204	2501.327277
978.821765	2499.094046
979.119290	2500.382061
979.416777	2501.964983
979.714228	2501.551608
980.011642	2501.987668
980.309020	2502.040600
980.606360	2501.430621
980.903664	2504.868688
981.200931	2505.347597
981.498162	2504.803153
981.795356	2504.200735
982.092513	2509.098216
982.389633	2509.057887
982.686717	2512.911849
982.983764	2514.593073
983.280775	2513.141221
983.577749	2511.732219
983.874686	2515.641633
984.171587	2514.114164
984.468451	2513.615090
984.765279	2512.188443
985.062070	2511.094513
985.358824	2508.173164
985.655543	2509.554440
985.952224	2506.055879
986.248869	2505.062772
986.545478	2498.433655
986.842050	2500.437513
987.138586	2499.953563
987.435086	2498.282420
987.731549	2495.683705
988.027975	2499.126813
988.324366	2498.489108
988.620719	2497.816113
988.917037	2499.469612
989.213318	2498.834427
989.509563	2501.420538
989.805772	2498.693274
990.101944	2501.627226
990.398080	2497.967348
990.694180	2500.109838
990.990244	2500.450116
991.286271	2499.479694
991.582262	2500.704695
991.878217	2497.632111
992.174136	2500.974396
992.470019	2500.757627
992.765865	2498.300064
993.061676	2495.295537
993.357450	2498.751247
993.653188	2499.260404
993.948890	2501.375168
994.244556	2496.631442
994.540186	2499.756958
994.835780	2500.583707
995.131337	2500.644201
995.426859	2500.618995
995.722345	2501.977586
996.017795	2505.156033
996.313208	2506.007988
996.608586	2507.792557
996.903928	2506.169305
997.199234	2506.693585
997.494504	2508.067300
997.789738	2504.399860
998.084936	2505.171157
998.380099	2502.297699
998.675225	2505.365241
998.970316	2505.395488
999.265371	2501.720487
999.560390	2501.760816
999.855373	2502.015395
1000.150320	2500.883656
1000.445232	2500.003974
1000.740108	2499.940960
1001.034948	2498.736124
1001.329752	2497.891731
1001.624521	2499.434324
1001.919254	2494.257059
1002.213951	2496.301247
1002.508613	2492.921153
1002.803239	2494.161277
1003.097829	2493.029538
1003.392384	2498.340393
1003.686903	2499.756958
1003.981386	2499.356186
1004.275834	2496.520537
1004.570246	2499.867863
1004.864623	2496.129848
1005.158964	2497.632111
1005.453270	2496.180259
1005.747540	2495.696308
1006.041775	2498.289982
1006.335974	2497.682523
1006.630138	2498.239570
1006.924266	2497.682523
1007.218359	2499.976248
1007.512416	2496.772595
1007.806438	2495.477018
1008.100425	2495.958448
1008.394376	2496.759992
1008.688292	2498.337873
1008.982172	2498.824344
1009.276017	2495.829899
1009.569827	2494.075577
1009.863602	2496.616319
1010.157341	2497.861484
1010.451045	2496.399549
1010.744714	2499.726711
1011.038347	2496.444920
1011.331945	2497.216216
1011.625508	2497.102790
1011.919036	2495.731596
1012.212528	2494.922491
1012.505986	2497.062461
1012.799408	2496.177738
1013.092795	2496.744868
1013.386147	2495.555156
1013.679464	2495.219919
1013.972745	2495.240084
1014.265992	2495.187152
1014.559204	2497.740496
1014.852380	2495.393839
1015.145521	2495.298057
1015.438628	2497.692605
1015.731699	2496.457522
1016.024736	2495.509786
1016.317737	2500.855929
1016.610703	2496.575990
1016.903635	2493.929384
1017.196531	2492.689260
1017.489393	2494.645228
1017.782219	2490.365288
1018.075011	2494.410814
1018.367768	2496.568428
1018.660490	2495.396360
1018.953177	2495.396360
1019.245829	2495.396360
