Dividing Wavelength (nm)	Counts (n)	Blue Motor Position (mm): 0.000000	Red Motor Position (mm): 18.100000	
326.493990	2133.539816
326.888308	2133.539816
327.282561	2133.539816
327.676750	2096.749475
328.070874	2096.565473
328.464933	2099.033118
328.858929	2104.757348
329.252859	2115.401744
329.646726	2126.562859
330.040528	2136.937554
330.434265	2156.761891
330.827938	2175.136897
331.221547	2193.101049
331.615091	2211.972608
332.008571	2229.896431
332.401986	2251.742271
332.795338	2267.344642
333.188625	2286.853907
333.581847	2307.008440
333.975006	2324.486121
334.368100	2343.392968
334.761129	2361.382326
335.154095	2375.159799
335.546996	2394.313663
335.939833	2410.503329
336.332606	2426.589651
336.725315	2439.487443
337.117960	2448.352312
337.510540	2457.867490
337.903056	2468.126238
338.295508	2473.815180
338.687896	2481.691983
339.080220	2492.469970
339.472480	2499.290651
339.864676	2502.448934
340.256807	2506.738956
340.648875	2509.176354
341.040879	2510.986128
341.432818	2512.989987
341.824694	2517.297653
342.216506	2514.265398
342.608253	2515.450070
342.999937	2515.361849
343.391557	2516.246572
343.783113	2513.594925
344.174605	2517.290091
344.566033	2512.082579
344.957397	2507.893380
345.348697	2506.839779
345.739934	2507.923627
346.131106	2506.539830
346.522215	2504.243585
346.913260	2501.773419
347.304241	2497.059940
347.695159	2496.702018
348.086012	2496.543222
348.476802	2494.471308
348.867528	2493.947028
349.258191	2490.622387
349.648789	2491.376039
350.039324	2488.691625
350.429796	2488.227839
350.820203	2489.707418
351.210548	2485.561068
351.600828	2485.908908
351.991045	2485.787920
352.381198	2486.770945
352.771288	2483.658033
353.161314	2485.112406
353.551276	2482.753146
353.941175	2482.228866
354.331010	2481.986890
354.720782	2482.080152
355.110490	2483.917652
355.500135	2484.941007
355.889717	2484.459576
356.279235	2485.445122
356.668689	2487.322952
357.058080	2484.822539
357.447408	2483.955461
357.836672	2483.037971
358.225873	2483.589977
358.615010	2481.187867
359.004084	2485.873620
359.393095	2486.856645
359.782043	2490.783704
360.170927	2489.039465
360.559748	2491.134064
360.948505	2491.595330
361.337199	2490.655154
361.725830	2491.302943
362.114398	2492.386791
362.502903	2491.502068
362.891344	2491.040803
363.279722	2493.952069
363.668037	2494.846874
364.056289	2493.677326
364.444478	2496.767553
364.832603	2495.703870
365.220665	2494.743530
365.608665	2496.449961
365.996601	2498.655466
366.384474	2499.288130
366.772284	2501.821310
367.160031	2503.280724
367.547715	2503.686537
367.935336	2504.994717
368.322893	2509.166271
368.710388	2510.207270
369.097820	2519.001562
369.485189	2519.634227
369.872495	2525.943231
370.259738	2533.227699
370.646918	2541.260777
371.034035	2550.163455
371.421090	2557.856256
371.808081	2569.312278
372.195010	2580.352405
372.581875	2590.689291
372.968678	2602.286465
373.355418	2616.409258
373.742096	2634.247381
374.128710	2648.712972
374.515262	2660.511792
374.901751	2679.214473
375.288177	2691.207378
375.674540	2711.881150
376.060841	2731.904613
376.447079	2752.588467
376.833254	2770.842485
377.219367	2783.052160
377.605417	2821.561534
377.991404	2829.990343
378.377329	2855.075125
378.763191	2870.508617
379.148991	2906.734349
379.534727	2931.418359
379.920402	2960.999849
380.306013	2975.135245
380.691563	3025.546783
381.077049	3044.680483
381.462474	3061.442319
381.847835	3101.159050
382.233134	3123.214098
382.618371	3123.854324
383.003545	3189.142308
383.388657	3197.603885
383.773706	3231.775346
384.158693	3247.092892
384.543618	3272.505348
384.928480	3309.547747
385.313280	3354.802185
385.698017	3355.220601
386.082692	3406.161460
386.467305	3410.511976
386.851856	3442.488015
387.236344	3465.992395
387.620770	3495.795696
388.005133	3524.346271
388.389435	3551.530693
388.773674	3560.786252
389.157851	3600.397118
389.541965	3618.734315
389.926018	3585.472782
390.310008	3651.892505
390.693936	3671.469826
391.077802	3713.271073
391.461606	3703.902089
391.845348	3766.092283
392.229027	3759.944596
392.612645	3777.727266
392.996200	3858.786500
393.379694	3894.414854
393.763125	3963.607212
394.146494	3928.238476
394.529801	3990.829442
394.913047	4037.525650
395.296230	4001.062985
395.679351	4056.508115
396.062410	4080.398143
396.445408	4061.355185
396.828343	4095.514043
397.211217	4117.191005
397.594028	4037.006412
397.976778	4105.535857
398.359466	4128.059732
398.742092	4159.481244
399.124656	4081.373607
399.507158	4159.294722
399.889598	4183.991334
400.271977	4245.931992
400.654294	4215.450655
401.036549	4224.292839
401.418742	4195.160011
401.800874	4295.030309
402.182944	4315.058814
402.564952	4378.085840
402.946898	4362.435577
403.328783	4354.210935
403.710606	4267.493007
404.092367	4453.418322
404.474067	4411.833844
404.855705	4418.278959
405.237282	4342.160057
405.618797	4439.192186
406.000250	4464.859221
406.381642	4532.294736
406.762972	4490.226307
407.144240	4487.005010
407.525447	4481.863033
407.906593	4523.608828
408.287677	4546.556160
408.668700	4466.905929
409.049661	4494.745701
409.430560	4516.115152
409.811399	4431.862348
410.192176	4558.967481
410.572891	4478.737517
410.953545	4550.682344
411.334138	4422.286677
411.714669	4456.372438
412.095139	4346.896221
412.475547	4436.114562
412.855894	4392.057397
413.236180	4372.737175
413.616405	4305.760405
413.996568	4344.809183
414.376670	4264.962347
414.756711	4203.583779
415.136691	4196.032130
415.516609	4218.619020
415.896466	4211.551322
416.276262	4196.397614
416.655997	4143.737721
417.035670	4224.789392
417.415283	4245.148092
417.794834	4164.792100
418.174324	4099.448664
418.553753	3999.764887
418.933121	4063.691759
419.312428	4055.845203
419.691674	3976.638594
420.070859	3996.790607
420.449983	3905.354158
420.829045	3913.346908
421.208047	3823.876509
421.586988	3805.042758
421.965867	3763.110441
422.344686	3769.217799
422.723444	3667.530164
423.102141	3550.219993
423.480777	3621.547279
423.859352	3487.999552
424.237866	3530.942621
424.616319	3484.659788
424.994712	3477.947491
425.373044	3396.532857
425.751314	3389.175293
426.129524	3291.119809
426.507673	3299.543577
426.885762	3283.429529
427.263789	3223.036506
427.641756	3163.644152
428.019662	3148.298879
428.397508	3113.270422
428.775292	3068.366344
429.153016	3049.877912
429.530679	3007.086078
429.908282	2985.837614
430.285824	2943.922941
430.663305	2947.156841
431.040726	2888.747512
431.418086	2862.117617
431.795385	2849.502129
432.172624	2825.370126
432.549802	2802.120324
432.926920	2783.316820
433.303977	2764.225971
433.680974	2747.270050
434.057910	2730.520816
434.434786	2713.186809
434.811601	2695.930939
435.188355	2694.524457
435.565050	2675.146262
435.941683	2662.863490
436.318257	2656.075577
436.694770	2640.969759
437.071222	2633.760909
437.447614	2618.483692
437.823946	2608.497167
438.200218	2608.086313
438.576429	2599.536516
438.952580	2594.666761
439.328670	2590.459918
439.704700	2580.594380
440.080670	2579.399627
440.456580	2575.994327
440.832429	2572.790674
441.208218	2565.604509
441.583947	2565.438151
441.959616	2562.925136
442.335224	2562.630228
442.710773	2559.754250
443.086261	2556.555638
443.461689	2555.060936
443.837057	2554.856769
444.212365	2553.099927
444.587612	2551.388455
444.962800	2552.656306
445.337927	2550.677653
445.712995	2547.002652
446.088002	2553.432643
446.462949	2548.751932
446.837837	2548.104144
447.212664	2550.367622
447.587431	2549.046839
447.962139	2551.592622
448.336786	2556.366595
448.711374	2552.500030
449.085901	2550.975081
449.460369	2547.237065
449.834776	2546.211190
450.209124	2548.812426
450.583412	2548.131870
450.957640	2550.871737
451.331808	2550.745708
451.705917	2547.489123
452.079965	2548.089020
452.453954	2547.010213
452.827883	2545.976777
453.201752	2547.247147
453.575562	2545.134904
453.949311	2548.716644
454.323001	2547.980635
454.696632	2547.239586
455.070202	2548.366284
455.443713	2548.862837
455.817164	2545.840666
456.190556	2545.858310
456.563888	2547.350491
456.937160	2544.366128
457.310373	2548.784699
457.683526	2546.317055
458.056619	2548.235214
458.429653	2546.911911
458.802628	2547.544576
459.175542	2550.065152
459.548398	2550.297046
459.921194	2550.488609
460.293930	2550.612118
460.666607	2553.530946
461.039224	2551.781665
461.411782	2554.982798
461.784280	2556.752243
462.156719	2555.307952
462.529099	2553.165462
462.901419	2551.532128
463.273680	2551.718651
463.645882	2554.559341
464.018024	2553.503219
464.390106	2553.230997
464.762130	2555.713765
465.134094	2557.122768
465.505999	2562.693243
465.877845	2567.217678
466.249631	2571.253122
466.621358	2569.276990
466.993026	2567.210117
467.364634	2569.002247
467.736184	2562.864642
468.107674	2563.678788
468.479105	2562.037893
468.850477	2562.673078
469.221790	2559.078736
469.593043	2562.262224
469.964238	2559.474466
470.335373	2560.313818
470.706449	2559.703839
471.077467	2561.271637
471.448425	2566.380847
471.819324	2572.422670
472.190164	2574.461817
472.560945	2566.925292
472.931667	2562.720969
473.302330	2560.538150
473.672934	2560.770043
474.043479	2561.289282
474.413965	2559.943293
474.784393	2559.091338
475.154761	2566.151474
475.525070	2559.653427
475.895321	2560.644014
476.265513	2560.092008
476.635645	2566.680796
477.005719	2563.653583
477.375734	2563.409087
477.745691	2564.049313
478.115588	2570.869994
478.485427	2568.987123
478.855207	2572.921744
479.224928	2575.124728
479.594591	2578.431725
479.964194	2575.873340
480.333739	2577.806622
480.703226	2577.834348
481.072653	2578.184709
481.442022	2580.304514
481.811333	2578.398958
482.180584	2578.449369
482.549777	2578.277970
482.918912	2578.066242
483.287988	2579.066911
483.657005	2575.855696
484.025964	2573.564491
484.394864	2574.345870
484.763706	2576.881570
485.132489	2573.766137
485.501213	2574.582804
485.869879	2572.339491
486.238487	2573.682958
486.607036	2573.713205
486.975527	2571.986610
487.343959	2572.510890
487.712333	2572.417629
488.080648	2571.616085
488.448905	2571.719429
488.817104	2570.572566
489.185244	2571.530386
489.553326	2570.572566
489.921350	2575.661611
490.289315	2578.819894
490.657222	2581.534555
491.025070	2579.845769
491.392861	2579.752507
491.760593	2577.494071
492.128267	2578.111612
492.495883	2571.631209
492.863440	2571.827814
493.230939	2572.520972
493.598380	2573.791343
493.965763	2565.191135
494.333088	2567.966290
494.700354	2566.968141
495.067563	2567.454613
495.434713	2563.217523
495.801805	2570.333112
496.168839	2568.122566
496.535815	2570.338153
496.902733	2568.457802
497.269593	2568.593913
497.636395	2569.650035
498.003139	2570.517114
498.369825	2569.823955
498.736453	2572.014336
499.103023	2571.885787
499.469535	2570.217165
499.835989	2571.157340
500.202385	2568.427555
500.568723	2569.541650
500.935003	2570.761610
501.301226	2568.709860
501.667390	2569.115673
502.033497	2569.836558
502.399546	2570.139027
502.765537	2570.174315
503.131470	2572.904100
503.497345	2571.835375
503.863163	2569.070302
504.228923	2571.837896
504.594625	2570.673389
504.960269	2570.060889
505.325856	2572.856209
505.691385	2571.726991
506.056856	2571.832855
506.422270	2568.377144
506.787625	2569.511403
507.152924	2572.054666
507.518164	2570.343194
507.883347	2571.966445
508.248472	2568.024263
508.613540	2570.988462
508.978550	2572.079871
509.343503	2571.295972
509.708398	2573.350242
510.073236	2572.755386
510.438016	2575.643967
510.802738	2573.322516
511.167403	2574.071127
511.532010	2574.202197
511.896561	2573.599779
512.261053	2574.645819
512.625488	2569.261866
512.989866	2568.944274
513.354186	2571.144737
513.718449	2568.609037
514.082655	2570.053327
514.446803	2572.770509
514.810894	2575.563309
515.174927	2569.995354
515.538904	2574.663463
515.902822	2571.850499
516.266684	2569.458471
516.630488	2572.319326
516.994235	2575.699420
517.357925	2575.686817
517.721558	2574.943247
518.085133	2573.256981
518.448651	2573.808987
518.812112	2575.860737
519.175516	2574.799574
519.538863	2574.219841
519.902152	2575.349060
520.265385	2576.664801
520.628560	2575.822928
520.991678	2572.664645
521.354739	2574.781930
521.717743	2574.968453
522.080690	2574.129100
522.443580	2575.714543
522.806413	2577.549523
523.169189	2574.096333
523.531908	2576.516087
523.894569	2575.724626
524.257174	2575.664132
524.619722	2575.349060
524.982213	2574.071127
525.344647	2575.880901
525.707025	2575.205387
526.069345	2575.628844
526.431608	2576.642116
526.793815	2575.389389
527.155964	2575.601117
527.518057	2574.439131
527.880093	2578.088927
528.242072	2574.154306
528.603995	2576.074986
528.965860	2572.704974
529.327669	2576.329564
529.689421	2571.742114
530.051117	2575.185222
530.412755	2573.509038
530.774337	2575.510377
531.135862	2575.815366
531.497331	2570.852350
531.858743	2570.565005
532.220098	2571.527865
532.581396	2570.673389
532.942638	2571.593400
533.303824	2573.206569
533.664953	2573.481312
534.026025	2571.482495
534.387040	2572.994841
534.747999	2573.148596
535.108902	2576.047259
535.469748	2575.071796
535.830537	2574.484502
536.191270	2573.912331
536.551947	2573.612382
536.912567	2571.850499
537.273131	2575.775037
537.633638	2572.215982
537.994089	2572.500808
538.354483	2572.331929
538.714821	2573.370407
539.075103	2572.652042
539.435328	2575.016343
539.795497	2573.796384
540.155609	2571.313616
540.515665	2572.407546
540.875665	2574.224882
541.235609	2574.154306
541.595496	2575.636405
541.955328	2574.633216
542.315102	2572.778071
542.674821	2572.218503
543.034483	2575.114646
543.394090	2574.149265
543.753640	2573.342680
544.113134	2573.486353
544.472571	2576.430387
544.831953	2573.970304
545.191278	2572.735221
545.550548	2572.944429
545.909761	2572.057186
546.268918	2571.003585
546.628019	2574.930644
546.987064	2572.198338
547.346053	2569.453430
547.704986	2573.390571
548.063863	2573.042732
548.422684	2576.203535
548.781449	2573.146075
549.140158	2574.343349
549.498811	2574.696230
549.857408	2572.188256
550.215949	2567.827658
550.574434	2570.282700
550.932864	2569.952504
551.291237	2568.644325
551.649555	2576.064903
552.007817	2572.425190
552.366022	2571.953842
552.724173	2573.133472
553.082267	2573.251940
553.440305	2572.205900
553.798288	2571.273287
554.156215	2569.019891
554.514086	2573.488874
554.871902	2572.571384
555.229661	2574.539954
555.587365	2570.527196
555.945014	2572.931826
556.302606	2570.212124
556.660143	2571.051476
557.017625	2572.596590
557.375050	2573.987948
557.732421	2572.213462
558.089735	2572.518452
558.446994	2572.105077
558.804197	2572.941909
559.161345	2571.573235
559.518437	2573.231775
559.875474	2570.184398
560.232455	2572.357135
560.589381	2573.597259
560.946251	2576.064903
561.303065	2574.068607
561.659825	2572.909141
562.016528	2572.120201
562.373177	2572.629357
562.729770	2572.326888
563.086307	2573.030129
563.442789	2572.185736
563.799216	2570.885118
564.155587	2571.772361
564.511904	2573.972825
564.868164	2572.291600
565.224370	2574.068607
565.580520	2571.908472
565.936615	2573.319995
566.292654	2571.248081
566.648638	2574.393761
567.004567	2573.405695
567.360441	2572.205900
567.716260	2571.598441
568.072023	2572.246229
568.427732	2566.947977
568.783385	2569.750858
569.138982	2565.843964
569.494525	2570.270097
569.850013	2563.096535
570.205445	2572.014336
570.560823	2571.248081
570.916145	2570.683472
571.271412	2569.718091
571.626625	2573.927454
571.981782	2569.130796
572.336884	2569.282031
572.691931	2568.598955
573.046923	2568.848492
573.401860	2570.950653
573.756743	2570.771692
574.111570	2568.843451
574.466342	2571.810170
574.821059	2570.554922
575.175722	2570.186918
575.530330	2569.317319
575.884882	2571.295972
576.239380	2568.987123
576.593823	2570.491908
576.948211	2569.934860
577.302544	2571.038873
577.656823	2571.764799
578.011047	2571.694223
578.365216	2569.581980
578.719330	2569.904613
579.073389	2568.384706
579.427394	2569.559294
579.781344	2572.248750
580.135239	2567.583162
580.489080	2570.217165
580.842866	2567.646177
581.196597	2569.249263
581.550273	2568.548543
581.903895	2567.222720
582.257463	2567.250446
582.610975	2567.641135
582.964434	2568.621640
583.317837	2568.077195
583.671186	2568.120045
584.024481	2567.545353
584.377721	2569.345045
584.730906	2566.002760
585.084037	2565.780950
585.437113	2567.507545
585.790135	2569.057700
586.143103	2565.745662
586.496016	2565.952349
586.848874	2561.795917
587.201679	2567.426886
587.554428	2561.178376
587.907124	2565.891855
588.259765	2562.859601
588.612352	2567.424366
588.964884	2565.188614
589.317362	2564.112328
589.669786	2563.280537
590.022155	2565.178532
590.374470	2563.744323
590.726731	2567.139541
591.078937	2562.973027
591.431090	2568.457802
591.783188	2567.003429
592.135232	2562.899930
592.487222	2566.411094
592.839157	2568.009140
593.191038	2564.140054
593.542866	2563.759447
593.894639	2564.011505
594.246358	2565.178532
594.598022	2564.175342
594.949633	2568.929150
595.301190	2563.189797
595.652692	2562.562173
596.004141	2564.122410
596.355535	2567.711712
596.706876	2563.232646
597.058162	2564.593758
597.409395	2562.277348
597.760573	2561.904302
598.111698	2563.562842
598.462768	2563.318346
598.813785	2565.672565
599.164748	2564.959242
599.515657	2561.395146
599.866511	2562.597461
600.217312	2563.588048
600.568060	2561.891699
600.918753	2565.609550
601.269392	2563.698953
601.619978	2562.882286
601.970510	2562.771381
602.320988	2561.811041
602.671412	2566.816907
603.021783	2562.657955
603.372100	2562.398335
603.722363	2562.789025
604.072572	2564.147616
604.422728	2560.538150
604.772830	2559.411452
605.122878	2558.733417
605.472872	2558.715772
605.822813	2559.608057
606.172701	2560.631411
606.522534	2561.977399
606.872314	2560.770043
607.222041	2560.621329
607.571714	2563.285578
607.921333	2561.566545
608.270899	2560.712069
608.620411	2562.047975
608.969870	2565.987637
609.319276	2566.116186
609.668627	2567.328584
610.017926	2569.382854
610.367171	2569.367731
610.716362	2570.552402
611.065500	2566.968141
611.414585	2567.308419
611.763616	2565.506207
612.112594	2566.138872
612.461518	2563.804817
612.810389	2564.107287
613.159207	2561.957234
613.507971	2564.757595
613.856682	2564.795404
614.205340	2563.184755
614.553945	2563.681309
614.902496	2561.944632
615.250994	2563.318346
615.599439	2562.373130
615.947830	2563.467060
616.296169	2560.954045
616.644454	2562.146278
616.992686	2564.187945
617.340864	2564.039231
617.688990	2563.666186
618.037063	2564.092163
618.385082	2561.397666
618.733048	2565.549057
619.080961	2565.365054
619.428821	2563.250290
619.776628	2560.313818
620.124382	2565.528892
620.472083	2563.973696
620.819731	2563.782132
621.167326	2563.154508
621.514868	2562.254663
621.862357	2561.352296
622.209793	2561.095197
622.557176	2564.256001
622.904506	2560.137378
623.251783	2557.586554
623.599007	2560.361709
623.946179	2560.855742
624.293297	2558.551935
624.640363	2558.688046
624.987376	2559.020762
625.334336	2562.990671
625.681243	2560.396997
626.028097	2559.222408
626.374899	2560.989333
626.721647	2558.110834
627.068343	2558.509085
627.414987	2559.844991
627.761577	2558.554456
628.108115	2558.650237
628.454600	2558.304918
628.801032	2561.238870
629.147412	2559.444219
629.493739	2556.409445
629.840014	2560.621329
630.186236	2558.637635
630.532405	2560.608726
630.878521	2557.775597
631.224585	2558.272151
631.570597	2558.836760
631.916556	2558.357851
632.262462	2557.357182
632.608316	2557.649568
632.954117	2557.274002
633.299866	2558.904816
633.645562	2557.513457
633.991206	2555.678477
634.336797	2557.521019
634.682336	2560.293654
635.027823	2556.177552
635.373257	2554.297201
635.718639	2555.008004
636.063968	2555.494475
636.409245	2555.222253
636.754470	2556.240566
637.099642	2555.572613
637.444762	2558.277192
637.789829	2554.085473
638.134845	2554.070349
638.479808	2556.779969
638.824719	2556.280895
639.169577	2554.844166
639.514383	2555.252500
639.859137	2554.274516
640.203839	2554.723179
640.548489	2556.353992
640.893086	2550.687735
641.237632	2548.641027
641.582125	2551.491799
641.926566	2550.775955
642.270955	2554.208981
642.615292	2555.617983
642.959576	2555.005483
643.303809	2555.333158
643.647990	2554.022458
643.992118	2557.631924
644.336195	2552.308466
644.680219	2552.842828
645.024192	2554.140925
645.368112	2553.165462
645.711981	2554.675288
646.055797	2558.133519
646.399562	2555.892726
646.743274	2554.788714
647.086935	2558.703170
647.430544	2555.749053
647.774101	2555.128992
648.117606	2555.136553
648.461059	2556.941286
648.804460	2555.504557
649.147810	2554.193857
649.491108	2555.000442
649.834354	2557.274003
650.177548	2554.410627
650.520690	2554.574465
650.863781	2551.590102
651.206820	2553.795606
651.549807	2553.878785
651.892742	2554.317366
652.235626	2550.047508
652.578458	2550.599515
652.921238	2553.909032
653.263967	2553.215874
653.606644	2552.043805
653.949269	2552.003476
654.291843	2553.977088
654.634365	2553.546069
654.976836	2552.666388
655.319255	2550.609597
655.661622	2553.039433
656.003938	2550.584391
656.346203	2550.488609
656.688416	2552.845349
657.030577	2554.609753
657.372687	2551.655637
657.714746	2555.502037
658.056753	2553.170503
658.398708	2548.527601
658.740612	2552.341233
659.082465	2548.494833
659.424266	2550.738147
659.766016	2546.627086
660.107715	2553.725030
660.449362	2551.358208
660.790958	2551.300235
661.132503	2550.544062
661.473996	2553.072201
661.815438	2550.218908
662.156829	2551.176727
662.498168	2552.716799
662.839456	2553.480534
663.180693	2551.970709
663.521879	2552.613456
663.863013	2553.515822
664.204097	2551.814433
664.545129	2551.728733
664.886110	2552.938610
665.227040	2552.971378
665.567918	2552.106820
665.908746	2552.157231
666.249522	2553.949362
666.590248	2553.094886
666.930922	2554.652603
667.271545	2551.980791
667.612118	2552.187478
667.952639	2552.396686
668.293109	2554.100596
668.633528	2551.448949
668.973896	2551.474155
669.314213	2551.995914
669.654480	2550.942313
669.994695	2552.827705
670.334859	2553.167983
670.674973	2550.896943
671.015035	2550.100441
671.355047	2550.486089
671.695008	2551.010369
672.034918	2550.433157
672.374777	2550.745708
672.714585	2551.854762
673.054342	2552.759649
673.394049	2552.290822
673.733705	2552.245452
674.073310	2553.984650
674.412864	2552.053888
674.752368	2551.511964
675.091820	2553.117571
675.431223	2551.496840
675.770574	2551.123795
676.109875	2545.008875
676.449125	2550.607077
676.788324	2548.875440
677.127473	2548.845193
677.466571	2545.543238
677.805619	2551.511964
678.144616	2550.934752
678.483562	2549.896274
678.822458	2549.639175
679.161303	2550.881819
679.500098	2549.190512
679.838842	2549.223280
680.177535	2550.765873
680.516179	2549.838301
680.854771	2550.191181
681.193314	2552.126984
681.531805	2549.639175
681.870247	2552.855431
682.208638	2551.557334
682.546978	2556.404403
682.885268	2553.679660
683.223508	2552.855431
683.561697	2553.563713
683.899836	2550.599515
684.237925	2551.862324
684.575963	2548.842673
684.913951	2552.515153
685.251889	2552.603373
685.589776	2553.236038
685.927614	2551.693445
686.265401	2550.654967
686.603137	2551.637992
686.940824	2548.721685
687.278460	2552.696635
687.616046	2550.672612
687.953582	2550.962478
688.291068	2550.707900
688.628504	2554.398024
688.965889	2552.807540
689.303224	2551.028013
689.640510	2551.312838
689.977745	2551.574978
690.314930	2548.648588
690.652065	2550.533980
690.989150	2551.990873
691.326185	2549.840821
691.663170	2548.323434
692.000105	2548.109185
692.336990	2547.945347
692.673825	2547.703372
693.010610	2547.549617
693.347345	2545.268495
693.684030	2544.570295
694.020665	2543.952753
694.357251	2544.908052
694.693786	2546.992569
695.030272	2548.492313
695.366707	2548.522559
695.703093	2548.330996
696.039429	2549.296377
696.375716	2549.664381
696.711952	2545.911242
697.048139	2544.608103
697.384276	2548.300749
697.720363	2547.295038
698.056400	2548.598177
698.392388	2546.526262
698.728326	2545.034081
699.064214	2543.894780
699.400053	2547.683207
699.735842	2544.794626
700.071581	2546.357384
700.407270	2546.105326
700.742910	2546.982487
701.078501	2543.178936
701.414042	2545.795295
701.749533	2546.990049
702.084974	2545.427291
702.420366	2545.316386
702.755709	2543.519214
703.091002	2543.511653
703.426246	2545.084492
703.761440	2544.182126
704.096584	2546.352343
704.431679	2546.362425
704.766725	2545.810419
705.101721	2546.092723
705.436668	2546.274205
705.771565	2542.561395
706.106413	2542.669780
706.441212	2544.855120
706.775961	2545.886036
707.110661	2543.965356
707.445311	2545.724719
707.779913	2545.681869
708.114465	2547.274874
708.448967	2546.566592
708.783421	2546.617003
709.117825	2544.398896
709.452180	2551.625390
709.786485	2548.842673
710.120742	2546.919472
710.454949	2549.790410
710.789107	2546.090203
711.123216	2544.444266
711.457275	2545.704554
711.791286	2543.456200
712.125247	2543.640202
712.459159	2549.198074
712.793023	2547.605069
713.126837	2547.968032
713.460602	2549.896274
713.794318	2547.312682
714.127985	2545.165151
714.461602	2548.610780
714.795171	2548.804864
715.128691	2547.569781
715.462162	2548.144473
715.795584	2542.707588
716.128957	2546.798485
716.462281	2547.524411
716.795556	2545.316386
717.128782	2545.018957
717.461960	2544.199770
717.795088	2544.809750
718.128167	2543.912424
718.461198	2544.340922
718.794180	2542.846220
719.127113	2546.369987
719.459997	2543.123484
719.792833	2546.806047
720.125619	2546.377548
720.458357	2543.088196
720.791046	2540.204656
721.123686	2545.021478
721.456278	2543.201622
721.788821	2545.434853
722.121315	2541.477547
722.453761	2541.265818
722.786158	2543.320089
723.118506	2540.355890
723.450805	2544.991231
723.783056	2543.267157
724.115259	2543.597352
724.447412	2542.233720
724.779518	2545.144986
725.111574	2542.392516
725.443582	2545.931406
725.775542	2542.188350
726.107453	2543.430994
726.439315	2543.834286
726.771129	2547.665563
727.102895	2547.277394
727.434612	2543.935109
727.766281	2543.226827
728.097901	2540.199614
728.429473	2541.709440
728.760996	2545.160110
729.092471	2540.335726
729.423897	2543.352856
729.755276	2542.269008
730.086606	2543.839327
730.417887	2544.177085
730.749120	2545.817980
731.080305	2547.216901
731.411442	2541.356559
731.742530	2543.816642
732.073570	2544.116591
732.404562	2541.744728
732.735506	2545.417209
733.066401	2548.371325
733.397249	2545.172713
733.728048	2544.134235
734.058798	2544.706406
734.389501	2544.018288
734.720156	2546.009544
735.050762	2541.878319
735.381320	2543.806560
735.711831	2542.422763
736.042293	2544.761859
736.372707	2544.305634
736.703073	2543.504091
737.033391	2544.096426
737.363661	2541.412012
737.693883	2543.057949
738.024056	2544.351005
738.354182	2544.230017
738.684260	2542.805891
739.014290	2542.173226
739.344272	2544.643392
739.674207	2543.100798
740.004093	2545.013916
740.333931	2545.364277
740.663722	2544.577857
740.993464	2542.609286
741.323159	2542.395037
741.652806	2542.097609
741.982405	2542.969728
742.311956	2542.707588
742.641460	2544.960984
742.970915	2542.881508
743.300323	2544.189688
743.629683	2543.962836
743.958996	2543.990562
744.288260	2541.427135
744.617477	2541.754810
744.946647	2537.507638
745.275768	2539.660211
745.604842	2537.772299
745.933869	2540.988555
746.262847	2537.132072
746.591778	2540.857485
746.920662	2539.861857
747.249498	2542.710109
747.578286	2541.578370
747.907027	2541.265818
748.235720	2539.395550
748.564365	2540.469316
748.892963	2543.065510
749.221514	2544.524924
749.550017	2542.062321
749.878473	2543.226827
750.206881	2542.589121
750.535242	2543.357897
750.863555	2542.818494
751.191821	2541.790098
751.520039	2541.800181
751.848210	2540.055942
752.176334	2542.556354
752.504411	2542.785726
752.832440	2542.858823
753.160421	2541.283462
753.488356	2542.861344
753.816243	2540.696168
754.144082	2540.915458
754.471875	2539.609799
754.799620	2539.879501
755.127318	2541.379244
755.454969	2541.187681
755.782572	2542.289173
756.110129	2540.650798
756.437638	2543.229348
756.765100	2539.501415
757.092515	2539.365303
757.419882	2540.796991
757.747203	2541.956457
758.074477	2538.982176
758.401703	2541.848072
758.728882	2544.300593
759.056014	2541.185160
759.383099	2539.803884
759.710138	2543.047866
760.037129	2541.432177
760.364073	2545.165151
760.690970	2541.805222
761.017820	2542.959646
761.344623	2541.437218
761.671379	2541.618699
761.998088	2536.950591
762.324751	2539.128369
762.651366	2542.087527
762.977935	2547.320244
763.304456	2545.770089
763.630931	2552.623538
763.957359	2547.673125
764.283740	2546.785882
764.610074	2544.252702
764.936362	2544.421581
765.262602	2542.455531
765.588796	2544.267826
765.914943	2539.864378
766.241044	2543.342774
766.567097	2540.723894
766.893104	2543.829245
767.219064	2540.348328
767.544978	2541.051569
767.870845	2541.701878
768.196665	2538.997299
768.522438	2540.048380
768.848165	2539.299768
769.173846	2539.052752
769.499479	2539.919830
769.825066	2540.423946
770.150607	2539.869419
770.476101	2537.169881
770.801548	2540.917979
771.126949	2537.162319
771.452303	2537.341280
771.777611	2541.873277
772.102872	2540.600386
772.428087	2540.020653
772.753256	2538.926723
773.078378	2540.484440
773.403453	2539.113246
773.728482	2539.884542
774.053465	2540.713812
774.378401	2538.684748
774.703291	2541.749769
775.028135	2538.266332
775.352932	2536.733821
775.677683	2539.163657
776.002388	2539.932433
776.327046	2539.324974
776.651658	2539.398071
776.976224	2536.743903
777.300743	2538.861188
777.625216	2538.047042
777.949643	2538.427649
778.274024	2537.928575
778.598359	2533.472195
778.922647	2534.170394
779.246889	2536.774150
779.571086	2532.093439
779.895236	2539.070396
780.219339	2539.209028
780.543397	2538.659542
780.867409	2539.214069
781.191374	2538.707433
781.515294	2538.377237
781.839167	2536.259953
782.162995	2536.136444
782.486776	2537.520241
782.810511	2538.049562
783.134201	2538.404964
783.457844	2538.931764
783.781441	2537.900848
784.104993	2540.406302
784.428498	2539.713143
784.751958	2536.385982
785.075372	2540.519728
785.398739	2537.948739
785.722061	2538.415046
786.045337	2535.390354
786.368568	2536.728780
786.691752	2538.238606
787.014891	2537.600900
787.337983	2537.837834
787.661030	2540.239944
787.984031	2539.377906
788.306987	2539.992927
788.629897	2538.417567
788.952760	2541.447300
789.275579	2539.486291
789.598351	2540.081147
789.921078	2539.950077
790.243759	2536.522093
790.566395	2536.849768
790.888984	2534.956814
791.211529	2539.365303
791.534027	2537.621064
791.856480	2537.215251
792.178888	2537.280786
792.501249	2540.343287
792.823566	2537.578214
793.145836	2535.778522
793.468062	2536.809438
793.790241	2537.797505
794.112375	2537.951260
794.434464	2536.179294
794.756507	2538.357073
795.078505	2535.541588
795.400457	2536.045704
795.722364	2534.104859
796.044226	2535.309695
796.366042	2534.533357
796.687812	2535.347504
797.009538	2537.973945
797.331218	2538.941847
797.652852	2538.810777
797.974442	2537.880684
798.295986	2540.005530
798.617484	2539.264480
798.938938	2538.861188
799.260346	2535.783564
799.581709	2536.421270
799.903026	2538.634336
800.224299	2537.686599
800.545526	2538.795653
800.866708	2537.679038
801.187845	2538.548637
801.508936	2536.743903
801.829983	2534.843388
802.150984	2538.548637
802.471940	2539.226672
802.792851	2538.294058
803.113717	2541.175078
803.434538	2537.444624
803.755314	2536.569984
804.076045	2536.806918
804.396731	2537.699202
804.717372	2536.915303
805.037967	2536.822041
805.358518	2536.426311
805.679024	2536.214582
805.999485	2535.743234
806.319901	2536.418749
806.640272	2537.500077
806.960598	2537.217772
807.280879	2538.001671
807.601115	2537.787422
807.921306	2536.116280
808.241453	2538.452855
808.561554	2537.918492
808.881611	2538.541075
809.201623	2535.604603
809.521590	2537.371527
809.841513	2540.285314
810.161390	2538.543595
810.481223	2536.927906
810.801011	2537.590817
811.120755	2540.169368
811.440453	2538.384799
811.760107	2536.988399
812.079716	2534.631660
812.399281	2530.581093
812.718801	2535.276928
813.038276	2529.771988
813.357707	2536.751465
813.677093	2538.039480
813.996434	2539.514017
814.315731	2535.140817
814.634983	2535.024870
814.954191	2538.657021
815.273354	2536.721218
815.592473	2534.137627
815.911547	2539.637526
816.230577	2535.266845
816.549562	2536.116280
816.868502	2536.910262
817.187399	2536.900179
817.506250	2536.219623
817.825058	2536.373379
818.143821	2538.651980
818.462539	2539.753472
818.781213	2537.729449
819.099843	2538.646939
819.418429	2538.553678
819.736970	2541.187681
820.055466	2539.072917
820.373919	2541.694317
820.692327	2543.514173
821.010691	2548.063814
821.329011	2552.288301
821.647286	2568.039387
821.965517	2582.447004
822.283704	2589.618046
822.601847	2592.710793
822.919945	2585.801892
823.237999	2574.635736
823.556010	2570.340673
823.873976	2559.348437
824.191897	2557.074877
824.509775	2550.705379
824.827609	2549.848383
825.145398	2547.811757
825.463144	2547.758825
825.780845	2546.851417
826.098502	2551.630431
826.416116	2550.914587
826.733685	2559.897923
827.051210	2559.315670
827.368692	2555.597819
827.686129	2552.878116
828.003522	2549.913918
828.320872	2544.827394
828.638177	2542.884029
828.955439	2539.539223
829.272656	2539.314892
829.589830	2534.309026
829.906960	2540.658359
830.224046	2539.526620
830.541088	2535.491177
830.858086	2537.900848
831.175041	2538.848585
831.491952	2535.095446
831.808819	2537.860519
832.125642	2538.122659
832.442421	2539.473688
832.759157	2542.286652
833.075849	2542.931920
833.392497	2547.083310
833.709101	2548.000800
834.025662	2548.658671
834.342179	2546.135573
834.658653	2544.293031
834.975083	2543.307486
835.291469	2542.432846
835.607811	2539.816487
835.924110	2538.493184
836.240366	2539.035108
836.556578	2536.063348
836.872746	2538.614172
837.188871	2537.096784
837.504952	2536.776671
837.820990	2532.993285
838.136984	2535.344983
838.452935	2535.541588
838.768842	2535.665097
839.084706	2536.849768
839.400526	2536.000333
839.716303	2537.389171
840.032037	2541.880839
840.347727	2539.816487
840.663373	2540.507125
840.978977	2535.917154
841.294537	2537.101825
841.610054	2536.817000
841.925527	2537.855478
842.240957	2535.218954
842.556344	2536.905220
842.871687	2535.932278
843.186987	2537.742052
843.502244	2535.682741
843.817458	2533.164684
844.132629	2533.726773
844.447756	2534.059489
844.762840	2529.232584
845.077881	2529.466998
845.392879	2532.922709
845.707833	2532.615198
846.022745	2530.132430
846.337613	2535.110570
846.652438	2531.586803
846.967221	2534.828265
847.281960	2534.651825
847.596656	2536.055786
847.911309	2532.191742
848.225919	2535.027391
848.540485	2534.924047
848.855009	2535.037473
849.169490	2535.753317
849.483928	2537.376568
849.798323	2535.818852
850.112675	2533.333563
850.426984	2534.377082
850.741251	2535.342463
851.055474	2533.111752
851.369654	2535.463450
851.683792	2533.976310
851.997887	2533.865405
852.311938	2534.513193
852.625947	2533.915816
852.939914	2533.326001
853.253837	2533.855322
853.567718	2535.458409
853.881555	2530.974303
854.195350	2533.441948
854.509103	2532.985723
854.822812	2533.406660
855.136479	2535.561753
855.450103	2536.050745
855.763685	2534.356917
856.077224	2530.765095
856.390720	2533.056299
856.704173	2534.056968
857.017584	2532.106042
857.330953	2533.537730
857.644278	2534.709798
857.957561	2532.882380
858.270802	2535.410518
858.584000	2532.821886
858.897155	2534.508152
859.210268	2534.266176
859.523339	2533.744417
859.836367	2530.870959
860.149352	2532.511855
860.462295	2532.791639
860.775195	2534.321629
861.088054	2528.708304
861.400869	2532.889941
861.713642	2530.465146
862.026373	2530.833151
862.339062	2531.949766
862.651708	2532.184180
862.964312	2534.886238
863.276873	2534.374561
863.589392	2533.585621
863.901869	2532.988244
864.214303	2534.694674
864.526696	2531.785929
864.839045	2532.600075
865.151353	2535.546629
865.463619	2533.459592
865.775842	2533.459592
866.088023	2535.211393
866.400162	2531.687626
866.712258	2536.524613
867.024313	2533.754499
867.336325	2534.540919
867.648296	2533.883049
867.960224	2534.523275
868.272110	2535.687782
868.583954	2534.934129
868.895755	2534.976979
869.207515	2535.712987
869.519233	2532.973120
869.830909	2533.255425
870.142542	2535.191228
870.454134	2532.393388
870.765684	2536.035621
871.077191	2535.471012
871.388657	2536.154088
871.700081	2533.683923
872.011463	2535.261804
872.322803	2535.816331
872.634101	2530.137471
872.945357	2535.763399
873.256571	2533.051258
873.567744	2536.748945
873.878874	2534.077133
874.189963	2535.624767
874.501010	2534.419932
874.812015	2531.957328
875.122979	2534.982020
875.433900	2534.125024
875.744780	2536.587628
876.055618	2531.828778
876.366415	2535.216434
876.677169	2536.045704
876.987882	2530.066895
877.298554	2533.714170
877.609183	2532.910106
877.919771	2532.496731
878.230317	2533.063861
878.540822	2538.818338
878.851285	2536.196938
879.161707	2535.609644
879.472087	2539.650129
879.782425	2539.524100
880.092722	2543.189019
880.402977	2546.783361
880.713191	2553.432643
881.023363	2562.083263
881.333494	2566.567370
881.643583	2568.324212
881.953631	2566.141392
882.263637	2566.887483
882.573602	2564.467729
882.883526	2558.836760
883.193408	2552.540359
883.503248	2548.920811
883.813048	2548.956099
884.122806	2544.729091
884.432522	2546.120450
884.742197	2542.642053
885.051831	2540.938143
885.361424	2541.129707
885.670975	2537.827752
885.980485	2537.868081
886.289954	2538.599048
886.599382	2534.359438
886.908768	2537.169881
887.218113	2536.154088
887.527417	2539.012423
887.836680	2534.848430
888.145901	2535.798687
888.455082	2533.446989
888.764221	2535.120652
889.073319	2537.058976
889.382376	2531.702750
889.691392	2536.385982
890.000366	2535.644932
890.309300	2535.191228
890.618193	2535.312216
890.927044	2535.299613
891.235855	2535.405477
891.544625	2532.491690
891.853353	2532.957997
892.162041	2535.685261
892.470687	2535.191228
892.779293	2531.617050
893.087858	2535.816331
893.396381	2533.678882
893.704864	2533.646114
894.013306	2535.856660
894.321707	2541.533000
894.630068	2544.368649
894.938387	2546.248999
895.246665	2545.434853
895.554903	2543.090716
895.863100	2540.570139
896.171256	2540.887732
896.479371	2538.962011
896.787446	2537.885725
897.095480	2535.786084
897.403473	2535.317257
897.711425	2537.260622
898.019336	2534.578728
898.327207	2535.360107
898.635038	2533.666279
898.942827	2533.948584
899.250576	2536.827082
899.558284	2534.157792
899.865952	2538.644418
900.173579	2534.314067
900.481165	2537.089223
900.788711	2534.576207
901.096216	2534.435055
901.403681	2532.035466
901.711105	2535.506300
902.018489	2533.517565
902.325832	2537.139634
902.633135	2533.928419
902.940397	2533.441948
903.247619	2532.957997
903.554800	2536.040663
903.861941	2541.623740
904.169041	2546.861499
904.476101	2547.053063
904.783121	2549.808054
905.090100	2547.579864
905.397039	2545.722198
905.703938	2540.534851
906.010796	2541.099460
906.317614	2538.389840
906.624391	2538.828421
906.931129	2534.240971
907.237826	2535.864222
907.544483	2536.355735
907.851099	2534.263656
908.157675	2533.015970
908.464211	2534.059489
908.770707	2526.061698
909.077163	2533.373892
909.383578	2528.753675
909.689954	2529.933305
909.996289	2529.537574
910.302584	2533.628470
910.608839	2534.767771
910.915054	2532.065713
911.221229	2531.417924
911.527363	2532.617719
911.833458	2532.884900
912.139513	2532.973120
912.445527	2533.399098
912.751502	2533.010929
913.057436	2534.009078
913.363331	2535.173584
913.669186	2533.958666
913.975000	2534.445137
914.280775	2532.622760
914.586510	2534.039324
914.892205	2540.691127
915.197859	2540.678524
915.503475	2542.354708
915.809050	2545.792775
916.114585	2547.589946
916.420081	2546.690100
916.725536	2546.054915
917.030952	2548.131870
917.336328	2547.325285
917.641665	2547.050542
917.946961	2538.611651
918.252218	2538.324305
918.557435	2539.589635
918.862612	2534.669469
919.167750	2535.776002
919.472848	2538.291538
919.777906	2534.603934
920.082925	2530.664272
920.387904	2534.616537
920.692843	2533.540250
920.997743	2533.981351
921.302603	2531.460774
921.607423	2531.208717
921.912204	2533.895652
922.216946	2533.918337
922.521647	2530.119827
922.826310	2533.719211
923.130932	2532.736186
923.435516	2534.581248
923.740059	2533.288192
924.044564	2533.694005
924.349028	2535.072761
924.653454	2527.697553
924.957840	2529.603109
925.262186	2531.617050
925.566493	2528.778880
925.870761	2527.516071
926.174989	2532.658048
926.479178	2534.056968
926.783328	2529.111597
927.087438	2532.922709
927.391509	2533.205013
927.695541	2531.985054
927.999533	2529.293078
928.303486	2530.989426
928.607400	2530.931453
928.911275	2531.110414
929.215110	2529.388860
929.518906	2531.959848
929.822663	2531.715353
930.126381	2529.514889
930.430060	2532.894982
930.733699	2531.914478
931.037299	2532.658048
931.340861	2530.165198
931.644383	2531.211237
931.947866	2530.157636
932.251309	2530.707122
932.554714	2530.886083
932.858080	2533.429345
933.161407	2530.381967
933.464694	2530.762574
933.767943	2530.939015
934.071153	2530.865918
934.374323	2531.077647
934.677455	2531.601927
934.980548	2531.624612
935.283602	2531.249046
935.586617	2528.126051
935.889593	2532.300126
936.192530	2529.136802
936.495428	2531.959848
936.798287	2531.808614
937.101108	2529.577903
937.403890	2532.310209
937.706632	2532.879859
938.009336	2532.723583
938.312002	2533.641073
938.614628	2532.111083
938.917216	2533.449509
939.219765	2530.031607
939.522275	2533.567977
939.824747	2533.308357
940.127179	2528.070598
940.429573	2527.720238
940.731929	2531.027235
941.034246	2527.884076
941.336524	2530.137471
941.638763	2531.120496
941.940964	2530.548325
942.243126	2532.002698
942.545250	2533.210055
942.847335	2534.727442
943.149381	2532.098480
943.451389	2532.532019
943.753359	2531.276772
944.055290	2531.680064
944.357182	2530.238294
944.659036	2530.936494
944.960851	2532.660569
945.262628	2533.046217
945.564367	2530.765095
945.866067	2531.768285
946.167729	2530.981865
946.469352	2531.763243
946.770937	2530.387008
947.072484	2530.185362
947.373992	2532.703419
947.675462	2530.034128
947.976893	2529.184693
948.278286	2530.944056
948.579641	2530.475229
948.880958	2531.062523
949.182236	2530.913809
949.483476	2529.761905
949.784678	2530.321473
950.085841	2530.203006
950.386967	2531.554036
950.688054	2530.528161
950.989103	2528.869621
951.290114	2530.359282
951.591087	2529.996319
951.892021	2530.321473
952.192917	2531.102852
952.493776	2531.859025
952.794596	2530.213089
953.095378	2530.235774
953.396122	2530.134951
953.696828	2529.288037
953.997496	2533.535209
954.298126	2529.338448
954.598718	2529.729138
954.899272	2530.442461
955.199788	2529.582944
955.500266	2531.992616
955.800706	2528.229395
956.101108	2526.810310
956.401472	2526.938859
956.701798	2525.975999
957.002087	2525.630680
957.302337	2532.398429
957.602550	2529.714014
957.902724	2529.343490
958.202861	2529.124199
958.502960	2529.474560
958.803022	2529.587986
959.103045	2527.813499
959.403031	2528.458767
959.702979	2528.713345
960.002889	2530.608819
960.302762	2528.020187
960.602596	2530.777698
960.902393	2529.958510
961.202153	2527.626977
961.501875	2526.875845
961.801559	2529.885414
962.101205	2528.148736
962.400814	2529.409025
962.700385	2529.247708
962.999918	2529.260311
963.299414	2528.264683
963.598873	2530.502955
963.898293	2528.426000
964.197677	2528.136133
964.497022	2529.164529
964.796331	2530.550846
965.095601	2528.801566
965.394835	2530.465146
965.694030	2530.744930
965.993189	2528.317615
966.292309	2527.455578
966.591393	2530.666793
966.890439	2530.205527
967.189447	2529.149405
967.488419	2526.374250
967.787353	2530.392050
968.086249	2529.156967
968.385108	2528.403314
968.683930	2530.187883
968.982714	2527.843746
969.281462	2525.439116
969.580172	2528.297450
969.878844	2529.222502
970.177480	2529.232584
970.476078	2528.786442
970.774639	2527.390043
971.073162	2528.685619
971.371649	2528.720907
971.670098	2522.316121
971.968510	2525.703777
972.266885	2522.192613
972.565223	2529.575383
972.863524	2530.331556
973.161788	2530.923891
973.460014	2529.335928
973.758204	2527.755526
974.056356	2529.199817
974.354471	2527.473222
974.652550	2529.179652
974.950591	2527.158149
975.248595	2530.581093
975.546563	2527.737882
975.844493	2529.212420
976.142386	2528.118489
976.440243	2531.070085
976.738062	2530.944056
977.035845	2529.983716
977.333590	2531.695188
977.631299	2527.808458
977.928971	2530.210568
978.226606	2526.220495
978.524204	2530.001360
978.821765	2529.721576
979.119290	2528.380629
979.416777	2528.839374
979.714228	2528.572193
980.011642	2530.364323
980.309020	2533.583100
980.606360	2528.839374
980.903664	2527.092614
981.200931	2528.544467
981.498162	2528.052954
981.795356	2530.329035
982.092513	2529.746782
982.389633	2529.366175
982.686717	2527.687471
982.983764	2529.277955
983.280775	2530.989426
983.577749	2531.334745
983.874686	2532.171577
984.171587	2530.180321
984.468451	2530.876000
984.765279	2530.054292
985.062070	2531.223840
985.358824	2529.308202
985.655543	2527.727800
985.952224	2530.465146
986.248869	2529.101514
986.545478	2524.108251
986.842050	2525.421472
987.138586	2524.534229
987.435086	2523.697397
987.731549	2522.550535
988.027975	2527.347193
988.324366	2529.403983
988.620719	2530.520599
988.917037	2526.754857
989.213318	2530.538243
989.509563	2528.546987
989.805772	2528.552028
990.101944	2530.772657
990.398080	2528.017666
990.694180	2531.044879
990.990244	2528.269724
991.286271	2526.913653
991.582262	2527.644621
991.878217	2527.916843
992.174136	2527.979858
992.470019	2526.160001
992.765865	2527.226205
993.061676	2530.447502
993.357450	2528.055475
993.653188	2529.948428
993.948890	2527.632018
994.244556	2528.337779
994.540186	2528.849457
994.835780	2528.365506
995.131337	2529.449354
995.426859	2527.848788
995.722345	2525.955834
996.017795	2530.379447
996.313208	2527.047244
996.608586	2527.778211
996.903928	2527.816020
997.199234	2526.326359
997.494504	2530.041689
997.789738	2527.831143
998.084936	2529.925743
998.380099	2527.165711
998.675225	2528.494055
998.970316	2528.121010
999.265371	2529.333407
999.560390	2524.889630
999.855373	2529.232584
1000.150320	2530.497914
1000.445232	2530.167718
1000.740108	2527.937008
1001.034948	2528.471370
1001.329752	2526.956503
1001.624521	2529.315763
1001.919254	2523.856194
1002.213951	2525.305525
1002.508613	2522.621111
1002.803239	2526.031452
1003.097829	2524.002387
1003.392384	2528.549508
1003.686903	2529.645959
1003.981386	2528.209230
1004.275834	2526.666637
1004.570246	2527.674868
1004.864623	2525.620597
1005.158964	2528.383150
1005.453270	2526.530526
1005.747540	2527.821061
1006.041775	2525.950793
1006.335974	2526.588499
1006.630138	2528.839374
1006.924266	2527.841226
1007.218359	2527.795855
1007.512416	2527.453057
1007.806438	2526.913653
1008.100425	2527.369878
1008.394376	2527.753006
1008.688292	2529.189734
1008.982172	2528.431041
1009.276017	2526.951462
1009.569827	2526.366688
1009.863602	2526.535567
1010.157341	2525.507172
1010.451045	2528.010104
1010.744714	2527.097656
1011.038347	2528.794004
1011.331945	2529.643438
1011.625508	2529.043541
1011.919036	2527.417769
1012.212528	2525.872655
1012.505986	2529.270393
1012.799408	2526.225536
1013.092795	2524.120854
1013.386147	2529.716535
1013.679464	2524.839219
1013.972745	2530.603778
1014.265992	2528.068078
1014.559204	2526.149919
1014.852380	2527.974816
1015.145521	2527.183355
1015.438628	2529.280475
1015.731699	2525.865093
1016.024736	2526.399456
1016.317737	2525.542460
1016.610703	2530.913809
1016.903635	2526.021369
1017.196531	2525.459281
1017.489393	2523.863755
1017.782219	2522.119516
1018.075011	2525.668488
1018.367768	2527.906761
1018.660490	2528.194107
1018.953177	2528.194107
1019.245829	2528.194107
