Dividing Wavelength (nm)	Counts (n)	Blue Motor Position (mm): 0.000000	Red Motor Position (mm): 41.600000	
326.493990	2126.446913
326.888308	2126.446913
327.282561	2126.446913
327.676750	2095.088415
328.070874	2094.392736
328.464933	2098.163519
328.858929	2100.963880
329.252859	2113.501229
329.646726	2125.617643
330.040528	2136.763634
330.434265	2154.400111
330.827938	2171.290497
331.221547	2189.834381
331.615091	2206.107226
332.008571	2229.253683
332.401986	2249.569533
332.795338	2265.625608
333.188625	2283.254523
333.581847	2305.869140
333.975006	2322.885554
334.368100	2342.868688
334.761129	2361.465505
335.154095	2376.309182
335.546996	2395.833571
335.939833	2416.419123
336.332606	2431.925712
336.725315	2445.569595
337.117960	2457.375977
337.510540	2461.517285
337.903056	2474.594038
338.295508	2480.509832
338.687896	2490.251862
339.080220	2498.370640
339.472480	2505.952536
339.864676	2508.828514
340.256807	2513.811695
340.648875	2516.458300
341.040879	2521.839732
341.432818	2521.491892
341.824694	2521.287726
342.216506	2522.976512
342.608253	2526.835516
342.999937	2522.863086
343.391557	2521.885102
343.783113	2522.328724
344.174605	2520.796213
344.566033	2519.009124
344.957397	2521.456604
345.348697	2514.789678
345.739934	2516.526356
346.131106	2513.176509
346.522215	2514.479648
346.913260	2511.921262
347.304241	2507.923627
347.695159	2504.901455
348.086012	2503.522700
348.476802	2503.628564
348.867528	2500.568583
349.258191	2499.278048
349.648789	2499.802328
350.039324	2498.756289
350.429796	2494.418376
350.820203	2497.783346
351.210548	2493.858808
351.600828	2495.020794
351.991045	2494.642707
352.381198	2492.825371
352.771288	2495.068685
353.161314	2492.076760
353.551276	2494.625063
353.941175	2491.507109
354.331010	2490.866883
354.720782	2494.456184
355.110490	2493.145484
355.500135	2493.095073
355.889717	2493.163128
356.279235	2493.253869
356.668689	2492.069198
357.058080	2493.243787
357.447408	2491.794455
357.836672	2491.726400
358.225873	2493.389980
358.615010	2489.052068
359.004084	2496.843171
359.393095	2496.044148
359.782043	2496.704539
360.170927	2500.097236
360.559748	2499.036073
360.948505	2496.354179
361.337199	2500.802997
361.725830	2501.571773
362.114398	2504.470437
362.502903	2500.903820
362.891344	2499.792246
363.279722	2503.540344
363.668037	2503.603358
364.056289	2508.024450
364.444478	2504.513286
364.832603	2505.950015
365.220665	2504.094871
365.608665	2503.033708
365.996601	2507.633761
366.384474	2508.110150
366.772284	2511.724657
367.160031	2511.437311
367.547715	2512.193484
367.935336	2517.741274
368.322893	2519.548528
368.710388	2522.878210
369.097820	2528.907430
369.485189	2529.961031
369.872495	2534.853471
370.259738	2544.451828
370.646918	2550.581871
371.034035	2557.689898
371.421090	2567.051320
371.808081	2581.143866
372.195010	2587.863724
372.581875	2598.674478
372.968678	2616.167282
373.355418	2625.717748
373.742096	2641.249543
374.128710	2657.315701
374.515262	2670.430262
374.901751	2689.422809
375.288177	2700.117617
375.674540	2723.828684
376.060841	2742.160840
376.447079	2758.849580
376.833254	2782.197684
377.219367	2794.339303
377.605417	2832.069819
377.991404	2840.717919
378.377329	2861.205168
378.763191	2878.319885
379.148991	2915.805905
379.534727	2944.290945
379.920402	2967.475212
380.306013	2985.167141
380.691563	3035.301416
381.077049	3056.154149
381.462474	3072.696695
381.847835	3109.575256
382.233134	3132.036117
382.618371	3133.034266
383.003545	3200.968855
383.388657	3207.232488
383.773706	3241.620719
384.158693	3258.483379
384.543618	3285.786268
384.928480	3317.117039
385.313280	3364.720655
385.698017	3363.510778
386.082692	3416.296700
386.467305	3421.781476
386.851856	3450.377421
387.236344	3477.728201
387.620770	3507.483612
388.005133	3534.547046
388.389435	3562.026376
388.773674	3572.751430
389.157851	3617.146352
389.541965	3630.986840
389.926018	3595.638269
390.310008	3665.702746
390.693936	3684.980118
391.077802	3727.020820
391.461606	3713.492884
391.845348	3776.940846
392.229027	3779.852113
392.612645	3791.603042
392.996200	3869.153633
393.379694	3909.470260
393.763125	3972.494766
394.146494	3943.402267
394.529801	4001.264631
394.913047	4049.715160
395.296230	4017.787012
395.679351	4074.406732
396.062410	4093.883230
396.445408	4075.019232
396.828343	4111.055920
397.211217	4135.223212
397.594028	4052.840676
397.976778	4119.603197
398.359466	4149.398937
398.742092	4175.002957
399.124656	4097.880865
399.507158	4179.202238
399.889598	4203.067060
400.271977	4263.757512
400.654294	4233.066967
401.036549	4244.578442
401.418742	4216.905028
401.800874	4315.232733
402.182944	4336.410621
402.564952	4398.857914
402.946898	4387.089340
403.328783	4387.049011
403.710606	4298.836381
404.092367	4492.726719
404.474067	4456.755566
404.855705	4466.149756
405.237282	4392.377511
405.618797	4502.337679
406.000250	4533.804561
406.381642	4618.561481
406.762972	4578.224688
407.144240	4588.881688
407.525447	4588.760700
407.906593	4649.153723
408.287677	4690.647460
408.668700	4617.074341
409.049661	4672.882434
409.430560	4712.145461
409.811399	4638.617712
410.192176	4801.532680
410.572891	4737.275613
410.953545	4839.590871
411.334138	4725.154158
411.714669	4789.917862
412.095139	4682.188404
412.475547	4822.977749
412.855894	4808.592816
413.236180	4816.673786
413.616405	4772.208288
413.996568	4859.092575
414.376670	4799.286846
414.756711	4755.948047
415.136691	4784.329743
415.516609	4860.370507
415.896466	4900.850973
416.276262	4937.109472
416.655997	4916.400412
417.035670	5100.233649
417.415283	5189.439387
417.794834	5132.844873
418.174324	5086.345270
418.553753	4990.742308
418.933121	5179.180638
419.312428	5247.773098
419.691674	5186.439900
420.070859	5312.168797
420.449983	5222.441300
420.829045	5341.183158
421.208047	5246.280917
421.586988	5318.132483
421.965867	5328.655891
422.344686	5459.970387
422.723444	5314.868335
423.102141	5135.612466
423.480777	5432.566675
423.859352	5199.516653
424.237866	5460.199760
424.616319	5454.122649
424.994712	5560.727929
425.373044	5438.553045
425.751314	5581.232822
426.129524	5384.937853
426.507673	5575.974899
426.885762	5654.702598
427.263789	5594.191108
427.641756	5475.797090
428.019662	5596.467189
428.397508	5603.880206
428.775292	5550.607813
429.153016	5651.355272
429.530679	5577.240228
429.908282	5658.352394
430.285824	5533.936717
430.663305	5808.367050
431.040726	5536.681625
431.418086	5542.564652
431.795385	5645.855373
432.172624	5659.279966
432.549802	5651.559439
432.926920	5667.234907
433.303977	5671.865207
433.680974	5710.800558
434.057910	5732.747222
434.434786	5736.510443
434.811601	5706.545825
435.188355	5940.122647
435.565050	5812.006763
435.941683	5798.093178
436.318257	6010.209809
436.694770	5989.959494
437.071222	6030.525659
437.447614	5960.700637
437.823946	5875.966403
438.200218	6025.313106
438.576429	5888.425614
438.952580	5988.941181
439.328670	6035.312234
439.704700	5940.740188
440.080670	5931.824908
440.456580	6203.832966
440.832429	6080.554070
441.208218	5926.148568
441.583947	6081.292599
441.959616	6090.301141
442.335224	6015.379512
442.710773	6150.729452
443.086261	6179.209450
443.461689	5973.835363
443.837057	6123.696264
444.212365	6281.060923
444.587612	6167.640002
444.962800	6325.801163
445.337927	6306.322145
445.712995	5914.624491
446.088002	6496.542523
446.462949	6323.567932
446.837837	6254.599906
447.212664	6422.099804
447.587431	6568.489871
447.962139	7112.062367
448.336786	8036.940178
448.711374	7777.572812
449.085901	6856.647266
449.460369	6773.909328
449.834776	6706.241920
450.209124	7097.483350
450.583412	7247.422389
450.957640	7394.349338
451.331808	7158.209089
451.705917	6710.874741
452.079965	6633.051928
452.453954	6847.419434
452.827883	6725.723459
453.201752	6821.054199
453.575562	6614.865966
453.949311	6820.822306
454.323001	6710.499175
454.696632	6785.362830
455.070202	6920.722852
455.443713	7078.541214
455.817164	7179.034096
456.190556	7259.168277
456.563888	7333.999165
456.937160	7373.254630
457.310373	7032.066817
457.683526	7063.821045
458.056619	6946.422654
458.429653	6932.025119
458.802628	6870.036571
459.175542	6981.544373
459.548398	7335.564443
459.921194	7493.355079
460.293930	7499.480081
460.666607	8031.962038
461.039224	8334.799273
461.411782	8469.488822
461.784280	8487.997418
462.156719	8373.485088
462.529099	8251.942869
462.901419	7840.481371
463.273680	7734.223930
463.645882	7747.192299
464.018024	7611.136598
464.390106	7781.870396
464.762130	8169.903131
465.134094	8637.104667
465.505999	9659.554010
465.877845	10878.106759
466.249631	11531.415092
466.621358	11150.896197
466.993026	10520.366318
467.364634	10262.604560
467.736184	9896.329445
468.107674	9564.601357
468.479105	9599.655020
468.850477	9356.812557
469.221790	9132.201427
469.593043	8812.425915
469.964238	8668.911827
470.335373	8680.468672
470.706449	8733.970438
471.077467	8717.531235
471.448425	10023.454742
471.819324	11098.937024
472.190164	11129.756118
472.560945	9882.373010
472.931667	9093.797917
473.302330	8953.525291
473.672934	8598.010518
474.043479	8961.150036
474.413965	8895.778873
474.784393	8779.529866
475.154761	8934.825130
475.525070	9024.015745
475.895321	8847.850103
476.265513	9028.406590
476.635645	9193.998411
477.005719	9194.386580
477.375734	9304.089650
477.745691	9547.247185
478.115588	9679.297689
478.485427	9923.662581
478.855207	10453.971801
479.224928	11273.076122
479.594591	11911.674367
479.964194	11711.230529
480.333739	11661.567602
480.703226	11576.843450
481.072653	11656.004688
481.442022	11901.085424
481.811333	12096.014240
482.180584	11898.413612
482.549777	11611.047678
482.918912	11432.880699
483.287988	11449.524068
483.657005	11464.153497
484.025964	11144.652727
484.394864	11270.731985
484.763706	11245.236350
485.132489	11009.690957
485.501213	10966.805861
485.869879	11037.676922
486.238487	10887.957174
486.607036	10993.995324
486.975527	10774.233784
487.343959	10963.443411
487.712333	11008.864207
488.080648	10940.811151
488.448905	10983.050979
488.817104	10919.600496
489.185244	11183.557832
489.553326	11346.692091
489.921350	11889.866336
490.289315	12940.208384
490.657222	13289.923308
491.025070	13200.316799
491.392861	13073.914907
491.760593	12690.726721
492.128267	12343.320645
492.495883	12015.829647
492.863440	11681.820437
493.230939	11342.823006
493.598380	11269.948086
493.965763	11145.527368
494.333088	11046.609847
494.700354	10957.540220
495.067563	11020.610096
495.434713	10849.914106
495.801805	10980.432100
496.168839	10904.487117
496.535815	10841.407159
496.902733	10838.662251
497.269593	10770.223546
497.636395	10874.769515
498.003139	10854.123470
498.369825	10725.992462
498.736453	10884.337625
499.103023	10811.714763
499.469535	10837.901037
499.835989	10831.735705
500.202385	10789.359766
500.568723	10644.025821
500.935003	10860.878616
501.301226	10670.000367
501.667390	10933.383011
502.033497	11028.285253
502.399546	10886.195290
502.765537	10792.991917
503.131470	10866.885151
503.497345	11042.229084
503.863163	10650.259208
504.228923	10961.842845
504.594625	11028.191991
504.960269	10773.341500
505.325856	10997.738381
505.691385	10788.225507
506.056856	10949.718870
506.422270	10968.910543
506.787625	10856.215548
507.152924	10973.782818
507.518164	10959.987700
507.883347	10877.340504
508.248472	10797.413009
508.613540	11031.186437
508.978550	10908.547767
509.343503	10883.387368
509.708398	11010.948725
510.073236	11117.034766
510.438016	11120.452668
510.802738	11072.717983
511.167403	11123.111877
511.532010	11018.828048
511.896561	11253.077864
512.261053	11326.532517
512.625488	11196.748011
512.989866	11169.959320
513.354186	11159.478761
513.718449	11065.057949
514.082655	11258.527352
514.446803	11146.991823
514.810894	11276.350351
515.174927	11141.950669
515.538904	11172.265648
515.902822	11325.589821
516.266684	11200.349916
516.630488	11148.554581
516.994235	11202.787314
517.357925	11263.941551
517.721558	11347.609581
518.085133	11372.999353
518.448651	11385.753472
518.812112	11261.247054
519.175516	11275.077460
519.538863	11396.541541
519.902152	11311.625825
520.265385	11470.984260
520.628560	11385.115766
520.991678	11357.608710
521.354739	11427.378279
521.717743	11358.611900
522.080690	11336.259423
522.443580	11468.791358
522.806413	11428.847776
523.169189	11456.117897
523.531908	11514.870025
523.894569	11333.973260
524.257174	11335.309166
524.619722	11451.175046
524.982213	11406.417162
525.344647	11454.678648
525.707025	11402.661502
526.069345	11496.217756
526.431608	11413.573079
526.793815	11529.181861
527.155964	11308.923767
527.518057	11367.615400
527.880093	11310.541977
528.242072	11381.894469
528.603995	11289.101950
528.965860	11209.103879
529.327669	11259.835531
529.689421	11208.912316
530.051117	11182.005157
530.412755	11285.827720
530.774337	11177.163129
531.135862	11159.299800
531.497331	11178.993068
531.858743	11031.849348
532.220098	11200.720441
532.581396	11066.749257
532.942638	11050.176463
533.303824	11012.345124
533.664953	11024.406085
534.026025	10937.970461
534.387040	11041.215812
534.747999	11042.080370
535.108902	11099.083217
535.469748	10857.513646
535.830537	10960.068359
536.191270	10936.153125
536.551947	10961.744543
536.912567	10961.641199
537.273131	10894.641744
537.633638	10867.391787
537.994089	10851.010557
538.354483	10799.699173
538.714821	10951.120311
539.075103	10953.141813
539.435328	10920.840620
539.795497	10742.897972
540.155609	10907.128682
540.515665	10989.475930
540.875665	10731.656199
541.235609	10794.927721
541.595496	10794.630292
541.955328	10944.677716
542.315102	10826.765128
542.674821	10782.488673
543.034483	10779.012798
543.394090	10784.064034
543.753640	10712.545184
544.113134	10933.798906
544.472571	10786.713160
544.831953	10932.301683
545.191278	10739.969061
545.550548	10766.404872
545.909761	10909.795452
546.268918	10877.794208
546.628019	10959.241610
546.987064	10822.825466
547.346053	10742.751778
547.704986	10841.931439
548.063863	10834.057157
548.422684	10823.654736
548.781449	10739.154915
549.140158	10836.550007
549.498811	10715.179187
549.857408	10572.330531
550.215949	10803.492641
550.574434	10654.990331
550.932864	10751.513304
551.291237	10816.387913
551.649555	10752.355176
552.007817	10769.913515
552.366022	10737.095604
552.724173	10726.216794
553.082267	10716.900741
553.440305	10848.999137
553.798288	10647.105966
554.156215	10808.445575
554.514086	10778.871646
554.871902	10630.447473
555.229661	10667.520119
555.587365	10648.693930
555.945014	10543.346417
556.302606	10665.884264
556.660143	10556.244209
557.017625	10714.622140
557.375050	10611.119690
557.732421	10741.582231
558.089735	10657.561319
558.446994	10657.021916
558.804197	10694.949037
559.161345	10695.790910
559.518437	10547.429752
559.875474	10634.314038
560.232455	10665.231435
560.589381	10618.999013
560.946251	10608.342014
561.303065	10721.641947
561.659825	10647.733590
562.016528	10585.230844
562.373177	10463.343306
562.729770	10578.954608
563.086307	10491.145269
563.442789	10583.347973
563.799216	10464.664088
564.155587	10512.834834
564.511904	10468.586106
564.868164	10459.801895
565.224370	10470.988216
565.580520	10393.467872
565.936615	10401.059850
566.292654	10271.711404
566.648638	10400.245704
567.004567	10351.880874
567.360441	10334.211629
567.716260	10250.798177
568.072023	10348.934319
568.427732	10300.569489
568.783385	10205.926867
569.138982	10276.674420
569.494525	10300.256938
569.850013	10170.248101
570.205445	10248.252395
570.560823	10148.591304
570.916145	10059.151152
571.271412	10135.476742
571.626625	10083.464637
571.981782	10059.655267
572.336884	10031.543273
572.691931	10033.078304
573.046923	9978.838010
573.401860	9942.299727
573.756743	9869.366833
574.111570	9918.848279
574.466342	9899.331452
574.821059	9922.994628
575.175722	9824.079628
575.530330	9825.312190
575.884882	9820.679369
576.239380	9749.604141
576.593823	9724.007683
576.948211	9747.277649
577.302544	9624.732240
577.656823	9640.216144
578.011047	9636.846133
578.365216	9606.566442
578.719330	9524.796406
579.073389	9540.464312
579.427394	9488.777362
579.781344	9465.870359
580.135239	9417.838245
580.489080	9431.136809
580.842866	9329.257610
581.196597	9328.655192
581.550273	9371.691523
581.903895	9339.488632
582.257463	9401.588086
582.610975	9279.418243
582.964434	9304.755082
583.317837	9229.793124
583.671186	9216.328202
584.024481	9198.162404
584.377721	9122.696331
584.730906	9100.590872
585.084037	9131.089853
585.437113	9067.087363
585.790135	9085.384231
586.143103	8979.966142
586.496016	8954.523439
586.848874	9014.535855
587.201679	8999.152774
587.554428	8889.106906
587.907124	8930.575438
588.259765	8903.166684
588.612352	8901.878669
588.964884	8779.552551
589.317362	8787.598232
589.669786	8790.615363
590.022155	8845.276594
590.374470	8849.059980
590.726731	8796.566445
591.078937	8641.750090
591.431090	8755.198737
591.783188	8623.445660
592.135232	8615.621789
592.487222	8617.653374
592.839157	8669.226899
593.191038	8598.338193
593.542866	8540.851396
593.894639	8439.985469
594.246358	8490.961617
594.598022	8503.307402
594.949633	8399.177328
595.301190	8372.713791
595.652692	8402.907782
596.004141	8513.205708
596.355535	8289.010473
596.706876	8268.303933
597.058162	8194.234260
597.409395	8273.329964
597.760573	8329.601844
598.111698	8238.727484
598.462768	8220.481027
598.813785	8186.899381
599.164748	8153.098445
599.515657	8138.400961
599.866511	8054.982467
600.217312	8180.509719
600.568060	8038.177781
600.918753	8131.892831
601.269392	8104.657997
601.619978	8013.166096
601.970510	8072.560971
602.320988	8064.825320
602.671412	8112.683514
603.021783	8059.365751
603.372100	8025.436265
603.722363	8022.978702
604.072572	7999.272676
604.422728	8004.908686
604.772830	7932.439579
605.122878	7937.984848
605.472872	7928.507479
605.822813	7951.633772
606.172701	7899.631750
606.522534	7968.166236
606.872314	7959.054351
607.222041	7932.971421
607.571714	7974.253430
607.921333	7929.969414
608.270899	7929.608971
608.620411	8021.284874
608.969870	7916.469204
609.319276	7910.485354
609.668627	7917.870644
610.017926	7948.152856
610.367171	7988.207343
610.716362	7955.845656
611.065500	7939.169519
611.414585	7960.296995
611.763616	7944.820653
612.112594	7924.663599
612.461518	7927.915143
612.810389	7981.434553
613.159207	7915.440808
613.507971	7857.906119
613.856682	7964.594579
614.205340	7917.338803
614.553945	7982.183165
614.902496	7880.924028
615.250994	7924.983712
615.599439	7899.097387
615.947830	7901.978407
616.296169	7871.113942
616.644454	7873.384982
616.992686	7860.194803
617.340864	7902.815238
617.688990	7804.714385
618.037063	7879.320941
618.385082	7816.571178
618.733048	7886.088690
619.080961	7820.233577
619.428821	7828.785894
619.776628	7821.130902
620.124382	7765.930267
620.472083	7745.732885
620.819731	7764.967407
621.167326	7648.491548
621.514868	7655.513875
621.862357	7545.404993
622.209793	7550.531846
622.557176	7479.244889
622.904506	7446.295908
623.251783	7372.518621
623.599007	7327.370047
623.946179	7319.795714
624.293297	7271.534227
624.640363	7193.219902
624.987376	7164.308885
625.334336	7109.972808
625.681243	7053.763943
626.028097	7036.724843
626.374899	7006.220821
626.721647	6989.625343
627.068343	6917.325114
627.414987	6879.866821
627.761577	6828.106773
628.108115	6853.171390
628.454600	6751.647593
628.801032	6780.488034
629.147412	6737.257619
629.493739	6713.385235
629.840014	6644.780173
630.186236	6687.478746
630.532405	6573.190747
630.878521	6605.433967
631.224585	6560.376134
631.570597	6481.913095
631.916556	6491.004816
632.262462	6484.310163
632.608316	6434.662360
632.954117	6397.882101
633.299866	6384.528085
633.645562	6359.226534
633.991206	6288.874711
634.336797	6231.269446
634.682336	6184.951325
635.027823	6145.103524
635.373257	6137.468697
635.718639	6061.508590
636.063968	6064.470268
636.409245	5971.564323
636.754470	5959.039577
637.099642	5915.269758
637.444762	5857.457806
637.789829	5850.775757
638.134845	5791.055728
638.479808	5768.980515
638.824719	5766.243168
639.169577	5699.737746
639.514383	5706.611360
639.859137	5636.902284
640.203839	5638.122243
640.548489	5610.615187
640.893086	5579.859108
641.237632	5544.245877
641.582125	5555.817845
641.926566	5521.033884
642.270955	5521.734604
642.615292	5508.274723
642.959576	5500.544114
643.303809	5492.059852
643.647990	5484.382175
643.992118	5463.889884
644.336195	5414.736114
644.680219	5417.241567
645.024192	5402.942334
645.368112	5460.693793
645.711981	5467.902643
646.055797	5513.635990
646.399562	5461.003824
646.743274	5543.638417
647.086935	5572.950207
647.430544	5554.817176
647.774101	5550.459099
648.117606	5549.859201
648.461059	5532.159710
648.804460	5488.531044
649.147810	5416.487915
649.491108	5380.554570
649.834354	5354.524572
650.177548	5279.247542
650.520690	5211.769178
650.863781	5183.533675
651.206820	5185.792112
651.549807	5122.976814
651.892742	5066.059667
652.235626	5062.984563
652.578458	5040.790883
652.921238	4970.071056
653.263967	4984.781143
653.606644	4939.004946
653.949269	4925.517339
654.291843	4878.145616
654.634365	4897.546497
654.976836	4849.622767
655.319255	4849.065720
655.661622	4820.263088
656.003938	4805.134585
656.346203	4775.805152
656.688416	4783.931492
657.030577	4741.984051
657.372687	4707.910892
657.714746	4693.712482
658.056753	4712.725194
658.398708	4659.326772
658.740612	4650.623219
659.082465	4662.822812
659.424266	4652.818642
659.766016	4641.027383
660.107715	4612.837251
660.449362	4613.890852
660.790958	4602.437350
661.132503	4578.481787
661.473996	4590.429322
661.815438	4579.066561
662.156829	4566.504006
662.498168	4548.486922
662.839456	4531.062174
663.180693	4535.931928
663.521879	4528.665105
663.863013	4512.717415
664.204097	4507.119213
664.545129	4526.184857
664.886110	4508.818082
665.227040	4512.036859
665.567918	4489.611286
665.908746	4492.698993
666.249522	4484.794464
666.590248	4469.814675
666.930922	4475.022187
667.271545	4469.192092
667.612118	4461.348057
667.952639	4441.906847
668.293109	4435.575158
668.633528	4399.581320
668.973896	4400.317328
669.314213	4380.959297
669.654480	4357.074310
669.994695	4349.058876
670.334859	4335.445240
670.674973	4310.194100
671.015035	4309.193431
671.355047	4294.684990
671.695008	4281.141931
672.034918	4260.556379
672.374777	4253.566819
672.714585	4238.771033
673.054342	4233.152667
673.394049	4217.764544
673.733705	4223.982808
674.073310	4204.281978
674.412864	4183.605686
674.752368	4163.786390
675.091820	4158.772962
675.431223	4116.762507
675.770574	4109.571301
676.109875	4079.334460
676.449125	4068.644693
676.788324	4045.021846
677.127473	4007.717308
677.466571	3992.004031
677.805619	3980.089264
678.144616	3964.623004
678.483562	3946.280766
678.822458	3922.504164
679.161303	3912.631064
679.500098	3898.470463
679.838842	3886.248185
680.177535	3881.360787
680.516179	3882.222824
680.854771	3873.753685
681.193314	3907.078233
681.531805	3948.529120
681.870247	4004.727903
682.208638	4047.280283
682.546978	4044.066547
682.885268	4023.619627
683.223508	3973.162719
683.561697	3945.746403
683.899836	3921.503495
684.237925	3893.396541
684.575963	3879.175446
684.913951	3853.916745
685.251889	3863.023589
685.589776	3851.595294
685.927614	3836.015608
686.265401	3852.575798
686.603137	3844.507431
686.940824	3864.866131
687.278460	3869.135988
687.616046	3871.273438
687.953582	3891.715317
688.291068	3880.294582
688.628504	3893.391500
688.965889	3871.338973
689.303224	3846.324767
689.640510	3817.703616
689.977745	3780.313378
690.314930	3731.000811
690.652065	3703.229095
690.989150	3663.131757
691.326185	3618.023512
691.663170	3585.742484
692.000105	3548.238820
692.336990	3513.704395
692.673825	3491.906446
693.010610	3468.202941
693.347345	3435.027107
693.684030	3409.682706
694.020665	3393.765263
694.357251	3358.235211
694.693786	3357.196733
695.030272	3343.573015
695.366707	3322.730364
695.703093	3306.727221
696.039429	3309.625885
696.375716	3294.439409
696.711952	3286.275260
697.048139	3278.544651
697.384276	3265.495624
697.720363	3266.403032
698.056400	3257.759973
698.392388	3240.609968
698.728326	3231.792990
699.064214	3217.241699
699.400053	3212.268601
699.735842	3191.062987
700.071581	3179.864064
700.407270	3166.779749
700.742910	3155.858090
701.078501	3137.082312
701.414042	3129.003863
701.749533	3111.400154
702.084974	3094.227463
702.420366	3101.169132
702.755709	3080.583580
703.091002	3063.108421
703.426246	3064.487176
703.761440	3051.344888
704.096584	3038.358876
704.431679	3038.038762
704.766725	3032.710263
705.101721	3024.415044
705.436668	3025.902185
705.771565	3009.611696
706.106413	3017.652336
706.441212	3016.447501
706.775961	3014.524300
707.110661	3010.211593
707.445311	3018.403468
707.779913	3014.592356
708.114465	3017.329702
708.448967	3022.476721
708.783421	3034.620860
709.117825	3042.850544
709.452180	3043.213507
709.786485	3054.992163
710.120742	3076.359093
710.454949	3077.236254
710.789107	3093.214191
711.123216	3106.903445
711.457275	3110.444855
711.791286	3123.889613
712.125247	3124.267699
712.459159	3110.427211
712.793023	3125.049078
713.126837	3098.570417
713.460602	3093.199068
713.794318	3073.538568
714.127985	3063.224367
714.461602	3034.951056
714.795171	3023.270702
715.128691	2998.818586
715.462162	2978.706902
715.795584	2961.420786
716.128957	2952.568520
716.462281	2936.666200
716.795556	2925.479879
717.128782	2911.614186
717.461960	2897.322515
717.795088	2896.021897
718.128167	2880.540513
718.461198	2868.960983
718.794180	2864.234901
719.127113	2857.280630
719.459997	2849.303004
719.792833	2835.454954
720.125619	2834.121569
720.458357	2821.259065
720.791046	2819.908036
721.123686	2815.509629
721.456278	2803.272228
721.788821	2804.729121
722.121315	2798.568831
722.453761	2791.977523
722.786158	2792.486679
723.118506	2792.194292
723.450805	2787.836215
723.783056	2791.047430
724.115259	2788.622635
724.447412	2786.260854
724.779518	2784.241872
725.111574	2783.732716
725.443582	2789.860238
725.775542	2787.516102
726.107453	2793.134467
726.439315	2790.233283
726.771129	2799.017494
727.102895	2803.380613
727.434612	2809.924030
727.766281	2810.967549
728.097901	2810.362611
728.429473	2806.712815
728.760996	2801.535550
729.092471	2800.703760
729.423897	2798.185704
729.755276	2791.264199
730.086606	2790.296298
730.417887	2796.154119
730.749120	2807.708443
731.080305	2808.696509
731.411442	2811.837148
731.742530	2805.631488
732.073570	2804.086374
732.404562	2810.100471
732.735506	2810.125677
733.066401	2803.483956
733.397249	2787.470731
733.728048	2766.151692
734.058798	2753.944537
734.389501	2740.403998
734.720156	2734.679768
735.050762	2721.388766
735.381320	2720.357850
735.711831	2715.714947
736.042293	2709.831921
736.372707	2706.595500
736.703073	2704.808411
737.033391	2702.474357
737.363661	2703.356559
737.693883	2704.775643
738.024056	2709.413505
738.354182	2708.773278
738.684260	2715.029350
739.014290	2720.756101
739.344272	2720.199054
739.674207	2724.720969
740.004093	2725.512430
740.333931	2725.537636
740.663722	2724.718448
740.993464	2721.043447
741.323159	2714.328630
741.652806	2707.752445
741.982405	2702.446630
742.311956	2697.314736
742.641460	2693.480938
742.970915	2687.413910
743.300323	2680.247909
743.629683	2676.308248
743.958996	2675.141221
744.288260	2668.360869
744.617477	2663.758295
744.946647	2655.994918
745.275768	2653.963333
745.604842	2651.513332
745.933869	2644.705254
746.262847	2641.655356
746.591778	2648.629792
746.920662	2645.040491
747.249498	2644.430511
747.578286	2645.753814
747.907027	2648.629792
748.235720	2651.064670
748.564365	2648.695327
748.892963	2646.704072
749.221514	2646.111736
749.550017	2644.327168
749.878473	2641.816673
750.206881	2637.204017
750.535242	2636.006743
750.863555	2635.376599
751.191821	2635.059006
751.520039	2634.138996
751.848210	2632.472894
752.176334	2632.470374
752.504411	2632.934160
752.832440	2627.882924
753.160421	2627.386370
753.488356	2627.119189
753.816243	2627.726648
754.144082	2625.677419
754.471875	2623.096348
754.799620	2621.694907
755.127318	2621.344547
755.454969	2622.619959
755.782572	2623.756739
756.110129	2618.299690
756.437638	2621.049640
756.765100	2619.386059
757.092515	2622.652727
757.419882	2620.064094
757.747203	2621.417644
758.074477	2619.864969
758.401703	2621.518467
758.728882	2619.870010
759.056014	2619.968312
759.383099	2622.375463
759.710138	2623.461832
760.037129	2624.603653
760.364073	2625.727831
760.690970	2621.760442
761.017820	2622.614918
761.344623	2619.438991
761.671379	2624.091976
761.998088	2623.277830
762.324751	2633.395426
762.651366	2655.435350
762.977935	2701.438400
763.304456	2730.757750
763.630931	2736.033318
763.957359	2706.661035
764.283740	2680.076510
764.610074	2660.466422
764.936362	2643.223155
765.262602	2631.608337
765.588796	2622.914867
765.914943	2615.769031
766.241044	2609.949019
766.567097	2607.798967
766.893104	2601.515169
767.219064	2597.381422
767.544978	2595.221288
767.870845	2594.235742
768.196665	2593.625763
768.522438	2590.162490
768.848165	2589.396235
769.173846	2588.060329
769.499479	2587.561255
769.825066	2584.344999
770.150607	2583.835842
770.476101	2581.269895
770.801548	2585.083528
771.126949	2578.403999
771.452303	2580.579257
771.777611	2576.891653
772.102872	2580.501119
772.428087	2574.474419
772.753256	2573.650191
773.078378	2573.362845
773.403453	2574.544996
773.728482	2571.101888
774.053465	2573.335119
774.378401	2570.973338
774.703291	2569.884449
775.028135	2569.476115
775.352932	2571.779923
775.677683	2569.024932
776.002388	2570.469223
776.327046	2567.575600
776.651658	2567.590724
776.976224	2562.912533
777.300743	2565.236505
777.625216	2567.298337
777.949643	2562.904971
778.274024	2566.000240
778.598359	2562.917574
778.922647	2562.978068
779.246889	2558.662840
779.571086	2558.914898
779.895236	2563.734241
780.219339	2563.966134
780.543397	2564.777760
780.867409	2565.712894
781.191374	2562.743654
781.515294	2562.209292
781.839167	2559.361040
782.162995	2563.893037
782.486776	2564.283727
782.810511	2562.723490
783.134201	2562.307595
783.457844	2562.564693
783.781441	2562.421021
784.104993	2561.127965
784.428498	2558.546894
784.751958	2561.092677
785.075372	2560.908674
785.398739	2561.347255
785.722061	2560.003787
786.045337	2558.630073
786.368568	2559.275341
786.691752	2560.160063
787.014891	2562.393294
787.337983	2563.114179
787.661030	2567.232802
787.984031	2571.958884
788.306987	2571.394274
788.629897	2572.710016
788.952760	2569.496280
789.275579	2569.118193
789.598351	2566.887483
789.921078	2563.935887
790.243759	2562.234498
790.566395	2560.815413
790.888984	2559.131668
791.211529	2561.803479
791.534027	2559.056050
791.856480	2558.730896
792.178888	2557.289126
792.501249	2556.003632
792.823566	2559.842470
793.145836	2555.930535
793.468062	2556.772408
793.790241	2555.002963
794.112375	2558.735937
794.434464	2557.420196
794.756507	2555.945658
795.078505	2558.448591
795.400457	2555.554969
795.722364	2554.183775
796.044226	2562.153839
796.366042	2557.783159
796.687812	2556.464897
797.009538	2561.853891
797.331218	2561.493448
797.652852	2559.965979
797.974442	2560.326421
798.295986	2557.410114
798.617484	2557.619322
798.938938	2558.312480
799.260346	2560.757440
799.581709	2553.089845
799.903026	2557.687377
800.224299	2557.032027
800.545526	2557.122768
800.866708	2553.843497
801.187845	2553.755277
801.508936	2552.847869
801.829983	2554.902140
802.150984	2553.455328
802.471940	2551.131357
802.792851	2551.275029
803.113717	2553.662016
803.434538	2553.762839
803.755314	2551.940462
804.076045	2553.573796
804.396731	2552.497509
804.717372	2553.311656
805.037967	2553.495658
805.358518	2551.413661
805.679024	2557.132850
805.999485	2550.952396
806.319901	2556.515309
806.640272	2552.036244
806.960598	2556.288457
807.280879	2552.618497
807.601115	2554.483724
807.921306	2552.772252
808.241453	2553.626728
808.561554	2551.322920
808.881611	2555.028168
809.201623	2551.532128
809.521590	2551.285112
809.841513	2553.674619
810.161390	2554.367777
810.481223	2549.941644
810.801011	2551.267468
811.120755	2552.515153
811.440453	2551.721172
811.760107	2550.869217
812.079716	2549.949206
812.399281	2547.239586
812.718801	2550.430636
813.038276	2544.676159
813.357707	2550.632282
813.677093	2549.361912
813.996434	2553.483055
814.315731	2550.929710
814.634983	2552.515153
814.954191	2555.302911
815.273354	2551.635472
815.592473	2551.353167
815.911547	2552.232849
816.230577	2553.644372
816.549562	2553.861141
816.868502	2554.284598
817.187399	2553.679660
817.506250	2554.743343
817.825058	2554.072870
818.143821	2554.299722
818.462539	2555.542366
818.781213	2557.276523
819.099843	2560.175187
819.418429	2563.099056
819.736970	2567.051320
820.055466	2568.977041
820.373919	2576.669842
820.692327	2580.506160
821.010691	2596.849581
821.329011	2622.776235
821.647286	2685.354598
821.965517	2763.505086
822.283704	2809.369503
822.601847	2815.643219
822.919945	2776.576798
823.237999	2735.015005
823.556010	2696.450178
823.873976	2664.708553
824.191897	2641.841879
824.509775	2623.033334
824.827609	2609.381889
825.145398	2602.742690
825.463144	2600.259921
825.780845	2600.184304
826.098502	2609.954060
826.416116	2624.858232
826.733685	2644.070069
827.051210	2649.897643
827.368692	2641.337763
827.686129	2625.649693
828.003522	2605.590942
828.320872	2587.941862
828.638177	2578.724112
828.955439	2572.339491
829.272656	2565.599468
829.589830	2558.390618
829.906960	2560.885989
830.224046	2561.553942
830.541088	2559.469425
830.858086	2556.757284
831.175041	2555.096224
831.491952	2555.928014
831.808819	2555.416337
832.125642	2557.755433
832.442421	2562.068140
832.759157	2567.210117
833.075849	2579.641602
833.392497	2588.448498
833.709101	2600.693461
834.025662	2597.199941
834.342179	2591.828592
834.658653	2582.613362
834.975083	2571.255643
835.291469	2573.040211
835.607811	2563.015877
835.924110	2558.405742
836.240366	2554.771070
836.556578	2552.384083
836.872746	2555.043292
837.188871	2549.702189
837.504952	2549.462735
837.820990	2546.397713
838.136984	2545.696993
838.452935	2544.822352
838.768842	2547.794113
839.084706	2551.693445
839.400526	2553.848538
839.716303	2558.080587
840.032037	2563.404046
840.347727	2567.318502
840.663373	2562.312636
840.978977	2555.219732
841.294537	2550.816284
841.610054	2553.054557
841.925527	2549.621531
842.240957	2547.516849
842.556344	2545.886036
842.871687	2543.609955
843.186987	2545.142466
843.502244	2543.877136
843.817458	2543.640202
844.132629	2540.184491
844.447756	2543.365459
844.762840	2539.955118
845.077881	2539.771116
845.392879	2540.441590
845.707833	2541.427135
846.022745	2541.006199
846.337613	2542.447969
846.652438	2539.473688
846.967221	2541.855633
847.281960	2539.380427
847.596656	2544.046015
847.911309	2543.057949
848.225919	2542.563916
848.540485	2542.815973
848.855009	2543.194060
849.169490	2542.558874
849.483928	2542.752959
849.798323	2539.589635
850.112675	2539.758513
850.426984	2540.098791
850.741251	2540.928061
851.055474	2543.647764
851.369654	2541.228010
851.683792	2542.304296
851.997887	2541.628782
852.311938	2541.764893
852.625947	2540.010571
852.939914	2540.716333
853.253837	2542.198432
853.567718	2543.264636
853.881555	2542.614327
854.195350	2544.419060
854.509103	2541.417053
854.822812	2541.298586
855.136479	2540.744059
855.450103	2541.129707
855.763685	2542.001827
856.077224	2538.730118
856.390720	2542.155582
856.704173	2541.215407
857.017584	2541.177598
857.330953	2540.739018
857.644278	2542.447969
857.957561	2547.347971
858.270802	2543.216745
858.584000	2541.724563
858.897155	2543.047866
859.210268	2540.764224
859.523339	2540.489481
859.836367	2540.852444
860.149352	2542.521066
860.462295	2544.908052
860.775195	2539.256919
861.088054	2538.198276
861.400869	2537.487474
861.713642	2535.458409
862.026373	2541.976621
862.339062	2539.733308
862.651708	2541.555685
862.964312	2540.451672
863.276873	2539.841692
863.589392	2540.257588
863.901869	2540.663401
864.214303	2541.855633
864.526696	2541.873277
864.839045	2544.114070
865.151353	2541.701878
865.463619	2541.112063
865.775842	2540.519728
866.088023	2540.088709
866.400162	2541.170037
866.712258	2543.683052
867.024313	2544.111550
867.336325	2542.957126
867.648296	2542.881508
867.960224	2543.118442
868.272110	2543.892260
868.583954	2539.977804
868.895755	2542.589121
869.207515	2542.528627
869.519233	2541.928730
869.830909	2543.299924
870.142542	2542.231199
870.454134	2542.558874
870.765684	2541.926210
871.077191	2544.151879
871.388657	2542.886549
871.700081	2545.104657
872.011463	2543.430994
872.322803	2546.372507
872.634101	2544.179605
872.945357	2544.033412
873.256571	2546.304452
873.567744	2543.970398
873.878874	2546.281767
874.189963	2544.076262
874.501010	2545.424770
874.812015	2545.611293
875.122979	2546.833773
875.433900	2547.219421
875.744780	2547.854607
876.055618	2544.479554
876.366415	2549.598846
876.677169	2546.896787
876.987882	2543.826725
877.298554	2541.719522
877.609183	2544.565254
877.919771	2541.028884
878.230317	2544.325799
878.540822	2549.550955
878.851285	2551.307797
879.161707	2552.283260
879.472087	2556.603529
879.782425	2560.117213
880.092722	2568.480487
880.402977	2587.677201
880.713191	2608.479523
881.023363	2636.992289
881.333494	2656.564569
881.643583	2662.490445
881.953631	2656.491472
882.263637	2650.658857
882.573602	2638.156795
882.883526	2625.639610
883.193408	2614.095368
883.503248	2600.660693
883.813048	2592.617532
884.122806	2586.626121
884.432522	2576.964749
884.742197	2571.190108
885.051831	2563.754406
885.361424	2563.517472
885.670975	2561.127965
885.980485	2556.583364
886.289954	2557.523540
886.599382	2555.071018
886.908768	2553.253682
887.218113	2552.331151
887.527417	2552.298384
887.836680	2554.022458
888.145901	2549.598846
888.455082	2546.105326
888.764221	2548.207487
889.073319	2545.225645
889.382376	2548.832590
889.691392	2545.455017
890.000366	2550.314690
890.309300	2546.785882
890.618193	2548.593136
890.927044	2545.530635
891.235855	2545.533155
891.544625	2547.589946
891.853353	2547.673125
892.162041	2546.551468
892.470687	2551.993394
892.779293	2549.878630
893.087858	2551.428785
893.396381	2550.730585
893.704864	2557.248797
894.013306	2559.645865
894.321707	2572.606672
894.630068	2578.703947
894.938387	2584.932293
895.246665	2581.804257
895.554903	2579.404668
895.863100	2571.726991
896.171256	2566.864798
896.479371	2563.472101
896.787446	2558.640155
897.095480	2556.550597
897.403473	2554.864331
897.711425	2551.897612
898.019336	2552.832746
898.327207	2551.766542
898.635038	2549.366953
898.942827	2550.773435
899.250576	2550.080276
899.558284	2549.888712
899.865952	2548.749411
900.173579	2546.072559
900.481165	2546.044832
900.788711	2547.693290
901.096216	2545.618855
901.403681	2544.598021
901.711105	2547.491643
902.018489	2547.242106
902.325832	2548.832590
902.633135	2544.161961
902.940397	2549.697148
903.247619	2548.915769
903.554800	2560.250804
903.861941	2571.739593
904.169041	2586.210226
904.476101	2594.351689
904.783121	2597.497369
905.090100	2586.129567
905.397039	2581.247210
905.703938	2573.582135
906.010796	2564.215671
906.317614	2559.426575
906.624391	2555.852397
906.931129	2548.928372
907.237826	2550.246634
907.544483	2544.106509
907.851099	2546.790923
908.157675	2543.423432
908.464211	2545.147507
908.770707	2539.985365
909.077163	2543.690613
909.383578	2536.328008
909.689954	2541.825387
909.996289	2536.973276
910.302584	2541.646426
910.608839	2541.459903
910.915054	2542.082485
911.221229	2540.628113
911.527363	2540.930582
911.833458	2541.245654
912.139513	2541.646426
912.445527	2540.469316
912.751502	2542.440407
913.057436	2543.834286
913.363331	2543.050387
913.669186	2545.971736
913.975000	2546.604400
914.280775	2548.222611
914.586510	2554.856769
914.892205	2557.021945
915.197859	2564.986968
915.503475	2570.922927
915.809050	2581.902560
916.114585	2587.662078
916.420081	2591.127871
916.725536	2588.645103
917.030952	2582.447004
917.336328	2577.821746
917.641665	2573.093143
917.946961	2569.118193
918.252218	2564.031669
918.557435	2559.691236
918.862612	2556.706873
919.167750	2553.467931
919.472848	2556.490103
919.777906	2550.067673
920.082925	2548.474668
920.387904	2547.705892
920.692843	2548.325954
920.997743	2546.377548
921.302603	2544.237579
921.607423	2546.213711
921.912204	2546.188505
922.216946	2545.218083
922.521647	2543.909904
922.826310	2540.590304
923.130932	2543.373021
923.435516	2544.640871
923.740059	2542.155582
924.044564	2541.031405
924.349028	2542.500901
924.653454	2534.540919
924.957840	2535.995292
925.262186	2536.907741
925.566493	2536.567463
925.870761	2534.997144
926.174989	2539.511497
926.479178	2537.036290
926.783328	2538.929244
927.087438	2537.028729
927.391509	2537.326157
927.695541	2536.537216
927.999533	2536.915303
928.303486	2536.547298
928.607400	2539.655170
928.911275	2537.447144
929.215110	2539.128369
929.518906	2536.973276
929.822663	2538.099974
930.126381	2536.522093
930.430060	2537.522762
930.733699	2537.008564
931.037299	2537.215251
931.340861	2536.786753
931.644383	2538.725077
931.947866	2537.104346
932.251309	2536.859850
932.554714	2537.984027
932.858080	2538.909079
933.161407	2535.246681
933.464694	2536.234747
933.767943	2537.835313
934.071153	2537.860519
934.374323	2537.109387
934.677455	2537.532844
934.980548	2539.125849
935.283602	2534.997144
935.586617	2535.108049
935.889593	2535.327339
936.192530	2535.685261
936.495428	2534.457740
936.798287	2535.140817
937.101108	2537.787422
937.403890	2538.551157
937.706632	2538.898997
938.009336	2537.777340
938.312002	2538.949408
938.614628	2538.220962
938.917216	2539.140972
939.219765	2538.851106
939.522275	2542.238761
939.824747	2539.324974
940.127179	2538.644418
940.429573	2534.097298
940.731929	2538.137782
941.034246	2534.830786
941.336524	2538.175591
941.638763	2539.330015
941.940964	2540.544933
942.243126	2536.426311
942.545250	2539.161137
942.847335	2537.381609
943.149381	2537.883204
943.451389	2537.520241
943.753359	2537.343801
944.055290	2541.094419
944.357182	2539.564429
944.659036	2535.120652
944.960851	2536.557381
945.262628	2537.013605
945.564367	2538.611651
945.866067	2538.268852
946.167729	2536.748945
946.469352	2536.539737
946.770937	2539.047711
947.072484	2536.764068
947.373992	2537.260622
947.675462	2534.724921
947.976893	2536.350693
948.278286	2535.405477
948.579641	2537.376568
948.880958	2534.551002
949.182236	2536.388502
949.483476	2535.445806
949.784678	2535.554191
950.085841	2538.097453
950.386967	2537.164840
950.688054	2535.589479
950.989103	2534.261135
951.290114	2536.869932
951.591087	2536.370858
951.892021	2534.944212
952.192917	2537.280786
952.493776	2538.067206
952.794596	2534.462781
953.095378	2538.588966
953.396122	2535.632329
953.696828	2535.806249
953.997496	2538.029398
954.298126	2535.440765
954.598718	2537.192566
954.899272	2536.759027
955.199788	2536.138965
955.500266	2536.764068
955.800706	2534.011598
956.101108	2528.622605
956.401472	2530.578572
956.701798	2529.852646
957.002087	2532.595034
957.302337	2535.065199
957.602550	2534.288862
957.902724	2532.784077
958.202861	2534.631660
958.502960	2531.906916
958.803022	2535.939839
959.103045	2529.063706
959.403031	2532.970600
959.702979	2530.843233
960.002889	2532.811803
960.302762	2530.863398
960.602596	2531.904396
960.902393	2530.432379
961.202153	2534.646783
961.501875	2531.748120
961.801559	2531.906916
962.101205	2532.655528
962.400814	2536.174253
962.700385	2534.399767
962.999918	2531.496062
963.299414	2533.134437
963.598873	2536.663245
963.898293	2531.460774
964.197677	2532.090918
964.497022	2530.671834
964.796331	2532.877338
965.095601	2529.396422
965.394835	2533.073943
965.694030	2532.239633
965.993189	2531.511186
966.292309	2530.230733
966.591393	2532.647966
966.890439	2531.859025
967.189447	2532.269879
967.488419	2532.292565
967.787353	2531.599406
968.086249	2533.053779
968.385108	2531.901875
968.683930	2531.632173
968.982714	2532.000178
969.281462	2530.717204
969.580172	2530.598737
969.878844	2531.601927
970.177480	2533.124355
970.476078	2532.332894
970.774639	2531.682585
971.073162	2531.196114
971.371649	2530.724766
971.670098	2528.705784
971.968510	2526.719569
972.266885	2529.119158
972.565223	2531.332225
972.863524	2531.400280
973.161788	2532.232071
973.460014	2531.395239
973.758204	2532.647966
974.056356	2530.918850
974.354471	2531.206196
974.652550	2532.834489
974.950591	2530.944056
975.248595	2530.702081
975.546563	2532.731145
975.844493	2528.128572
976.142386	2530.891124
976.440243	2530.084539
976.738062	2530.833151
977.035845	2530.452543
977.333590	2530.523120
977.631299	2531.811134
977.928971	2530.775177
978.226606	2529.865249
978.524204	2530.583613
978.821765	2530.545805
979.119290	2533.028573
979.416777	2531.518748
979.714228	2529.552698
980.011642	2531.765764
980.309020	2535.350024
980.606360	2532.794159
980.903664	2532.164015
981.200931	2531.430527
981.498162	2531.284334
981.795356	2530.805424
982.092513	2531.675023
982.389633	2532.572349
982.686717	2532.400949
982.983764	2530.381967
983.280775	2529.320804
983.577749	2535.075282
983.874686	2533.981351
984.171587	2532.322812
984.468451	2534.450178
984.765279	2531.866587
985.062070	2531.906916
985.358824	2527.213602
985.655543	2531.942204
985.952224	2530.021525
986.248869	2530.084539
986.545478	2527.732841
986.842050	2531.143182
987.138586	2526.091945
987.435086	2525.119003
987.731549	2527.329549
988.027975	2530.414735
988.324366	2530.727286
988.620719	2529.260311
988.917037	2532.209386
989.213318	2530.979344
989.509563	2529.451874
989.805772	2530.008922
990.101944	2529.668644
990.398080	2528.264683
990.694180	2528.524302
990.990244	2530.598737
991.286271	2528.952800
991.582262	2529.351051
991.878217	2528.736031
992.174136	2530.916330
992.470019	2527.256452
992.765865	2531.170908
993.061676	2530.331556
993.357450	2529.376257
993.653188	2529.882893
993.948890	2529.683767
994.244556	2528.998171
994.540186	2530.964221
994.835780	2527.203520
995.131337	2529.509848
995.426859	2530.734848
995.722345	2527.180835
996.017795	2530.250897
996.313208	2531.049920
996.608586	2532.106042
996.903928	2529.109076
997.199234	2529.416586
997.494504	2529.734179
997.789738	2530.334076
998.084936	2529.388860
998.380099	2527.385001
998.675225	2532.184180
998.970316	2528.554549
999.265371	2531.707791
999.560390	2531.117976
999.855373	2531.876669
1000.150320	2530.480270
1000.445232	2529.240146
1000.740108	2529.998840
1001.034948	2528.952800
1001.329752	2529.988757
1001.624521	2530.303829
1001.919254	2523.992305
1002.213951	2524.652696
1002.508613	2524.347706
1002.803239	2527.551359
1003.097829	2525.658406
1003.392384	2529.905578
1003.686903	2529.474560
1003.981386	2529.492204
1004.275834	2530.074457
1004.570246	2530.772657
1004.864623	2527.624456
1005.158964	2527.876514
1005.453270	2527.379960
1005.747540	2529.083870
1006.041775	2528.937677
1006.335974	2528.612522
1006.630138	2528.519261
1006.924266	2526.563293
1007.218359	2529.456916
1007.512416	2529.736700
1007.806438	2526.371729
1008.100425	2528.413397
1008.394376	2527.624456
1008.688292	2530.071936
1008.982172	2530.223171
1009.276017	2526.142357
1009.569827	2529.729138
1009.863602	2526.039013
1010.157341	2529.456916
1010.451045	2528.176463
1010.744714	2526.971627
1011.038347	2528.121010
1011.331945	2527.440454
1011.625508	2529.499765
1011.919036	2528.184024
1012.212528	2526.407018
1012.505986	2526.427182
1012.799408	2531.206196
1013.092795	2527.362316
1013.386147	2528.158818
1013.679464	2529.149405
1013.972745	2527.848787
1014.265992	2528.042872
1014.559204	2529.489683
1014.852380	2527.997502
1015.145521	2526.984230
1015.438628	2527.750485
1015.731699	2529.474560
1016.024736	2528.350382
1016.317737	2527.856349
1016.610703	2525.812161
1016.903635	2525.355937
1017.196531	2524.609846
1017.489393	2526.354085
1017.782219	2522.850483
1018.075011	2524.047758
1018.367768	2526.855680
1018.660490	2527.679909
1018.953177	2527.679909
1019.245829	2527.679909
