Dividing Wavelength (nm)	Counts (n)	Blue Motor Position (mm): 0.000000	Red Motor Position (mm): 35.000000	
326.493990	2077.835066
326.888308	2077.835066
327.282561	2077.835066
327.676750	2054.318083
328.070874	2056.253886
328.464933	2062.625905
328.858929	2071.649570
329.252859	2083.864286
329.646726	2101.140320
330.040528	2114.859820
330.434265	2134.595938
330.827938	2153.666623
331.221547	2173.576660
331.615091	2195.122551
332.008571	2213.845397
332.401986	2238.484036
332.795338	2256.675040
333.188625	2276.028029
333.581847	2293.183076
333.975006	2314.970943
334.368100	2330.538026
334.761129	2346.833556
335.154095	2363.658407
335.546996	2388.788559
335.939833	2430.514189
336.332606	2446.199739
336.725315	2456.990329
337.117960	2461.204734
337.510540	2471.244192
337.903056	2481.528145
338.295508	2485.939155
338.687896	2490.957624
339.080220	2501.357524
339.472480	2503.958759
339.864676	2511.999400
340.256807	2510.366066
340.648875	2513.370594
341.040879	2516.874196
341.432818	2516.906963
341.824694	2518.126922
342.216506	2517.131294
342.608253	2518.772190
342.999937	2517.784124
343.391557	2517.912673
343.783113	2515.167765
344.174605	2513.700789
344.566033	2510.335819
344.957397	2510.209790
345.348697	2507.288442
345.739934	2507.011178
346.131106	2504.682165
346.522215	2506.030674
346.913260	2501.241578
347.304241	2500.984479
347.695159	2498.927688
348.086012	2499.643532
348.476802	2496.777636
348.867528	2498.365599
349.258191	2495.144302
349.648789	2495.850063
350.039324	2490.277068
350.429796	2493.543736
350.820203	2492.275885
351.210548	2493.314363
351.600828	2490.390494
351.991045	2491.408807
352.381198	2490.778663
352.771288	2492.593478
353.161314	2490.556852
353.551276	2489.742706
353.941175	2490.113230
354.331010	2489.233549
354.720782	2492.222953
355.110490	2491.996101
355.500135	2491.577686
355.889717	2493.236225
356.279235	2492.180103
356.668689	2495.411483
357.058080	2492.585916
357.447408	2492.177583
357.836672	2493.866369
358.225873	2494.655310
358.615010	2491.113899
359.004084	2498.070692
359.393095	2496.752430
359.782043	2501.044973
360.170927	2499.633449
360.559748	2499.580517
360.948505	2502.343070
361.337199	2500.235867
361.725830	2501.581855
362.114398	2504.709891
362.502903	2505.629902
362.891344	2506.091167
363.279722	2505.861795
363.668037	2506.655777
364.056289	2508.205932
364.444478	2508.987310
364.832603	2511.903618
365.220665	2510.759276
365.608665	2511.502846
365.996601	2514.323372
366.384474	2511.011334
366.772284	2512.947137
367.160031	2513.221880
367.547715	2518.036182
367.935336	2516.538959
368.322893	2515.984432
368.710388	2517.133815
369.097820	2522.573220
369.485189	2519.374608
369.872495	2522.399300
370.259738	2521.892664
370.646918	2525.570186
371.034035	2526.011287
371.421090	2531.649817
371.808081	2529.204858
372.195010	2536.781712
372.581875	2541.439738
372.968678	2547.521890
373.355418	2553.994732
373.742096	2566.837071
374.128710	2572.389902
374.515262	2583.339288
374.901751	2594.394539
375.288177	2612.071345
375.674540	2627.774539
376.060841	2645.957981
376.447079	2667.710560
376.833254	2689.208560
377.219367	2713.955585
377.605417	2746.213928
377.991404	2766.683533
378.377329	2804.658545
378.763191	2836.127948
379.148991	2882.768703
379.534727	2927.723193
379.920402	2971.429997
380.306013	3015.638395
380.691563	3079.976121
381.077049	3128.358595
381.462474	3183.178623
381.847835	3248.496853
382.233134	3315.148469
382.618371	3373.726677
383.003545	3456.673822
383.388657	3529.591592
383.773706	3619.974439
384.158693	3688.846683
384.543618	3777.944036
384.928480	3850.256867
385.313280	3948.995427
385.698017	4044.943708
386.082692	4162.301770
386.467305	4226.616811
386.851856	4341.408925
387.236344	4489.197912
387.620770	4549.704361
388.005133	4660.607225
388.389435	4799.327176
388.773674	4880.688878
389.157851	5005.422148
389.541965	5137.558352
389.926018	5160.117515
390.310008	5329.144883
390.693936	5447.123007
391.077802	5559.286159
391.461606	5686.650911
391.845348	5796.149814
392.229027	5912.187093
392.612645	6126.310102
392.996200	6238.448049
393.379694	6405.166569
393.763125	6618.057016
394.146494	6710.289967
394.529801	6838.095820
394.913047	7071.382776
395.296230	7067.853968
395.679351	7127.246322
396.062410	7373.932665
396.445408	7273.838035
396.828343	7420.782628
397.211217	7561.440903
397.594028	7448.592153
397.976778	7652.269892
398.359466	7811.981208
398.742092	7796.018394
399.124656	7929.828261
399.507158	8123.093497
399.889598	8147.480079
400.271977	8347.961726
400.654294	8387.718786
401.036549	8580.184998
401.418742	8611.336809
401.800874	8899.290037
402.182944	8989.272113
402.564952	9343.521555
402.946898	9180.142800
403.328783	9228.396725
403.710606	9427.517260
404.092367	9673.081947
404.474067	10028.115288
404.855705	9840.546557
405.237282	9788.292477
405.618797	10212.003978
406.000250	10451.660432
406.381642	10808.649741
406.762972	10763.488565
407.144240	10578.306819
407.525447	10827.004583
407.906593	10774.445513
408.287677	11037.346727
408.668700	11179.232522
409.049661	11166.458238
409.430560	11328.942189
409.811399	11302.256841
410.192176	11464.415637
410.572891	11535.800896
410.953545	12013.364523
411.334138	11497.556182
411.714669	12085.513517
412.095139	11431.854824
412.475547	11905.798903
412.855894	11776.256372
413.236180	12092.465268
413.616405	11784.266766
413.996568	12068.141701
414.376670	12041.204295
414.756711	11931.405444
415.136691	12204.126826
415.516609	12382.286244
415.896466	12458.107718
416.276262	12749.645207
416.655997	13201.004916
417.035670	13259.890634
417.415283	13867.228685
417.794834	13956.293271
418.174324	13699.587635
418.553753	13607.858799
418.933121	14097.223768
419.312428	13930.706894
419.691674	13835.426566
420.070859	14307.797805
420.449983	13950.795892
420.829045	14508.425646
421.208047	14272.824800
421.586988	14715.428026
421.965867	14958.630931
422.344686	14968.141068
422.723444	15533.602254
423.102141	14249.423764
423.480777	15423.899184
423.859352	14926.233956
424.237866	16024.066194
424.616319	15747.173257
424.994712	16387.697223
425.373044	16182.474371
425.751314	16875.655710
426.129524	16011.387692
426.507673	17080.813027
426.885762	16805.954196
427.263789	16981.262842
427.641756	17175.254004
428.019662	17227.316520
428.397508	17278.867359
428.775292	17558.308599
429.153016	17558.409422
429.530679	17625.287890
429.908282	17657.689906
430.285824	17384.000623
430.663305	18097.691896
431.040726	17715.027990
431.418086	17557.509576
431.795385	18180.974278
432.172624	18628.091857
432.549802	18185.140792
432.926920	18404.733453
433.303977	18281.978837
433.680974	18531.029481
434.057910	18841.796451
434.434786	18889.140447
434.811601	18807.128436
435.188355	19849.354226
435.565050	19523.458753
435.941683	19475.731629
436.318257	20370.715398
436.694770	20167.801394
437.071222	20778.146493
437.447614	19851.821871
437.823946	19868.848368
438.200218	20053.402490
438.576429	19827.437810
438.952580	20129.849067
439.328670	20103.042732
439.704700	20517.851555
440.080670	20096.567369
440.456580	20710.153930
440.832429	20871.690144
441.208218	19883.815554
441.583947	20320.641617
441.959616	20449.944692
442.335224	20698.574400
442.710773	20845.181236
443.086261	21386.212990
443.461689	20725.451312
443.837057	20894.055223
444.212365	21546.798946
444.587612	21538.778470
444.962800	21139.919858
445.337927	21576.725756
445.712995	20284.950247
446.088002	22188.968849
446.462949	22391.063666
446.837837	22580.573242
447.212664	22592.097320
447.587431	25545.729523
447.962139	28522.820735
448.336786	30831.827993
448.711374	29152.231478
449.085901	25438.357987
449.460369	25449.307373
449.834776	25441.289418
450.209124	27992.345157
450.583412	27479.503535
450.957640	27957.510784
451.331808	26610.839631
451.705917	25241.412709
452.079965	25278.654233
452.453954	25664.947770
452.827883	25581.751087
453.201752	25373.042277
453.575562	25546.271447
453.949311	26665.861304
454.323001	26745.952636
454.696632	26531.517075
455.070202	28125.416495
455.443713	28309.453899
455.817164	28900.070442
456.190556	29461.851586
456.563888	28861.427477
456.937160	29314.596961
457.310373	27598.878058
457.683526	28036.019193
458.056619	28033.410396
458.429653	28024.991669
458.802628	28628.503484
459.175542	28774.376833
459.548398	30154.007050
459.921194	31782.831584
460.293930	32516.352236
460.666607	34613.746979
461.039224	36419.790756
461.411782	36747.463235
461.784280	35461.480013
462.156719	34895.698713
462.529099	34321.962474
462.901419	33002.132944
463.273680	31946.553137
463.645882	32096.393874
464.018024	32090.470518
464.390106	33030.476832
464.762130	35939.184792
465.134094	40290.804574
465.505999	45764.794410
465.877845	50305.013840
466.249631	51302.322949
466.621358	49436.770872
466.993026	47194.417750
467.364634	45071.507207
467.736184	43101.794808
468.107674	41816.081287
468.479105	41038.740406
468.850477	40298.421758
469.221790	38855.842652
469.593043	37075.055056
469.964238	36177.197830
470.335373	36132.414740
470.706449	37987.297215
471.077467	40759.125246
471.448425	45441.742148
471.819324	48202.509887
472.190164	46194.840121
472.560945	42548.734861
472.931667	39381.529134
473.302330	38298.643918
473.672934	37442.948382
474.043479	37984.562389
474.413965	37202.833183
474.784393	36831.905083
475.154761	37751.993797
475.525070	37804.222672
475.895321	37321.643097
476.265513	37943.434135
476.635645	38948.080644
477.005719	38772.802246
477.375734	39304.084408
477.745691	40022.605107
478.115588	41389.274518
478.485427	43505.661808
478.855207	46983.568970
479.224928	49650.604015
479.594591	51205.933567
479.964194	50092.660275
480.333739	50226.845708
480.703226	50297.724331
481.072653	50950.251285
481.442022	51424.759973
481.811333	51632.339565
482.180584	50344.715447
482.549777	49800.343928
482.918912	49289.075146
483.287988	48972.510849
483.657005	48125.491139
484.025964	47439.390100
484.394864	47431.009182
484.763706	46998.959612
485.132489	46111.199817
485.501213	45957.182485
485.869879	46087.425736
486.238487	45685.852461
486.607036	45873.156532
486.975527	45315.211707
487.343959	45535.414348
487.712333	45598.844667
488.080648	45500.945459
488.448905	45957.051415
488.817104	45745.048210
489.185244	46764.500588
489.553326	48527.089619
489.921350	51297.304480
490.289315	54131.781451
490.657222	54653.513147
491.025070	54871.966508
491.392861	53952.669254
491.760593	52666.794417
492.128267	50972.578555
492.495883	49407.166696
492.863440	47988.049120
493.230939	46600.947913
493.598380	45511.879722
493.965763	45177.507549
494.333088	44340.300444
494.700354	43842.869630
495.067563	43547.826018
495.434713	43389.891710
495.801805	43468.889111
496.168839	43070.552257
496.535815	42724.333373
496.902733	42752.175666
497.269593	42302.056080
497.636395	42234.658374
498.003139	42619.583237
498.369825	42083.232194
498.736453	42374.386555
499.103023	41883.292471
499.469535	41769.846345
499.835989	41846.063550
500.202385	41504.495130
500.568723	41514.259845
500.935003	41686.994982
501.301226	41485.341266
501.667390	42095.769544
502.033497	42326.195645
502.399546	41745.021183
502.765537	41050.987889
503.131470	41408.277147
503.497345	41780.659620
503.863163	40401.130226
504.228923	41035.463656
504.594625	41432.487288
504.960269	40696.768693
505.325856	41376.694318
505.691385	40731.164486
506.056856	40871.301001
506.422270	41302.392752
506.787625	40844.711435
507.152924	41055.499722
507.518164	41105.429830
507.883347	40312.373151
508.248472	40551.344008
508.613540	41033.439632
508.978550	41311.802065
509.343503	41053.117776
509.708398	41239.277506
510.073236	41753.364292
510.438016	41734.654050
510.802738	41169.265961
511.167403	41807.675163
511.532010	41977.872079
511.896561	42273.868468
512.261053	43091.304167
512.625488	42615.822537
512.989866	42482.675581
513.354186	42304.037253
513.718449	42260.131324
514.082655	42931.088736
514.446803	42554.244842
514.810894	43078.353443
515.174927	42959.961945
515.538904	42837.577853
515.902822	43460.304026
516.266684	42901.101433
516.630488	43292.978047
516.994235	43117.694608
517.357925	43660.977237
517.721558	43776.475113
518.085133	44052.548862
518.448651	44139.755783
518.812112	43885.366557
519.175516	43934.454792
519.538863	44228.338938
519.902152	44151.368080
520.265385	44565.730762
520.628560	44549.944389
520.991678	44296.994412
521.354739	44465.235360
521.717743	44739.925312
522.080690	44587.410244
522.443580	45069.342031
522.806413	45047.793619
523.169189	44969.307895
523.531908	45069.533595
523.894569	44863.524322
524.257174	44966.930991
524.619722	45188.346029
524.982213	45115.017406
525.344647	44970.926105
525.707025	44952.478003
526.069345	45300.239480
526.431608	45118.256347
526.793815	45352.571698
527.155964	44835.175394
527.518057	44919.256799
527.880093	44627.303415
528.242072	45054.054732
528.603995	44681.556313
528.965860	44597.916009
529.327669	44612.926044
529.689421	44430.209423
530.051117	44304.019260
530.412755	44346.858985
530.774337	44345.381927
531.135862	44059.634204
531.497331	44161.263865
531.858743	43953.220487
532.220098	44191.619173
532.581396	43818.951875
532.942638	43409.854679
533.303824	43592.795631
533.664953	43457.909478
534.026025	43093.860032
534.387040	43437.623875
534.747999	43295.261690
535.108902	43343.984442
535.469748	42764.244188
535.830537	42769.398768
536.191270	42835.881505
536.551947	42393.376582
536.912567	42559.394381
537.273131	42581.993874
537.633638	42001.971315
537.994089	42185.406301
538.354483	41692.363810
538.714821	42109.443674
539.075103	42315.914212
539.435328	41965.044863
539.795497	41726.810015
540.155609	41598.621034
540.515665	41907.784917
540.875665	41277.209668
541.235609	41426.231217
541.595496	41296.169447
541.955328	41767.300562
542.315102	41047.257435
542.674821	40725.687272
543.034483	40629.933076
543.394090	40466.967695
543.753640	40286.370879
544.113134	41038.445498
544.472571	40002.790852
544.831953	40969.497637
545.191278	40122.392227
545.550548	39732.227084
545.909761	39991.654943
546.268918	40015.486998
546.628019	40134.909412
546.987064	39602.949214
547.346053	38818.028957
547.704986	39411.513917
548.063863	38884.312569
548.422684	38880.269563
548.781449	38576.235054
549.140158	38771.597410
549.498811	38477.884663
549.857408	37823.631114
550.215949	38367.627067
550.574434	38150.343254
550.932864	37776.458517
551.291237	38205.818631
551.649555	37703.253402
552.007817	37736.199862
552.366022	37263.304344
552.724173	37227.151709
553.082267	37368.409881
553.440305	37418.408045
553.798288	36679.087545
554.156215	36755.710563
554.514086	36740.362770
554.871902	36342.719075
555.229661	36170.014186
555.587365	35855.599941
555.945014	35747.169763
556.302606	35509.623032
556.660143	35488.361965
557.017625	35353.526223
557.375050	34999.496071
557.732421	35066.926545
558.089735	34865.600504
558.446994	34593.862148
558.804197	34745.036269
559.161345	34488.204604
559.518437	33735.275510
559.875474	33763.984881
560.232455	33711.012436
560.589381	33622.091523
560.946251	33197.013869
561.303065	33487.228055
561.659825	33113.212248
562.016528	32690.337579
562.373177	32277.797274
562.729770	32418.412699
563.086307	31876.218959
563.442789	31975.897694
563.799216	31790.506741
564.155587	31449.898660
564.511904	31249.522877
564.868164	31085.735789
565.224370	31042.515456
565.580520	30654.162608
565.936615	30575.865927
566.292654	30180.921770
566.648638	30124.990168
567.004567	29887.090557
567.360441	29698.316989
567.716260	29382.912157
568.072023	29343.949079
568.427732	29106.346896
568.783385	28615.663666
569.138982	28632.244021
569.494525	28386.540703
569.850013	28007.329987
570.205445	27783.505277
570.560823	27536.166104
570.916145	27243.592659
571.271412	27048.230303
571.626625	26678.859920
571.981782	26481.730640
572.336884	26087.048623
572.691931	26047.795678
573.046923	25616.782066
573.401860	25322.527395
573.756743	25083.977474
574.111570	24922.910088
574.466342	24632.622806
574.821059	24473.292097
575.175722	24019.459702
575.530330	23803.557165
575.884882	23450.139513
576.239380	23215.393143
576.593823	22999.639320
576.948211	22750.465168
577.302544	22301.827681
577.656823	22099.085076
578.011047	21995.905260
578.365216	21671.943070
578.719330	21363.147191
579.073389	21092.739699
579.427394	20911.883263
579.781344	20685.999242
580.135239	20344.836635
580.489080	20168.121507
580.842866	19754.066336
581.196597	19738.118646
581.550273	19515.954996
581.903895	19271.199415
582.257463	19241.804447
582.610975	18784.922153
582.964434	18710.852480
583.317837	18367.920428
583.671186	18104.457125
584.024481	18000.294283
584.377721	17615.404708
584.730906	17523.259977
585.084037	17353.458792
585.437113	17049.578038
585.790135	16877.596554
586.143103	16553.568829
586.496016	16406.798155
586.848874	16238.295068
587.201679	16065.517081
587.554428	15719.804833
587.907124	15607.112359
588.259765	15361.071284
588.612352	15261.503454
588.964884	14888.130395
589.317362	14814.708509
589.669786	14627.452329
590.022155	14401.535540
590.374470	14359.005846
590.726731	14060.592223
591.078937	13748.370880
591.431090	13621.479997
591.783188	13366.647149
592.135232	13114.594498
592.487222	13040.832335
592.839157	12904.184298
593.191038	12645.121923
593.542866	12426.829879
593.894639	12137.591157
594.246358	12066.110116
594.598022	11912.712845
594.949633	11679.972854
595.301190	11529.234793
595.652692	11354.432783
596.004141	11283.841506
596.355535	10936.329565
596.706876	10784.386668
597.058162	10625.706268
597.409395	10590.466082
597.760573	10483.777623
598.111698	10274.776426
598.462768	10148.692127
598.813785	10035.845898
599.164748	9810.120673
599.515657	9757.753167
599.866511	9557.405110
600.217312	9552.026199
600.568060	9256.659954
600.918753	9277.784909
601.269392	9159.579933
601.619978	8986.068459
601.970510	8917.907018
602.320988	8843.771810
602.671412	8790.696021
603.021783	8643.085996
603.372100	8481.864854
603.722363	8395.141885
604.072572	8311.788927
604.422728	8216.377528
604.772830	8083.013803
605.122878	8002.388109
605.472872	7901.146617
605.822813	7842.240734
606.172701	7736.893221
606.522534	7674.813932
606.872314	7618.496682
607.222041	7502.560226
607.571714	7461.295861
607.921333	7314.187430
608.270899	7261.356138
608.620411	7223.824747
608.969870	7123.929243
609.319276	7042.580143
609.668627	6969.001982
610.017926	6947.375432
610.367171	6895.005406
610.716362	6822.926988
611.065500	6744.985708
611.414585	6689.228026
611.763616	6652.067161
612.112594	6581.508651
612.461518	6530.381268
612.810389	6489.033725
613.159207	6416.120996
613.507971	6353.156984
613.856682	6334.348439
614.205340	6262.998468
614.553945	6260.692141
614.902496	6151.881355
615.250994	6132.498119
615.599439	6078.809830
615.947830	6033.293252
616.296169	5988.641232
616.644454	5940.742709
616.992686	5905.288274
617.340864	5891.745214
617.688990	5821.753834
618.037063	5816.125386
618.385082	5764.274598
618.733048	5739.280557
619.080961	5689.116035
619.428821	5639.417820
619.776628	5590.712712
620.124382	5532.782293
620.472083	5486.023070
620.819731	5438.842911
621.167326	5365.378176
621.514868	5311.876411
621.862357	5230.799533
622.209793	5179.074774
622.557176	5111.984578
622.904506	5043.876069
623.251783	4976.775791
623.599007	4920.655146
623.946179	4857.103840
624.293297	4816.499866
624.640363	4748.761882
624.987376	4702.836970
625.334336	4654.903159
625.681243	4604.005149
626.028097	4565.636927
626.374899	4522.998848
626.721647	4489.407119
627.068343	4452.944454
627.414987	4413.479781
627.761577	4371.791959
628.108115	4356.905432
628.454600	4306.405673
628.801032	4286.142755
629.147412	4253.463475
629.493739	4231.352975
629.840014	4189.644988
630.186236	4177.578987
630.532405	4139.999705
630.878521	4123.525214
631.224585	4100.955969
631.570597	4065.985484
631.916556	4047.907907
632.262462	4027.403013
632.608316	4005.955424
632.954117	3981.500787
633.299866	3958.490440
633.645562	3932.432716
633.991206	3892.383269
634.336797	3852.774924
634.682336	3829.484793
635.027823	3795.061274
635.373257	3768.343158
635.718639	3735.822675
636.063968	3710.747976
636.409245	3676.190866
636.754470	3658.483813
637.099642	3633.562869
637.444762	3600.679423
637.789829	3588.484872
638.134845	3564.063002
638.479808	3547.016340
638.824719	3529.510933
639.169577	3507.130731
639.514383	3492.808813
639.859137	3470.156388
640.203839	3465.984833
640.548489	3440.799228
640.893086	3426.769697
641.237632	3411.210176
641.582125	3398.705594
641.926566	3382.677245
642.270955	3378.598952
642.615292	3362.522712
642.959576	3354.265302
643.303809	3344.016636
643.647990	3337.001871
643.992118	3326.097855
644.336195	3316.945640
644.680219	3306.160092
645.024192	3306.830565
645.368112	3307.619506
645.711981	3300.103145
646.055797	3307.616985
646.399562	3299.755306
646.743274	3315.453459
647.086935	3316.494457
647.430544	3306.482725
647.774101	3302.681695
648.117606	3297.111220
648.461059	3292.692649
648.804460	3281.465999
649.147810	3258.899274
649.491108	3239.604258
649.834354	3230.038668
650.177548	3205.480687
650.520690	3189.845549
650.863781	3182.924045
651.206820	3176.942716
651.549807	3157.887154
651.892742	3146.410967
652.235626	3138.894607
652.578458	3128.711476
652.921238	3113.381327
653.263967	3115.138169
653.606644	3104.029987
653.949269	3095.722165
654.291843	3083.391503
654.634365	3087.021134
654.976836	3076.785071
655.319255	3067.695871
655.661622	3066.246539
656.003938	3057.885785
656.346203	3049.189795
656.688416	3048.642830
657.030577	3038.444575
657.372687	3032.982485
657.714746	3031.838143
658.056753	3029.584747
658.398708	3012.734691
658.740612	3010.879546
659.082465	3010.473733
659.424266	3005.752693
659.766016	3000.830006
660.107715	3003.511900
660.449362	2998.180880
660.790958	2999.524347
661.132503	2994.510920
661.473996	2991.576968
661.815438	2989.174858
662.156829	2987.160917
662.498168	2982.712099
662.839456	2976.420739
663.180693	2978.157417
663.521879	2977.270173
663.863013	2970.525110
664.204097	2971.185501
664.545129	2970.260449
664.886110	2968.135603
665.227040	2966.338431
665.567918	2964.342134
665.908746	2964.478246
666.249522	2964.382464
666.590248	2960.231073
666.930922	2960.079839
667.271545	2959.190075
667.612118	2956.692183
667.952639	2951.030968
668.293109	2946.589711
668.633528	2945.407561
668.973896	2941.246088
669.314213	2937.208124
669.654480	2935.297527
669.994695	2930.999943
670.334859	2925.951227
670.674973	2922.119950
671.015035	2926.160435
671.355047	2919.198602
671.695008	2918.329003
672.034918	2913.698703
672.374777	2915.697520
672.714585	2910.870616
673.054342	2911.649474
673.394049	2909.811973
673.733705	2907.566139
674.073310	2904.710326
674.412864	2904.957342
674.752368	2896.208420
675.091820	2898.643297
675.431223	2891.701628
675.770574	2888.548386
676.109875	2881.364742
676.449125	2876.149668
676.788324	2874.521376
677.127473	2866.871425
677.466571	2862.808255
677.805619	2861.374047
678.144616	2858.051926
678.483562	2860.174252
678.822458	2853.492202
679.161303	2854.210567
679.500098	2849.214783
679.838842	2849.207222
680.177535	2846.192612
680.516179	2851.153107
680.854771	2848.879547
681.193314	2859.975126
681.531805	2867.708256
681.870247	2875.701006
682.208638	2879.401213
682.546978	2882.740977
682.885268	2882.151162
683.223508	2874.680172
683.561697	2869.512989
683.899836	2867.095756
684.237925	2861.432020
684.575963	2859.987729
684.913951	2853.189733
685.251889	2856.418592
685.589776	2853.487161
685.927614	2851.566482
686.265401	2851.153107
686.603137	2853.706452
686.940824	2857.714169
687.278460	2858.001515
687.616046	2861.724407
687.953582	2863.972761
688.291068	2862.407483
688.628504	2865.437217
688.965889	2864.791949
689.303224	2859.249200
689.640510	2855.342306
689.977745	2845.650688
690.314930	2839.886128
690.652065	2833.932526
690.989150	2825.728048
691.326185	2817.105154
691.663170	2810.105512
692.000105	2800.912968
692.336990	2793.900723
692.673825	2789.484672
693.010610	2785.991152
693.347345	2774.086468
693.684030	2768.165632
694.020665	2766.315529
694.357251	2757.004518
694.693786	2759.358737
695.030272	2758.486617
695.366707	2752.296080
695.703093	2751.996132
696.039429	2748.459762
696.375716	2748.348857
696.711952	2746.337436
697.048139	2742.748135
697.384276	2742.044894
697.720363	2743.718557
698.056400	2743.189236
698.392388	2738.647156
698.728326	2737.860736
699.064214	2735.085581
699.400053	2735.846795
699.735842	2734.387381
700.071581	2727.216340
700.407270	2724.733572
700.742910	2723.400186
701.078501	2721.512274
701.414042	2714.268136
701.749533	2713.247302
702.084974	2712.337374
702.420366	2714.560523
702.755709	2708.758155
703.091002	2707.197918
703.426246	2705.708257
703.761440	2707.492825
704.096584	2704.198431
704.431679	2700.692309
704.766725	2700.200796
705.101721	2701.072916
705.436668	2701.652649
705.771565	2697.344983
706.106413	2699.573173
706.441212	2699.913451
706.775961	2700.372196
707.110661	2701.120807
707.445311	2702.507124
707.779913	2704.465612
708.114465	2704.480736
708.448967	2706.421580
708.783421	2711.561037
709.117825	2713.905173
709.452180	2717.126470
709.786485	2719.999928
710.120742	2727.715414
710.454949	2726.893706
710.789107	2728.837071
711.123216	2734.362175
711.457275	2739.494070
711.791286	2738.440469
712.125247	2743.045563
712.459159	2741.107239
712.793023	2750.168713
713.126837	2740.530027
713.460602	2741.064389
713.794318	2735.657752
714.127985	2732.630539
714.461602	2723.185937
714.795171	2727.493603
715.128691	2715.684700
715.462162	2708.846375
715.795584	2708.110367
716.128957	2707.399564
716.462281	2700.750282
716.795556	2699.167360
717.128782	2694.516895
717.461960	2692.266020
717.795088	2688.601101
718.128167	2687.479445
718.461198	2682.435770
718.794180	2681.845955
719.127113	2675.718433
719.459997	2675.408402
719.792833	2674.256498
720.125619	2671.506549
720.458357	2669.870694
720.791046	2669.343894
721.123686	2666.137720
721.456278	2665.479849
721.788821	2664.811896
722.121315	2661.918274
722.453761	2663.289468
722.786158	2662.034221
723.118506	2659.334683
723.450805	2661.575476
723.783056	2662.485404
724.115259	2661.789725
724.447412	2662.608912
724.779518	2663.554128
725.111574	2666.493121
725.443582	2664.950528
725.775542	2668.227278
726.107453	2669.028822
726.439315	2670.460509
726.771129	2676.726663
727.102895	2675.751200
727.434612	2678.826304
727.766281	2679.708506
728.097901	2678.362518
728.429473	2681.082220
728.760996	2679.353105
729.092471	2680.220183
729.423897	2682.347550
729.755276	2682.274453
730.086606	2683.199505
730.417887	2683.988446
730.749120	2692.656710
731.080305	2696.288861
731.411442	2698.317925
731.742530	2698.761547
732.073570	2699.754654
732.404562	2700.319263
732.735506	2699.742051
733.066401	2699.462267
733.397249	2693.206195
733.728048	2688.543128
734.058798	2679.020388
734.389501	2676.179698
734.720156	2671.017557
735.050762	2664.983296
735.381320	2662.077070
735.711831	2660.864673
736.042293	2660.668068
736.372707	2655.173210
736.703073	2656.284785
737.033391	2657.698828
737.363661	2654.757315
737.693883	2657.461894
738.024056	2662.185455
738.354182	2661.610764
738.684260	2663.153357
739.014290	2666.609068
739.344272	2668.718791
739.674207	2671.564522
740.004093	2675.453772
740.333931	2674.357321
740.663722	2673.424708
740.993464	2671.244409
741.323159	2672.532423
741.652806	2671.501507
741.982405	2667.892041
742.311956	2663.470949
742.641460	2663.062616
742.970915	2658.281082
743.300323	2656.410813
743.629683	2653.494506
743.958996	2653.307983
744.288260	2650.179947
744.617477	2648.745739
744.946647	2643.487816
745.275768	2638.302989
745.604842	2635.437093
745.933869	2635.046403
746.262847	2634.388533
746.591778	2639.648977
746.920662	2638.078657
747.249498	2639.439769
747.578286	2639.449851
747.907027	2641.075623
748.235720	2640.969759
748.564365	2646.988897
748.892963	2644.511170
749.221514	2644.160810
749.550017	2643.432363
749.878473	2643.510501
750.206881	2640.009419
750.535242	2638.315592
750.863555	2638.030767
751.191821	2635.976496
751.520039	2638.050931
751.848210	2636.034470
752.176334	2635.757206
752.504411	2639.452372
752.832440	2635.288379
753.160421	2637.478760
753.488356	2635.109418
753.816243	2635.568163
754.144082	2633.430714
754.471875	2631.396608
754.799620	2630.476597
755.127318	2631.459622
755.454969	2631.565487
755.782572	2633.471043
756.110129	2631.903244
756.437638	2631.890641
756.765100	2628.071967
757.092515	2631.328552
757.419882	2629.317132
757.747203	2631.376443
758.074477	2631.048768
758.401703	2633.841568
758.728882	2634.222175
759.056014	2635.283338
759.383099	2636.001702
759.710138	2638.650828
760.037129	2640.082516
760.364073	2640.095119
760.690970	2639.127217
761.017820	2639.283493
761.344623	2644.271715
761.671379	2644.934627
761.998088	2649.358239
762.324751	2667.496311
762.651366	2700.871270
762.977935	2740.582959
763.304456	2759.492327
763.630931	2772.768206
763.957359	2759.704056
764.283740	2740.799729
764.610074	2720.985474
764.936362	2696.838347
765.262602	2680.474761
765.588796	2665.971362
765.914943	2653.313024
766.241044	2640.576549
766.567097	2634.575056
766.893104	2627.477111
767.219064	2623.860083
767.544978	2618.859258
767.870845	2614.289452
768.196665	2615.907663
768.522438	2610.412805
768.848165	2608.353494
769.173846	2606.521034
769.499479	2605.974069
769.825066	2603.070365
770.150607	2599.425610
770.476101	2599.556680
770.801548	2602.092381
771.126949	2596.663058
771.452303	2597.368820
771.777611	2595.261617
772.102872	2594.901175
772.428087	2590.762387
772.753256	2593.562748
773.078378	2591.148036
773.403453	2588.816502
773.728482	2586.984043
774.053465	2585.184351
774.378401	2584.660071
774.703291	2583.472879
775.028135	2581.121181
775.352932	2584.052612
775.677683	2581.315265
776.002388	2581.567323
776.327046	2580.662436
776.651658	2581.395924
776.976224	2579.568505
777.300743	2579.298804
777.625216	2577.915007
777.949643	2578.857703
778.274024	2578.610686
778.598359	2573.413257
778.922647	2572.006775
779.246889	2576.737897
779.571086	2572.528534
779.895236	2576.095150
780.219339	2576.561457
780.543397	2577.516756
780.867409	2578.953485
781.191374	2577.819225
781.515294	2577.211766
781.839167	2577.862075
782.162995	2576.992476
782.486776	2577.791499
782.810511	2577.017682
783.134201	2574.635736
783.457844	2575.074317
783.781441	2575.465006
784.104993	2572.432752
784.428498	2572.170612
784.751958	2576.642116
785.075372	2572.672207
785.398739	2569.392936
785.722061	2576.437949
786.045337	2572.359655
786.368568	2576.687486
786.691752	2575.613720
787.014891	2581.045563
787.337983	2584.463466
787.661030	2592.173911
787.984031	2594.465115
788.306987	2601.026177
788.629897	2603.703029
788.952760	2601.101794
789.275579	2600.272524
789.598351	2593.734148
789.921078	2593.161977
790.243759	2587.742736
790.566395	2583.656881
790.888984	2581.332909
791.211529	2580.349884
791.534027	2580.097827
791.856480	2576.954667
792.178888	2576.153124
792.501249	2574.633216
792.823566	2572.967114
793.145836	2573.146075
793.468062	2571.487536
793.790241	2571.858061
794.112375	2571.517783
794.434464	2574.645819
794.756507	2570.010478
795.078505	2575.454924
795.400457	2577.514235
795.722364	2579.815522
796.044226	2584.224011
796.366042	2584.334916
796.687812	2585.428847
797.009538	2586.162335
797.331218	2584.602097
797.652852	2583.823239
797.974442	2583.674525
798.295986	2580.750656
798.617484	2579.805440
798.938938	2578.814853
799.260346	2577.932651
799.581709	2575.802763
799.903026	2578.701427
800.224299	2575.129769
800.545526	2571.865622
800.866708	2572.369738
801.187845	2573.337639
801.508936	2569.065261
801.829983	2569.917216
802.150984	2569.244222
802.471940	2565.533933
802.792851	2570.726322
803.113717	2569.644994
803.434538	2566.890003
803.755314	2566.695919
804.076045	2566.423697
804.396731	2565.639797
804.717372	2565.138203
805.037967	2565.798594
805.358518	2566.305230
805.679024	2569.965107
805.999485	2567.368913
806.319901	2570.297823
806.640272	2569.002247
806.960598	2569.513924
807.280879	2569.032494
807.601115	2572.021898
807.921306	2569.027453
808.241453	2571.182546
808.561554	2567.668862
808.881611	2572.331929
809.201623	2569.602144
809.521590	2568.248594
809.841513	2568.117524
810.161390	2567.643656
810.481223	2570.272618
810.801011	2567.764644
811.120755	2567.147102
811.440453	2565.806155
811.760107	2566.547205
812.079716	2565.634756
812.399281	2559.887841
812.718801	2561.947152
813.038276	2561.901782
813.357707	2566.784139
813.677093	2563.734241
813.996434	2563.157029
814.315731	2565.186093
814.634983	2563.956052
814.954191	2566.585014
815.273354	2567.840261
815.592473	2566.837071
815.911547	2570.864953
816.230577	2569.236661
816.549562	2571.578277
816.868502	2573.408215
817.187399	2574.625654
817.506250	2575.971642
817.825058	2578.464493
818.143821	2581.012796
818.462539	2587.110072
818.781213	2591.553849
819.099843	2598.855960
819.418429	2613.066973
819.736970	2621.221039
820.055466	2637.771147
820.373919	2658.644045
820.692327	2686.125895
821.010691	2737.391909
821.329011	2852.950278
821.647286	3028.604243
821.965517	3220.158007
822.283704	3326.155828
822.601847	3359.805530
822.919945	3277.551543
823.237999	3186.180630
823.556010	3094.751743
823.873976	3008.830317
824.191897	2931.214192
824.509775	2870.702702
824.827609	2819.930721
825.145398	2786.840587
825.463144	2771.366765
825.780845	2774.346087
826.098502	2796.633028
826.416116	2838.497290
826.733685	2882.405740
827.051210	2893.065260
827.368692	2869.268493
827.686129	2823.903150
828.003522	2779.593928
828.320872	2730.762792
828.638177	2701.692978
828.955439	2675.022753
829.272656	2653.509629
829.589830	2632.750158
829.906960	2621.042078
830.224046	2611.557147
830.541088	2602.072216
830.858086	2594.346648
831.175041	2592.549477
831.491952	2592.297419
831.808819	2590.641400
832.125642	2598.951742
832.442421	2610.254009
832.759157	2632.074643
833.075849	2668.441527
833.392497	2705.216744
833.709101	2728.713562
834.025662	2724.829353
834.342179	2705.688092
834.658653	2676.948474
834.975083	2654.026348
835.291469	2638.721405
835.607811	2620.691718
835.924110	2611.063114
836.240366	2601.363934
836.556578	2587.936821
836.872746	2578.726633
837.188871	2576.448031
837.504952	2568.656928
837.820990	2564.356824
838.136984	2561.004456
838.452935	2561.430434
838.768842	2562.489076
839.084706	2567.575600
839.400526	2586.979002
839.716303	2605.167485
840.032037	2616.729371
840.347727	2614.894391
840.663373	2602.021805
840.978977	2589.683581
841.294537	2580.785944
841.610054	2571.348904
841.925527	2566.315312
842.240957	2559.887841
842.556344	2554.405586
842.871687	2548.966181
843.186987	2547.786551
843.502244	2543.904862
843.817458	2545.321427
844.132629	2540.270191
844.447756	2540.118956
844.762840	2534.346835
845.077881	2534.976979
845.392879	2530.727286
845.707833	2533.399098
846.022745	2529.416586
846.337613	2534.924047
846.652438	2535.201310
846.967221	2535.823893
847.281960	2531.765764
847.596656	2532.469005
847.911309	2532.625281
848.225919	2532.907585
848.540485	2529.265352
848.855009	2533.096629
849.169490	2531.458254
849.483928	2531.944725
849.798323	2529.703932
850.112675	2532.204344
850.426984	2530.336597
850.741251	2530.870959
851.055474	2531.425486
851.369654	2532.166536
851.683792	2529.862728
851.997887	2531.233922
852.311938	2530.139992
852.625947	2532.952956
852.939914	2531.793490
853.253837	2533.827596
853.567718	2532.884900
853.881555	2531.949766
854.195350	2531.201155
854.509103	2530.578572
854.822812	2531.891793
855.136479	2531.826258
855.450103	2530.999509
855.763685	2530.460105
856.077224	2532.582431
856.390720	2530.389529
856.704173	2532.186700
857.017584	2531.062523
857.330953	2531.233922
857.644278	2531.130579
857.957561	2531.201155
858.270802	2531.375075
858.584000	2531.949766
858.897155	2530.800383
859.210268	2531.259128
859.523339	2532.973120
859.836367	2533.381454
860.149352	2532.829448
860.462295	2533.303316
860.775195	2524.947603
861.088054	2528.577234
861.400869	2530.666793
861.713642	2525.071112
862.026373	2529.928263
862.339062	2531.579241
862.651708	2531.899355
862.964312	2533.114273
863.276873	2532.529499
863.589392	2534.593851
863.901869	2529.623274
864.214303	2532.854653
864.526696	2534.125024
864.839045	2536.358255
865.151353	2537.479912
865.463619	2534.911444
865.775842	2537.855478
866.088023	2537.898328
866.400162	2539.224151
866.712258	2535.720549
867.024313	2538.157947
867.336325	2540.053421
867.648296	2537.631147
867.960224	2536.736342
868.272110	2535.932278
868.583954	2536.181815
868.895755	2540.252547
869.207515	2536.612833
869.519233	2538.132741
869.830909	2536.506969
870.142542	2540.865047
870.454134	2542.347146
870.765684	2539.090561
871.077191	2539.372865
871.388657	2543.211704
871.700081	2540.171888
872.011463	2544.197249
872.322803	2542.021992
872.634101	2543.246992
872.945357	2546.221273
873.256571	2546.576674
873.567744	2542.861344
873.878874	2549.429967
874.189963	2545.760007
874.501010	2548.010882
874.812015	2545.283618
875.122979	2548.396531
875.433900	2546.778320
875.744780	2546.884184
876.055618	2545.293700
876.366415	2548.570450
876.677169	2551.080945
876.987882	2549.288815
877.298554	2551.665719
877.609183	2553.190668
877.919771	2552.885678
878.230317	2554.481203
878.540822	2566.257339
878.851285	2572.047104
879.161707	2576.115315
879.472087	2594.676843
879.782425	2617.611573
880.092722	2656.463746
880.402977	2718.137222
880.713191	2789.056174
881.023363	2854.366843
881.333494	2892.848491
881.643583	2911.067221
881.953631	2905.776530
882.263637	2881.883981
882.573602	2856.975640
882.883526	2828.357009
883.193408	2799.108235
883.503248	2773.211827
883.813048	2746.655029
884.122806	2719.314331
884.432522	2694.353058
884.742197	2675.826817
885.051831	2654.159938
885.361424	2635.621095
885.670975	2620.976543
885.980485	2608.895418
886.289954	2600.204469
886.599382	2588.882037
886.908768	2588.211564
887.218113	2577.680593
887.527417	2574.058524
887.836680	2567.794891
888.145901	2563.003274
888.455082	2558.047820
888.764221	2559.121585
889.073319	2558.693087
889.382376	2556.051523
889.691392	2555.751574
890.000366	2553.268806
890.309300	2551.242262
890.618193	2552.840308
890.927044	2553.735112
891.235855	2554.876934
891.544625	2553.294012
891.853353	2556.754764
892.162041	2557.606719
892.470687	2562.330280
892.779293	2567.207596
893.087858	2571.550550
893.396381	2582.338619
893.704864	2597.288161
894.013306	2616.232817
894.321707	2642.035963
894.630068	2654.848056
894.938387	2656.746050
895.246665	2652.251862
895.554903	2640.901704
895.863100	2630.897534
896.171256	2621.636934
896.479371	2613.896242
896.787446	2603.922320
897.095480	2597.192379
897.403473	2590.349013
897.711425	2583.966912
898.019336	2578.212435
898.327207	2572.455437
898.635038	2570.544840
898.942827	2565.662482
899.250576	2560.444888
899.558284	2559.179559
899.865952	2555.411296
900.173579	2550.370142
900.481165	2549.598846
900.788711	2551.330482
901.096216	2550.652447
901.403681	2546.543907
901.711105	2545.971736
902.018489	2546.778320
902.325832	2549.112374
902.633135	2551.022972
902.940397	2558.844322
903.247619	2577.642785
903.554800	2609.250819
903.861941	2645.532003
904.169041	2672.986127
904.476101	2680.293280
904.783121	2674.100222
905.090100	2658.434837
905.397039	2642.363638
905.703938	2629.236474
906.010796	2616.648712
906.317614	2603.738317
906.624391	2592.995619
906.931129	2586.794999
907.237826	2575.729667
907.544483	2566.932853
907.851099	2561.450598
908.157675	2555.597819
908.464211	2547.471479
908.770707	2541.228010
909.077163	2537.537885
909.383578	2533.663758
909.689954	2535.082843
909.996289	2529.451874
910.302584	2529.386339
910.608839	2534.132586
910.915054	2529.882893
911.221229	2530.339117
911.527363	2533.381454
911.833458	2532.330373
912.139513	2533.749458
912.445527	2532.814324
912.751502	2534.782895
913.057436	2537.737011
913.363331	2539.032587
913.669186	2546.795964
913.975000	2552.069011
914.280775	2558.572100
914.586510	2575.265881
914.892205	2588.508992
915.197859	2612.787189
915.503475	2636.334418
915.809050	2659.866524
916.114585	2669.386743
916.420081	2676.530058
916.725536	2669.643842
917.030952	2663.793583
917.336328	2654.346461
917.641665	2647.908907
917.946961	2637.617392
918.252218	2629.823768
918.557435	2617.878754
918.862612	2612.141921
919.167750	2601.520210
919.472848	2592.884713
919.777906	2582.588157
920.082925	2576.294276
920.387904	2570.151630
920.692843	2563.915723
920.997743	2560.638973
921.302603	2550.770914
921.607423	2554.375339
921.912204	2548.905687
922.216946	2546.831252
922.521647	2542.314378
922.826310	2537.547967
923.130932	2541.293545
923.435516	2533.222657
923.740059	2536.378420
924.044564	2533.116793
924.349028	2532.113604
924.653454	2530.092101
924.957840	2526.311236
925.262186	2524.372912
925.566493	2525.237470
925.870761	2520.211439
926.174989	2524.171266
926.479178	2521.174300
926.783328	2523.873838
927.087438	2520.468538
927.391509	2521.065915
927.695541	2517.312776
927.999533	2518.628517
928.303486	2518.366377
928.607400	2518.336130
928.911275	2519.697242
929.215110	2518.552900
929.518906	2517.012827
929.822663	2518.925945
930.126381	2515.351767
930.430060	2519.296470
930.733699	2517.763959
931.037299	2518.489885
931.340861	2517.370749
931.644383	2519.246058
931.947866	2520.211439
932.251309	2519.563651
932.554714	2516.730523
932.858080	2518.641120
933.161407	2515.616428
933.464694	2519.586336
933.767943	2516.743126
934.071153	2517.958044
934.374323	2517.020389
934.677455	2518.066428
934.980548	2516.632220
935.283602	2518.187416
935.586617	2517.965605
935.889593	2520.702952
936.192530	2515.961747
936.495428	2520.198837
936.798287	2517.728671
937.101108	2519.291429
937.403890	2518.376459
937.706632	2521.628004
938.009336	2523.843591
938.312002	2529.656041
938.614628	2524.955165
938.917216	2525.597912
939.219765	2526.596061
939.522275	2533.232740
939.824747	2531.339787
940.127179	2528.947759
940.429573	2523.125226
940.731929	2524.814013
941.034246	2522.467356
941.336524	2527.924405
941.638763	2527.972296
941.940964	2528.307533
942.243126	2525.078673
942.545250	2526.275947
942.847335	2525.303005
943.149381	2524.851822
943.451389	2521.479290
943.753359	2524.577079
944.055290	2522.505164
944.357182	2521.476769
944.659036	2520.677746
944.960851	2518.683970
945.262628	2523.243693
945.564367	2518.752025
945.866067	2520.526512
946.167729	2522.174969
946.469352	2521.464166
946.770937	2519.914011
947.072484	2520.224042
947.373992	2521.491893
947.675462	2519.193126
947.976893	2520.274454
948.278286	2519.157838
948.579641	2517.277488
948.880958	2516.763290
949.182236	2515.250944
949.483476	2518.399145
949.784678	2517.864782
950.085841	2516.531397
950.386967	2520.203878
950.688054	2517.610204
950.989103	2518.366377
951.290114	2520.140863
951.591087	2520.098013
951.892021	2521.043230
952.192917	2523.213447
952.493776	2520.337468
952.794596	2523.636903
953.095378	2524.231760
953.396122	2521.668333
953.696828	2523.324352
953.997496	2521.028106
954.298126	2524.201513
954.598718	2521.872500
954.899272	2517.869823
955.199788	2519.049453
955.500266	2521.527181
955.800706	2515.596263
956.101108	2513.027795
956.401472	2512.448063
956.701798	2509.960253
957.002087	2510.953360
957.302337	2513.592404
957.602550	2518.222704
957.902724	2511.081910
958.202861	2512.896725
958.502960	2508.457989
958.803022	2513.481499
959.103045	2509.236848
959.403031	2510.779441
959.702979	2510.746673
960.002889	2510.177023
960.302762	2508.952022
960.602596	2508.752897
960.902393	2508.652074
961.202153	2507.011178
961.501875	2507.487567
961.801559	2509.955212
962.101205	2506.580159
962.400814	2508.110150
962.700385	2504.916579
962.999918	2506.285252
963.299414	2503.598317
963.598873	2507.240551
963.898293	2508.170643
964.197677	2507.888339
964.497022	2504.795591
964.796331	2505.740807
965.095601	2504.414984
965.394835	2510.862620
965.694030	2504.818276
965.993189	2507.301044
966.292309	2507.507732
966.591393	2504.921620
966.890439	2507.195180
967.189447	2504.619151
967.488419	2503.278204
967.787353	2508.871364
968.086249	2506.925478
968.385108	2506.151661
968.683930	2506.610406
968.982714	2508.848679
969.281462	2505.455982
969.580172	2507.744666
969.878844	2506.481857
970.177480	2503.860457
970.476078	2508.538648
970.774639	2509.456138
971.073162	2507.994203
971.371649	2506.013030
971.670098	2503.532782
971.968510	2504.054541
972.266885	2501.223933
972.565223	2507.361538
972.863524	2507.946312
973.161788	2508.858761
973.460014	2508.422701
973.758204	2508.967146
974.056356	2509.446055
974.354471	2506.680983
974.652550	2507.447238
974.950591	2506.638133
975.248595	2508.556292
975.546563	2507.371621
975.844493	2507.853051
976.142386	2506.754079
976.440243	2507.079234
976.738062	2507.648884
977.035845	2503.691578
977.333590	2509.269615
977.631299	2506.224758
977.928971	2509.249450
978.226606	2505.201404
978.524204	2505.491270
978.821765	2505.130828
979.119290	2506.882629
979.416777	2505.866836
979.714228	2507.321209
980.011642	2505.687875
980.309020	2507.704337
980.606360	2507.880777
980.903664	2506.398678
981.200931	2510.789523
981.498162	2512.606859
981.795356	2510.706344
982.092513	2514.714061
982.389633	2513.569719
982.686717	2521.501975
982.983764	2523.339475
983.280775	2523.185720
983.577749	2526.790145
983.874686	2523.306708
984.171587	2521.481810
984.468451	2520.680267
984.765279	2518.394103
985.062070	2517.670698
985.358824	2516.382683
985.655543	2515.805471
985.952224	2514.726664
986.248869	2512.483351
986.545478	2505.433297
986.842050	2503.923471
987.138586	2504.914058
987.435086	2500.966835
987.731549	2502.005312
988.027975	2503.464726
988.324366	2506.212155
988.620719	2503.258039
988.917037	2501.808707
989.213318	2504.477998
989.509563	2503.477329
989.805772	2504.684686
990.101944	2500.986999
990.398080	2502.138903
990.694180	2502.111177
990.990244	2503.195025
991.286271	2503.298368
991.582262	2502.509428
991.878217	2502.562360
992.174136	2503.555467
992.470019	2503.437000
992.765865	2503.918430
993.061676	2500.263594
993.357450	2506.456651
993.653188	2500.369458
993.948890	2504.288955
994.244556	2505.612258
994.540186	2505.153513
994.835780	2505.743328
995.131337	2509.246930
995.426859	2507.290962
995.722345	2507.112001
996.017795	2508.294152
996.313208	2508.314316
996.608586	2513.995697
996.903928	2511.848165
997.199234	2512.972342
997.494504	2511.860768
997.789738	2510.494615
998.084936	2513.216838
998.380099	2510.068638
998.675225	2511.281035
998.970316	2510.469410
999.265371	2508.548730
999.560390	2505.145951
999.855373	2504.162926
1000.150320	2504.727535
1000.445232	2505.047649
1000.740108	2503.731908
1001.034948	2503.557988
1001.329752	2500.268635
1001.624521	2502.418687
1001.919254	2497.508603
1002.213951	2497.007008
1002.508613	2496.893582
1002.803239	2500.145127
1003.097829	2496.815444
1003.392384	2501.788543
1003.686903	2500.921464
1003.981386	2499.260404
1004.275834	2500.974396
1004.570246	2501.307113
1004.864623	2497.627070
1005.158964	2500.230826
1005.453270	2501.092863
1005.747540	2501.559170
1006.041775	2499.898110
1006.335974	2499.943480
1006.630138	2499.615805
1006.924266	2499.371309
1007.218359	2499.260404
1007.512416	2500.724859
1007.806438	2497.120434
1008.100425	2501.685199
1008.394376	2499.787205
1008.688292	2500.311485
1008.982172	2497.498521
1009.276017	2497.422903
1009.569827	2499.459530
1009.863602	2500.941629
1010.157341	2499.146978
1010.451045	2499.751917
1010.744714	2498.196721
1011.038347	2501.513800
1011.331945	2498.254694
1011.625508	2500.913903
1011.919036	2500.394664
1012.212528	2498.058089
1012.505986	2498.310147
1012.799408	2499.812410
1013.092795	2498.151350
1013.386147	2499.013387
1013.679464	2495.867707
1013.972745	2498.088336
1014.265992	2497.909375
1014.559204	2499.333501
1014.852380	2497.982472
1015.145521	2500.684530
1015.438628	2499.633449
1015.731699	2501.092863
1016.024736	2500.331649
1016.317737	2497.730414
1016.610703	2499.812410
1016.903635	2494.907368
1017.196531	2495.958448
1017.489393	2492.853098
1017.782219	2493.763026
1018.075011	2498.884838
1018.367768	2497.952225
1018.660490	2499.338542
1018.953177	2499.338542
1019.245829	2499.338542
