Dividing Wavelength (nm)	Counts (n)	Blue Motor Position (mm): 0.000000	Red Motor Position (mm): 5.600000	
326.493990	2129.096039
326.888308	2129.096039
327.282561	2129.096039
327.676750	2097.314084
328.070874	2095.116141
328.464933	2096.013467
328.858929	2103.423963
329.252859	2110.746239
329.646726	2125.990688
330.040528	2137.224899
330.434265	2156.406490
330.827938	2170.388130
331.221547	2191.772705
331.615091	2208.743749
332.008571	2230.085474
332.401986	2248.785634
332.795338	2267.989910
333.188625	2287.010183
333.581847	2305.231434
333.975006	2324.206337
334.368100	2344.423884
334.761129	2360.956348
335.154095	2377.924872
335.546996	2394.825340
335.939833	2407.304717
336.332606	2423.385997
336.725315	2435.809921
337.117960	2443.318720
337.510540	2452.420523
337.903056	2464.476442
338.295508	2474.609162
338.687896	2479.788947
339.080220	2490.332521
339.472480	2494.720845
339.864676	2501.327277
340.256807	2501.314674
340.648875	2507.323730
341.040879	2511.026457
341.432818	2508.974707
341.824694	2513.257168
342.216506	2511.220542
342.608253	2515.160203
342.999937	2511.054183
343.391557	2509.743483
343.783113	2512.248937
344.174605	2510.192146
344.566033	2508.150479
344.957397	2504.979593
345.348697	2507.580828
345.739934	2502.595127
346.131106	2503.399191
346.522215	2500.243429
346.913260	2500.054386
347.304241	2496.313850
347.695159	2493.016935
348.086012	2493.437871
348.476802	2496.230671
348.867528	2490.130874
349.258191	2488.605925
349.648789	2487.471666
350.039324	2487.237252
350.429796	2485.913949
350.820203	2482.352374
351.210548	2482.848928
351.600828	2482.808598
351.991045	2482.027220
352.381198	2481.601242
352.771288	2483.060656
353.161314	2478.009420
353.551276	2482.843887
353.941175	2479.728453
354.331010	2481.593680
354.720782	2479.191571
355.110490	2478.284163
355.500135	2477.555716
355.889717	2478.440439
356.279235	2478.989924
356.668689	2481.858341
357.058080	2480.708958
357.447408	2479.191571
357.836672	2478.289204
358.225873	2480.184678
358.615010	2477.147383
359.004084	2483.474031
359.393095	2483.814309
359.782043	2483.809268
360.170927	2480.403968
360.559748	2486.254227
360.948505	2483.728609
361.337199	2484.527632
361.725830	2482.677528
362.114398	2487.761532
362.502903	2486.786069
362.891344	2488.293374
363.279722	2488.159783
363.668037	2487.000318
364.056289	2491.307984
364.444478	2487.209526
364.832603	2491.076091
365.220665	2489.999804
365.608665	2491.408807
365.996601	2491.665906
366.384474	2491.277737
366.772284	2494.352841
367.160031	2494.647748
367.547715	2496.245794
367.935336	2498.088336
368.322893	2501.463388
368.710388	2501.123110
369.097820	2512.027126
369.485189	2510.575274
369.872495	2516.952333
370.259738	2522.288395
370.646918	2525.960875
371.034035	2531.990095
371.421090	2541.956457
371.808081	2546.831252
372.195010	2552.590771
372.581875	2559.096380
372.968678	2565.652400
373.355418	2571.923596
373.742096	2578.346026
374.128710	2584.231573
374.515262	2590.427151
374.901751	2595.783377
375.288177	2599.274376
375.674540	2606.183277
376.060841	2612.923300
376.447079	2613.550923
376.833254	2619.081069
377.219367	2616.552931
377.605417	2630.670682
377.991404	2623.580299
378.377329	2625.765639
378.763191	2625.465691
379.148991	2633.619757
379.534727	2635.495066
379.920402	2634.549850
380.306013	2630.040538
380.691563	2637.846764
381.077049	2632.878707
381.462474	2628.646659
381.847835	2629.591875
382.233134	2622.511574
382.618371	2616.522684
383.003545	2620.948817
383.388657	2611.574791
383.773706	2607.874584
384.158693	2601.621033
384.543618	2593.966041
384.928480	2589.988570
385.313280	2585.262489
385.698017	2579.724781
386.082692	2577.229410
386.467305	2567.114335
386.851856	2563.837585
387.236344	2555.812068
387.620770	2555.963303
388.005133	2547.501726
388.389435	2543.912424
388.773674	2538.039480
389.157851	2533.661238
389.541965	2531.599406
389.926018	2530.097142
390.310008	2522.847963
390.693936	2525.534898
391.077802	2523.253776
391.461606	2518.885616
391.845348	2518.295801
392.229027	2514.575429
392.612645	2513.060563
392.996200	2510.045953
393.379694	2515.838238
393.763125	2513.055522
394.146494	2511.381858
394.529801	2510.963443
394.913047	2514.996366
395.296230	2511.676766
395.679351	2508.344563
396.062410	2511.850686
396.445408	2512.206087
396.828343	2512.609379
397.211217	2507.200221
397.594028	2507.739625
397.976778	2505.582011
398.359466	2506.721312
398.742092	2506.028153
399.124656	2509.935047
399.507158	2508.485716
399.889598	2512.324554
400.271977	2510.615603
400.654294	2514.252796
401.036549	2514.772034
401.418742	2509.776251
401.800874	2512.090141
402.182944	2512.511077
402.564952	2511.432270
402.946898	2512.294307
403.328783	2513.519308
403.710606	2511.036539
404.092367	2512.649709
404.474067	2510.832373
404.855705	2515.893691
405.237282	2513.841942
405.618797	2511.767507
406.000250	2513.332785
406.381642	2515.137518
406.762972	2514.230110
407.144240	2514.096520
407.525447	2515.780265
407.906593	2512.228772
408.287677	2514.154493
408.668700	2512.495953
409.049661	2514.119205
409.430560	2514.091479
409.811399	2516.274298
410.192176	2514.734226
410.572891	2516.218846
410.953545	2513.294976
411.334138	2516.758249
411.714669	2514.981242
412.095139	2514.721623
412.475547	2518.568023
412.855894	2516.130625
413.236180	2516.062570
413.616405	2516.642303
413.996568	2517.055677
414.376670	2515.611387
414.756711	2516.801099
415.136691	2518.502488
415.516609	2519.641789
415.896466	2519.051974
416.276262	2519.684639
416.655997	2515.296314
417.035670	2515.286232
417.415283	2517.113650
417.794834	2513.360511
418.174324	2518.200019
418.553753	2514.703979
418.933121	2519.246058
419.312428	2519.785462
419.691674	2519.914011
420.070859	2519.399814
420.449983	2520.319824
420.829045	2519.719927
421.208047	2521.917870
421.586988	2517.310255
421.965867	2519.856038
422.344686	2520.413086
422.723444	2521.244876
423.102141	2519.914011
423.480777	2519.871162
423.859352	2518.956192
424.237866	2522.464835
424.616319	2521.199506
424.994712	2522.386697
425.373044	2520.970133
425.751314	2521.519619
426.129524	2521.176820
426.507673	2521.766635
426.885762	2520.324865
427.263789	2522.358971
427.641756	2522.232942
428.019662	2521.985926
428.397508	2522.116996
428.775292	2521.812006
429.153016	2520.125740
429.530679	2523.347037
429.908282	2521.988446
430.285824	2522.169928
430.663305	2520.982736
431.040726	2522.858045
431.418086	2524.224198
431.795385	2522.288395
432.172624	2522.628673
432.549802	2523.979702
432.926920	2521.789321
433.303977	2525.146729
433.680974	2521.557428
434.057910	2524.350227
434.434786	2522.079187
434.811601	2525.129085
435.188355	2524.130937
435.565050	2522.323683
435.941683	2525.716379
436.318257	2521.945596
436.694770	2522.230422
437.071222	2518.976357
437.447614	2520.108096
437.823946	2522.643796
438.200218	2523.057171
438.576429	2526.946421
438.952580	2522.885772
439.328670	2524.864424
439.704700	2524.854342
440.080670	2525.829805
440.456580	2525.081194
440.832429	2526.497758
441.208218	2524.796369
441.583947	2526.381812
441.959616	2528.695701
442.335224	2524.458612
442.710773	2525.640762
443.086261	2523.069774
443.461689	2526.648993
443.837057	2526.270906
444.212365	2526.568334
444.587612	2524.335103
444.962800	2524.526667
445.337927	2524.458612
445.712995	2525.489527
446.088002	2526.601102
446.462949	2526.160001
446.837837	2527.611853
447.212664	2528.955321
447.587431	2528.998171
447.962139	2529.313243
448.336786	2528.607481
448.711374	2528.360465
449.085901	2529.484642
449.460369	2529.575383
449.834776	2527.054806
450.209124	2526.187727
450.583412	2527.886596
450.957640	2525.396266
451.331808	2527.342152
451.705917	2527.379960
452.079965	2527.468180
452.453954	2529.086391
452.827883	2528.552028
453.201752	2529.706453
453.575562	2529.552697
453.949311	2529.550177
454.323001	2528.126051
454.696632	2527.818541
455.070202	2528.269724
455.443713	2529.262831
455.817164	2525.587830
456.190556	2525.333252
456.563888	2527.488345
456.937160	2526.079342
457.310373	2529.025897
457.683526	2527.054806
458.056619	2530.452543
458.429653	2528.057995
458.802628	2528.829292
459.175542	2531.128058
459.548398	2529.741741
459.921194	2529.230064
460.293930	2531.042358
460.666607	2530.528161
461.039224	2532.224509
461.411782	2532.131248
461.784280	2530.883562
462.156719	2531.591844
462.529099	2531.770805
462.901419	2530.240815
463.273680	2530.921371
463.645882	2528.352903
464.018024	2529.623274
464.390106	2530.475229
464.762130	2530.628984
465.134094	2530.208048
465.505999	2528.761236
465.877845	2531.314581
466.249631	2533.958666
466.621358	2529.918181
466.993026	2533.356248
467.364634	2537.797505
467.736184	2532.826927
468.107674	2532.864736
468.479105	2531.480939
468.850477	2531.748120
469.221790	2528.950280
469.593043	2530.180321
469.964238	2532.325332
470.335373	2530.303829
470.706449	2532.083357
471.077467	2533.802390
471.448425	2533.411701
471.819324	2533.935981
472.190164	2533.585621
472.560945	2531.790970
472.931667	2531.861546
473.302330	2530.906247
473.672934	2533.678882
474.043479	2531.919519
474.413965	2532.141330
474.784393	2524.849301
475.154761	2529.393901
475.525070	2528.095804
475.895321	2531.334745
476.265513	2529.608150
476.635645	2531.727955
477.005719	2531.546474
477.375734	2531.896834
477.745691	2531.133099
478.115588	2533.147040
478.485427	2532.693336
478.855207	2534.427493
479.224928	2532.620240
479.594591	2534.629139
479.964194	2535.622247
480.333739	2532.932791
480.703226	2532.002698
481.072653	2534.729963
481.442022	2532.405991
481.811333	2533.010929
482.180584	2533.152081
482.549777	2534.036804
482.918912	2535.274407
483.287988	2533.517565
483.657005	2536.358255
484.025964	2532.158974
484.394864	2533.706608
484.763706	2536.882535
485.132489	2535.009747
485.501213	2535.387833
485.869879	2533.240302
486.238487	2532.874818
486.607036	2533.865405
486.975527	2535.874304
487.343959	2533.338604
487.712333	2535.735673
488.080648	2533.089067
488.448905	2535.014788
488.817104	2532.589993
489.185244	2536.733821
489.553326	2535.748276
489.921350	2534.949253
490.289315	2534.767771
490.657222	2534.185518
491.025070	2535.851619
491.392861	2535.324819
491.760593	2535.082843
492.128267	2535.231557
492.495883	2534.593851
492.863440	2536.229706
493.230939	2533.383974
493.598380	2535.702905
493.965763	2532.390867
494.333088	2534.472864
494.700354	2529.333407
495.067563	2534.341794
495.434713	2530.719725
495.801805	2536.123842
496.168839	2534.976979
496.535815	2538.904038
496.902733	2534.465302
497.269593	2535.665097
497.636395	2534.407329
498.003139	2535.075282
498.369825	2535.523944
498.736453	2536.017977
499.103023	2535.312216
499.469535	2534.961856
499.835989	2534.576207
500.202385	2535.090405
500.568723	2539.340098
500.935003	2533.096629
501.301226	2536.771630
501.667390	2534.576207
502.033497	2538.490663
502.399546	2537.253060
502.765537	2534.997144
503.131470	2536.648122
503.497345	2537.053934
503.863163	2542.243802
504.228923	2535.473533
504.594625	2533.273069
504.960269	2535.357586
505.325856	2537.154757
505.691385	2536.073430
506.056856	2535.665097
506.422270	2537.706764
506.787625	2535.007226
507.152924	2535.776002
507.518164	2536.479243
507.883347	2536.844727
508.248472	2538.135262
508.613540	2537.578214
508.978550	2534.477905
509.343503	2537.694161
509.708398	2540.676003
510.073236	2537.369007
510.438016	2535.380271
510.802738	2538.858668
511.167403	2538.178112
511.532010	2535.783564
511.896561	2539.035108
512.261053	2539.234233
512.625488	2535.786084
512.989866	2536.038142
513.354186	2534.518234
513.718449	2532.567307
514.082655	2535.508821
514.446803	2538.586445
514.810894	2539.120807
515.174927	2539.904707
515.538904	2538.309182
515.902822	2538.304141
516.266684	2537.737011
516.630488	2536.567463
516.994235	2539.428318
517.357925	2540.033256
517.721558	2536.267514
518.085133	2537.860519
518.448651	2535.705426
518.812112	2538.833462
519.175516	2538.243647
519.538863	2539.451003
519.902152	2538.346990
520.265385	2538.702392
520.628560	2538.188194
520.991678	2538.233564
521.354739	2536.272556
521.717743	2535.793646
522.080690	2539.365303
522.443580	2537.424459
522.806413	2538.805735
523.169189	2534.223327
523.531908	2537.893287
523.894569	2542.334543
524.257174	2539.904707
524.619722	2537.996630
524.982213	2540.534851
525.344647	2538.173071
525.707025	2538.752803
526.069345	2539.445962
526.431608	2536.791794
526.793815	2538.226003
527.155964	2535.710467
527.518057	2538.599048
527.880093	2535.415559
528.242072	2539.763555
528.603995	2537.442103
528.965860	2539.317413
529.327669	2537.812628
529.689421	2537.041332
530.051117	2540.885211
530.412755	2538.334387
530.774337	2542.432846
531.135862	2539.829090
531.497331	2538.523431
531.858743	2537.051414
532.220098	2539.415715
532.581396	2532.133768
532.942638	2536.038142
533.303824	2538.228523
533.664953	2538.226003
534.026025	2539.703061
534.387040	2540.449152
534.747999	2535.425642
535.108902	2537.968904
535.469748	2541.308668
535.830537	2539.075437
536.191270	2538.745242
536.551947	2539.423277
536.912567	2537.742052
537.273131	2538.745242
537.633638	2541.328833
537.994089	2538.145344
538.354483	2539.574511
538.714821	2539.337577
539.075103	2541.076775
539.435328	2538.939326
539.795497	2538.576363
540.155609	2539.163657
540.515665	2538.450334
540.875665	2539.340098
541.235609	2537.880684
541.595496	2540.557536
541.955328	2537.429500
542.315102	2540.910417
542.674821	2535.818852
543.034483	2539.748431
543.394090	2539.665252
543.753640	2541.094419
544.113134	2537.953780
544.472571	2537.358924
544.831953	2538.546116
545.191278	2542.132897
545.550548	2540.605427
545.909761	2538.765406
546.268918	2541.727084
546.628019	2538.125180
546.987064	2538.364634
547.346053	2540.544933
547.704986	2541.477547
548.063863	2538.490663
548.422684	2541.951415
548.781449	2538.072248
549.140158	2539.882022
549.498811	2539.924872
549.857408	2539.566950
550.215949	2536.562422
550.574434	2538.079809
550.932864	2538.220962
551.291237	2533.346166
551.649555	2541.434697
552.007817	2539.239275
552.366022	2537.532844
552.724173	2541.142310
553.082267	2539.950077
553.440305	2538.568801
553.798288	2539.040149
554.156215	2539.967721
554.514086	2540.393699
554.871902	2539.786240
555.229661	2541.485109
555.587365	2540.655839
555.945014	2540.378575
556.302606	2536.471681
556.660143	2539.574511
557.017625	2538.941847
557.375050	2538.331867
557.732421	2536.993441
558.089735	2542.972249
558.446994	2539.269522
558.804197	2537.706764
559.161345	2541.270860
559.518437	2538.843544
559.875474	2536.895138
560.232455	2541.091899
560.589381	2540.368493
560.946251	2539.854295
561.303065	2538.455375
561.659825	2539.067875
562.016528	2537.532844
562.373177	2540.529810
562.729770	2538.699871
563.086307	2542.637012
563.442789	2537.585776
563.799216	2540.890253
564.155587	2542.246323
564.511904	2540.905376
564.868164	2543.811601
565.224370	2540.343287
565.580520	2539.773637
565.936615	2541.021323
566.292654	2539.430838
566.648638	2542.473175
567.004567	2538.092412
567.360441	2541.676672
567.716260	2539.108205
568.072023	2539.347659
568.427732	2536.020498
568.783385	2537.363965
569.138982	2535.755837
569.494525	2541.129707
569.850013	2533.494880
570.205445	2538.162988
570.560823	2537.545447
570.916145	2538.692309
571.271412	2540.277752
571.626625	2541.333874
571.981782	2541.248174
572.336884	2540.406302
572.691931	2539.498894
573.046923	2536.912782
573.401860	2538.596527
573.756743	2541.848072
574.111570	2539.662732
574.466342	2541.722043
574.821059	2539.541744
575.175722	2539.781199
575.530330	2540.048380
575.884882	2538.755324
576.239380	2541.260777
576.593823	2542.021992
576.948211	2541.127187
577.302544	2540.698689
577.656823	2538.974614
578.011047	2540.305479
578.365216	2542.561395
578.719330	2540.751621
579.073389	2540.592824
579.427394	2537.915972
579.781344	2540.292876
580.135239	2540.320602
580.489080	2539.587114
580.842866	2540.509645
581.196597	2544.270346
581.550273	2541.704399
581.903895	2539.403112
582.257463	2539.299768
582.610975	2539.619882
582.964434	2542.821014
583.317837	2538.941847
583.671186	2539.461085
584.024481	2542.891591
584.377721	2539.488812
584.730906	2539.473688
585.084037	2540.703730
585.437113	2542.236241
585.790135	2542.198432
586.143103	2539.166178
586.496016	2540.350849
586.848874	2536.068389
587.201679	2540.779347
587.554428	2536.194418
587.907124	2538.951929
588.259765	2533.686444
588.612352	2541.432177
588.964884	2539.866898
589.317362	2541.659028
589.669786	2541.107022
590.022155	2541.396888
590.374470	2539.725746
590.726731	2541.427135
591.078937	2540.923020
591.431090	2540.925541
591.783188	2539.451003
592.135232	2542.947043
592.487222	2538.057124
592.839157	2540.605427
593.191038	2539.244316
593.542866	2541.500232
593.894639	2539.738349
594.246358	2539.713143
594.598022	2539.980324
594.949633	2542.062321
595.301190	2538.147865
595.652692	2541.114584
596.004141	2537.384130
596.355535	2538.835982
596.706876	2539.433359
597.058162	2539.856816
597.409395	2539.453524
597.760573	2538.722556
598.111698	2538.929244
598.462768	2540.340767
598.813785	2540.197094
599.164748	2540.015612
599.515657	2540.807073
599.866511	2541.434697
600.217312	2538.599048
600.568060	2540.670962
600.918753	2540.728936
601.269392	2540.408822
601.619978	2540.605427
601.970510	2541.659028
602.320988	2541.162475
602.671412	2542.374872
603.021783	2538.465457
603.372100	2539.864378
603.722363	2537.807587
604.072572	2538.087371
604.422728	2538.127700
604.772830	2535.012267
605.122878	2536.126362
605.472872	2535.337422
605.822813	2534.601413
606.172701	2540.302958
606.522534	2539.786240
606.872314	2539.216589
607.222041	2540.038297
607.571714	2540.018133
607.921333	2540.126518
608.270899	2538.568801
608.620411	2541.049049
608.969870	2541.694317
609.319276	2543.640202
609.668627	2541.641384
610.017926	2545.306303
610.367171	2547.345450
610.716362	2544.943340
611.065500	2544.338402
611.414585	2542.752959
611.763616	2543.136087
612.112594	2540.607948
612.461518	2541.359080
612.810389	2539.108205
613.159207	2541.943854
613.507971	2542.740356
613.856682	2543.597352
614.205340	2543.436035
614.553945	2544.126673
614.902496	2540.900335
615.250994	2541.512835
615.599439	2539.680376
615.947830	2541.122146
616.296169	2540.209697
616.644454	2541.608617
616.992686	2539.970242
617.340864	2544.550130
617.688990	2538.646939
618.037063	2539.844213
618.385082	2538.362114
618.733048	2542.687424
619.080961	2540.066024
619.428821	2540.476878
619.776628	2538.916641
620.124382	2540.824717
620.472083	2539.703061
620.819731	2539.894625
621.167326	2539.224151
621.514868	2538.077289
621.862357	2538.190715
622.209793	2540.111394
622.557176	2542.682383
622.904506	2538.152906
623.251783	2535.080323
623.599007	2533.411701
623.946179	2534.533357
624.293297	2536.479243
624.640363	2540.088709
624.987376	2538.513348
625.334336	2537.205169
625.681243	2538.493184
626.028097	2539.589635
626.374899	2539.735828
626.721647	2539.118287
627.068343	2538.127700
627.414987	2541.094419
627.761577	2540.033256
628.108115	2542.034594
628.454600	2537.681558
628.801032	2540.537372
629.147412	2541.056611
629.493739	2539.017464
629.840014	2539.234233
630.186236	2539.327495
630.532405	2540.683565
630.878521	2538.316743
631.224585	2540.428987
631.570597	2536.804397
631.916556	2540.088709
632.262462	2539.947557
632.608316	2537.240457
632.954117	2537.101825
633.299866	2540.320602
633.645562	2539.181301
633.991206	2541.598535
634.336797	2539.047711
634.682336	2539.340098
635.027823	2537.805066
635.373257	2536.146527
635.718639	2537.918492
636.063968	2538.881353
636.409245	2537.001002
636.754470	2538.805735
637.099642	2536.814480
637.444762	2539.352701
637.789829	2537.066537
638.134845	2538.208359
638.479808	2539.173740
638.824719	2538.838503
639.169577	2538.772968
639.514383	2538.283976
639.859137	2538.092412
640.203839	2538.087371
640.548489	2536.393543
640.893086	2535.418080
641.237632	2532.539581
641.582125	2534.097298
641.926566	2537.467309
642.270955	2536.585107
642.615292	2537.462268
642.959576	2538.127700
643.303809	2541.769934
643.647990	2538.843544
643.992118	2536.706095
644.336195	2538.760365
644.680219	2536.028060
645.024192	2539.478729
645.368112	2537.439583
645.711981	2537.492515
646.055797	2538.525951
646.399562	2538.364634
646.743274	2537.384130
647.086935	2537.235416
647.430544	2537.590817
647.774101	2536.804397
648.117606	2539.536703
648.461059	2538.112577
648.804460	2540.139121
649.147810	2539.433359
649.491108	2539.640046
649.834354	2539.110725
650.177548	2540.668442
650.520690	2535.912113
650.863781	2538.556198
651.206820	2541.568288
651.549807	2538.397402
651.892742	2538.629295
652.235626	2535.420601
652.578458	2538.740200
652.921238	2539.834131
653.263967	2538.404964
653.606644	2538.185673
653.949269	2539.645088
654.291843	2537.794984
654.634365	2537.283307
654.976836	2535.874304
655.319255	2539.662732
655.661622	2536.882535
656.003938	2539.393030
656.346203	2537.316074
656.688416	2539.519059
657.030577	2537.903369
657.372687	2536.209541
657.714746	2536.562422
658.056753	2538.793133
658.398708	2532.549663
658.740612	2535.949922
659.082465	2534.147709
659.424266	2538.006712
659.766016	2534.230888
660.107715	2540.509645
660.449362	2538.684748
660.790958	2538.004192
661.132503	2535.922195
661.473996	2538.016795
661.815438	2538.931764
662.156829	2538.714995
662.498168	2538.422608
662.839456	2538.510828
663.180693	2536.867412
663.521879	2538.135262
663.863013	2535.385312
664.204097	2535.962525
664.545129	2536.983358
664.886110	2538.546116
665.227040	2537.321116
665.567918	2539.060314
665.908746	2537.358924
666.249522	2538.087371
666.590248	2538.757844
666.930922	2536.978317
667.271545	2535.947401
667.612118	2539.677855
667.952639	2536.847247
668.293109	2539.408153
668.633528	2536.597710
668.973896	2538.072247
669.314213	2534.838347
669.654480	2536.990920
669.994695	2540.502084
670.334859	2537.694161
670.674973	2536.615354
671.015035	2535.599562
671.355047	2540.393699
671.695008	2538.173071
672.034918	2537.774819
672.374777	2538.402443
672.714585	2536.448996
673.054342	2536.678368
673.394049	2538.193235
673.733705	2537.550488
674.073310	2539.577032
674.412864	2536.080992
674.752368	2535.057638
675.091820	2539.604758
675.431223	2539.350180
675.770574	2537.684079
676.109875	2533.714170
676.449125	2535.715508
676.788324	2533.590662
677.127473	2536.834644
677.466571	2533.174767
677.805619	2536.247350
678.144616	2536.307844
678.483562	2537.437062
678.822458	2537.744573
679.161303	2535.801208
679.500098	2535.818852
679.838842	2538.094933
680.177535	2538.336908
680.516179	2540.043339
680.854771	2536.489325
681.193314	2536.333049
681.531805	2537.777340
681.870247	2539.289686
682.208638	2537.018646
682.546978	2540.975952
682.885268	2536.791794
683.223508	2538.039480
683.561697	2535.072761
683.899836	2537.792463
684.237925	2536.920344
684.575963	2537.041332
684.913951	2537.167360
685.251889	2537.731970
685.589776	2536.252391
685.927614	2539.685417
686.265401	2536.683410
686.603137	2536.796836
686.940824	2538.851106
687.278460	2538.047042
687.616046	2537.510159
687.953582	2537.106867
688.291068	2536.070909
688.628504	2535.844057
688.965889	2538.142824
689.303224	2537.522762
689.640510	2535.549150
689.977745	2538.460416
690.314930	2539.907228
690.652065	2540.547454
690.989150	2538.689789
691.326185	2534.674510
691.663170	2535.463450
692.000105	2539.151054
692.336990	2539.380427
692.673825	2538.180632
693.010610	2538.263811
693.347345	2535.133255
693.684030	2534.944212
694.020665	2534.828265
694.357251	2532.834489
694.693786	2533.822555
695.030272	2536.272556
695.366707	2536.814480
695.703093	2536.476722
696.039429	2536.721218
696.375716	2537.129552
696.711952	2536.920344
697.048139	2539.559388
697.384276	2537.686599
697.720363	2536.149047
698.056400	2536.791794
698.392388	2534.155271
698.728326	2537.121990
699.064214	2537.805066
699.400053	2539.801363
699.735842	2537.588297
700.071581	2534.601413
700.407270	2533.850281
700.742910	2534.840868
701.078501	2537.096784
701.414042	2539.090561
701.749533	2535.171063
702.084974	2536.801877
702.420366	2534.281300
702.755709	2537.003523
703.091002	2536.590148
703.426246	2534.853471
703.761440	2538.178112
704.096584	2537.711805
704.431679	2535.831455
704.766725	2536.811959
705.101721	2536.385982
705.436668	2536.567463
705.771565	2539.130890
706.106413	2534.031763
706.441212	2533.598223
706.775961	2537.021167
707.110661	2533.565456
707.445311	2537.512679
707.779913	2538.455375
708.114465	2537.641229
708.448967	2539.854295
708.783421	2536.433872
709.117825	2537.058976
709.452180	2536.655683
709.786485	2535.105528
710.120742	2538.072247
710.454949	2537.933616
710.789107	2534.049407
711.123216	2533.784746
711.457275	2533.565456
711.791286	2531.672503
712.125247	2534.349355
712.459159	2537.389171
712.793023	2536.219623
713.126837	2535.337422
713.460602	2536.824562
713.794318	2537.177443
714.127985	2537.416898
714.461602	2536.005374
714.795171	2535.738193
715.128691	2538.994779
715.462162	2537.694161
715.795584	2537.084181
716.128957	2535.186187
716.462281	2536.937988
716.795556	2538.268853
717.128782	2536.534696
717.461960	2535.977648
717.795088	2537.396733
718.128167	2533.252904
718.461198	2538.092412
718.794180	2536.297761
719.127113	2537.467309
719.459997	2535.866743
719.792833	2537.028729
720.125619	2534.974458
720.458357	2537.111908
720.791046	2538.215920
721.123686	2536.133924
721.456278	2535.062679
721.788821	2534.079654
722.121315	2536.287679
722.453761	2536.920344
722.786158	2535.261804
723.118506	2535.705426
723.450805	2534.714839
723.783056	2534.495549
724.115259	2534.878677
724.447412	2532.920188
724.779518	2536.166691
725.111574	2534.873635
725.443582	2535.760878
725.775542	2533.777184
726.107453	2537.066537
726.439315	2535.392874
726.771129	2539.075437
727.102895	2536.552340
727.434612	2535.324819
727.766281	2535.791125
728.097901	2532.809283
728.429473	2534.077133
728.760996	2532.758871
729.092471	2530.631504
729.423897	2535.561753
729.755276	2534.281300
730.086606	2535.728111
730.417887	2535.264325
730.749120	2535.319778
731.080305	2536.940508
731.411442	2535.559232
731.742530	2534.818183
732.073570	2538.556198
732.404562	2537.459747
732.735506	2538.541075
733.066401	2534.969417
733.397249	2536.859850
733.728048	2537.293389
734.058798	2535.801208
734.389501	2536.839685
734.720156	2537.553009
735.050762	2537.250539
735.381320	2536.322967
735.711831	2536.035621
736.042293	2537.048893
736.372707	2533.749458
736.703073	2535.097967
737.033391	2534.339273
737.363661	2536.164171
737.693883	2535.922195
738.024056	2539.148534
738.354182	2536.403626
738.684260	2534.689633
739.014290	2533.847761
739.344272	2535.612164
739.674207	2534.656866
740.004093	2535.728111
740.333931	2536.166691
740.663722	2535.755837
740.993464	2536.015457
741.323159	2535.569315
741.652806	2536.577545
741.982405	2535.526465
742.311956	2536.736342
742.641460	2534.699716
742.970915	2534.102339
743.300323	2536.234747
743.629683	2536.524613
743.958996	2535.937319
744.288260	2536.247350
744.617477	2532.993285
744.946647	2530.293747
745.275768	2534.460261
745.604842	2529.905578
745.933869	2532.637884
746.262847	2530.918850
746.591778	2537.197607
746.920662	2534.568646
747.249498	2535.574356
747.578286	2535.231557
747.907027	2534.198121
748.235720	2532.085877
748.564365	2532.688295
748.892963	2535.039993
749.221514	2536.527134
749.550017	2535.960004
749.878473	2536.847247
750.206881	2534.629139
750.535242	2535.289531
750.863555	2534.919006
751.191821	2536.320447
751.520039	2535.768440
751.848210	2535.143337
752.176334	2537.860519
752.504411	2535.672658
752.832440	2534.588810
753.160421	2532.494211
753.488356	2534.785415
753.816243	2537.326157
754.144082	2534.233409
754.471875	2533.857843
754.799620	2534.530837
755.127318	2532.789118
755.454969	2535.776002
755.782572	2534.493028
756.110129	2534.067051
756.437638	2535.150899
756.765100	2533.073943
757.092515	2534.482946
757.419882	2533.565456
757.747203	2533.986392
758.074477	2533.499921
758.401703	2535.057637
758.728882	2534.445137
759.056014	2536.106198
759.383099	2531.886752
759.710138	2535.589479
760.037129	2536.627957
760.364073	2535.768440
760.690970	2533.724252
761.017820	2535.312216
761.344623	2534.561084
761.671379	2536.809438
761.998088	2529.885414
762.324751	2533.313398
762.651366	2531.312060
762.977935	2533.081505
763.304456	2532.471526
763.630931	2536.305323
763.957359	2537.800025
764.283740	2536.600231
764.610074	2534.462781
764.936362	2537.197607
765.262602	2536.113759
765.588796	2533.709129
765.914943	2534.838347
766.241044	2533.376413
766.567097	2535.438245
766.893104	2533.522606
767.219064	2534.099818
767.544978	2534.828265
767.870845	2536.532175
768.196665	2534.737524
768.522438	2534.518234
768.848165	2535.503780
769.173846	2535.738193
769.499479	2532.864736
769.825066	2533.106711
770.150607	2534.838347
770.476101	2536.648122
770.801548	2535.400436
771.126949	2532.559746
771.452303	2532.247194
771.777611	2534.014119
772.102872	2535.854140
772.428087	2530.772657
772.753256	2534.760209
773.078378	2533.981351
773.403453	2534.782895
773.728482	2535.024870
774.053465	2533.245343
774.378401	2535.521424
774.703291	2534.808100
775.028135	2531.657379
775.352932	2532.058151
775.677683	2532.930271
776.002388	2536.461599
776.327046	2534.059489
776.651658	2534.898841
776.976224	2532.224509
777.300743	2534.866074
777.625216	2533.928419
777.949643	2534.611495
778.274024	2532.615198
778.598359	2527.034641
778.922647	2531.042358
779.246889	2528.756195
779.571086	2526.341482
779.895236	2533.356248
780.219339	2533.056299
780.543397	2534.689633
780.867409	2532.567308
781.191374	2533.431865
781.515294	2533.096629
781.839167	2532.710980
782.162995	2534.253573
782.486776	2535.382792
782.810511	2537.048893
783.134201	2533.759540
783.457844	2531.057482
783.781441	2531.468336
784.104993	2533.510003
784.428498	2532.393388
784.751958	2534.230888
785.075372	2534.014119
785.398739	2533.015970
785.722061	2532.521937
786.045337	2532.166536
786.368568	2534.735004
786.691752	2533.232740
787.014891	2537.742052
787.337983	2532.781557
787.661030	2534.056968
787.984031	2535.430683
788.306987	2535.702905
788.629897	2535.518903
788.952760	2534.956814
789.275579	2534.505631
789.598351	2533.797349
789.921078	2532.763913
790.243759	2533.532688
790.566395	2533.446989
790.888984	2529.862728
791.211529	2535.597041
791.534027	2536.239788
791.856480	2531.213758
792.178888	2532.070754
792.501249	2532.642925
792.823566	2535.720549
793.145836	2532.965559
793.468062	2530.739889
793.790241	2532.968079
794.112375	2536.320447
794.434464	2534.059489
794.756507	2532.874818
795.078505	2532.043027
795.400457	2532.184180
795.722364	2529.207378
796.044226	2532.458923
796.366042	2530.939015
796.687812	2530.530681
797.009538	2531.037317
797.331218	2534.213244
797.652852	2533.545291
797.974442	2531.790970
798.295986	2535.551671
798.617484	2536.098636
798.938938	2533.361289
799.260346	2533.363810
799.581709	2530.061854
799.903026	2535.367668
800.224299	2532.375744
800.545526	2533.570497
800.866708	2534.177956
801.187845	2532.491690
801.508936	2531.397760
801.829983	2531.090249
802.150984	2531.382636
802.471940	2533.391536
802.792851	2534.079654
803.113717	2532.446320
803.434538	2533.804911
803.755314	2533.162164
804.076045	2533.467153
804.396731	2533.953625
804.717372	2531.687626
805.037967	2533.051258
805.358518	2531.478418
805.679024	2534.603934
805.999485	2530.757533
806.319901	2534.727442
806.640272	2534.205683
806.960598	2535.619726
807.280879	2534.525796
807.601115	2530.649148
807.921306	2530.502955
808.241453	2531.309540
808.561554	2531.274252
808.881611	2532.537061
809.201623	2533.799870
809.521590	2533.636032
809.841513	2531.632173
810.161390	2534.041845
810.481223	2529.716535
810.801011	2532.297606
811.120755	2532.022863
811.440453	2532.834489
811.760107	2532.834489
812.079716	2530.520599
812.399281	2529.797193
812.718801	2528.867101
813.038276	2527.659744
813.357707	2534.941691
813.677093	2533.663758
813.996434	2533.600744
814.315731	2533.199972
814.634983	2531.372554
814.954191	2532.045548
815.273354	2532.211906
815.592473	2532.816845
815.911547	2532.274921
816.230577	2533.477236
816.549562	2531.730476
816.868502	2531.775846
817.187399	2534.505631
817.506250	2531.120496
817.825058	2532.408511
818.143821	2532.970600
818.462539	2533.595703
818.781213	2531.004550
819.099843	2532.277441
819.418429	2534.210724
819.736970	2534.001516
820.055466	2532.184180
820.373919	2534.563604
820.692327	2533.252904
821.010691	2533.298275
821.329011	2533.595703
821.647286	2538.425128
821.965517	2537.573173
822.283704	2539.672814
822.601847	2535.012267
822.919945	2537.663914
823.237999	2535.781043
823.556010	2536.706095
823.873976	2536.577545
824.191897	2535.473533
824.509775	2537.837834
824.827609	2533.429345
825.145398	2533.726773
825.463144	2533.724252
825.780845	2535.057638
826.098502	2534.558563
826.416116	2532.015301
826.733685	2535.481094
827.051210	2531.246525
827.368692	2531.990095
827.686129	2535.516382
828.003522	2535.155940
828.320872	2530.185362
828.638177	2528.945238
828.955439	2529.651000
829.272656	2527.405166
829.589830	2528.239477
829.906960	2532.650487
830.224046	2533.956145
830.541088	2534.258615
830.858086	2530.712163
831.175041	2532.968079
831.491952	2531.745599
831.808819	2533.872966
832.125642	2532.647966
832.442421	2533.452030
832.759157	2530.568490
833.075849	2530.906247
833.392497	2532.388347
833.709101	2533.134437
834.025662	2530.447502
834.342179	2533.825075
834.658653	2529.464477
834.975083	2532.532019
835.291469	2538.241126
835.607811	2530.565969
835.924110	2532.705939
836.240366	2530.414735
836.556578	2534.177956
836.872746	2533.295754
837.188871	2529.199817
837.504952	2532.201824
837.820990	2530.530681
838.136984	2532.418593
838.452935	2532.779036
838.768842	2531.097811
839.084706	2529.708973
839.400526	2532.385826
839.716303	2532.214427
840.032037	2532.809283
840.347727	2528.809127
840.663373	2532.504293
840.978977	2529.943387
841.294537	2531.183511
841.610054	2533.487318
841.925527	2533.232740
842.240957	2529.923222
842.556344	2530.762574
842.871687	2533.857843
843.186987	2532.214427
843.502244	2531.155784
843.817458	2531.964890
844.132629	2531.591844
844.447756	2529.933305
844.762840	2527.989940
845.077881	2530.656710
845.392879	2527.813499
845.707833	2530.465146
846.022745	2525.948273
846.337613	2531.601927
846.652438	2531.054961
846.967221	2530.492873
847.281960	2531.987575
847.596656	2531.080167
847.911309	2532.506814
848.225919	2529.056144
848.540485	2534.767771
848.855009	2532.174098
849.169490	2530.109745
849.483928	2534.135106
849.798323	2530.865918
850.112675	2528.927594
850.426984	2530.306350
850.741251	2532.718542
851.055474	2530.334076
851.369654	2532.466484
851.683792	2530.581093
851.997887	2532.184180
852.311938	2530.409694
852.625947	2534.157792
852.939914	2530.810465
853.253837	2534.956814
853.567718	2529.398942
853.881555	2529.582944
854.195350	2530.162677
854.509103	2531.869108
854.822812	2531.009591
855.136479	2531.740558
855.450103	2532.859694
855.763685	2527.992460
856.077224	2530.397091
856.390720	2529.073788
856.704173	2530.011443
857.017584	2531.669982
857.330953	2532.007739
857.644278	2530.681916
857.957561	2535.695343
858.270802	2531.226361
858.584000	2530.951618
858.897155	2531.470857
859.210268	2530.311391
859.523339	2529.734179
859.836367	2531.513706
860.149352	2531.808614
860.462295	2534.228368
860.775195	2528.100845
861.088054	2528.511699
861.400869	2528.496576
861.713642	2527.967255
862.026373	2528.899868
862.339062	2531.286854
862.651708	2532.395908
862.964312	2532.572349
863.276873	2529.691329
863.589392	2532.310209
863.901869	2530.893644
864.214303	2529.227543
864.526696	2532.221988
864.839045	2531.422966
865.151353	2528.098325
865.463619	2531.649817
865.775842	2529.862728
866.088023	2530.828109
866.400162	2532.501773
866.712258	2531.150743
867.024313	2535.649973
867.336325	2529.083870
867.648296	2531.919519
867.960224	2531.334745
868.272110	2530.593696
868.583954	2530.833151
868.895755	2530.553367
869.207515	2527.137985
869.519233	2532.148892
869.830909	2529.593027
870.142542	2529.880373
870.454134	2529.887934
870.765684	2530.286185
871.077191	2529.898017
871.388657	2531.836340
871.700081	2530.548325
872.011463	2529.822399
872.322803	2531.604447
872.634101	2529.759385
872.945357	2531.796011
873.256571	2529.661082
873.567744	2528.030269
873.878874	2530.747451
874.189963	2528.526823
874.501010	2532.653007
874.812015	2532.267359
875.122979	2531.175949
875.433900	2531.054961
875.744780	2531.697708
876.055618	2531.508665
876.366415	2531.344828
876.677169	2532.254756
876.987882	2527.695032
877.298554	2527.637059
877.609183	2526.033972
877.919771	2525.781914
878.230317	2527.541277
878.540822	2532.524458
878.851285	2530.558408
879.161707	2530.669313
879.472087	2529.199817
879.782425	2530.142512
880.092722	2531.523789
880.402977	2533.411701
880.713191	2532.751310
881.023363	2530.180321
881.333494	2536.834644
881.643583	2532.486649
881.953631	2532.063192
882.263637	2535.730632
882.573602	2530.079498
882.883526	2531.838861
883.193408	2533.026052
883.503248	2531.004550
883.813048	2530.399611
884.122806	2533.247863
884.432522	2532.342976
884.742197	2533.293234
885.051831	2532.035466
885.361424	2529.335928
885.670975	2532.063192
885.980485	2529.532533
886.289954	2527.470701
886.599382	2530.591175
886.908768	2528.912471
887.218113	2531.760723
887.527417	2531.664941
887.836680	2528.186545
888.145901	2530.286185
888.455082	2529.436751
888.764221	2530.787780
889.073319	2526.500279
889.382376	2529.381298
889.691392	2530.031607
890.000366	2532.738707
890.309300	2530.465146
890.618193	2532.960517
890.927044	2530.210568
891.235855	2527.364837
891.544625	2533.089067
891.853353	2531.090249
892.162041	2531.634694
892.470687	2531.042358
892.779293	2530.233253
893.087858	2528.889786
893.396381	2524.478776
893.704864	2527.145547
894.013306	2523.964578
894.321707	2531.425486
894.630068	2528.063037
894.938387	2531.150743
895.246665	2529.570342
895.554903	2529.051103
895.863100	2532.101001
896.171256	2527.548839
896.479371	2529.162008
896.787446	2530.676875
897.095480	2530.099663
897.403473	2528.047913
897.711425	2529.073788
898.019336	2532.448840
898.327207	2527.480783
898.635038	2529.537574
898.942827	2529.787111
899.250576	2529.827440
899.558284	2529.126720
899.865952	2530.928932
900.173579	2528.330218
900.481165	2529.315763
900.788711	2528.541946
901.096216	2527.513551
901.403681	2531.934643
901.711105	2532.032945
902.018489	2528.002543
902.325832	2534.671989
902.633135	2529.235105
902.940397	2529.333407
903.247619	2529.933305
903.554800	2528.564631
903.861941	2529.177132
904.169041	2530.215609
904.476101	2529.076308
904.783121	2533.205013
905.090100	2530.379447
905.397039	2532.716022
905.703938	2531.465815
906.010796	2528.302491
906.317614	2530.465146
906.624391	2529.290558
906.931129	2529.797193
907.237826	2529.255269
907.544483	2527.626977
907.851099	2528.012625
908.157675	2527.833664
908.464211	2530.913809
908.770707	2526.480114
909.077163	2529.807276
909.383578	2526.671678
909.689954	2527.059847
909.996289	2525.713859
910.302584	2530.573531
910.608839	2532.166536
910.915054	2530.296268
911.221229	2531.720394
911.527363	2530.986906
911.833458	2530.283665
912.139513	2529.424148
912.445527	2528.743592
912.751502	2529.398942
913.057436	2531.029756
913.363331	2525.958355
913.669186	2534.709798
913.975000	2529.782070
914.280775	2530.513037
914.586510	2531.193593
914.892205	2532.494211
915.197859	2530.069416
915.503475	2531.521268
915.809050	2529.774508
916.114585	2529.078829
916.420081	2528.657893
916.725536	2529.706453
917.030952	2530.397091
917.336328	2529.696370
917.641665	2529.590506
917.946961	2529.870290
918.252218	2528.204189
918.557435	2531.559077
918.862612	2531.100332
919.167750	2530.034128
919.472848	2532.219468
919.777906	2530.339117
920.082925	2530.354241
920.387904	2530.268541
920.692843	2531.251566
920.997743	2529.633356
921.302603	2528.519261
921.607423	2530.593696
921.912204	2529.343490
922.216946	2529.429189
922.521647	2525.343334
922.826310	2529.572862
923.130932	2527.296781
923.435516	2528.610002
923.740059	2531.352389
924.044564	2527.780732
924.349028	2530.155115
924.653454	2526.517923
924.957840	2524.877027
925.262186	2527.349713
925.566493	2527.468180
925.870761	2523.909126
926.174989	2527.926925
926.479178	2525.875176
926.783328	2529.426669
927.087438	2527.054806
927.391509	2530.094622
927.695541	2528.622605
927.999533	2531.057482
928.303486	2528.630166
928.607400	2529.976154
928.911275	2530.999509
929.215110	2528.539426
929.518906	2525.786956
929.822663	2528.768798
930.126381	2528.612522
930.430060	2529.368695
930.733699	2527.866432
931.037299	2530.510517
931.340861	2528.622605
931.644383	2529.933305
931.947866	2528.025228
932.251309	2528.418438
932.554714	2526.444826
932.858080	2529.618233
933.161407	2526.550690
933.464694	2525.570186
933.767943	2529.928263
934.071153	2528.794004
934.374323	2529.219981
934.677455	2526.908612
934.980548	2528.902389
935.283602	2528.937677
935.586617	2526.911133
935.889593	2531.662420
936.192530	2529.272913
936.495428	2528.569673
936.798287	2529.840043
937.101108	2529.335928
937.403890	2528.541946
937.706632	2528.836854
938.009336	2527.710156
938.312002	2527.417769
938.614628	2527.841226
938.917216	2527.737882
939.219765	2529.288037
939.522275	2531.334745
939.824747	2529.028418
940.127179	2527.072450
940.429573	2524.138498
940.731929	2526.570855
941.034246	2524.463653
941.336524	2525.411390
941.638763	2531.291896
941.940964	2528.738551
942.243126	2529.456916
942.545250	2530.576052
942.847335	2531.296937
943.149381	2529.197296
943.451389	2529.290557
943.753359	2529.950949
944.055290	2528.115969
944.357182	2526.338962
944.659036	2529.169570
944.960851	2529.908099
945.262628	2525.655886
945.564367	2528.020187
945.866067	2528.678057
946.167729	2528.799045
946.469352	2528.990609
946.770937	2528.453726
947.072484	2527.919364
947.373992	2527.500948
947.675462	2526.149919
947.976893	2528.519261
948.278286	2529.018335
948.579641	2530.502955
948.880958	2528.312574
949.182236	2527.604292
949.483476	2528.171421
949.784678	2527.889117
950.085841	2526.706966
950.386967	2529.877852
950.688054	2526.875845
950.989103	2529.522451
951.290114	2527.730320
951.591087	2527.732841
951.892021	2528.841895
952.192917	2527.831143
952.493776	2530.734848
952.794596	2527.198479
953.095378	2528.489014
953.396122	2532.335414
953.696828	2530.056813
953.997496	2528.423479
954.298126	2528.799045
954.598718	2527.805938
954.899272	2527.669827
955.199788	2527.006915
955.500266	2530.941535
955.800706	2526.296112
956.101108	2523.387366
956.401472	2526.096987
956.701798	2525.058509
957.002087	2527.848788
957.302337	2526.328880
957.602550	2527.737882
957.902724	2528.491535
958.202861	2528.063037
958.502960	2526.394415
958.803022	2530.160157
959.103045	2527.122861
959.403031	2530.371885
959.702979	2527.163191
960.002889	2529.250228
960.302762	2529.706453
960.602596	2527.735362
960.902393	2527.647141
961.202153	2527.284178
961.501875	2530.066895
961.801559	2528.579755
962.101205	2527.710156
962.400814	2528.302491
962.700385	2527.579086
962.999918	2528.960362
963.299414	2527.591689
963.598873	2529.570342
963.898293	2532.736186
964.197677	2529.446833
964.497022	2528.085722
964.796331	2528.607481
965.095601	2528.690660
965.394835	2528.950280
965.694030	2525.373581
965.993189	2529.076308
966.292309	2526.381812
966.591393	2528.017666
966.890439	2527.831143
967.189447	2527.228726
967.488419	2528.632687
967.787353	2527.838705
968.086249	2528.463808
968.385108	2528.022707
968.683930	2530.167718
968.982714	2529.479601
969.281462	2531.543953
969.580172	2526.802748
969.878844	2527.684950
970.177480	2525.330731
970.476078	2528.874662
970.774639	2526.520443
971.073162	2528.040351
971.371649	2524.025072
971.670098	2522.613549
971.968510	2527.586648
972.266885	2524.168745
972.565223	2527.062367
972.863524	2527.778211
973.161788	2527.264014
973.460014	2528.516740
973.758204	2528.925074
974.056356	2528.778880
974.354471	2524.854342
974.652550	2529.852646
974.950591	2526.132275
975.248595	2526.938859
975.546563	2528.287368
975.844493	2524.410721
976.142386	2528.060516
976.440243	2526.490197
976.738062	2525.519774
977.035845	2528.204189
977.333590	2528.431041
977.631299	2525.020700
977.928971	2524.125895
978.226606	2529.353572
978.524204	2526.560773
978.821765	2527.536236
979.119290	2527.692512
979.416777	2527.695032
979.714228	2526.822913
980.011642	2525.933149
980.309020	2530.046731
980.606360	2529.194776
980.903664	2527.667306
981.200931	2527.321987
981.498162	2524.907274
981.795356	2528.685619
982.092513	2525.126564
982.389633	2527.818541
982.686717	2526.820392
982.983764	2526.679240
983.280775	2527.216123
983.577749	2527.626977
983.874686	2528.879703
984.171587	2527.019518
984.468451	2529.620753
984.765279	2530.281144
985.062070	2529.159487
985.358824	2527.385001
985.655543	2528.972965
985.952224	2526.974147
986.248869	2528.146216
986.545478	2524.604805
986.842050	2525.993643
987.138586	2525.418951
987.435086	2525.925587
987.731549	2522.797551
988.027975	2528.085722
988.324366	2526.943900
988.620719	2528.216792
988.917037	2527.279137
989.213318	2526.787625
989.509563	2527.538757
989.805772	2525.277799
990.101944	2526.096987
990.398080	2526.880886
990.694180	2523.455422
990.990244	2527.853829
991.286271	2526.611184
991.582262	2527.465660
991.878217	2524.713190
992.174136	2526.502799
992.470019	2524.839219
992.765865	2526.585978
993.061676	2525.050947
993.357450	2528.685619
993.653188	2525.063550
993.948890	2525.108920
994.244556	2527.115300
994.540186	2526.223015
994.835780	2527.790814
995.131337	2528.148736
995.426859	2527.750485
995.722345	2525.986081
996.017795	2529.134282
996.313208	2527.105217
996.608586	2525.320649
996.903928	2526.684281
997.199234	2526.235618
997.494504	2528.448685
997.789738	2527.183355
998.084936	2529.784591
998.380099	2527.145547
998.675225	2529.023376
998.970316	2526.863242
999.265371	2525.686133
999.560390	2527.488345
999.855373	2526.056657
1000.150320	2527.130423
1000.445232	2526.472553
1000.740108	2526.462470
1001.034948	2526.399456
1001.329752	2526.646472
1001.624521	2530.109745
1001.919254	2522.633714
1002.213951	2526.041534
1002.508613	2521.759074
1002.803239	2525.764270
1003.097829	2522.653878
1003.392384	2526.293592
1003.686903	2525.625639
1003.981386	2527.682429
1004.275834	2527.009435
1004.570246	2526.540608
1004.864623	2526.896009
1005.158964	2528.950280
1005.453270	2527.546318
1005.747540	2525.852491
1006.041775	2526.321318
1006.335974	2525.461801
1006.630138	2526.890968
1006.924266	2526.860721
1007.218359	2525.600433
1007.512416	2524.987933
1007.806438	2526.331400
1008.100425	2526.371729
1008.394376	2523.702438
1008.688292	2528.032790
1008.982172	2526.906092
1009.276017	2527.659744
1009.569827	2527.720238
1009.863602	2526.507841
1010.157341	2527.112779
1010.451045	2526.714528
1010.744714	2526.459950
1011.038347	2524.561955
1011.331945	2525.547501
1011.625508	2526.863242
1011.919036	2524.032634
1012.212528	2525.522295
1012.505986	2526.306194
1012.799408	2527.964734
1013.092795	2526.318797
1013.386147	2526.974147
1013.679464	2527.400125
1013.972745	2524.662778
1014.265992	2527.135464
1014.559204	2528.688140
1014.852380	2525.582789
1015.145521	2527.299302
1015.438628	2524.781245
1015.731699	2527.725279
1016.024736	2524.710669
1016.317737	2529.041020
1016.610703	2526.129754
1016.903635	2525.393746
1017.196531	2525.151770
1017.489393	2524.594723
1017.782219	2523.256296
1018.075011	2526.722090
1018.367768	2524.216636
1018.660490	2525.083715
1018.953177	2525.083715
1019.245829	2525.083715
