Dividing Wavelength (nm)	Counts (n)	Blue Motor Position (mm): 0.000000	Red Motor Position (mm): 6.500000	
326.493990	2167.696154
326.888308	2167.696154
327.282561	2167.696154
327.676750	2089.558269
328.070874	2087.037692
328.464933	2092.078846
328.858929	2026.543846
329.252859	2059.311346
329.646726	2117.284615
330.040528	2107.202308
330.434265	2139.969808
330.827938	2102.161154
331.221547	2132.408077
331.615091	2167.696154
332.008571	2213.066538
332.401986	2253.395769
332.795338	2260.957500
333.188625	2260.957500
333.581847	2228.190000
333.975006	2210.545962
334.368100	2271.039808
334.761129	2344.136538
335.154095	2364.301154
335.546996	2379.424615
335.939833	2389.506923
336.332606	2404.630385
336.725315	2407.150962
337.117960	2386.986346
337.510540	2444.959615
337.903056	2455.041923
338.295508	2412.192115
338.687896	2467.644808
339.080220	2437.397885
339.472480	2432.356731
339.864676	2412.192115
340.256807	2455.041923
340.648875	2467.644808
341.040879	2457.562500
341.432818	2404.630385
341.824694	2470.165385
342.216506	2482.768269
342.608253	2507.974038
342.999937	2507.974038
343.391557	2462.603654
343.783113	2460.083077
344.174605	2434.877308
344.566033	2442.439038
344.957397	2528.138654
345.348697	2460.083077
345.739934	2570.988462
346.131106	2558.385577
346.522215	2555.865000
346.913260	2543.262115
347.304241	2485.288846
347.695159	2424.795000
348.086012	2497.891731
348.476802	2422.274423
348.867528	2485.288846
349.258191	2452.521346
349.648789	2442.439038
350.039324	2407.150962
350.429796	2450.000769
350.820203	2422.274423
351.210548	2465.124231
351.600828	2419.753846
351.991045	2447.480192
352.381198	2399.589231
352.771288	2555.865000
353.161314	2397.068654
353.551276	2470.165385
353.941175	2442.439038
354.331010	2465.124231
354.720782	2407.150962
355.110490	2402.109808
355.500135	2515.535769
355.889717	2364.301154
356.279235	2457.562500
356.668689	2492.850577
357.058080	2399.589231
357.447408	2487.809423
357.836672	2432.356731
358.225873	2417.233269
358.615010	2576.029615
359.004084	2424.795000
359.393095	2457.562500
359.782043	2404.630385
360.170927	2467.644808
360.559748	2351.698269
360.948505	2331.533654
361.337199	2452.521346
361.725830	2407.150962
362.114398	2538.220962
362.502903	2450.000769
362.891344	2485.288846
363.279722	2409.671538
363.668037	2386.986346
364.056289	2397.068654
364.444478	2444.959615
364.832603	2432.356731
365.220665	2379.424615
365.608665	2452.521346
365.996601	2477.727115
366.384474	2447.480192
366.772284	2450.000769
367.160031	2414.712692
367.547715	2581.070769
367.935336	2467.644808
368.322893	2457.562500
368.710388	2444.959615
369.097820	2432.356731
369.485189	2460.083077
369.872495	2462.603654
370.259738	2442.439038
370.646918	2502.932885
371.034035	2465.124231
371.421090	2424.795000
371.808081	2510.494615
372.195010	2429.836154
372.581875	2505.453462
372.968678	2472.685962
373.355418	2462.603654
373.742096	2510.494615
374.128710	2470.165385
374.515262	2482.768269
374.901751	2439.918462
375.288177	2505.453462
375.674540	2394.548077
376.060841	2409.671538
376.447079	2490.330000
376.833254	2505.453462
377.219367	2482.768269
377.605417	2402.109808
377.991404	2429.836154
378.377329	2480.247692
378.763191	2407.150962
379.148991	2394.548077
379.534727	2409.671538
379.920402	2409.671538
380.306013	2505.453462
380.691563	2402.109808
381.077049	2467.644808
381.462474	2424.795000
381.847835	2515.535769
382.233134	2482.768269
382.618371	2414.712692
383.003545	2467.644808
383.388657	2437.397885
383.773706	2432.356731
384.158693	2419.753846
384.543618	2397.068654
384.928480	2492.850577
385.313280	2397.068654
385.698017	2485.288846
386.082692	2394.548077
386.467305	2402.109808
386.851856	2495.371154
387.236344	2422.274423
387.620770	2381.945192
388.005133	2497.891731
388.389435	2439.918462
388.773674	2487.809423
389.157851	2424.795000
389.541965	2379.424615
389.926018	2386.986346
390.310008	2419.753846
390.693936	2392.027500
391.077802	2447.480192
391.461606	2434.877308
391.845348	2442.439038
392.229027	2490.330000
392.612645	2581.070769
392.996200	2386.986346
393.379694	2417.233269
393.763125	2470.165385
394.146494	2444.959615
394.529801	2540.741538
394.913047	2412.192115
395.296230	2528.138654
395.679351	2450.000769
396.062410	2477.727115
396.445408	2444.959615
396.828343	2485.288846
397.211217	2422.274423
397.594028	2434.877308
397.976778	2437.397885
398.359466	2457.562500
398.742092	2472.685962
399.124656	2505.453462
399.507158	2497.891731
399.889598	2341.615962
400.271977	2518.056346
400.654294	2429.836154
401.036549	2492.850577
401.418742	2412.192115
401.800874	2581.070769
402.182944	2477.727115
402.564952	2525.618077
402.946898	2460.083077
403.328783	2485.288846
403.710606	2404.630385
404.092367	2457.562500
404.474067	2492.850577
404.855705	2505.453462
405.237282	2452.521346
405.618797	2442.439038
406.000250	2427.315577
406.381642	2475.206538
406.762972	2452.521346
407.144240	2510.494615
407.525447	2434.877308
407.906593	2507.974038
408.287677	2477.727115
408.668700	2495.371154
409.049661	2419.753846
409.430560	2487.809423
409.811399	2513.015192
410.192176	2437.397885
410.572891	2462.603654
410.953545	2540.741538
411.334138	2538.220962
411.714669	2444.959615
412.095139	2507.974038
412.475547	2490.330000
412.855894	2550.823846
413.236180	2457.562500
413.616405	2533.179808
413.996568	2477.727115
414.376670	2515.535769
414.756711	2460.083077
415.136691	2477.727115
415.516609	2480.247692
415.896466	2447.480192
416.276262	2523.097500
416.655997	2490.330000
417.035670	2427.315577
417.415283	2540.741538
417.794834	2497.891731
418.174324	2490.330000
418.553753	2480.247692
418.933121	2513.015192
419.312428	2505.453462
419.691674	2447.480192
420.070859	2439.918462
420.449983	2490.330000
420.829045	2460.083077
421.208047	2513.015192
421.586988	2457.562500
421.965867	2455.041923
422.344686	2581.070769
422.723444	2394.548077
423.102141	2535.700385
423.480777	2477.727115
423.859352	2412.192115
424.237866	2460.083077
424.616319	2553.344423
424.994712	2407.150962
425.373044	2437.397885
425.751314	2485.288846
426.129524	2460.083077
426.507673	2540.741538
426.885762	2477.727115
427.263789	2563.426731
427.641756	2482.768269
428.019662	2369.342308
428.397508	2485.288846
428.775292	2402.109808
429.153016	2520.576923
429.530679	2414.712692
429.908282	2460.083077
430.285824	2583.591346
430.663305	2515.535769
431.040726	2565.947308
431.418086	2467.644808
431.795385	2409.671538
432.172624	2520.576923
432.549802	2442.439038
432.926920	2502.932885
433.303977	2502.932885
433.680974	2490.330000
434.057910	2480.247692
434.434786	2500.412308
434.811601	2409.671538
435.188355	2465.124231
435.565050	2475.206538
435.941683	2525.618077
436.318257	2470.165385
436.694770	2460.083077
437.071222	2518.056346
437.447614	2457.562500
437.823946	2487.809423
438.200218	2374.383462
438.576429	2485.288846
438.952580	2457.562500
439.328670	2553.344423
439.704700	2442.439038
440.080670	2492.850577
440.456580	2502.932885
440.832429	2533.179808
441.208218	2465.124231
441.583947	2465.124231
441.959616	2545.782692
442.335224	2444.959615
442.710773	2565.947308
443.086261	2417.233269
443.461689	2523.097500
443.837057	2533.179808
444.212365	2371.862885
444.587612	2432.356731
444.962800	2502.932885
445.337927	2424.795000
445.712995	2470.165385
446.088002	2530.659231
446.462949	2576.029615
446.837837	2434.877308
447.212664	2487.809423
447.587431	2470.165385
447.962139	2520.576923
448.336786	2513.015192
448.711374	2447.480192
449.085901	2518.056346
449.460369	2530.659231
449.834776	2530.659231
450.209124	2540.741538
450.583412	2507.974038
450.957640	2457.562500
451.331808	2485.288846
451.705917	2480.247692
452.079965	2470.165385
452.453954	2543.262115
452.827883	2407.150962
453.201752	2497.891731
453.575562	2570.988462
453.949311	2535.700385
454.323001	2444.959615
454.696632	2538.220962
455.070202	2472.685962
455.443713	2490.330000
455.817164	2452.521346
456.190556	2442.439038
456.563888	2462.603654
456.937160	2480.247692
457.310373	2500.412308
457.683526	2495.371154
458.056619	2439.918462
458.429653	2520.576923
458.802628	2439.918462
459.175542	2480.247692
459.548398	2513.015192
459.921194	2540.741538
460.293930	2439.918462
460.666607	2530.659231
461.039224	2439.918462
461.411782	2570.988462
461.784280	2545.782692
462.156719	2505.453462
462.529099	2465.124231
462.901419	2460.083077
463.273680	2480.247692
463.645882	2523.097500
464.018024	2462.603654
464.390106	2487.809423
464.762130	2434.877308
465.134094	2475.206538
465.505999	2475.206538
465.877845	2480.247692
466.249631	2457.562500
466.621358	2528.138654
466.993026	2381.945192
467.364634	2528.138654
467.736184	2455.041923
468.107674	2417.233269
468.479105	2497.891731
468.850477	2424.795000
469.221790	2467.644808
469.593043	2518.056346
469.964238	2502.932885
470.335373	2563.426731
470.706449	2502.932885
471.077467	2533.179808
471.448425	2452.521346
471.819324	2480.247692
472.190164	2465.124231
472.560945	2510.494615
472.931667	2419.753846
473.302330	2470.165385
473.672934	2535.700385
474.043479	2492.850577
474.413965	2525.618077
474.784393	2434.877308
475.154761	2565.947308
475.525070	2487.809423
475.895321	2535.700385
476.265513	2442.439038
476.635645	2497.891731
477.005719	2417.233269
477.375734	2518.056346
477.745691	2477.727115
478.115588	2510.494615
478.485427	2553.344423
478.855207	2442.439038
479.224928	2407.150962
479.594591	2477.727115
479.964194	2414.712692
480.333739	2490.330000
480.703226	2485.288846
481.072653	2518.056346
481.442022	2432.356731
481.811333	2513.015192
482.180584	2475.206538
482.549777	2523.097500
482.918912	2578.550192
483.287988	2510.494615
483.657005	2475.206538
484.025964	2356.739423
484.394864	2530.659231
484.763706	2568.467885
485.132489	2535.700385
485.501213	2502.932885
485.869879	2447.480192
486.238487	2510.494615
486.607036	2523.097500
486.975527	2462.603654
487.343959	2490.330000
487.712333	2543.262115
488.080648	2530.659231
488.448905	2500.412308
488.817104	2465.124231
489.185244	2465.124231
489.553326	2455.041923
489.921350	2460.083077
490.289315	2525.618077
490.657222	2497.891731
491.025070	2563.426731
491.392861	2533.179808
491.760593	2500.412308
492.128267	2497.891731
492.495883	2407.150962
492.863440	2465.124231
493.230939	2495.371154
493.598380	2444.959615
493.965763	2528.138654
494.333088	2543.262115
494.700354	2507.974038
495.067563	2482.768269
495.434713	2507.974038
495.801805	2437.397885
496.168839	2485.288846
496.535815	2518.056346
496.902733	2591.153077
497.269593	2462.603654
497.636395	2543.262115
498.003139	2482.768269
498.369825	2497.891731
498.736453	2414.712692
499.103023	2384.465769
499.469535	2439.918462
499.835989	2540.741538
500.202385	2452.521346
500.568723	2482.768269
500.935003	2492.850577
501.301226	2515.535769
501.667390	2636.523462
502.033497	2555.865000
502.399546	2450.000769
502.765537	2505.453462
503.131470	2563.426731
503.497345	2543.262115
503.863163	2518.056346
504.228923	2439.918462
504.594625	2457.562500
504.960269	2530.659231
505.325856	2439.918462
505.691385	2513.015192
506.056856	2505.453462
506.422270	2502.932885
506.787625	2510.494615
507.152924	2470.165385
507.518164	2520.576923
507.883347	2452.521346
508.248472	2520.576923
508.613540	2545.782692
508.978550	2515.535769
509.343503	2540.741538
509.708398	2500.412308
510.073236	2510.494615
510.438016	2462.603654
510.802738	2548.303269
511.167403	2550.823846
511.532010	2525.618077
511.896561	2434.877308
512.261053	2576.029615
512.625488	2553.344423
512.989866	2419.753846
513.354186	2548.303269
513.718449	2482.768269
514.082655	2543.262115
514.446803	2394.548077
514.810894	2576.029615
515.174927	2462.603654
515.538904	2505.453462
515.902822	2434.877308
516.266684	2427.315577
516.630488	2573.509038
516.994235	2480.247692
517.357925	2518.056346
517.721558	2553.344423
518.085133	2513.015192
518.448651	2505.453462
518.812112	2480.247692
519.175516	2548.303269
519.538863	2429.836154
519.902152	2414.712692
520.265385	2502.932885
520.628560	2530.659231
520.991678	2543.262115
521.354739	2475.206538
521.717743	2548.303269
522.080690	2465.124231
522.443580	2535.700385
522.806413	2429.836154
523.169189	2568.467885
523.531908	2538.220962
523.894569	2518.056346
524.257174	2502.932885
524.619722	2530.659231
524.982213	2563.426731
525.344647	2487.809423
525.707025	2467.644808
526.069345	2555.865000
526.431608	2485.288846
526.793815	2424.795000
527.155964	2502.932885
527.518057	2583.591346
527.880093	2492.850577
528.242072	2472.685962
528.603995	2497.891731
528.965860	2439.918462
529.327669	2439.918462
529.689421	2560.906154
530.051117	2520.576923
530.412755	2568.467885
530.774337	2490.330000
531.135862	2545.782692
531.497331	2465.124231
531.858743	2530.659231
532.220098	2452.521346
532.581396	2490.330000
532.942638	2472.685962
533.303824	2452.521346
533.664953	2470.165385
534.026025	2530.659231
534.387040	2495.371154
534.747999	2545.782692
535.108902	2560.906154
535.469748	2570.988462
535.830537	2460.083077
536.191270	2528.138654
536.551947	2543.262115
536.912567	2414.712692
537.273131	2475.206538
537.633638	2470.165385
537.994089	2548.303269
538.354483	2460.083077
538.714821	2538.220962
539.075103	2502.932885
539.435328	2545.782692
539.795497	2608.797115
540.155609	2560.906154
540.515665	2432.356731
540.875665	2485.288846
541.235609	2487.809423
541.595496	2447.480192
541.955328	2525.618077
542.315102	2530.659231
542.674821	2452.521346
543.034483	2467.644808
543.394090	2563.426731
543.753640	2472.685962
544.113134	2500.412308
544.472571	2394.548077
544.831953	2462.603654
545.191278	2475.206538
545.550548	2505.453462
545.909761	2555.865000
546.268918	2523.097500
546.628019	2530.659231
546.987064	2523.097500
547.346053	2513.015192
547.704986	2538.220962
548.063863	2475.206538
548.422684	2510.494615
548.781449	2515.535769
549.140158	2560.906154
549.498811	2523.097500
549.857408	2477.727115
550.215949	2540.741538
550.574434	2513.015192
550.932864	2465.124231
551.291237	2505.453462
551.649555	2497.891731
552.007817	2490.330000
552.366022	2581.070769
552.724173	2548.303269
553.082267	2442.439038
553.440305	2538.220962
553.798288	2470.165385
554.156215	2470.165385
554.514086	2603.755962
554.871902	2550.823846
555.229661	2548.303269
555.587365	2550.823846
555.945014	2480.247692
556.302606	2545.782692
556.660143	2434.877308
557.017625	2573.509038
557.375050	2485.288846
557.732421	2535.700385
558.089735	2507.974038
558.446994	2477.727115
558.804197	2515.535769
559.161345	2432.356731
559.518437	2442.439038
559.875474	2533.179808
560.232455	2502.932885
560.589381	2467.644808
560.946251	2505.453462
561.303065	2510.494615
561.659825	2540.741538
562.016528	2545.782692
562.373177	2462.603654
562.729770	2518.056346
563.086307	2480.247692
563.442789	2616.358846
563.799216	2397.068654
564.155587	2535.700385
564.511904	2492.850577
564.868164	2505.453462
565.224370	2507.974038
565.580520	2437.397885
565.936615	2462.603654
566.292654	2505.453462
566.648638	2487.809423
567.004567	2472.685962
567.360441	2563.426731
567.716260	2450.000769
568.072023	2487.809423
568.427732	2513.015192
568.783385	2611.317692
569.138982	2576.029615
569.494525	2439.918462
569.850013	2548.303269
570.205445	2444.959615
570.560823	2470.165385
570.916145	2482.768269
571.271412	2439.918462
571.626625	2447.480192
571.981782	2492.850577
572.336884	2450.000769
572.691931	2525.618077
573.046923	2545.782692
573.401860	2462.603654
573.756743	2500.412308
574.111570	2424.795000
574.466342	2457.562500
574.821059	2568.467885
575.175722	2470.165385
575.530330	2540.741538
575.884882	2563.426731
576.239380	2457.562500
576.593823	2507.974038
576.948211	2505.453462
577.302544	2596.194231
577.656823	2480.247692
578.011047	2528.138654
578.365216	2487.809423
578.719330	2462.603654
579.073389	2543.262115
579.427394	2500.412308
579.781344	2548.303269
580.135239	2477.727115
580.489080	2475.206538
580.842866	2460.083077
581.196597	2394.548077
581.550273	2533.179808
581.903895	2507.974038
582.257463	2482.768269
582.610975	2470.165385
582.964434	2472.685962
583.317837	2429.836154
583.671186	2523.097500
584.024481	2470.165385
584.377721	2429.836154
584.730906	2480.247692
585.084037	2555.865000
585.437113	2470.165385
585.790135	2505.453462
586.143103	2444.959615
586.496016	2525.618077
586.848874	2452.521346
587.201679	2450.000769
587.554428	2553.344423
587.907124	2492.850577
588.259765	2492.850577
588.612352	2490.330000
588.964884	2576.029615
589.317362	2520.576923
589.669786	2530.659231
590.022155	2470.165385
590.374470	2515.535769
590.726731	2543.262115
591.078937	2525.618077
591.431090	2555.865000
591.783188	2485.288846
592.135232	2507.974038
592.487222	2455.041923
592.839157	2482.768269
593.191038	2507.974038
593.542866	2492.850577
593.894639	2568.467885
594.246358	2583.591346
594.598022	2460.083077
594.949633	2583.591346
595.301190	2470.165385
595.652692	2518.056346
596.004141	2465.124231
596.355535	2465.124231
596.706876	2429.836154
597.058162	2576.029615
597.409395	2467.644808
597.760573	2573.509038
598.111698	2533.179808
598.462768	2465.124231
598.813785	2462.603654
599.164748	2538.220962
599.515657	2470.165385
599.866511	2495.371154
600.217312	2497.891731
600.568060	2510.494615
600.918753	2518.056346
601.269392	2419.753846
601.619978	2523.097500
601.970510	2603.755962
602.320988	2505.453462
602.671412	2553.344423
603.021783	2525.618077
603.372100	2520.576923
603.722363	2510.494615
604.072572	2432.356731
604.422728	2510.494615
604.772830	2477.727115
605.122878	2455.041923
605.472872	2475.206538
605.822813	2419.753846
606.172701	2515.535769
606.522534	2487.809423
606.872314	2533.179808
607.222041	2492.850577
607.571714	2581.070769
607.921333	2437.397885
608.270899	2497.891731
608.620411	2455.041923
608.969870	2530.659231
609.319276	2475.206538
609.668627	2593.673654
610.017926	2502.932885
610.367171	2548.303269
610.716362	2470.165385
611.065500	2452.521346
611.414585	2515.535769
611.763616	2470.165385
612.112594	2497.891731
612.461518	2530.659231
612.810389	2480.247692
613.159207	2553.344423
613.507971	2550.823846
613.856682	2477.727115
614.205340	2535.700385
614.553945	2515.535769
614.902496	2540.741538
615.250994	2490.330000
615.599439	2563.426731
615.947830	2492.850577
616.296169	2492.850577
616.644454	2490.330000
616.992686	2545.782692
617.340864	2500.412308
617.688990	2505.453462
618.037063	2545.782692
618.385082	2515.535769
618.733048	2618.879423
619.080961	2485.288846
619.428821	2548.303269
619.776628	2593.673654
620.124382	2432.356731
620.472083	2518.056346
620.819731	2482.768269
621.167326	2497.891731
621.514868	2500.412308
621.862357	2490.330000
622.209793	2492.850577
622.557176	2490.330000
622.904506	2533.179808
623.251783	2429.836154
623.599007	2485.288846
623.946179	2414.712692
624.293297	2525.618077
624.640363	2581.070769
624.987376	2505.453462
625.334336	2492.850577
625.681243	2558.385577
626.028097	2472.685962
626.374899	2424.795000
626.721647	2497.891731
627.068343	2535.700385
627.414987	2482.768269
627.761577	2520.576923
628.108115	2538.220962
628.454600	2518.056346
628.801032	2492.850577
629.147412	2510.494615
629.493739	2444.959615
629.840014	2452.521346
630.186236	2578.550192
630.532405	2535.700385
630.878521	2515.535769
631.224585	2523.097500
631.570597	2520.576923
631.916556	2502.932885
632.262462	2543.262115
632.608316	2477.727115
632.954117	2470.165385
633.299866	2450.000769
633.645562	2550.823846
633.991206	2570.988462
634.336797	2518.056346
634.682336	2480.247692
635.027823	2510.494615
635.373257	2429.836154
635.718639	2515.535769
636.063968	2502.932885
636.409245	2515.535769
636.754470	2550.823846
637.099642	2545.782692
637.444762	2528.138654
637.789829	2450.000769
638.134845	2558.385577
638.479808	2500.412308
638.824719	2412.192115
639.169577	2553.344423
639.514383	2601.235385
639.859137	2497.891731
640.203839	2570.988462
640.548489	2384.465769
640.893086	2525.618077
641.237632	2510.494615
641.582125	2497.891731
641.926566	2500.412308
642.270955	2548.303269
642.615292	2457.562500
642.959576	2500.412308
643.303809	2583.591346
643.647990	2495.371154
643.992118	2553.344423
644.336195	2412.192115
644.680219	2550.823846
645.024192	2515.535769
645.368112	2457.562500
645.711981	2505.453462
646.055797	2470.165385
646.399562	2565.947308
646.743274	2553.344423
647.086935	2417.233269
647.430544	2452.521346
647.774101	2424.795000
648.117606	2452.521346
648.461059	2505.453462
648.804460	2497.891731
649.147810	2475.206538
649.491108	2553.344423
649.834354	2500.412308
650.177548	2487.809423
650.520690	2538.220962
650.863781	2523.097500
651.206820	2465.124231
651.549807	2505.453462
651.892742	2558.385577
652.235626	2462.603654
652.578458	2470.165385
652.921238	2513.015192
653.263967	2513.015192
653.606644	2422.274423
653.949269	2555.865000
654.291843	2429.836154
654.634365	2540.741538
654.976836	2460.083077
655.319255	2480.247692
655.661622	2472.685962
656.003938	2429.836154
656.346203	2404.630385
656.688416	2520.576923
657.030577	2490.330000
657.372687	2429.836154
657.714746	2576.029615
658.056753	2422.274423
658.398708	2465.124231
658.740612	2505.453462
659.082465	2525.618077
659.424266	2513.015192
659.766016	2510.494615
660.107715	2523.097500
660.449362	2523.097500
660.790958	2477.727115
661.132503	2565.947308
661.473996	2439.918462
661.815438	2485.288846
662.156829	2475.206538
662.498168	2472.685962
662.839456	2447.480192
663.180693	2515.535769
663.521879	2487.809423
663.863013	2553.344423
664.204097	2555.865000
664.545129	2578.550192
664.886110	2462.603654
665.227040	2523.097500
665.567918	2414.712692
665.908746	2523.097500
666.249522	2467.644808
666.590248	2460.083077
666.930922	2510.494615
667.271545	2482.768269
667.612118	2490.330000
667.952639	2487.809423
668.293109	2379.424615
668.633528	2570.988462
668.973896	2616.358846
669.314213	2414.712692
669.654480	2518.056346
669.994695	2485.288846
670.334859	2495.371154
670.674973	2437.397885
671.015035	2553.344423
671.355047	2502.932885
671.695008	2558.385577
672.034918	2457.562500
672.374777	2538.220962
672.714585	2520.576923
673.054342	2565.947308
673.394049	2467.644808
673.733705	2573.509038
674.073310	2543.262115
674.412864	2455.041923
674.752368	2492.850577
675.091820	2477.727115
675.431223	2470.165385
675.770574	2455.041923
676.109875	2407.150962
676.449125	2515.535769
676.788324	2472.685962
677.127473	2500.412308
677.466571	2528.138654
677.805619	2497.891731
678.144616	2427.315577
678.483562	2470.165385
678.822458	2510.494615
679.161303	2528.138654
679.500098	2502.932885
679.838842	2412.192115
680.177535	2439.918462
680.516179	2475.206538
680.854771	2507.974038
681.193314	2455.041923
681.531805	2500.412308
681.870247	2475.206538
682.208638	2558.385577
682.546978	2462.603654
682.885268	2492.850577
683.223508	2550.823846
683.561697	2417.233269
683.899836	2553.344423
684.237925	2460.083077
684.575963	2439.918462
684.913951	2555.865000
685.251889	2533.179808
685.589776	2570.988462
685.927614	2450.000769
686.265401	2500.412308
686.603137	2487.809423
686.940824	2455.041923
687.278460	2465.124231
687.616046	2500.412308
687.953582	2570.988462
688.291068	2533.179808
688.628504	2533.179808
688.965889	2543.262115
689.303224	2424.795000
689.640510	2505.453462
689.977745	2404.630385
690.314930	2490.330000
690.652065	2520.576923
690.989150	2523.097500
691.326185	2467.644808
691.663170	2568.467885
692.000105	2530.659231
692.336990	2520.576923
692.673825	2455.041923
693.010610	2588.632500
693.347345	2422.274423
693.684030	2455.041923
694.020665	2480.247692
694.357251	2593.673654
694.693786	2513.015192
695.030272	2510.494615
695.366707	2502.932885
695.703093	2560.906154
696.039429	2505.453462
696.375716	2495.371154
696.711952	2379.424615
697.048139	2540.741538
697.384276	2490.330000
697.720363	2523.097500
698.056400	2563.426731
698.392388	2439.918462
698.728326	2460.083077
699.064214	2460.083077
699.400053	2495.371154
699.735842	2409.671538
700.071581	2535.700385
700.407270	2399.589231
700.742910	2586.111923
701.078501	2487.809423
701.414042	2560.906154
701.749533	2588.632500
702.084974	2460.083077
702.420366	2487.809423
702.755709	2487.809423
703.091002	2515.535769
703.426246	2462.603654
703.761440	2570.988462
704.096584	2417.233269
704.431679	2482.768269
704.766725	2502.932885
705.101721	2535.700385
705.436668	2444.959615
705.771565	2477.727115
706.106413	2606.276538
706.441212	2596.194231
706.775961	2543.262115
707.110661	2568.467885
707.445311	2472.685962
707.779913	2573.509038
708.114465	2543.262115
708.448967	2434.877308
708.783421	2507.974038
709.117825	2505.453462
709.452180	2409.671538
709.786485	2470.165385
710.120742	2518.056346
710.454949	2583.591346
710.789107	2452.521346
711.123216	2520.576923
711.457275	2505.453462
711.791286	2518.056346
712.125247	2495.371154
712.459159	2515.535769
712.793023	2490.330000
713.126837	2513.015192
713.460602	2437.397885
713.794318	2447.480192
714.127985	2523.097500
714.461602	2565.947308
714.795171	2550.823846
715.128691	2538.220962
715.462162	2422.274423
715.795584	2530.659231
716.128957	2553.344423
716.462281	2510.494615
716.795556	2472.685962
717.128782	2510.494615
717.461960	2455.041923
717.795088	2505.453462
718.128167	2525.618077
718.461198	2389.506923
718.794180	2510.494615
719.127113	2502.932885
719.459997	2502.932885
719.792833	2447.480192
720.125619	2591.153077
720.458357	2520.576923
720.791046	2424.795000
721.123686	2480.247692
721.456278	2447.480192
721.788821	2455.041923
722.121315	2581.070769
722.453761	2573.509038
722.786158	2480.247692
723.118506	2538.220962
723.450805	2513.015192
723.783056	2515.535769
724.115259	2545.782692
724.447412	2404.630385
724.779518	2523.097500
725.111574	2540.741538
725.443582	2533.179808
725.775542	2472.685962
726.107453	2523.097500
726.439315	2480.247692
726.771129	2525.618077
727.102895	2460.083077
727.434612	2495.371154
727.766281	2475.206538
728.097901	2434.877308
728.429473	2507.974038
728.760996	2480.247692
729.092471	2507.974038
729.423897	2467.644808
729.755276	2543.262115
730.086606	2462.603654
730.417887	2480.247692
730.749120	2336.574808
731.080305	2502.932885
731.411442	2565.947308
731.742530	2460.083077
732.073570	2460.083077
732.404562	2613.838269
732.735506	2490.330000
733.066401	2397.068654
733.397249	2545.782692
733.728048	2505.453462
734.058798	2560.906154
734.389501	2465.124231
734.720156	2513.015192
735.050762	2467.644808
735.381320	2563.426731
735.711831	2455.041923
736.042293	2583.591346
736.372707	2626.441154
736.703073	2457.562500
737.033391	2545.782692
737.363661	2533.179808
737.693883	2540.741538
738.024056	2402.109808
738.354182	2497.891731
738.684260	2492.850577
739.014290	2470.165385
739.344272	2444.959615
739.674207	2399.589231
740.004093	2497.891731
740.333931	2520.576923
740.663722	2470.165385
740.993464	2482.768269
741.323159	2530.659231
741.652806	2477.727115
741.982405	2450.000769
742.311956	2510.494615
742.641460	2530.659231
742.970915	2520.576923
743.300323	2442.439038
743.629683	2470.165385
743.958996	2475.206538
744.288260	2399.589231
744.617477	2480.247692
744.946647	2500.412308
745.275768	2500.412308
745.604842	2472.685962
745.933869	2455.041923
746.262847	2515.535769
746.591778	2485.288846
746.920662	2495.371154
747.249498	2540.741538
747.578286	2432.356731
747.907027	2518.056346
748.235720	2422.274423
748.564365	2588.632500
748.892963	2429.836154
749.221514	2515.535769
749.550017	2528.138654
749.878473	2510.494615
750.206881	2487.809423
750.535242	2475.206538
750.863555	2518.056346
751.191821	2563.426731
751.520039	2495.371154
751.848210	2548.303269
752.176334	2523.097500
752.504411	2477.727115
752.832440	2555.865000
753.160421	2543.262115
753.488356	2482.768269
753.816243	2570.988462
754.144082	2376.904038
754.471875	2502.932885
754.799620	2460.083077
755.127318	2576.029615
755.454969	2475.206538
755.782572	2452.521346
756.110129	2470.165385
756.437638	2540.741538
756.765100	2447.480192
757.092515	2477.727115
757.419882	2475.206538
757.747203	2535.700385
758.074477	2520.576923
758.401703	2533.179808
758.728882	2467.644808
759.056014	2487.809423
759.383099	2528.138654
759.710138	2444.959615
760.037129	2475.206538
760.364073	2487.809423
760.690970	2462.603654
761.017820	2422.274423
761.344623	2412.192115
761.671379	2528.138654
761.998088	2538.220962
762.324751	2414.712692
762.651366	2419.753846
762.977935	2455.041923
763.304456	2472.685962
763.630931	2533.179808
763.957359	2502.932885
764.283740	2429.836154
764.610074	2462.603654
764.936362	2475.206538
765.262602	2480.247692
765.588796	2520.576923
765.914943	2444.959615
766.241044	2419.753846
766.567097	2492.850577
766.893104	2444.959615
767.219064	2495.371154
767.544978	2538.220962
767.870845	2419.753846
768.196665	2641.564615
768.522438	2553.344423
768.848165	2452.521346
769.173846	2523.097500
769.499479	2439.918462
769.825066	2550.823846
770.150607	2505.453462
770.476101	2490.330000
770.801548	2475.206538
771.126949	2540.741538
771.452303	2515.535769
771.777611	2487.809423
772.102872	2460.083077
772.428087	2487.809423
772.753256	2455.041923
773.078378	2548.303269
773.403453	2507.974038
773.728482	2444.959615
774.053465	2437.397885
774.378401	2533.179808
774.703291	2513.015192
775.028135	2412.192115
775.352932	2523.097500
775.677683	2452.521346
776.002388	2495.371154
776.327046	2455.041923
776.651658	2495.371154
776.976224	2465.124231
777.300743	2560.906154
777.625216	2417.233269
777.949643	2543.262115
778.274024	2462.603654
778.598359	2432.356731
778.922647	2444.959615
779.246889	2497.891731
779.571086	2515.535769
779.895236	2525.618077
780.219339	2540.741538
780.543397	2497.891731
780.867409	2507.974038
781.191374	2477.727115
781.515294	2563.426731
781.839167	2450.000769
782.162995	2472.685962
782.486776	2518.056346
782.810511	2497.891731
783.134201	2540.741538
783.457844	2419.753846
783.781441	2500.412308
784.104993	2507.974038
784.428498	2533.179808
784.751958	2545.782692
785.075372	2510.494615
785.398739	2485.288846
785.722061	2533.179808
786.045337	2540.741538
786.368568	2432.356731
786.691752	2520.576923
787.014891	2467.644808
787.337983	2510.494615
787.661030	2565.947308
787.984031	2485.288846
788.306987	2409.671538
788.629897	2492.850577
788.952760	2470.165385
789.275579	2543.262115
789.598351	2412.192115
789.921078	2520.576923
790.243759	2495.371154
790.566395	2480.247692
790.888984	2419.753846
791.211529	2591.153077
791.534027	2525.618077
791.856480	2502.932885
792.178888	2530.659231
792.501249	2470.165385
792.823566	2530.659231
793.145836	2447.480192
793.468062	2601.235385
793.790241	2475.206538
794.112375	2480.247692
794.434464	2525.618077
794.756507	2422.274423
795.078505	2565.947308
795.400457	2507.974038
795.722364	2480.247692
796.044226	2533.179808
796.366042	2515.535769
796.687812	2507.974038
797.009538	2427.315577
797.331218	2510.494615
797.652852	2535.700385
797.974442	2487.809423
798.295986	2482.768269
798.617484	2492.850577
798.938938	2455.041923
799.260346	2507.974038
799.581709	2452.521346
799.903026	2495.371154
800.224299	2460.083077
800.545526	2457.562500
800.866708	2543.262115
801.187845	2450.000769
801.508936	2402.109808
801.829983	2429.836154
802.150984	2523.097500
802.471940	2455.041923
802.792851	2505.453462
803.113717	2540.741538
803.434538	2515.535769
803.755314	2510.494615
804.076045	2502.932885
804.396731	2523.097500
804.717372	2555.865000
805.037967	2477.727115
805.358518	2424.795000
805.679024	2550.823846
805.999485	2545.782692
806.319901	2492.850577
806.640272	2417.233269
806.960598	2457.562500
807.280879	2530.659231
807.601115	2523.097500
807.921306	2480.247692
808.241453	2558.385577
808.561554	2472.685962
808.881611	2525.618077
809.201623	2505.453462
809.521590	2510.494615
809.841513	2492.850577
810.161390	2505.453462
810.481223	2538.220962
810.801011	2452.521346
811.120755	2555.865000
811.440453	2520.576923
811.760107	2513.015192
812.079716	2533.179808
812.399281	2480.247692
812.718801	2502.932885
813.038276	2505.453462
813.357707	2460.083077
813.677093	2460.083077
813.996434	2505.453462
814.315731	2424.795000
814.634983	2462.603654
814.954191	2510.494615
815.273354	2429.836154
815.592473	2507.974038
815.911547	2583.591346
816.230577	2495.371154
816.549562	2495.371154
816.868502	2510.494615
817.187399	2538.220962
817.506250	2530.659231
817.825058	2447.480192
818.143821	2518.056346
818.462539	2480.247692
818.781213	2417.233269
819.099843	2530.659231
819.418429	2467.644808
819.736970	2437.397885
820.055466	2570.988462
820.373919	2407.150962
820.692327	2505.453462
821.010691	2447.480192
821.329011	2502.932885
821.647286	2465.124231
821.965517	2523.097500
822.283704	2422.274423
822.601847	2492.850577
822.919945	2444.959615
823.237999	2533.179808
823.556010	2525.618077
823.873976	2455.041923
824.191897	2485.288846
824.509775	2392.027500
824.827609	2581.070769
825.145398	2507.974038
825.463144	2507.974038
825.780845	2467.644808
826.098502	2409.671538
826.416116	2550.823846
826.733685	2528.138654
827.051210	2518.056346
827.368692	2477.727115
827.686129	2455.041923
828.003522	2409.671538
828.320872	2513.015192
828.638177	2528.138654
828.955439	2442.439038
829.272656	2548.303269
829.589830	2500.412308
829.906960	2560.906154
830.224046	2538.220962
830.541088	2490.330000
830.858086	2497.891731
831.175041	2490.330000
831.491952	2570.988462
831.808819	2432.356731
832.125642	2424.795000
832.442421	2523.097500
832.759157	2530.659231
833.075849	2470.165385
833.392497	2500.412308
833.709101	2538.220962
834.025662	2450.000769
834.342179	2530.659231
834.658653	2485.288846
834.975083	2570.988462
835.291469	2462.603654
835.607811	2505.453462
835.924110	2565.947308
836.240366	2513.015192
836.556578	2591.153077
836.872746	2515.535769
837.188871	2497.891731
837.504952	2558.385577
837.820990	2419.753846
838.136984	2500.412308
838.452935	2507.974038
838.768842	2482.768269
839.084706	2513.015192
839.400526	2434.877308
839.716303	2485.288846
840.032037	2553.344423
840.347727	2424.795000
840.663373	2520.576923
840.978977	2477.727115
841.294537	2497.891731
841.610054	2525.618077
841.925527	2568.467885
842.240957	2424.795000
842.556344	2568.467885
842.871687	2502.932885
843.186987	2548.303269
843.502244	2492.850577
843.817458	2467.644808
844.132629	2442.439038
844.447756	2480.247692
844.762840	2502.932885
845.077881	2510.494615
845.392879	2538.220962
845.707833	2465.124231
846.022745	2525.618077
846.337613	2455.041923
846.652438	2560.906154
846.967221	2457.562500
847.281960	2507.974038
847.596656	2573.509038
847.911309	2452.521346
848.225919	2525.618077
848.540485	2492.850577
848.855009	2407.150962
849.169490	2535.700385
849.483928	2515.535769
849.798323	2492.850577
850.112675	2535.700385
850.426984	2492.850577
850.741251	2523.097500
851.055474	2523.097500
851.369654	2465.124231
851.683792	2513.015192
851.997887	2525.618077
852.311938	2591.153077
852.625947	2460.083077
852.939914	2392.027500
853.253837	2555.865000
853.567718	2533.179808
853.881555	2465.124231
854.195350	2465.124231
854.509103	2495.371154
854.822812	2502.932885
855.136479	2535.700385
855.450103	2427.315577
855.763685	2502.932885
856.077224	2518.056346
856.390720	2470.165385
856.704173	2583.591346
857.017584	2457.562500
857.330953	2540.741538
857.644278	2568.467885
857.957561	2560.906154
858.270802	2460.083077
858.584000	2427.315577
858.897155	2550.823846
859.210268	2553.344423
859.523339	2485.288846
859.836367	2450.000769
860.149352	2573.509038
860.462295	2535.700385
860.775195	2520.576923
861.088054	2528.138654
861.400869	2510.494615
861.713642	2480.247692
862.026373	2507.974038
862.339062	2424.795000
862.651708	2477.727115
862.964312	2475.206538
863.276873	2419.753846
863.589392	2497.891731
863.901869	2457.562500
864.214303	2437.397885
864.526696	2482.768269
864.839045	2570.988462
865.151353	2528.138654
865.463619	2548.303269
865.775842	2467.644808
866.088023	2475.206538
866.400162	2465.124231
866.712258	2497.891731
867.024313	2487.809423
867.336325	2507.974038
867.648296	2558.385577
867.960224	2553.344423
868.272110	2452.521346
868.583954	2467.644808
868.895755	2437.397885
869.207515	2543.262115
869.519233	2480.247692
869.830909	2535.700385
870.142542	2513.015192
870.454134	2477.727115
870.765684	2404.630385
871.077191	2510.494615
871.388657	2462.603654
871.700081	2520.576923
872.011463	2548.303269
872.322803	2482.768269
872.634101	2470.165385
872.945357	2434.877308
873.256571	2394.548077
873.567744	2568.467885
873.878874	2414.712692
874.189963	2545.782692
874.501010	2487.809423
874.812015	2472.685962
875.122979	2412.192115
875.433900	2467.644808
875.744780	2553.344423
876.055618	2518.056346
876.366415	2490.330000
876.677169	2505.453462
876.987882	2497.891731
877.298554	2429.836154
877.609183	2497.891731
877.919771	2455.041923
878.230317	2472.685962
878.540822	2543.262115
878.851285	2520.576923
879.161707	2457.562500
879.472087	2548.303269
879.782425	2505.453462
880.092722	2379.424615
880.402977	2480.247692
880.713191	2397.068654
881.023363	2467.644808
881.333494	2437.397885
881.643583	2419.753846
881.953631	2460.083077
882.263637	2376.904038
882.573602	2568.467885
882.883526	2543.262115
883.193408	2530.659231
883.503248	2490.330000
883.813048	2447.480192
884.122806	2467.644808
884.432522	2505.453462
884.742197	2565.947308
885.051831	2485.288846
885.361424	2553.344423
885.670975	2513.015192
885.980485	2392.027500
886.289954	2523.097500
886.599382	2502.932885
886.908768	2470.165385
887.218113	2460.083077
887.527417	2515.535769
887.836680	2500.412308
888.145901	2429.836154
888.455082	2550.823846
888.764221	2591.153077
889.073319	2477.727115
889.382376	2520.576923
889.691392	2424.795000
890.000366	2520.576923
890.309300	2470.165385
890.618193	2452.521346
890.927044	2450.000769
891.235855	2452.521346
891.544625	2475.206538
891.853353	2535.700385
892.162041	2439.918462
892.470687	2470.165385
892.779293	2480.247692
893.087858	2497.891731
893.396381	2407.150962
893.704864	2505.453462
894.013306	2545.782692
894.321707	2470.165385
894.630068	2437.397885
894.938387	2548.303269
895.246665	2563.426731
895.554903	2487.809423
895.863100	2480.247692
896.171256	2477.727115
896.479371	2563.426731
896.787446	2480.247692
897.095480	2427.315577
897.403473	2470.165385
897.711425	2477.727115
898.019336	2465.124231
898.327207	2450.000769
898.635038	2472.685962
898.942827	2515.535769
899.250576	2422.274423
899.558284	2492.850577
899.865952	2399.589231
900.173579	2439.918462
900.481165	2513.015192
900.788711	2495.371154
901.096216	2570.988462
901.403681	2465.124231
901.711105	2444.959615
902.018489	2485.288846
902.325832	2548.303269
902.633135	2490.330000
902.940397	2513.015192
903.247619	2573.509038
903.554800	2437.397885
903.861941	2507.974038
904.169041	2475.206538
904.476101	2510.494615
904.783121	2455.041923
905.090100	2548.303269
905.397039	2452.521346
905.703938	2528.138654
906.010796	2515.535769
906.317614	2608.797115
906.624391	2492.850577
906.931129	2444.959615
907.237826	2477.727115
907.544483	2523.097500
907.851099	2457.562500
908.157675	2429.836154
908.464211	2487.809423
908.770707	2492.850577
909.077163	2364.301154
909.383578	2361.780577
909.689954	2530.659231
909.996289	2502.932885
910.302584	2530.659231
910.608839	2402.109808
910.915054	2540.741538
911.221229	2510.494615
911.527363	2525.618077
911.833458	2565.947308
912.139513	2465.124231
912.445527	2565.947308
912.751502	2505.453462
913.057436	2492.850577
913.363331	2543.262115
913.669186	2467.644808
913.975000	2548.303269
914.280775	2407.150962
914.586510	2465.124231
914.892205	2550.823846
915.197859	2502.932885
915.503475	2533.179808
915.809050	2462.603654
916.114585	2502.932885
916.420081	2515.535769
916.725536	2470.165385
917.030952	2444.959615
917.336328	2535.700385
917.641665	2535.700385
917.946961	2447.480192
918.252218	2500.412308
918.557435	2472.685962
918.862612	2502.932885
919.167750	2528.138654
919.472848	2507.974038
919.777906	2550.823846
920.082925	2450.000769
920.387904	2545.782692
920.692843	2452.521346
920.997743	2452.521346
921.302603	2535.700385
921.607423	2409.671538
921.912204	2533.179808
922.216946	2429.836154
922.521647	2424.795000
922.826310	2497.891731
923.130932	2450.000769
923.435516	2485.288846
923.740059	2500.412308
924.044564	2507.974038
924.349028	2502.932885
924.653454	2485.288846
924.957840	2492.850577
925.262186	2450.000769
925.566493	2472.685962
925.870761	2520.576923
926.174989	2492.850577
926.479178	2616.358846
926.783328	2490.330000
927.087438	2515.535769
927.391509	2455.041923
927.695541	2475.206538
927.999533	2457.562500
928.303486	2525.618077
928.607400	2568.467885
928.911275	2573.509038
929.215110	2502.932885
929.518906	2523.097500
929.822663	2578.550192
930.126381	2437.397885
930.430060	2550.823846
930.733699	2530.659231
931.037299	2520.576923
931.340861	2482.768269
931.644383	2452.521346
931.947866	2364.301154
932.251309	2470.165385
932.554714	2485.288846
932.858080	2485.288846
933.161407	2530.659231
933.464694	2457.562500
933.767943	2510.494615
934.071153	2538.220962
934.374323	2543.262115
934.677455	2455.041923
934.980548	2507.974038
935.283602	2515.535769
935.586617	2442.439038
935.889593	2570.988462
936.192530	2502.932885
936.495428	2472.685962
936.798287	2502.932885
937.101108	2495.371154
937.403890	2540.741538
937.706632	2540.741538
938.009336	2525.618077
938.312002	2465.124231
938.614628	2482.768269
938.917216	2495.371154
939.219765	2500.412308
939.522275	2598.714808
939.824747	2528.138654
940.127179	2555.865000
940.429573	2502.932885
940.731929	2419.753846
941.034246	2543.262115
941.336524	2482.768269
941.638763	2477.727115
941.940964	2450.000769
942.243126	2500.412308
942.545250	2510.494615
942.847335	2500.412308
943.149381	2447.480192
943.451389	2525.618077
943.753359	2560.906154
944.055290	2515.535769
944.357182	2485.288846
944.659036	2497.891731
944.960851	2452.521346
945.262628	2495.371154
945.564367	2477.727115
945.866067	2462.603654
946.167729	2533.179808
946.469352	2475.206538
946.770937	2523.097500
947.072484	2502.932885
947.373992	2510.494615
947.675462	2500.412308
947.976893	2518.056346
948.278286	2450.000769
948.579641	2515.535769
948.880958	2434.877308
949.182236	2490.330000
949.483476	2447.480192
949.784678	2490.330000
950.085841	2533.179808
950.386967	2528.138654
950.688054	2586.111923
950.989103	2467.644808
951.290114	2470.165385
951.591087	2450.000769
951.892021	2568.467885
952.192917	2487.809423
952.493776	2628.961731
952.794596	2470.165385
953.095378	2515.535769
953.396122	2447.480192
953.696828	2457.562500
953.997496	2472.685962
954.298126	2434.877308
954.598718	2523.097500
954.899272	2447.480192
955.199788	2492.850577
955.500266	2424.795000
955.800706	2477.727115
956.101108	2485.288846
956.401472	2492.850577
956.701798	2495.371154
957.002087	2487.809423
957.302337	2523.097500
957.602550	2472.685962
957.902724	2399.589231
958.202861	2462.603654
958.502960	2497.891731
958.803022	2500.412308
959.103045	2460.083077
959.403031	2510.494615
959.702979	2525.618077
960.002889	2457.562500
960.302762	2480.247692
960.602596	2460.083077
960.902393	2485.288846
961.202153	2472.685962
961.501875	2472.685962
961.801559	2500.412308
962.101205	2500.412308
962.400814	2538.220962
962.700385	2480.247692
962.999918	2439.918462
963.299414	2485.288846
963.598873	2565.947308
963.898293	2487.809423
964.197677	2530.659231
964.497022	2419.753846
964.796331	2437.397885
965.095601	2482.768269
965.394835	2467.644808
965.694030	2576.029615
965.993189	2470.165385
966.292309	2452.521346
966.591393	2520.576923
966.890439	2477.727115
967.189447	2442.439038
967.488419	2545.782692
967.787353	2444.959615
968.086249	2515.535769
968.385108	2563.426731
968.683930	2535.700385
968.982714	2462.603654
969.281462	2437.397885
969.580172	2487.809423
969.878844	2485.288846
970.177480	2462.603654
970.476078	2409.671538
970.774639	2513.015192
971.073162	2492.850577
971.371649	2507.974038
971.670098	2455.041923
971.968510	2510.494615
972.266885	2455.041923
972.565223	2444.959615
972.863524	2492.850577
973.161788	2502.932885
973.460014	2480.247692
973.758204	2407.150962
974.056356	2533.179808
974.354471	2525.618077
974.652550	2470.165385
974.950591	2500.412308
975.248595	2467.644808
975.546563	2490.330000
975.844493	2472.685962
976.142386	2485.288846
976.440243	2490.330000
976.738062	2462.603654
977.035845	2520.576923
977.333590	2470.165385
977.631299	2457.562500
977.928971	2490.330000
978.226606	2530.659231
978.524204	2475.206538
978.821765	2455.041923
979.119290	2518.056346
979.416777	2414.712692
979.714228	2510.494615
980.011642	2472.685962
980.309020	2573.509038
980.606360	2447.480192
980.903664	2543.262115
981.200931	2369.342308
981.498162	2414.712692
981.795356	2414.712692
982.092513	2538.220962
982.389633	2475.206538
982.686717	2485.288846
982.983764	2427.315577
983.280775	2467.644808
983.577749	2452.521346
983.874686	2477.727115
984.171587	2422.274423
984.468451	2507.974038
984.765279	2538.220962
985.062070	2465.124231
985.358824	2442.439038
985.655543	2500.412308
985.952224	2457.562500
986.248869	2482.768269
986.545478	2432.356731
986.842050	2460.083077
987.138586	2560.906154
987.435086	2477.727115
987.731549	2535.700385
988.027975	2515.535769
988.324366	2500.412308
988.620719	2470.165385
988.917037	2518.056346
989.213318	2447.480192
989.509563	2518.056346
989.805772	2495.371154
990.101944	2490.330000
990.398080	2548.303269
990.694180	2422.274423
990.990244	2492.850577
991.286271	2447.480192
991.582262	2429.836154
991.878217	2533.179808
992.174136	2470.165385
992.470019	2495.371154
992.765865	2578.550192
993.061676	2495.371154
993.357450	2520.576923
993.653188	2515.535769
993.948890	2533.179808
994.244556	2492.850577
994.540186	2392.027500
994.835780	2470.165385
995.131337	2482.768269
995.426859	2434.877308
995.722345	2439.918462
996.017795	2520.576923
996.313208	2596.194231
996.608586	2510.494615
996.903928	2518.056346
997.199234	2419.753846
997.494504	2525.618077
997.789738	2457.562500
998.084936	2535.700385
998.380099	2528.138654
998.675225	2510.494615
998.970316	2513.015192
999.265371	2442.439038
999.560390	2593.673654
999.855373	2472.685962
1000.150320	2475.206538
1000.445232	2581.070769
1000.740108	2505.453462
1001.034948	2570.988462
1001.329752	2535.700385
1001.624521	2568.467885
1001.919254	2520.576923
1002.213951	2487.809423
1002.508613	2495.371154
1002.803239	2447.480192
1003.097829	2497.891731
1003.392384	2490.330000
1003.686903	2472.685962
1003.981386	2513.015192
1004.275834	2518.056346
1004.570246	2482.768269
1004.864623	2434.877308
1005.158964	2510.494615
1005.453270	2450.000769
1005.747540	2422.274423
1006.041775	2505.453462
1006.335974	2397.068654
1006.630138	2490.330000
1006.924266	2475.206538
1007.218359	2530.659231
1007.512416	2462.603654
1007.806438	2603.755962
1008.100425	2505.453462
1008.394376	2477.727115
1008.688292	2586.111923
1008.982172	2515.535769
1009.276017	2409.671538
1009.569827	2437.397885
1009.863602	2462.603654
1010.157341	2462.603654
1010.451045	2482.768269
1010.744714	2490.330000
1011.038347	2467.644808
1011.331945	2530.659231
1011.625508	2419.753846
1011.919036	2535.700385
1012.212528	2480.247692
1012.505986	2452.521346
1012.799408	2490.330000
1013.092795	2515.535769
1013.386147	2518.056346
1013.679464	2540.741538
1013.972745	2555.865000
1014.265992	2480.247692
1014.559204	2432.356731
1014.852380	2563.426731
1015.145521	2429.836154
1015.438628	2507.974038
1015.731699	2490.330000
1016.024736	2485.288846
1016.317737	2520.576923
1016.610703	2495.371154
1016.903635	2472.685962
1017.196531	2444.959615
1017.489393	2523.097500
1017.782219	2485.288846
1018.075011	2467.644808
1018.367768	2465.124231
1018.660490	2467.644808
1018.953177	2467.644808
1019.245829	2467.644808
