Dividing Wavelength (nm)	Counts (n)	Blue Motor Position (mm): 0.000000	Red Motor Position (mm): 27.000000	
326.493990	2079.901939
326.888308	2079.901939
327.282561	2079.901939
327.676750	2057.647765
328.070874	2061.143806
328.464933	2062.666234
328.858929	2074.550754
329.252859	2088.073649
329.646726	2101.825917
330.040528	2115.729419
330.434265	2137.756741
330.827938	2156.749288
331.221547	2176.946671
331.615091	2196.339990
332.008571	2218.858824
332.401986	2238.748697
332.795338	2257.892478
333.188625	2281.263268
333.581847	2296.129630
333.975006	2315.553196
334.368100	2332.864518
334.761129	2350.538804
335.154095	2366.002543
335.546996	2388.307128
335.939833	2414.843762
336.332606	2429.919333
336.725315	2437.380241
337.117960	2449.194185
337.510540	2458.026286
337.903056	2468.053141
338.295508	2472.297793
338.687896	2478.455562
339.080220	2486.178610
339.472480	2490.844198
339.864676	2493.629435
340.256807	2496.565907
340.648875	2497.480877
341.040879	2499.724190
341.432818	2498.980620
341.824694	2499.469612
342.216506	2501.160919
342.608253	2502.736280
342.999937	2503.316012
343.391557	2499.635970
343.783113	2495.877790
344.174605	2497.054899
344.566033	2494.050372
344.957397	2494.267141
345.348697	2488.865545
345.739934	2491.171873
346.131106	2490.266986
346.522215	2488.033754
346.913260	2485.858497
347.304241	2482.927066
347.695159	2482.836325
348.086012	2481.356746
348.476802	2478.397589
348.867528	2481.172744
349.258191	2480.023361
349.648789	2476.759214
350.039324	2474.813328
350.429796	2476.318113
350.820203	2476.441621
351.210548	2473.668987
351.600828	2473.769810
351.991045	2475.007413
352.381198	2472.169243
352.771288	2475.327526
353.161314	2472.020529
353.551276	2475.677886
353.941175	2472.421301
354.331010	2475.438432
354.720782	2472.990951
355.110490	2477.505305
355.500135	2474.314254
355.889717	2476.744090
356.279235	2474.072279
356.668689	2476.174440
357.058080	2476.907928
357.447408	2475.251909
357.836672	2473.570684
358.225873	2476.199646
358.615010	2476.232413
359.004084	2482.233907
359.393095	2483.650471
359.782043	2483.746253
360.170927	2483.506798
360.559748	2485.397231
360.948505	2483.526963
361.337199	2487.033085
361.725830	2486.707931
362.114398	2487.779176
362.502903	2487.756491
362.891344	2488.666419
363.279722	2487.809423
363.668037	2490.387973
364.056289	2490.894609
364.444478	2491.592809
364.832603	2491.257572
365.220665	2492.467449
365.608665	2494.627584
365.996601	2496.313850
366.384474	2494.753613
366.772284	2496.744868
367.160031	2496.608757
367.547715	2500.535816
367.935336	2498.728562
368.322893	2501.826351
368.710388	2498.388284
369.097820	2505.138389
369.485189	2502.643018
369.872495	2505.138389
370.259738	2504.672083
370.646918	2508.485716
371.034035	2507.971518
371.421090	2512.564009
371.808081	2513.342867
372.195010	2520.229083
372.581875	2519.966943
372.968678	2528.000022
373.355418	2532.738707
373.742096	2545.626417
374.128710	2552.532797
374.515262	2562.368088
374.901751	2574.918041
375.288177	2591.536205
375.674540	2608.724019
376.060841	2624.843108
376.447079	2647.112405
376.833254	2671.267094
377.219367	2696.437575
377.605417	2723.833726
377.991404	2746.314751
378.377329	2786.361677
378.763191	2816.414516
379.148991	2861.636187
379.534727	2910.389185
379.920402	2950.413426
380.306013	2997.941425
380.691563	3056.000394
381.077049	3109.547530
381.462474	3161.521826
381.847835	3229.461456
382.233134	3297.827064
382.618371	3356.624562
383.003545	3436.904937
383.388657	3510.515866
383.773706	3600.749999
384.158693	3666.342972
384.543618	3754.669029
384.928480	3826.641582
385.313280	3929.924742
385.698017	4027.105585
386.082692	4143.641939
386.467305	4204.493707
386.851856	4320.727591
387.236344	4466.043892
387.620770	4528.665105
388.005133	4641.844050
388.389435	4780.944608
388.773674	4862.018965
389.157851	4985.159230
389.541965	5114.583293
389.926018	5140.051202
390.310008	5314.893541
390.693936	5422.978400
391.077802	5536.482500
391.461606	5668.147356
391.845348	5773.394045
392.229027	5896.357870
392.612645	6111.723524
392.996200	6222.381892
393.379694	6390.128807
393.763125	6604.229131
394.146494	6692.466968
394.529801	6825.281207
394.913047	7053.282513
395.296230	7053.854684
395.679351	7112.604291
396.062410	7357.624532
396.445408	7260.148782
396.828343	7413.682163
397.211217	7535.922582
397.594028	7434.887777
397.976778	7626.741489
398.359466	7791.141078
398.742092	7777.141794
399.124656	7914.341837
399.507158	8104.269828
399.889598	8127.081050
400.271977	8338.023091
400.654294	8365.167184
401.036549	8571.393226
401.418742	8596.046989
401.800874	8887.881906
402.182944	8967.723700
402.564952	9318.167072
402.946898	9160.598247
403.328783	9214.556237
403.710606	9410.762986
404.092367	9655.440429
404.474067	10014.229430
404.855705	9820.031581
405.237282	9781.532289
405.618797	10200.328666
406.000250	10435.201064
406.381642	10791.204828
406.762972	10739.558207
407.144240	10559.165558
407.525447	10809.209309
407.906593	10756.201577
408.287677	11017.313181
408.668700	11165.623927
409.049661	11146.825465
409.430560	11310.846967
409.811399	11285.300920
410.192176	11446.108686
410.572891	11524.460820
410.953545	11997.613438
411.334138	11480.980868
411.714669	12061.497460
412.095139	11410.903788
412.475547	11891.383723
412.855894	11748.066240
413.236180	12066.916700
413.616405	11770.940476
413.996568	12054.845657
414.376670	12021.364834
414.756711	11912.513720
415.136691	12190.172912
415.516609	12357.771112
415.896466	12437.522166
416.276262	12730.972773
416.655997	13180.164786
417.035670	13235.312489
417.415283	13845.327392
417.794834	13928.040124
418.174324	13688.058516
418.553753	13593.204165
418.933121	14077.553185
419.312428	13901.069951
419.691674	13808.726095
420.070859	14277.376962
420.449983	13927.110031
420.829045	14492.377132
421.208047	14238.509666
421.586988	14694.492114
421.965867	14935.345842
422.344686	14944.722388
422.723444	15505.838099
423.102141	14217.689701
423.480777	15401.549229
423.859352	14903.954577
424.237866	15999.661968
424.616319	15714.259563
424.994712	16364.220570
425.373044	16153.911193
425.751314	16855.075199
426.129524	15979.565408
426.507673	17049.333542
426.885762	16785.625743
427.263789	16962.698793
427.641756	17141.891648
428.019662	17202.012448
428.397508	17250.599089
428.775292	17543.691774
429.153016	17519.819390
429.530679	17581.921364
429.908282	17628.378117
430.285824	17362.119494
430.663305	18072.992763
431.040726	17693.716512
431.418086	17529.662243
431.795385	18154.286410
432.172624	18596.776209
432.549802	18159.486360
432.926920	18369.876395
433.303977	18248.936594
433.680974	18498.690479
434.057910	18811.128591
434.434786	18852.655096
434.811601	18772.407489
435.188355	19815.437343
435.565050	19491.553291
435.941683	19451.380336
436.318257	20338.119297
436.694770	20132.478029
437.071222	20729.456508
437.447614	19807.835283
437.823946	19831.745476
438.200218	20012.362456
438.576429	19798.070568
438.952580	20101.734552
439.328670	20061.831299
439.704700	20476.461162
440.080670	20050.302180
440.456580	20658.696353
440.832429	20834.713280
441.208218	19847.572178
441.583947	20282.134763
441.959616	20407.654453
442.335224	20659.298770
442.710773	20797.189452
443.086261	21336.988644
443.461689	20678.495484
443.837057	20835.182107
444.212365	21489.430615
444.587612	21487.676294
444.962800	21084.210066
445.337927	21514.674193
445.712995	20220.637727
446.088002	22125.551134
446.462949	22323.494560
446.837837	22501.976612
447.212664	22514.241740
447.587431	25467.884025
447.962139	28426.776672
448.336786	30715.515971
448.711374	29053.497959
449.085901	25329.436296
449.460369	25344.204357
449.834776	25331.125083
450.209124	27873.681437
450.583412	27354.823198
450.957640	27841.355038
451.331808	26478.446328
451.705917	25109.231135
452.079965	25137.443952
452.453954	25517.546952
452.827883	25420.013228
453.201752	25215.599481
453.575562	25362.415525
453.949311	26474.899876
454.323001	26539.214917
454.696632	26301.562322
455.070202	27871.697743
455.443713	28045.635194
455.817164	28594.493340
456.190556	29118.649832
456.563888	28519.614561
456.937160	28924.756972
457.310373	27222.981901
457.683526	27627.113561
458.056619	27599.495600
458.429653	27542.666672
458.802628	28107.724566
459.175542	28210.682571
459.548398	29522.232006
459.921194	31067.839693
460.293930	31729.962483
460.666607	33702.397104
461.039224	35392.146503
461.411782	35670.708062
461.784280	34348.541957
462.156719	33767.407824
462.529099	33144.139727
462.901419	31787.897943
463.273680	30694.133917
463.645882	30774.452101
464.018024	30678.352585
464.390106	31488.985247
464.762130	34147.188190
465.134094	38115.571895
465.505999	43223.445412
465.877845	47442.545863
466.249631	48330.769444
466.621358	46390.976294
466.993026	44113.929951
467.364634	41926.225458
467.736184	39936.892889
468.107674	38587.164276
468.479105	37719.969868
468.850477	36885.643783
469.221790	35430.373573
469.593043	33668.187834
469.964238	32696.208002
470.335373	32498.493948
470.706449	33997.085314
471.077467	36288.141023
471.448425	40306.343931
471.819324	42635.107471
472.190164	40638.467749
472.560945	37191.286420
472.931667	34238.082715
473.302330	33094.912860
473.672934	32166.927178
474.043479	32443.822635
474.413965	31584.366398
474.784393	31088.062281
475.154761	31688.675433
475.525070	31529.513603
475.895321	30923.365265
476.265513	31232.476216
476.635645	31846.372807
477.005719	31508.371004
477.375734	31693.451926
477.745691	32056.238563
478.115588	32919.465583
478.485427	34371.600195
478.855207	36899.292707
479.224928	38783.250037
479.594591	39824.591105
479.964194	38587.612938
480.333739	38413.509129
480.703226	38141.599372
481.072653	38361.285295
481.442022	38430.638969
481.811333	38270.824310
482.180584	36898.919661
482.549777	36166.800450
482.918912	35421.932161
483.287988	34865.257706
483.657005	33912.467026
484.025964	33091.109309
484.394864	32759.136726
484.763706	32127.921250
485.132489	31173.577895
485.501213	30752.865880
485.869879	30519.798214
486.238487	29916.697253
486.607036	29712.772498
486.975527	29023.341777
487.343959	28848.275107
487.712333	28556.019254
488.080648	28148.242840
488.448905	28113.993241
488.817104	27644.712229
489.185244	27921.222038
489.553326	28651.181115
489.921350	30008.688228
490.289315	31522.987829
490.657222	31498.825579
491.025070	31269.274118
491.392861	30225.175539
491.760593	28998.763632
492.128267	27574.925016
492.495883	26312.592366
492.863440	25165.160216
493.230939	24083.817592
493.598380	23165.636954
493.965763	22666.721520
494.333088	21930.486207
494.700354	21370.154395
495.067563	20905.886811
495.434713	20524.251300
495.801805	20244.467262
496.168839	19755.455174
496.535815	19298.915679
496.902733	19009.760135
497.269593	18514.557511
497.636395	18185.743210
498.003139	18044.802631
498.369825	17516.726642
498.736453	17349.178852
499.103023	16874.914660
499.469535	16535.319852
499.835989	16287.164013
500.202385	15885.502518
500.568723	15610.298368
500.935003	15391.255192
501.301226	15070.345421
501.667390	14996.837836
502.033497	14798.798628
502.399546	14353.120299
502.765537	13884.214853
503.131470	13733.086102
503.497345	13577.304366
503.863163	12946.840022
504.228923	12860.280890
504.594625	12710.167931
504.960269	12274.259358
505.325856	12203.572299
505.691385	11809.069243
506.056856	11614.642021
506.422270	11471.705145
506.787625	11152.736218
507.152924	10971.574792
507.518164	10763.347412
507.883347	10384.187108
508.248472	10212.576149
508.613540	10106.096897
508.978550	9944.860633
509.343503	9699.918529
509.708398	9527.238845
510.073236	9421.135160
510.438016	9219.297442
510.802738	8939.367210
511.167403	8842.130914
511.532010	8686.661729
511.896561	8551.079897
512.261053	8490.906164
512.625488	8238.503152
512.989866	8047.133391
513.354186	7847.541507
513.718449	7679.035899
514.082655	7600.162006
514.446803	7395.627271
514.810894	7298.698485
515.174927	7134.193032
515.538904	6969.657332
515.902822	6890.682616
516.266684	6691.932605
516.630488	6596.521207
516.994235	6444.621159
517.357925	6368.930755
517.721558	6252.379278
518.085133	6153.005533
518.448651	6036.935486
518.812112	5902.608901
519.175516	5790.675121
519.538863	5702.172624
519.902152	5591.589873
520.265385	5517.444582
520.628560	5415.000774
520.991678	5300.241427
521.354739	5222.017843
521.717743	5145.803159
522.080690	5051.435279
522.443580	4991.533769
522.806413	4910.867746
523.169189	4827.373635
523.531908	4760.106999
523.894569	4676.396118
524.257174	4614.828507
524.619722	4553.840627
524.982213	4487.599866
525.344647	4419.680400
525.707025	4358.816029
526.069345	4317.849092
526.431608	4258.907922
526.793815	4213.134245
527.155964	4149.245181
527.518057	4099.385649
527.880093	4048.389337
528.242072	4017.537475
528.603995	3967.486379
528.965860	3923.388886
529.327669	3883.664594
529.689421	3850.261908
530.051117	3809.761278
530.412755	3781.044346
530.774337	3751.210797
531.135862	3711.698233
531.497331	3686.704192
531.858743	3654.526507
532.220098	3633.799803
532.581396	3599.003239
532.942638	3569.499886
533.303824	3557.436405
533.664953	3531.552601
534.026025	3503.919516
534.387040	3497.008094
534.747999	3477.889518
535.108902	3462.413176
535.469748	3434.129782
535.830537	3419.626382
536.191270	3405.654824
536.551947	3384.335785
536.912567	3372.945298
537.273131	3366.941283
537.633638	3343.734332
537.994089	3335.272755
538.354483	3312.171668
538.714821	3312.746359
539.075103	3302.840492
539.435328	3291.697021
539.795497	3279.361318
540.155609	3269.548712
540.515665	3264.192486
540.875665	3249.661360
541.235609	3243.392685
541.595496	3236.894638
541.955328	3235.785584
542.315102	3218.272615
542.674821	3204.913558
543.034483	3195.166487
543.394090	3190.989891
543.753640	3182.014116
544.113134	3190.062318
544.472571	3172.219154
544.831953	3178.346677
545.191278	3161.940242
545.550548	3149.677635
545.909761	3154.048315
546.268918	3149.347439
546.628019	3145.211173
546.987064	3132.041158
547.346053	3115.606997
547.704986	3120.718727
548.063863	3113.744290
548.422684	3108.440997
548.781449	3099.939091
549.140158	3101.698453
549.498811	3096.967330
549.857408	3082.925196
550.215949	3086.698500
550.574434	3079.862695
550.932864	3075.297931
551.291237	3073.788105
551.649555	3070.967579
552.007817	3067.146385
552.366022	3063.143709
552.724173	3057.139694
553.082267	3062.533729
553.440305	3063.541960
553.798288	3048.410937
554.156215	3049.363715
554.514086	3046.802808
554.871902	3041.270142
555.229661	3037.295192
555.587365	3033.199255
555.945014	3033.461395
556.302606	3029.020138
556.660143	3028.069881
557.017625	3025.093079
557.375050	3021.748274
557.732421	3021.108047
558.089735	3020.188037
558.446994	3013.500946
558.804197	3019.021010
559.161345	3011.918024
559.518437	3006.506345
559.875474	3004.860408
560.232455	3003.895028
560.589381	3004.633557
560.946251	3000.111642
561.303065	3002.319667
561.659825	3003.048114
562.016528	2993.374139
562.373177	2990.530929
562.729770	2991.725682
563.086307	2989.096720
563.442789	2988.267451
563.799216	2989.686535
564.155587	2982.989363
564.511904	2980.534321
564.868164	2981.081286
565.224370	2981.587922
565.580520	2978.711943
565.936615	2979.871409
566.292654	2971.392188
566.648638	2975.853609
567.004567	2973.436376
567.360441	2974.182467
567.716260	2971.059472
568.072023	2970.714153
568.427732	2969.635346
568.783385	2962.045889
569.138982	2965.738534
569.494525	2962.688636
569.850013	2960.858697
570.205445	2959.684108
570.560823	2961.118317
570.916145	2959.517750
571.271412	2956.591360
571.626625	2956.503140
571.981782	2953.014662
572.336884	2953.919549
572.691931	2952.109775
573.046923	2946.700617
573.401860	2944.701799
573.756743	2941.851027
574.111570	2946.244392
574.466342	2945.168106
574.821059	2944.994186
575.175722	2936.898093
575.530330	2934.843823
575.884882	2933.679316
576.239380	2930.548760
576.593823	2932.005653
576.948211	2932.746703
577.302544	2925.845363
577.656823	2927.158584
578.011047	2925.361412
578.365216	2922.797986
578.719330	2920.204312
579.073389	2917.237593
579.427394	2917.595515
579.781344	2916.231883
580.135239	2915.233734
580.489080	2913.764238
580.842866	2908.057652
581.196597	2909.806932
581.550273	2910.681572
581.903895	2908.586973
582.257463	2914.132242
582.610975	2905.980696
582.964434	2908.196283
583.317837	2906.804925
583.671186	2903.122362
584.024481	2903.545819
584.377721	2899.701939
584.730906	2897.075498
585.084037	2899.706980
585.437113	2895.580796
585.790135	2895.895868
586.143103	2893.892009
586.496016	2895.137174
586.848874	2887.998901
587.201679	2893.092987
587.554428	2886.252141
587.907124	2891.537791
588.259765	2883.242572
588.612352	2889.491082
588.964884	2882.125956
589.317362	2884.339023
589.669786	2884.659136
590.022155	2881.977242
590.374470	2882.423384
590.726731	2878.440873
591.078937	2874.523896
591.431090	2877.263763
591.783188	2873.187991
592.135232	2869.182794
592.487222	2871.317723
592.839157	2871.353011
593.191038	2870.092722
593.542866	2865.164994
593.894639	2860.685929
594.246358	2863.834130
594.598022	2863.050230
594.949633	2858.024200
595.301190	2856.829446
595.652692	2856.963037
596.004141	2858.324148
596.355535	2851.637058
596.706876	2849.098837
597.058162	2847.785616
597.409395	2853.169569
597.760573	2852.962881
598.111698	2847.899042
598.462768	2847.432736
598.813785	2846.484999
599.164748	2844.135821
599.515657	2844.163547
599.866511	2839.326560
600.217312	2846.046418
600.568060	2836.753051
600.918753	2844.433249
601.269392	2843.989627
601.619978	2835.896055
601.970510	2840.778412
602.320988	2839.346725
602.671412	2843.069617
603.021783	2839.124914
603.372100	2838.131807
603.722363	2834.673575
604.072572	2838.845130
604.422728	2834.771878
604.772830	2832.072340
605.122878	2831.469922
605.472872	2831.916064
605.822813	2832.596620
606.172701	2832.125272
606.522534	2833.642659
606.872314	2836.422856
607.222041	2834.416476
607.571714	2833.698112
607.921333	2834.580314
608.270899	2829.841629
608.620411	2831.026300
608.969870	2830.285251
609.319276	2831.878255
609.668627	2833.693071
610.017926	2833.093173
610.367171	2832.599140
610.716362	2832.316836
611.065500	2834.116528
611.414585	2836.145592
611.763616	2835.243226
612.112594	2833.882114
612.461518	2834.590396
612.810389	2834.963442
613.159207	2834.058554
613.507971	2833.284737
613.856682	2834.933195
614.205340	2833.241887
614.553945	2839.787826
614.902496	2830.983451
615.250994	2836.773216
615.599439	2839.054338
615.947830	2836.407732
616.296169	2834.545026
616.644454	2838.900583
616.992686	2836.405212
617.340864	2838.310768
617.688990	2834.398832
618.037063	2839.036694
618.385082	2840.473423
618.733048	2840.584328
619.080961	2838.938391
619.428821	2840.092816
619.776628	2839.104749
620.124382	2837.859584
620.472083	2836.679954
620.819731	2835.447392
621.167326	2832.301712
621.514868	2832.110148
621.862357	2829.130827
622.209793	2825.889365
622.557176	2827.121927
622.904506	2820.966678
623.251783	2816.147335
623.599007	2816.548107
623.946179	2809.097281
624.293297	2811.963177
624.640363	2808.651139
624.987376	2808.023515
625.334336	2805.543268
625.681243	2802.271559
626.028097	2803.516724
626.374899	2798.465488
626.721647	2798.200827
627.068343	2797.167391
627.414987	2795.377781
627.761577	2794.603964
628.108115	2796.529685
628.454600	2790.891154
628.801032	2790.336627
629.147412	2791.632204
629.493739	2787.158180
629.840014	2790.944086
630.186236	2787.458128
630.532405	2784.811522
630.878521	2784.125926
631.224585	2784.196502
631.570597	2779.709875
631.916556	2780.085441
632.262462	2782.502674
632.608316	2781.239865
632.954117	2779.402364
633.299866	2780.345060
633.645562	2779.389762
633.991206	2776.864143
634.336797	2769.491456
634.682336	2768.755447
635.027823	2767.293513
635.373257	2766.633122
635.718639	2763.094232
636.063968	2761.750764
636.409245	2759.051226
636.754470	2757.634662
637.099642	2759.439395
637.444762	2754.665422
637.789829	2752.696852
638.134845	2751.565113
638.479808	2751.025709
638.824719	2750.347674
639.169577	2745.805595
639.514383	2746.135790
639.859137	2743.582446
640.203839	2743.761407
640.548489	2743.242168
640.893086	2740.119173
641.237632	2737.689337
641.582125	2738.735376
641.926566	2733.379150
642.270955	2739.562126
642.615292	2738.740417
642.959576	2736.736559
643.303809	2735.078019
643.647990	2737.011302
643.992118	2736.076168
644.336195	2736.066085
644.680219	2736.325705
645.024192	2738.233782
645.368112	2738.634553
645.711981	2737.976683
646.055797	2741.666807
646.399562	2741.918865
646.743274	2747.522107
647.086935	2749.767942
647.430544	2749.268867
647.774101	2746.145872
648.117606	2747.292735
648.461059	2751.471852
648.804460	2747.335585
649.147810	2743.617734
649.491108	2743.995820
649.834354	2740.766961
650.177548	2736.217320
650.520690	2731.655076
650.863781	2732.317987
651.206820	2730.742627
651.549807	2730.626680
651.892742	2726.941597
652.235626	2721.996225
652.578458	2723.256513
652.921238	2719.039588
653.263967	2720.718293
653.606644	2720.932542
653.949269	2720.849362
654.291843	2715.112529
654.634365	2717.897767
654.976836	2714.666387
655.319255	2713.854762
655.661622	2712.191181
656.003938	2712.327292
656.346203	2711.041798
656.688416	2710.421736
657.030577	2709.791592
657.372687	2710.290666
657.714746	2711.722353
658.056753	2710.189843
658.398708	2702.794470
658.740612	2702.602906
659.082465	2703.359079
659.424266	2704.339584
659.766016	2705.098277
660.107715	2706.802187
660.449362	2706.522403
660.790958	2706.905531
661.132503	2704.957125
661.473996	2706.010726
661.815438	2705.839327
662.156829	2708.430480
662.498168	2704.727752
662.839456	2706.285469
663.180693	2706.046014
663.521879	2707.528113
663.863013	2705.602393
664.204097	2704.538709
664.545129	2706.897969
664.886110	2707.240768
665.227040	2707.069368
665.567918	2707.543237
665.908746	2706.459389
666.249522	2709.620192
666.590248	2707.457537
666.930922	2710.343598
667.271545	2706.802187
667.612118	2708.329657
667.952639	2705.985520
668.293109	2705.751107
668.633528	2708.889225
668.973896	2704.218596
669.314213	2704.319419
669.654480	2702.078626
669.994695	2702.055941
670.334859	2705.196580
670.674973	2699.477391
671.015035	2699.605940
671.355047	2701.340097
671.695008	2701.569470
672.034918	2700.984696
672.374777	2701.806404
672.714585	2698.448995
673.054342	2701.952597
673.394049	2699.124510
673.733705	2700.939325
674.073310	2699.265662
674.412864	2698.769109
674.752368	2696.326670
675.091820	2699.462267
675.431223	2696.334231
675.770574	2694.680733
676.109875	2691.240145
676.449125	2685.833508
676.788324	2687.071111
677.127473	2686.148580
677.466571	2682.251768
677.805619	2684.197653
678.144616	2685.830987
678.483562	2685.271419
678.822458	2683.335616
679.161303	2682.075328
679.500098	2680.671366
679.838842	2680.525173
680.177535	2683.451563
680.516179	2684.626152
680.854771	2686.360308
681.193314	2686.975329
681.531805	2692.016483
681.870247	2698.602751
682.208638	2699.946218
682.546978	2702.986034
682.885268	2701.211548
683.223508	2700.150385
683.561697	2696.992102
683.899836	2694.572348
684.237925	2695.557894
684.575963	2692.339117
684.913951	2689.548838
685.251889	2694.148891
685.589776	2690.186544
685.927614	2687.600432
686.265401	2692.465146
686.603137	2690.806606
686.940824	2691.867769
687.278460	2695.638552
687.616046	2697.385312
687.953582	2699.943697
688.291068	2698.880014
688.628504	2699.109387
688.965889	2699.487473
689.303224	2696.314067
689.640510	2695.983871
689.977745	2689.793334
690.314930	2684.880730
690.652065	2685.445339
690.989150	2680.149607
691.326185	2676.918227
691.663170	2673.797753
692.000105	2669.472443
692.336990	2661.888027
692.673825	2664.186793
693.010610	2660.912564
693.347345	2654.739671
693.684030	2650.235400
694.020665	2650.386635
694.357251	2645.363125
694.693786	2648.372694
695.030272	2645.431180
695.366707	2646.489823
695.703093	2642.930768
696.039429	2643.807929
696.375716	2642.212404
696.711952	2643.389513
697.048139	2641.917496
697.384276	2642.235089
697.720363	2641.423463
698.056400	2639.974131
698.392388	2639.134779
698.728326	2638.497073
699.064214	2636.863739
699.400053	2637.587145
699.735842	2634.055817
700.071581	2634.837196
700.407270	2629.969962
700.742910	2630.635394
701.078501	2630.194293
701.414042	2627.903088
701.749533	2624.298663
702.084974	2624.734723
702.420366	2626.058026
702.755709	2623.333282
703.091002	2617.097375
703.426246	2621.314300
703.761440	2619.254989
704.096584	2616.520163
704.431679	2619.675925
704.766725	2620.474948
705.101721	2616.686521
705.436668	2619.103754
705.771565	2617.241048
706.106413	2619.310442
706.441212	2620.180041
706.775961	2621.208436
707.110661	2619.801954
707.445311	2622.125926
707.779913	2622.362860
708.114465	2621.704990
708.448967	2621.949486
708.783421	2626.083232
709.117825	2626.683129
709.452180	2628.860908
709.786485	2631.925929
710.120742	2631.837709
710.454949	2632.777884
710.789107	2635.363996
711.123216	2639.447331
711.457275	2641.279790
711.791286	2639.527989
712.125247	2642.900521
712.459159	2643.712147
712.793023	2646.699031
713.126837	2641.763741
713.460602	2644.506129
713.794318	2639.974131
714.127985	2639.190232
714.461602	2634.489356
714.795171	2635.116980
715.128691	2626.244549
715.462162	2628.732358
715.795584	2622.912346
716.128957	2624.515433
716.462281	2620.948817
716.795556	2618.592077
717.128782	2616.525204
717.461960	2615.353136
717.795088	2613.046808
718.128167	2612.895573
718.461198	2608.240068
718.794180	2611.103443
719.127113	2608.635798
719.459997	2606.780654
719.792833	2603.501383
720.125619	2603.667741
720.458357	2600.093563
720.791046	2600.169181
721.123686	2599.344952
721.456278	2598.520723
721.788821	2596.537029
722.121315	2598.934098
722.453761	2596.622729
722.786158	2595.856473
723.118506	2594.843202
723.450805	2596.935280
723.783056	2597.560383
724.115259	2596.461412
724.447412	2595.700198
724.779518	2598.745055
725.111574	2597.187338
725.443582	2599.753285
725.775542	2598.583738
726.107453	2602.462906
726.439315	2600.988368
726.771129	2607.957763
727.102895	2605.333843
727.434612	2608.421549
727.766281	2605.084306
728.097901	2606.836107
728.429473	2609.974225
728.760996	2608.106477
729.092471	2605.215376
729.423897	2608.073710
729.755276	2608.487084
730.086606	2610.213680
730.417887	2614.874226
730.749120	2613.646705
731.080305	2614.826335
731.411442	2617.735081
731.742530	2617.079731
732.073570	2617.387242
732.404562	2619.267592
732.735506	2619.867489
733.066401	2619.454115
733.397249	2615.569906
733.728048	2611.847013
734.058798	2608.320726
734.389501	2601.721856
734.720156	2602.251177
735.050762	2599.833944
735.381320	2598.210692
735.711831	2594.938983
736.042293	2593.968561
736.372707	2591.770618
736.703073	2593.083839
737.033391	2591.044692
737.363661	2591.841194
737.693883	2591.929415
738.024056	2596.831937
738.354182	2597.726742
738.684260	2599.836464
739.014290	2597.807400
739.344272	2600.363265
739.674207	2602.384768
740.004093	2604.381065
740.333931	2603.614809
740.663722	2603.728235
740.993464	2599.440734
741.323159	2599.533995
741.652806	2599.062647
741.982405	2600.396032
742.311956	2598.324118
742.641460	2597.094077
742.970915	2594.134919
743.300323	2591.311873
743.629683	2589.481934
743.958996	2592.433530
744.288260	2587.528487
744.617477	2583.919021
744.946647	2581.660584
745.275768	2579.830645
745.604842	2577.468865
745.933869	2577.771334
746.262847	2578.451890
746.591778	2584.065215
746.920662	2577.700758
747.249498	2582.406675
747.578286	2581.030440
747.907027	2583.044381
748.235720	2581.716037
748.564365	2584.395410
748.892963	2583.533373
749.221514	2581.839545
749.550017	2584.362643
749.878473	2584.541604
750.206881	2583.672005
750.535242	2581.136304
750.863555	2581.731160
751.191821	2580.417940
751.520039	2580.604462
751.848210	2577.962898
752.176334	2579.361818
752.504411	2580.793506
752.832440	2576.203535
753.160421	2579.273598
753.488356	2577.771334
753.816243	2578.371231
754.144082	2577.874678
754.471875	2577.020202
754.799620	2574.567681
755.127318	2577.340315
755.454969	2573.186405
755.782572	2575.956519
756.110129	2577.229410
756.437638	2574.081209
756.765100	2576.057342
757.092515	2575.631364
757.419882	2575.089440
757.747203	2579.508012
758.074477	2577.725964
758.401703	2577.907445
758.728882	2578.159503
759.056014	2577.655387
759.383099	2580.811150
759.710138	2579.878536
760.037129	2580.254102
760.364073	2578.048598
760.690970	2580.720409
761.017820	2581.216963
761.344623	2581.859710
761.671379	2586.802561
761.998088	2584.254258
762.324751	2596.138778
762.651366	2619.265071
762.977935	2640.715181
763.304456	2653.108858
763.630931	2661.525064
763.957359	2652.665236
764.283740	2641.483957
764.610074	2629.985085
764.936362	2617.500667
765.262602	2605.694285
765.588796	2596.118613
765.914943	2590.207861
766.241044	2582.678897
766.567097	2577.567167
766.893104	2572.652042
767.219064	2568.087277
767.544978	2566.098542
767.870845	2564.440003
768.196665	2563.492266
768.522438	2562.045455
768.848165	2562.461350
769.173846	2558.700649
769.499479	2558.408262
769.825066	2556.875751
770.150607	2555.975905
770.476101	2556.908519
770.801548	2556.520350
771.126949	2552.464742
771.452303	2552.028682
771.777611	2551.053219
772.102872	2552.111861
772.428087	2551.678322
772.753256	2553.959444
773.078378	2550.249155
773.403453	2548.502395
773.728482	2546.659853
774.053465	2550.473486
774.378401	2546.858979
774.703291	2548.772097
775.028135	2546.256561
775.352932	2546.062476
775.677683	2546.775800
776.002388	2545.785213
776.327046	2545.094575
776.651658	2541.969059
776.976224	2543.559543
777.300743	2544.605583
777.625216	2543.602393
777.949643	2543.395706
778.274024	2544.580377
778.598359	2541.850592
778.922647	2540.305479
779.246889	2540.202135
779.571086	2538.495704
779.895236	2543.047866
780.219339	2542.765562
780.543397	2541.608617
780.867409	2543.972918
781.191374	2546.470810
781.515294	2541.679193
781.839167	2544.315717
782.162995	2542.488298
782.486776	2544.003165
782.810511	2541.190201
783.134201	2542.049718
783.457844	2541.996786
783.781441	2541.520397
784.104993	2542.473175
784.428498	2543.161292
784.751958	2541.870757
785.075372	2541.016281
785.398739	2542.813453
785.722061	2539.498894
786.045337	2543.438556
786.368568	2539.982845
786.691752	2542.795809
787.014891	2542.556354
787.337983	2544.963505
787.661030	2550.513815
787.984031	2553.719989
788.306987	2554.513971
788.629897	2556.979095
788.952760	2556.086811
789.275579	2555.239897
789.598351	2553.420040
789.921078	2547.910059
790.243759	2549.699669
790.566395	2545.409647
790.888984	2544.797147
791.211529	2545.379400
791.534027	2543.025181
791.856480	2543.118442
792.178888	2540.232382
792.501249	2540.192053
792.823566	2542.684903
793.145836	2537.915972
793.468062	2539.715664
793.790241	2541.845551
794.112375	2542.939482
794.434464	2538.851106
794.756507	2538.185673
795.078505	2541.701878
795.400457	2544.212373
795.722364	2540.577701
796.044226	2545.926365
796.366042	2546.493495
796.687812	2543.045346
797.009538	2549.175389
797.331218	2547.849565
797.652852	2547.673125
797.974442	2547.690769
798.295986	2548.076417
798.617484	2548.061294
798.938938	2544.487116
799.260346	2541.427135
799.581709	2542.652136
799.903026	2543.645243
800.224299	2543.083154
800.545526	2539.730787
800.866708	2538.813297
801.187845	2539.226672
801.508936	2539.156096
801.829983	2539.753472
802.150984	2537.835313
802.471940	2537.734490
802.792851	2536.761548
803.113717	2538.770447
803.434538	2535.289531
803.755314	2536.675848
804.076045	2536.963194
804.396731	2537.631147
804.717372	2535.816331
805.037967	2538.132741
805.358518	2537.540406
805.679024	2537.918492
805.999485	2535.476053
806.319901	2535.065199
806.640272	2534.450178
806.960598	2540.761703
807.280879	2536.827083
807.601115	2541.394368
807.921306	2539.771116
808.241453	2536.562422
808.561554	2539.612320
808.881611	2536.585107
809.201623	2537.006043
809.521590	2537.192566
809.841513	2534.603934
810.161390	2538.783050
810.481223	2535.801208
810.801011	2535.302133
811.120755	2535.234078
811.440453	2536.070909
811.760107	2539.236754
812.079716	2533.784746
812.399281	2533.512524
812.718801	2531.667462
813.038276	2530.250897
813.357707	2536.249870
813.677093	2535.276928
813.996434	2535.854140
814.315731	2535.632329
814.634983	2533.605785
814.954191	2533.182328
815.273354	2536.050745
815.592473	2534.467823
815.911547	2537.701723
816.230577	2538.926723
816.549562	2540.292876
816.868502	2541.220448
817.187399	2539.382947
817.506250	2543.488967
817.825058	2542.765562
818.143821	2542.747918
818.462539	2546.647250
818.781213	2548.492312
819.099843	2551.143959
819.418429	2560.424724
819.736970	2566.917730
820.055466	2575.959039
820.373919	2587.246183
820.692327	2603.836620
821.010691	2637.604789
821.329011	2700.276414
821.647286	2801.704429
821.965517	2911.160482
822.283704	2970.015953
822.601847	2991.718120
822.919945	2942.660132
823.237999	2888.195506
823.556010	2834.310612
823.873976	2786.391924
824.191897	2739.884759
824.509775	2706.499718
824.827609	2680.444514
825.145398	2659.664878
825.463144	2650.429484
825.780845	2652.186327
826.098502	2665.426917
826.416116	2692.848273
826.733685	2714.177395
827.051210	2719.347099
827.368692	2705.362938
827.686129	2682.042560
828.003522	2654.593478
828.320872	2626.625156
828.638177	2609.782661
828.955439	2593.051071
829.272656	2581.678228
829.589830	2572.100036
829.906960	2568.188101
830.224046	2559.416493
830.541088	2558.130999
830.858086	2550.972560
831.175041	2549.649257
831.491952	2549.016592
831.808819	2549.203115
832.125642	2553.783003
832.442421	2559.451781
832.759157	2571.117011
833.075849	2592.549477
833.392497	2614.818774
833.709101	2628.623973
834.025662	2625.291771
834.342179	2614.178547
834.658653	2597.371340
834.975083	2585.149063
835.291469	2577.667990
835.607811	2567.641135
835.924110	2558.183931
836.240366	2554.423230
836.556578	2549.644216
836.872746	2544.411498
837.188871	2538.478060
837.504952	2535.332380
837.820990	2534.888759
838.136984	2530.853315
838.452935	2532.353058
838.768842	2533.729293
839.084706	2536.053265
839.400526	2546.498536
839.716303	2559.781977
840.032037	2562.504200
840.347727	2562.489076
840.663373	2554.763508
840.978977	2549.573640
841.294537	2543.836807
841.610054	2535.360107
841.925527	2537.016126
842.240957	2532.900024
842.556344	2529.391381
842.871687	2527.775691
843.186987	2526.147398
843.502244	2523.848632
843.817458	2520.929804
844.132629	2520.098013
844.447756	2520.269413
844.762840	2516.110461
845.077881	2514.242713
845.392879	2512.717764
845.707833	2516.947292
846.022745	2513.289935
846.337613	2516.281860
846.652438	2516.528877
846.967221	2519.891326
847.281960	2514.552744
847.596656	2519.263702
847.911309	2515.762621
848.225919	2518.202540
848.540485	2518.177334
848.855009	2519.694721
849.169490	2514.842611
849.483928	2513.857065
849.798323	2517.668177
850.112675	2515.261026
850.426984	2516.128105
850.741251	2515.082065
851.055474	2514.552744
851.369654	2515.591222
851.683792	2517.285050
851.997887	2515.477796
852.311938	2517.007786
852.625947	2516.735564
852.939914	2515.510563
853.253837	2514.885460
853.567718	2514.104082
853.881555	2514.333454
854.195350	2515.818074
854.509103	2512.886643
854.822812	2515.762621
855.136479	2516.115502
855.450103	2514.479647
855.763685	2518.096675
856.077224	2515.316479
856.390720	2517.713548
856.704173	2514.361180
857.017584	2516.922087
857.330953	2514.383866
857.644278	2515.833197
857.957561	2519.132633
858.270802	2517.262364
858.584000	2517.426202
858.897155	2516.783455
859.210268	2515.621469
859.523339	2514.890502
859.836367	2516.601973
860.149352	2515.011489
860.462295	2516.690193
860.775195	2510.839934
861.088054	2511.896056
861.400869	2513.552075
861.713642	2513.627692
862.026373	2516.170955
862.339062	2515.752539
862.651708	2513.988135
862.964312	2515.382014
863.276873	2513.713392
863.589392	2517.406037
863.901869	2516.400327
864.214303	2514.832528
864.526696	2515.742457
864.839045	2517.201871
865.151353	2517.159021
865.463619	2517.733712
865.775842	2519.150277
866.088023	2519.772859
866.400162	2518.792355
866.712258	2520.692870
867.024313	2516.952333
867.336325	2521.711183
867.648296	2516.871675
867.960224	2520.995339
868.272110	2518.421830
868.583954	2517.214473
868.895755	2521.559948
869.207515	2521.305370
869.519233	2520.448374
869.830909	2519.314114
870.142542	2519.747653
870.454134	2521.524660
870.765684	2522.638755
871.077191	2520.077849
871.388657	2522.532891
871.700081	2519.009124
872.011463	2523.100021
872.322803	2520.425688
872.634101	2522.827798
872.945357	2521.048271
873.256571	2524.438447
873.567744	2521.317973
873.878874	2524.566996
874.189963	2524.282171
874.501010	2523.722603
874.812015	2522.134640
875.122979	2527.314425
875.433900	2523.631862
875.744780	2525.965917
876.055618	2522.774866
876.366415	2523.392407
876.677169	2526.351565
876.987882	2525.849970
877.298554	2525.166894
877.609183	2526.154960
877.919771	2526.301153
878.230317	2527.957172
878.540822	2534.545960
878.851285	2536.771630
879.161707	2541.023843
879.472087	2550.165976
879.782425	2564.611402
880.092722	2584.423137
880.402977	2619.728857
880.713191	2661.577996
881.023363	2704.085005
881.333494	2726.351782
881.643583	2730.568707
881.953631	2729.419324
882.263637	2714.227807
882.573602	2698.827082
882.883526	2684.648837
883.193408	2666.490601
883.503248	2651.467962
883.813048	2635.167391
884.122806	2622.080556
884.432522	2607.249481
884.742197	2592.073088
885.051831	2584.738209
885.361424	2572.417629
885.670975	2563.078891
885.980485	2558.894733
886.289954	2552.187478
886.599382	2547.146324
886.908768	2542.410160
887.218113	2542.137938
887.527417	2537.742052
887.836680	2534.848430
888.145901	2529.910619
888.455082	2529.895496
888.764221	2529.487162
889.073319	2527.463139
889.382376	2526.719569
889.691392	2527.816020
890.000366	2526.613705
890.309300	2526.764939
890.618193	2528.902389
890.927044	2527.929446
891.235855	2527.964734
891.544625	2529.310722
891.853353	2529.668644
892.162041	2530.495393
892.470687	2529.678726
892.779293	2532.804242
893.087858	2534.611495
893.396381	2541.172557
893.704864	2549.079607
894.013306	2559.512275
894.321707	2575.764955
894.630068	2585.975812
894.938387	2586.114444
895.246665	2584.828949
895.554903	2576.571539
895.863100	2571.167422
896.171256	2564.011505
896.479371	2557.082439
896.787446	2556.013714
897.095480	2550.859134
897.403473	2545.679349
897.711425	2543.292362
898.019336	2540.882691
898.327207	2536.108718
898.635038	2533.547812
898.942827	2533.865405
899.250576	2527.821061
899.558284	2528.607481
899.865952	2528.317615
900.173579	2525.905423
900.481165	2525.131606
900.788711	2523.296626
901.096216	2520.889475
901.403681	2523.873838
901.711105	2522.638755
902.018489	2522.346368
902.325832	2525.292923
902.633135	2524.045237
902.940397	2530.192924
903.247619	2541.800181
903.554800	2556.192675
903.861941	2578.998855
904.169041	2594.202975
904.476101	2599.997781
904.783121	2596.078284
905.090100	2585.433888
905.397039	2579.407188
905.703938	2569.723132
906.010796	2559.464384
906.317614	2553.677139
906.624391	2550.745708
906.931129	2543.977959
907.237826	2542.352187
907.544483	2533.028573
907.851099	2533.890610
908.157675	2526.079342
908.464211	2523.936852
908.770707	2517.002745
909.077163	2517.116171
909.383578	2515.293794
909.689954	2513.073166
909.996289	2510.406395
910.302584	2515.071983
910.608839	2514.494771
910.915054	2515.177847
911.221229	2513.990656
911.527363	2517.809330
911.833458	2515.891171
912.139513	2517.544669
912.445527	2515.717251
912.751502	2516.697755
913.057436	2518.590708
913.363331	2520.937366
913.669186	2522.951307
913.975000	2524.824095
914.280775	2527.853829
914.586510	2535.231557
914.892205	2545.928886
915.197859	2561.034703
915.503475	2576.165727
915.809050	2587.014290
916.114585	2592.622573
916.420081	2597.023501
916.725536	2595.745568
917.030952	2589.625607
917.336328	2584.100503
917.641665	2579.999524
917.946961	2572.871332
918.252218	2565.808676
918.557435	2561.619477
918.862612	2557.372305
919.167750	2552.235369
919.472848	2546.372507
919.777906	2547.045501
920.082925	2539.100643
920.387904	2533.888090
920.692843	2531.024714
920.997743	2528.405835
921.302603	2528.526823
921.607423	2522.111954
921.912204	2524.705628
922.216946	2522.487520
922.521647	2519.326717
922.826310	2519.800585
923.130932	2517.433764
923.435516	2516.675070
923.740059	2517.953003
924.044564	2514.787158
924.349028	2514.242713
924.653454	2510.416478
924.957840	2512.846314
925.262186	2507.948833
925.566493	2509.836745
925.870761	2507.512773
926.174989	2511.243227
926.479178	2508.410098
926.783328	2511.016375
927.087438	2507.749707
927.391509	2508.145438
927.695541	2507.926148
927.999533	2509.937568
928.303486	2508.654594
928.607400	2507.283400
928.911275	2507.369100
929.215110	2507.230468
929.518906	2510.610562
929.822663	2507.099398
930.126381	2505.705519
930.430060	2508.001765
930.733699	2509.879595
931.037299	2507.598473
931.340861	2507.732063
931.644383	2506.023112
931.947866	2507.356497
932.251309	2508.982269
932.554714	2511.402023
932.858080	2509.791374
933.161407	2505.493791
933.464694	2507.873215
933.767943	2506.663338
934.071153	2507.497649
934.374323	2502.993378
934.677455	2508.523524
934.980548	2505.332474
935.283602	2506.171826
935.586617	2508.475633
935.889593	2505.738287
936.192530	2507.681652
936.495428	2507.255674
936.798287	2508.737773
937.101108	2505.234171
937.403890	2509.231806
937.706632	2512.715244
938.009336	2508.974707
938.312002	2511.180212
938.614628	2511.780110
938.917216	2514.598115
939.219765	2514.860255
939.522275	2510.126611
939.824747	2513.242044
940.127179	2510.751714
940.429573	2507.326250
940.731929	2510.028309
941.034246	2506.648215
941.336524	2513.196674
941.638763	2511.686848
941.940964	2513.930162
942.243126	2513.844462
942.545250	2512.553927
942.847335	2510.330778
943.149381	2509.970335
943.451389	2510.918072
943.753359	2507.416991
944.055290	2511.139883
944.357182	2509.798936
944.659036	2509.728360
944.960851	2510.764317
945.262628	2508.374810
945.564367	2507.991683
945.866067	2511.013854
946.167729	2506.638133
946.469352	2509.168792
946.770937	2509.365397
947.072484	2510.169461
947.373992	2510.981087
947.675462	2507.762310
947.976893	2509.579646
948.278286	2507.550582
948.579641	2506.872546
948.880958	2509.186436
949.182236	2507.676610
949.483476	2505.040087
949.784678	2508.793226
950.085841	2505.859274
950.386967	2507.616117
950.688054	2508.599142
950.989103	2507.197701
951.290114	2511.510408
951.591087	2508.349604
951.892021	2508.536127
952.192917	2510.860099
952.493776	2507.553102
952.794596	2512.342198
953.095378	2509.191477
953.396122	2508.825993
953.696828	2508.314316
953.997496	2512.226252
954.298126	2508.296672
954.598718	2506.375993
954.899272	2508.984790
955.199788	2508.213493
955.500266	2506.804491
955.800706	2502.665703
956.101108	2503.525220
956.401472	2502.821979
956.701798	2503.126969
957.002087	2502.282576
957.302337	2506.020591
957.602550	2504.886332
957.902724	2504.427587
958.202861	2503.147134
958.502960	2504.014212
958.803022	2505.206445
959.103045	2503.497494
959.403031	2503.411794
959.702979	2501.576814
960.002889	2503.137051
960.302762	2502.685868
960.602596	2504.510766
960.902393	2501.133193
961.202153	2503.651249
961.501875	2502.030518
961.801559	2499.860301
962.101205	2501.889366
962.400814	2502.698471
962.700385	2502.801815
962.999918	2503.552947
963.299414	2503.671414
963.598873	2502.411125
963.898293	2501.977586
964.197677	2500.694612
964.497022	2498.968017
964.796331	2500.160250
965.095601	2503.709222
965.394835	2502.224602
965.694030	2500.802997
965.993189	2501.977586
966.292309	2500.896258
966.591393	2500.056906
966.890439	2502.070847
967.189447	2498.995743
967.488419	2502.935405
967.787353	2502.764006
968.086249	2500.745024
968.385108	2504.281393
968.683930	2500.490446
968.982714	2501.816269
969.281462	2500.510610
969.580172	2500.739983
969.878844	2499.010867
970.177480	2503.792401
970.476078	2500.218223
970.774639	2502.446413
971.073162	2500.931547
971.371649	2500.077071
971.670098	2498.209323
971.968510	2500.992040
972.266885	2496.417193
972.565223	2500.097236
972.863524	2498.479025
973.161788	2501.864160
973.460014	2498.993223
973.758204	2500.049345
974.056356	2500.301402
974.354471	2505.592093
974.652550	2500.916423
974.950591	2502.680827
975.248595	2500.321567
975.546563	2504.286434
975.844493	2501.985148
976.142386	2500.797956
976.440243	2502.743841
976.738062	2502.993378
977.035845	2503.126969
977.333590	2500.586227
977.631299	2503.842813
977.928971	2501.183604
978.226606	2501.922133
978.524204	2497.720332
978.821765	2499.404077
979.119290	2500.434993
979.416777	2501.211331
979.714228	2503.192504
980.011642	2499.741834
980.309020	2505.627381
980.606360	2500.311485
980.903664	2504.929182
981.200931	2503.613440
981.498162	2505.171157
981.795356	2504.725015
982.092513	2506.000427
982.389633	2507.621158
982.686717	2510.734070
982.983764	2512.027126
983.280775	2512.788340
983.577749	2511.749863
983.874686	2511.225583
984.171587	2510.093844
984.468451	2511.454955
984.765279	2507.520335
985.062070	2508.198370
985.358824	2508.755417
985.655543	2505.357680
985.952224	2503.363903
986.248869	2503.021105
986.545478	2500.127482
986.842050	2501.304592
987.138586	2496.271000
987.435086	2498.128665
987.731549	2493.599188
988.027975	2499.494818
988.324366	2501.665034
988.620719	2500.273676
988.917037	2498.365599
989.213318	2498.995743
989.509563	2495.474497
989.805772	2499.036073
990.101944	2498.605054
990.398080	2498.083295
990.694180	2495.640856
990.990244	2499.880466
991.286271	2499.071361
991.582262	2501.032370
991.878217	2499.653614
992.174136	2500.578666
992.470019	2500.533295
992.765865	2500.117400
993.061676	2499.714108
993.357450	2497.556494
993.653188	2499.509941
993.948890	2500.923985
994.244556	2497.798469
994.540186	2501.145796
994.835780	2500.792915
995.131337	2504.823317
995.426859	2502.428769
995.722345	2503.968842
996.017795	2502.292658
996.313208	2503.487412
996.608586	2504.155364
996.903928	2506.444048
997.199234	2504.725015
997.494504	2503.048831
997.789738	2505.120745
998.084936	2502.128821
998.380099	2506.673421
998.675225	2502.338028
998.970316	2501.501197
999.265371	2504.465395
999.560390	2501.700323
999.855373	2501.191166
1000.150320	2499.204951
1000.445232	2501.486073
1000.740108	2499.051196
1001.034948	2500.278717
1001.329752	2499.136896
1001.624521	2498.232009
1001.919254	2494.834271
1002.213951	2497.760661
1002.508613	2495.764364
1002.803239	2497.221257
1003.097829	2494.060454
1003.392384	2501.443224
1003.686903	2497.707729
1003.981386	2499.431803
1004.275834	2499.527585
1004.570246	2499.686382
1004.864623	2498.657986
1005.158964	2500.119921
1005.453270	2497.616988
1005.747540	2498.244612
1006.041775	2495.514827
1006.335974	2500.127483
1006.630138	2498.287461
1006.924266	2499.845178
1007.218359	2498.539519
1007.512416	2500.064468
1007.806438	2498.219406
1008.100425	2501.730569
1008.394376	2497.352327
1008.688292	2498.552122
1008.982172	2494.224291
1009.276017	2500.248470
1009.569827	2497.095228
1009.863602	2499.779643
1010.157341	2497.430465
1010.451045	2500.404746
1010.744714	2496.354179
1011.038347	2496.996926
1011.331945	2499.220075
1011.625508	2497.969869
1011.919036	2498.433655
1012.212528	2498.965497
1012.505986	2498.282420
1012.799408	2497.614467
1013.092795	2497.642194
1013.386147	2501.697802
1013.679464	2499.404077
1013.972745	2497.289313
1014.265992	2496.976761
1014.559204	2498.763850
1014.852380	2498.189159
1015.145521	2495.582882
1015.438628	2496.480208
1015.731699	2498.035404
1016.024736	2499.378871
1016.317737	2498.945332
1016.610703	2499.126813
1016.903635	2494.874600
1017.196531	2493.760505
1017.489393	2494.156236
1017.782219	2492.038951
1018.075011	2496.376864
1018.367768	2498.567245
1018.660490	2498.635301
1018.953177	2498.635301
1019.245829	2498.635301
