Dividing Wavelength (nm)	Counts (n)	Blue Motor Position (mm): 0.000000	Red Motor Position (mm): 8.000000	
326.493990	2149.240490
326.888308	2149.240490
327.282561	2149.240490
327.676750	2120.705038
328.070874	2123.898609
328.464933	2128.218878
328.858929	2138.777575
329.252859	2149.326189
329.646726	2165.286482
330.040528	2177.259223
330.434265	2198.905937
330.827938	2218.205995
331.221547	2235.920609
331.615091	2257.859711
332.008571	2276.275046
332.401986	2295.743982
332.795338	2316.117805
333.188625	2335.916937
333.581847	2353.003928
333.975006	2375.371528
334.368100	2393.383570
334.761129	2411.672877
335.154095	2423.476738
335.546996	2445.335181
335.939833	2456.569393
336.332606	2469.331074
336.725315	2480.106540
337.117960	2488.323621
337.510540	2497.861484
337.903056	2506.829697
338.295508	2517.627848
338.687896	2518.512571
339.080220	2528.204189
339.472480	2534.704757
339.864676	2537.064017
340.256807	2543.889739
340.648875	2543.710778
341.040879	2543.383103
341.432818	2547.398382
341.824694	2546.498536
342.216506	2544.293031
342.608253	2547.365615
342.999937	2546.022147
343.391557	2545.429812
343.783113	2543.662887
344.174605	2540.179450
344.566033	2540.812115
344.957397	2540.126518
345.348697	2538.107536
345.739934	2536.476722
346.131106	2535.894469
346.522215	2531.924560
346.913260	2528.940197
347.304241	2530.631504
347.695159	2527.574045
348.086012	2527.657224
348.476802	2523.450381
348.867528	2520.977695
349.258191	2520.932324
349.648789	2521.189423
350.039324	2520.541635
350.429796	2522.653878
350.820203	2516.284381
351.210548	2516.440656
351.600828	2516.480986
351.991045	2517.474093
352.381198	2515.392096
352.771288	2514.683814
353.161314	2518.036182
353.551276	2514.247754
353.941175	2513.685666
354.331010	2514.754390
354.720782	2516.188599
355.110490	2517.711027
355.500135	2513.484020
355.889717	2515.238341
356.279235	2515.717251
356.668689	2520.029958
357.058080	2515.558454
357.447408	2513.063083
357.836672	2513.741118
358.225873	2512.881602
358.615010	2517.953002
359.004084	2518.966274
359.393095	2518.384021
359.782043	2521.728827
360.170927	2519.848476
360.559748	2520.753363
360.948505	2522.684125
361.337199	2522.605988
361.725830	2521.592716
362.114398	2523.006759
362.502903	2523.379805
362.891344	2524.025072
363.279722	2526.011287
363.668037	2522.858045
364.056289	2524.498941
364.444478	2527.616894
364.832603	2526.512882
365.220665	2526.286030
365.608665	2526.623787
365.996601	2524.869466
366.384474	2525.242511
366.772284	2529.318284
367.160031	2527.876514
367.547715	2529.320804
367.935336	2528.045393
368.322893	2530.936494
368.710388	2529.494724
369.097820	2533.023532
369.485189	2531.115455
369.872495	2528.667975
370.259738	2530.636546
370.646918	2531.138140
371.034035	2532.340456
371.421090	2534.351876
371.808081	2533.562935
372.195010	2532.037986
372.581875	2531.617050
372.968678	2534.735004
373.355418	2533.729293
373.742096	2535.113090
374.128710	2536.396064
374.515262	2538.110056
374.901751	2539.340098
375.288177	2540.759182
375.674540	2540.739018
376.060841	2542.319420
376.447079	2542.543751
376.833254	2542.848741
377.219367	2543.854451
377.605417	2549.122457
377.991404	2549.964329
378.377329	2551.423743
378.763191	2552.132026
379.148991	2556.679146
379.534727	2562.894889
379.920402	2567.026115
380.306013	2568.266238
380.691563	2576.831159
381.077049	2576.712692
381.462474	2584.778538
381.847835	2588.488827
382.233134	2593.782039
382.618371	2597.764550
383.003545	2604.149172
383.388657	2608.925665
383.773706	2615.650564
384.158693	2617.843466
384.543618	2625.483335
384.928480	2632.329222
385.313280	2639.036477
385.698017	2643.039153
386.082692	2651.525935
386.467305	2655.349651
386.851856	2662.074550
387.236344	2670.339522
387.620770	2674.669873
388.005133	2679.607683
388.389435	2689.725279
388.773674	2690.047912
389.157851	2693.591844
389.541965	2701.909747
389.926018	2702.781867
390.310008	2707.298741
390.693936	2715.110009
391.077802	2717.000442
391.461606	2723.289281
391.845348	2725.847667
392.229027	2727.208778
392.612645	2732.751527
392.996200	2735.025087
393.379694	2736.119017
393.763125	2744.686458
394.146494	2742.546489
394.529801	2747.771645
394.913047	2749.238620
395.296230	2744.525142
395.679351	2741.873495
396.062410	2746.881881
396.445408	2736.040880
396.828343	2737.822927
397.211217	2732.333111
397.594028	2720.982953
397.976778	2722.177707
398.359466	2721.512274
398.742092	2710.557847
399.124656	2715.046994
399.507158	2711.482899
399.889598	2707.084492
400.271977	2702.305478
400.654294	2699.048893
401.036549	2693.024714
401.418742	2689.427851
401.800874	2688.671677
402.182944	2682.541634
402.564952	2682.246727
402.946898	2671.204079
403.328783	2667.405570
403.710606	2661.963644
404.092367	2660.635300
404.474067	2658.777635
404.855705	2648.365132
405.237282	2641.809111
405.618797	2641.388175
406.000250	2636.795684
406.381642	2631.459623
406.762972	2627.698922
407.144240	2619.625514
407.525447	2620.101903
407.906593	2610.720316
408.287677	2608.126642
408.668700	2604.217227
409.049661	2599.055086
409.430560	2594.646597
409.811399	2592.355392
410.192176	2589.340782
410.572891	2585.050760
410.953545	2581.663105
411.334138	2579.230748
411.714669	2576.465675
412.095139	2572.624316
412.475547	2571.076682
412.855894	2570.053327
413.236180	2567.436969
413.616405	2565.183573
413.996568	2565.828841
414.376670	2567.182390
414.756711	2564.591237
415.136691	2562.940259
415.516609	2561.284240
415.896466	2563.220043
416.276262	2561.203582
416.655997	2554.650082
417.035670	2556.036399
417.415283	2554.554300
417.794834	2555.214691
418.174324	2557.382387
418.553753	2558.108313
418.933121	2554.345092
419.312428	2558.113355
419.691674	2557.233673
420.070859	2558.335165
420.449983	2554.846687
420.829045	2557.455484
421.208047	2556.979095
421.586988	2557.846173
421.965867	2559.368602
422.344686	2557.276523
422.723444	2559.124106
423.102141	2558.090669
423.480777	2556.046482
423.859352	2558.113355
424.237866	2559.988664
424.616319	2558.751061
424.994712	2561.274158
425.373044	2563.018397
425.751314	2558.567058
426.129524	2559.842470
426.507673	2558.415824
426.885762	2559.131668
427.263789	2560.293654
427.641756	2559.862635
428.019662	2559.189641
428.397508	2558.801472
428.775292	2559.837429
429.153016	2560.447409
429.530679	2560.926318
429.908282	2557.982285
430.285824	2561.614436
430.663305	2558.350289
431.040726	2559.325752
431.418086	2560.918757
431.795385	2561.354817
432.172624	2558.534291
432.549802	2563.197358
432.926920	2560.550752
433.303977	2560.699467
433.680974	2557.946997
434.057910	2560.601164
434.434786	2560.276010
434.811601	2562.206772
435.188355	2563.451937
435.565050	2561.014539
435.941683	2561.838767
436.318257	2554.471121
436.694770	2558.244425
437.071222	2558.803993
437.447614	2555.287788
437.823946	2559.441699
438.200218	2560.452450
438.576429	2562.844477
438.952580	2561.778273
439.328670	2563.666186
439.704700	2561.536298
440.080670	2563.189797
440.456580	2564.061916
440.832429	2562.524364
441.208218	2565.410425
441.583947	2561.841288
441.959616	2564.951680
442.335224	2561.984961
442.710773	2565.861608
443.086261	2565.957390
443.461689	2563.519992
443.837057	2565.954869
444.212365	2563.572924
444.587612	2565.607030
444.962800	2566.413614
445.337927	2564.802966
445.712995	2564.571073
446.088002	2564.054354
446.462949	2563.981258
446.837837	2567.656259
447.212664	2564.825651
447.587431	2566.786660
447.962139	2565.329766
448.336786	2567.288255
448.711374	2566.610219
449.085901	2568.049469
449.460369	2564.346741
449.834776	2564.437482
450.209124	2566.050651
450.583412	2567.472257
450.957640	2567.119376
451.331808	2564.064437
451.705917	2564.971844
452.079965	2565.924622
452.453954	2567.298337
452.827883	2564.999571
453.201752	2565.861608
453.575562	2566.940415
453.949311	2569.206414
454.323001	2567.726835
454.696632	2567.812535
455.070202	2567.540312
455.443713	2565.417987
455.817164	2568.041907
456.190556	2563.010836
456.563888	2562.894889
456.937160	2562.554611
457.310373	2569.977710
457.683526	2566.106104
458.056619	2570.403688
458.429653	2570.507031
458.802628	2570.832186
459.175542	2569.385375
459.548398	2567.605847
459.921194	2569.652556
460.293930	2571.709347
460.666607	2569.831517
461.039224	2570.476784
461.411782	2570.053327
461.784280	2570.065930
462.156719	2570.265056
462.529099	2572.959553
462.901419	2570.544840
463.273680	2571.812690
463.645882	2571.064079
464.018024	2571.026270
464.390106	2572.432752
464.762130	2573.435942
465.134094	2572.387382
465.505999	2573.987948
465.877845	2574.522310
466.249631	2576.039698
466.621358	2575.777558
466.993026	2577.494071
467.364634	2578.353587
467.736184	2574.358473
468.107674	2572.964594
468.479105	2569.904613
468.850477	2572.352094
469.221790	2574.166909
469.593043	2571.777402
469.964238	2575.003741
470.335373	2573.186405
470.706449	2572.599110
471.077467	2573.146075
471.448425	2576.044739
471.819324	2574.769327
472.190164	2575.008782
472.560945	2572.455437
472.931667	2576.102712
473.302330	2572.773030
473.672934	2573.385530
474.043479	2573.521641
474.413965	2572.810839
474.784393	2569.561815
475.154761	2569.760941
475.525070	2569.269428
475.895321	2569.524006
476.265513	2569.337484
476.635645	2570.640622
477.005719	2572.667166
477.375734	2573.894687
477.745691	2572.815880
478.115588	2575.187743
478.485427	2573.042732
478.855207	2576.085068
479.224928	2574.328226
479.594591	2572.717577
479.964194	2574.862588
480.333739	2578.149421
480.703226	2575.868298
481.072653	2577.423494
481.442022	2577.181519
481.811333	2577.337795
482.180584	2574.335788
482.549777	2578.678742
482.918912	2574.091292
483.287988	2577.098340
483.657005	2575.714543
484.025964	2574.005592
484.394864	2576.594225
484.763706	2576.009451
485.132489	2577.604976
485.501213	2576.952147
485.869879	2573.829152
486.238487	2573.690520
486.607036	2577.380645
486.975527	2576.213618
487.343959	2575.447362
487.712333	2577.105902
488.080648	2572.558781
488.448905	2573.619944
488.817104	2574.552557
489.185244	2575.964080
489.553326	2575.263360
489.921350	2576.868968
490.289315	2578.441807
490.657222	2575.797722
491.025070	2578.625810
491.392861	2579.341653
491.760593	2575.969122
492.128267	2577.068093
492.495883	2576.120356
492.863440	2576.546334
493.230939	2574.834862
493.598380	2577.320151
493.965763	2574.529872
494.333088	2572.871333
494.700354	2570.978379
495.067563	2573.624985
495.434713	2569.135838
495.801805	2575.376786
496.168839	2574.769327
496.535815	2575.099522
496.902733	2573.229254
497.269593	2577.141190
497.636395	2577.547003
498.003139	2575.835531
498.369825	2575.865778
498.736453	2577.350398
499.103023	2574.474419
499.469535	2577.972980
499.835989	2575.611200
500.202385	2573.413257
500.568723	2578.716550
500.935003	2575.709502
501.301226	2572.984758
501.667390	2576.422825
502.033497	2577.864595
502.399546	2575.664132
502.765537	2576.241344
503.131470	2574.005592
503.497345	2575.752352
503.863163	2576.253947
504.228923	2575.495253
504.594625	2574.366035
504.960269	2575.086920
505.325856	2574.262691
505.691385	2573.960222
506.056856	2577.032805
506.422270	2573.640108
506.787625	2575.374265
507.152924	2576.241344
507.518164	2576.266550
507.883347	2577.113463
508.248472	2578.527507
508.613540	2577.206725
508.978550	2574.817218
509.343503	2575.409553
509.708398	2576.594225
510.073236	2577.655387
510.438016	2577.463824
510.802738	2575.893504
511.167403	2577.126066
511.532010	2575.331416
511.896561	2575.941395
512.261053	2579.354256
512.625488	2570.328070
512.989866	2570.869994
513.354186	2570.517114
513.718449	2573.582135
514.082655	2572.717577
514.446803	2575.018864
514.810894	2578.351067
515.174927	2578.928279
515.538904	2576.316961
515.902822	2577.002558
516.266684	2573.612382
516.630488	2576.576581
516.994235	2580.896849
517.357925	2577.418453
517.721558	2579.253433
518.085133	2574.522310
518.448651	2575.981724
518.812112	2577.945254
519.175516	2577.199163
519.538863	2575.137331
519.902152	2577.519276
520.265385	2575.182702
520.628560	2579.475244
520.991678	2577.173957
521.354739	2577.577250
521.717743	2576.949626
522.080690	2577.917528
522.443580	2577.541962
522.806413	2578.716550
523.169189	2577.184040
523.531908	2578.356108
523.894569	2576.435428
524.257174	2577.665470
524.619722	2577.216807
524.982213	2579.868454
525.344647	2577.118505
525.707025	2576.332085
526.069345	2577.141190
526.431608	2576.906776
526.793815	2577.599935
527.155964	2577.385686
527.518057	2576.722774
527.880093	2576.107753
528.242072	2576.165727
528.603995	2576.899214
528.965860	2577.720922
529.327669	2578.988773
529.689421	2576.972311
530.051117	2577.176478
530.412755	2575.081878
530.774337	2578.260326
531.135862	2577.035326
531.497331	2578.169585
531.858743	2574.424008
532.220098	2575.311251
532.581396	2574.592887
532.942638	2569.042576
533.303824	2576.072465
533.664953	2575.517938
534.026025	2577.768813
534.387040	2577.209245
534.747999	2576.637074
535.108902	2576.374934
535.469748	2577.670511
535.830537	2579.971798
536.191270	2578.414081
536.551947	2576.276632
536.912567	2577.214287
537.273131	2576.856365
537.633638	2576.637074
537.994089	2577.400809
538.354483	2579.563464
538.714821	2577.952816
539.075103	2576.024574
539.435328	2578.214956
539.795497	2577.269739
540.155609	2580.123032
540.515665	2574.736559
540.875665	2576.062383
541.235609	2576.301838
541.595496	2577.342836
541.955328	2576.135480
542.315102	2580.634709
542.674821	2575.827969
543.034483	2578.129256
543.394090	2579.324009
543.753640	2579.601273
544.113134	2574.156827
544.472571	2578.270408
544.831953	2577.627661
545.191278	2578.560275
545.550548	2578.517425
545.909761	2577.158834
546.268918	2579.583629
546.628019	2579.477765
546.987064	2578.867785
547.346053	2577.983062
547.704986	2576.652198
548.063863	2576.322002
548.422684	2579.538258
548.781449	2581.038002
549.140158	2578.212435
549.498811	2579.276118
549.857408	2577.816704
550.215949	2575.951477
550.574434	2577.776375
550.932864	2576.944585
551.291237	2573.105746
551.649555	2577.655388
552.007817	2579.749987
552.366022	2578.086406
552.724173	2579.097157
553.082267	2579.883578
553.440305	2577.642785
553.798288	2578.403999
554.156215	2577.340315
554.514086	2577.403330
554.871902	2577.058011
555.229661	2578.920717
555.587365	2577.509194
555.945014	2579.744946
556.302606	2577.685634
556.660143	2577.773855
557.017625	2577.945254
557.375050	2577.869637
557.732421	2575.999368
558.089735	2580.886767
558.446994	2577.141190
558.804197	2575.752352
559.161345	2577.292424
559.518437	2577.562126
559.875474	2582.560430
560.232455	2576.236303
560.589381	2578.756880
560.946251	2580.962384
561.303065	2579.220666
561.659825	2579.606314
562.016528	2577.846951
562.373177	2578.219997
562.729770	2577.773855
563.086307	2581.058166
563.442789	2576.967270
563.799216	2580.037333
564.155587	2579.659246
564.511904	2580.100347
564.868164	2579.069431
565.224370	2577.015161
565.580520	2577.582291
565.936615	2579.838207
566.292654	2580.271746
566.648638	2579.019020
567.004567	2580.899370
567.360441	2578.497260
567.716260	2579.001376
568.072023	2578.179668
568.427732	2575.979204
568.783385	2575.817887
569.138982	2576.322002
569.494525	2572.992320
569.850013	2573.221693
570.205445	2577.363001
570.560823	2578.265367
570.916145	2577.516756
571.271412	2577.287383
571.626625	2581.741243
571.981782	2579.127404
572.336884	2579.802919
572.691931	2578.519945
573.046923	2574.519790
573.401860	2578.542631
573.756743	2579.596232
574.111570	2578.530028
574.466342	2577.310068
574.821059	2579.550861
575.175722	2579.946592
575.530330	2577.846951
575.884882	2579.197981
576.239380	2578.714030
576.593823	2578.527507
576.948211	2579.611355
577.302544	2581.526994
577.656823	2575.212948
578.011047	2574.660942
578.365216	2579.991962
578.719330	2579.008937
579.073389	2579.155131
579.427394	2575.805284
579.781344	2578.996334
580.135239	2579.306365
580.489080	2579.775193
580.842866	2579.366859
581.196597	2584.629824
581.550273	2579.364339
581.903895	2578.265367
582.257463	2578.406519
582.610975	2577.194122
582.964434	2578.701427
583.317837	2578.678742
583.671186	2577.340315
584.024481	2578.829976
584.377721	2579.613876
584.730906	2578.076324
585.084037	2581.116140
585.437113	2577.771334
585.790135	2579.129925
586.143103	2576.072465
586.496016	2576.372414
586.848874	2572.513411
587.201679	2576.052301
587.554428	2576.763103
587.907124	2577.446180
588.259765	2572.664645
588.612352	2575.825449
588.964884	2577.809143
589.317362	2577.413412
589.669786	2578.043556
590.022155	2579.515573
590.374470	2578.502301
590.726731	2576.959708
591.078937	2579.891139
591.431090	2579.810481
591.783188	2578.134297
592.135232	2578.179667
592.487222	2576.130438
592.839157	2579.908783
593.191038	2580.226376
593.542866	2577.617579
593.894639	2580.589339
594.246358	2579.021540
594.598022	2576.032136
594.949633	2579.210583
595.301190	2577.922569
595.652692	2579.510532
596.004141	2578.555233
596.355535	2580.188567
596.706876	2577.052970
597.058162	2578.837538
597.409395	2580.612024
597.760573	2576.879050
598.111698	2576.518607
598.462768	2574.285376
598.813785	2578.593042
599.164748	2578.386355
599.515657	2576.755542
599.866511	2578.739236
600.217312	2579.876016
600.568060	2577.531879
600.918753	2580.833835
601.269392	2577.864595
601.619978	2574.925603
601.970510	2579.966757
602.320988	2576.097671
602.671412	2580.543969
603.021783	2576.463155
603.372100	2578.469534
603.722363	2578.772003
604.072572	2578.734194
604.422728	2578.482137
604.772830	2577.078175
605.122878	2572.989800
605.472872	2575.301169
605.822813	2574.517269
606.172701	2575.011302
606.522534	2580.828794
606.872314	2577.373083
607.222041	2577.859554
607.571714	2577.567167
607.921333	2580.251582
608.270899	2578.343505
608.620411	2578.507342
608.969870	2578.545151
609.319276	2579.492888
609.668627	2577.456262
610.017926	2576.853844
610.367171	2576.037177
610.716362	2577.219328
611.065500	2577.428536
611.414585	2576.294276
611.763616	2578.114133
612.112594	2579.369380
612.461518	2575.722105
612.810389	2578.164544
613.159207	2579.155131
613.507971	2576.448031
613.856682	2578.625810
614.205340	2579.329051
614.553945	2579.066911
614.902496	2577.627661
615.250994	2578.081365
615.599439	2576.800912
615.947830	2579.089596
616.296169	2576.314441
616.644454	2580.584298
616.992686	2578.484657
617.340864	2575.694379
617.688990	2578.053639
618.037063	2577.720922
618.385082	2578.973649
618.733048	2577.864595
619.080961	2578.993814
619.428821	2577.342836
619.776628	2578.328382
620.124382	2577.887281
620.472083	2576.594225
620.819731	2577.141190
621.167326	2577.426015
621.514868	2579.016499
621.862357	2577.947774
622.209793	2578.794688
622.557176	2579.790316
622.904506	2576.163206
623.251783	2574.056004
623.599007	2574.678586
623.946179	2572.548699
624.293297	2574.242526
624.640363	2579.558423
624.987376	2577.436097
625.334336	2577.975501
625.681243	2579.692014
626.028097	2579.818042
626.374899	2576.954667
626.721647	2576.354770
627.068343	2577.383165
627.414987	2577.622620
627.761577	2575.079358
628.108115	2577.877198
628.454600	2578.824935
628.801032	2576.753021
629.147412	2577.373083
629.493739	2577.970460
629.840014	2579.898701
630.186236	2577.216807
630.532405	2580.123032
630.878521	2578.595563
631.224585	2578.842579
631.570597	2577.320151
631.916556	2578.560275
632.262462	2576.861406
632.608316	2577.534400
632.954117	2576.148082
633.299866	2575.734708
633.645562	2578.129256
633.991206	2579.843248
634.336797	2578.777044
634.682336	2579.603793
635.027823	2574.847465
635.373257	2578.787127
635.718639	2576.095150
636.063968	2576.848803
636.409245	2574.764286
636.754470	2575.550706
637.099642	2575.754872
637.444762	2578.736715
637.789829	2577.869637
638.134845	2574.179512
638.479808	2577.030284
638.824719	2575.643967
639.169577	2577.168916
639.514383	2576.160685
639.859137	2574.602969
640.203839	2578.446849
640.548489	2580.024730
640.893086	2574.610531
641.237632	2573.735890
641.582125	2575.217990
641.926566	2574.474419
642.270955	2576.253947
642.615292	2573.705643
642.959576	2576.674883
643.303809	2575.596076
643.647990	2578.162023
643.992118	2579.079513
644.336195	2578.514904
644.680219	2576.916858
645.024192	2577.708320
645.368112	2575.354101
645.711981	2576.621951
646.055797	2577.867116
646.399562	2576.596745
646.743274	2577.375603
647.086935	2575.069276
647.430544	2573.178843
647.774101	2577.000037
648.117606	2576.657239
648.461059	2580.412899
648.804460	2580.780903
649.147810	2577.398289
649.491108	2577.199163
649.834354	2578.250244
650.177548	2574.774368
650.520690	2576.556416
650.863781	2578.819894
651.206820	2579.235789
651.549807	2577.718402
651.892742	2574.718915
652.235626	2575.883422
652.578458	2577.063052
652.921238	2577.103381
653.263967	2576.737897
653.606644	2576.264029
653.949269	2573.995510
654.291843	2575.749831
654.634365	2577.410892
654.976836	2575.974163
655.319255	2574.998699
655.661622	2576.221179
656.003938	2576.523648
656.346203	2572.445355
656.688416	2575.349060
657.030577	2575.800243
657.372687	2576.715212
657.714746	2574.897876
658.056753	2578.532548
658.398708	2571.825293
658.740612	2575.948957
659.082465	2570.401167
659.424266	2570.698595
659.766016	2572.929306
660.107715	2575.258319
660.449362	2576.251426
660.790958	2576.193453
661.132503	2573.919892
661.473996	2578.754359
661.815438	2575.434759
662.156829	2574.116497
662.498168	2579.273598
662.839456	2575.621282
663.180693	2576.821077
663.521879	2577.673032
663.863013	2575.180181
664.204097	2577.728484
664.545129	2571.369069
664.886110	2574.003072
665.227040	2575.175140
665.567918	2575.162537
665.908746	2576.730336
666.249522	2576.672363
666.590248	2578.035995
666.930922	2577.231931
667.271545	2571.225396
667.612118	2577.463824
667.952639	2574.252609
668.293109	2572.422670
668.633528	2577.756211
668.973896	2573.869481
669.314213	2572.483164
669.654480	2578.645974
669.994695	2573.907290
670.334859	2575.167578
670.674973	2572.634398
671.015035	2573.849316
671.355047	2576.813515
671.695008	2574.905438
672.034918	2578.754359
672.374777	2575.422156
672.714585	2575.210428
673.054342	2576.047259
673.394049	2578.731674
673.733705	2575.853175
674.073310	2576.911817
674.412864	2577.645305
674.752368	2575.709502
675.091820	2576.228741
675.431223	2574.421487
675.770574	2574.766806
676.109875	2570.615416
676.449125	2571.341342
676.788324	2572.984758
677.127473	2574.676066
677.466571	2572.024419
677.805619	2574.943247
678.144616	2575.341498
678.483562	2573.798905
678.822458	2574.862588
679.161303	2576.460634
679.500098	2574.870150
679.838842	2574.895356
680.177535	2574.590366
680.516179	2574.391240
680.854771	2574.035839
681.193314	2575.447362
681.531805	2575.089440
681.870247	2575.643967
682.208638	2573.693041
682.546978	2573.718246
682.885268	2576.107753
683.223508	2578.217476
683.561697	2573.743452
683.899836	2577.199163
684.237925	2575.543144
684.575963	2573.531724
684.913951	2572.286559
685.251889	2577.902404
685.589776	2574.814697
685.927614	2576.135480
686.265401	2572.183215
686.603137	2576.064903
686.940824	2576.319482
687.278460	2575.502815
687.616046	2576.145562
687.953582	2575.238154
688.291068	2576.203535
688.628504	2574.275294
688.965889	2575.215469
689.303224	2575.833010
689.640510	2572.823442
689.977745	2575.898545
690.314930	2576.810994
690.652065	2576.208576
690.989150	2574.996179
691.326185	2576.571539
691.663170	2575.427197
692.000105	2576.080027
692.336990	2576.586663
692.673825	2575.424677
693.010610	2576.304358
693.347345	2570.355797
693.684030	2568.878739
694.020665	2572.883935
694.357251	2568.440158
694.693786	2571.958884
695.030272	2572.309244
695.366707	2571.918554
695.703093	2575.792681
696.039429	2575.777558
696.375716	2575.286045
696.711952	2572.629357
697.048139	2574.149265
697.384276	2573.980386
697.720363	2573.413257
698.056400	2574.247568
698.392388	2572.137845
698.728326	2572.548699
699.064214	2572.531055
699.400053	2571.064079
699.735842	2571.527865
700.071581	2574.993658
700.407270	2576.178329
700.742910	2574.149265
701.078501	2572.886456
701.414042	2575.281004
701.749533	2575.187743
702.084974	2573.720767
702.420366	2572.883935
702.755709	2573.725808
703.091002	2573.844275
703.426246	2573.685479
703.761440	2572.092474
704.096584	2573.466189
704.431679	2573.262022
704.766725	2573.236816
705.101721	2572.105077
705.436668	2571.742114
705.771565	2573.420818
706.106413	2572.069789
706.441212	2572.261353
706.775961	2574.920562
707.110661	2575.548185
707.445311	2573.945098
707.779913	2571.424521
708.114465	2572.410067
708.448967	2574.698751
708.783421	2575.056673
709.117825	2573.458627
709.452180	2573.118349
709.786485	2571.802608
710.120742	2575.364183
710.454949	2573.703123
710.789107	2572.263873
711.123216	2568.881259
711.457275	2569.481157
711.791286	2569.057700
712.125247	2567.404201
712.459159	2571.638770
712.793023	2575.089440
713.126837	2575.870819
713.460602	2571.996692
713.794318	2572.117680
714.127985	2573.123390
714.461602	2572.838565
714.795171	2576.206056
715.128691	2573.047773
715.462162	2574.066086
715.795584	2572.518452
716.128957	2575.880901
716.462281	2574.426528
716.795556	2573.743452
717.128782	2570.940571
717.461960	2574.436611
717.795088	2572.077351
718.128167	2572.780592
718.461198	2572.142886
718.794180	2573.471230
719.127113	2571.295972
719.459997	2572.480643
719.792833	2572.848647
720.125619	2575.154975
720.458357	2572.347052
720.791046	2572.253791
721.123686	2574.459296
721.456278	2571.719429
721.788821	2573.715726
722.121315	2570.993503
722.453761	2573.882084
722.786158	2572.427711
723.118506	2571.742114
723.450805	2573.009964
723.783056	2573.037691
724.115259	2570.953173
724.447412	2573.624985
724.779518	2574.290417
725.111574	2572.135324
725.443582	2572.999882
725.775542	2574.189594
726.107453	2576.011971
726.439315	2572.881415
726.771129	2577.269739
727.102895	2574.247567
727.434612	2572.921744
727.766281	2574.267732
728.097901	2567.832699
728.429473	2572.102557
728.760996	2568.500652
729.092471	2568.039387
729.423897	2574.313102
729.755276	2570.912844
730.086606	2572.447876
730.417887	2571.520303
730.749120	2574.623133
731.080305	2571.139696
731.411442	2574.207238
731.742530	2572.233627
732.073570	2573.264542
732.404562	2573.778740
732.735506	2572.415108
733.066401	2570.217165
733.397249	2572.888977
733.728048	2572.417629
734.058798	2574.865109
734.389501	2571.810170
734.720156	2571.921075
735.050762	2572.004254
735.381320	2573.047773
735.711831	2571.197669
736.042293	2572.762948
736.372707	2573.544327
736.703073	2572.891497
737.033391	2573.667835
737.363661	2572.205900
737.693883	2571.865622
738.024056	2575.303689
738.354182	2571.525344
738.684260	2573.337639
739.014290	2570.166753
739.344272	2570.199521
739.674207	2574.809656
740.004093	2574.623133
740.333931	2571.656414
740.663722	2574.514749
740.993464	2569.942422
741.323159	2572.057186
741.652806	2570.267577
741.982405	2573.677917
742.311956	2571.893349
742.641460	2571.061558
742.970915	2573.183884
743.300323	2574.056004
743.629683	2570.829665
743.958996	2570.842268
744.288260	2572.583987
744.617477	2571.505180
744.946647	2570.229768
745.275768	2569.312278
745.604842	2568.477967
745.933869	2568.215827
746.262847	2569.158523
746.591778	2571.800087
746.920662	2571.946281
747.249498	2573.065417
747.578286	2570.877556
747.907027	2573.551888
748.235720	2570.280179
748.564365	2571.575756
748.892963	2571.369069
749.221514	2572.112639
749.550017	2570.456620
749.878473	2572.604151
750.206881	2573.191446
750.535242	2570.832186
750.863555	2570.418811
751.191821	2571.454768
751.520039	2570.312947
751.848210	2572.667166
752.176334	2571.873184
752.504411	2568.573749
752.832440	2570.733883
753.160421	2572.266394
753.488356	2571.666497
753.816243	2572.304203
754.144082	2574.275294
754.471875	2571.790005
754.799620	2572.420149
755.127318	2568.919068
755.454969	2569.947463
755.782572	2571.187587
756.110129	2573.025088
756.437638	2572.155489
756.765100	2571.084243
757.092515	2569.647515
757.419882	2572.031980
757.747203	2570.718760
758.074477	2572.110118
758.401703	2570.204562
758.728882	2571.744635
759.056014	2571.220355
759.383099	2569.798749
759.710138	2572.788153
760.037129	2571.963925
760.364073	2571.290931
760.690970	2572.825962
761.017820	2574.096333
761.344623	2568.777916
761.671379	2573.193966
761.998088	2569.642473
762.324751	2567.502504
762.651366	2567.179870
762.977935	2569.685323
763.304456	2567.295816
763.630931	2571.779923
763.957359	2571.495097
764.283740	2573.872002
764.610074	2573.415777
764.936362	2572.165571
765.262602	2570.653225
765.588796	2573.597259
765.914943	2568.929150
766.241044	2571.096846
766.567097	2570.819583
766.893104	2572.052145
767.219064	2571.333781
767.544978	2572.652042
767.870845	2569.947463
768.196665	2572.329408
768.522438	2569.236661
768.848165	2573.619944
769.173846	2569.397977
769.499479	2569.163564
769.825066	2569.723132
770.150607	2569.871846
770.476101	2570.096177
770.801548	2572.800756
771.126949	2569.279510
771.452303	2571.343863
771.777611	2568.414953
772.102872	2573.206569
772.428087	2570.900241
772.753256	2568.432597
773.078378	2570.640622
773.403453	2566.406053
773.728482	2571.588359
774.053465	2568.414952
774.378401	2568.568708
774.703291	2569.216496
775.028135	2568.914027
775.352932	2570.617937
775.677683	2570.930488
776.002388	2569.826476
776.327046	2570.441496
776.651658	2568.556105
776.976224	2569.415622
777.300743	2571.542988
777.625216	2567.192473
777.949643	2571.288410
778.274024	2573.214131
778.598359	2569.392936
778.922647	2565.574262
779.246889	2566.113666
779.571086	2564.273645
779.895236	2566.282544
780.219339	2570.474264
780.543397	2569.488718
780.867409	2571.472412
781.191374	2568.747669
781.515294	2568.578790
781.839167	2569.947463
782.162995	2568.614078
782.486776	2571.308575
782.810511	2569.370251
783.134201	2572.712536
783.457844	2568.377144
783.781441	2569.193811
784.104993	2570.683472
784.428498	2570.411249
784.751958	2569.513924
785.075372	2569.554253
785.398739	2571.167423
785.722061	2569.977710
786.045337	2572.901579
786.368568	2572.367217
786.691752	2573.587176
787.014891	2571.711867
787.337983	2567.696588
787.661030	2570.265056
787.984031	2569.967628
788.306987	2570.058369
788.629897	2570.426373
788.952760	2573.345201
789.275579	2570.159192
789.598351	2569.352607
789.921078	2573.229254
790.243759	2571.174984
790.566395	2570.184397
790.888984	2568.528378
791.211529	2570.381003
791.534027	2570.295303
791.856480	2570.345714
792.178888	2571.185067
792.501249	2571.245560
792.823566	2570.146589
793.145836	2569.849161
793.468062	2570.015519
793.790241	2572.203380
794.112375	2569.370251
794.434464	2569.851681
794.756507	2566.002760
795.078505	2569.869325
795.400457	2567.391598
795.722364	2564.263562
796.044226	2567.857905
796.366042	2567.656259
796.687812	2563.920764
797.009538	2571.346383
797.331218	2571.626167
797.652852	2570.096177
797.974442	2568.954356
798.295986	2569.518965
798.617484	2569.627350
798.938938	2568.178018
799.260346	2569.130796
799.581709	2570.375961
799.903026	2572.538616
800.224299	2568.760272
800.545526	2570.015519
800.866708	2572.450396
801.187845	2568.094839
801.508936	2569.135837
801.829983	2568.377144
802.150984	2568.316650
802.471940	2571.542988
802.792851	2571.220355
803.113717	2569.098029
803.434538	2570.159192
803.755314	2569.481157
804.076045	2570.665828
804.396731	2569.408060
804.717372	2567.575600
805.037967	2566.675754
805.358518	2567.832699
805.679024	2569.163564
805.999485	2570.822103
806.319901	2568.588872
806.640272	2571.001064
806.960598	2569.375292
807.280879	2569.004767
807.601115	2566.232133
807.921306	2569.619788
808.241453	2570.585169
808.561554	2567.048800
808.881611	2568.669531
809.201623	2569.849161
809.521590	2568.248594
809.841513	2568.422514
810.161390	2569.254305
810.481223	2568.949315
810.801011	2572.601631
811.120755	2570.338153
811.440453	2569.894531
811.760107	2570.438976
812.079716	2565.506207
812.399281	2566.600137
812.718801	2566.295147
813.038276	2563.378840
813.357707	2571.472412
813.677093	2570.552402
813.996434	2569.657597
814.315731	2568.833368
814.634983	2568.876218
814.954191	2569.029973
815.273354	2571.031311
815.592473	2569.249263
815.911547	2569.765982
816.230577	2568.578790
816.549562	2568.588872
816.868502	2568.362020
817.187399	2568.190621
817.506250	2569.022412
817.825058	2567.918399
818.143821	2566.577452
818.462539	2568.344376
818.781213	2567.353790
819.099843	2567.931002
819.418429	2569.801270
819.736970	2570.050807
820.055466	2569.138358
820.373919	2569.518965
820.692327	2569.685323
821.010691	2566.721125
821.329011	2569.952504
821.647286	2576.213618
821.965517	2574.776889
822.283704	2577.541962
822.601847	2575.575912
822.919945	2573.332598
823.237999	2576.949626
823.556010	2575.671693
823.873976	2575.785119
824.191897	2573.246898
824.509775	2572.410067
824.827609	2573.282187
825.145398	2570.872515
825.463144	2569.952504
825.780845	2572.263873
826.098502	2570.461661
826.416116	2574.653380
826.733685	2572.430232
827.051210	2572.972156
827.368692	2573.776220
827.686129	2572.538616
828.003522	2573.128431
828.320872	2564.954200
828.638177	2566.738769
828.955439	2568.165415
829.272656	2569.019891
829.589830	2565.859087
829.906960	2569.604665
830.224046	2566.171639
830.541088	2568.488049
830.858086	2565.687688
831.175041	2569.871846
831.491952	2571.270766
831.808819	2568.404870
832.125642	2567.716753
832.442421	2568.349417
832.759157	2571.411918
833.075849	2567.880590
833.392497	2571.495097
833.709101	2571.855540
834.025662	2568.588872
834.342179	2571.769840
834.658653	2569.871846
834.975083	2569.042576
835.291469	2573.317475
835.607811	2568.888821
835.924110	2573.183884
836.240366	2568.248594
836.556578	2567.290775
836.872746	2568.687175
837.188871	2568.367062
837.504952	2570.673389
837.820990	2566.965621
838.136984	2567.832699
838.452935	2568.931671
838.768842	2568.921588
839.084706	2567.240364
839.400526	2571.495097
839.716303	2566.675754
840.032037	2567.729356
840.347727	2568.997206
840.663373	2568.457802
840.978977	2568.787998
841.294537	2567.986454
841.610054	2566.050651
841.925527	2567.827658
842.240957	2568.956877
842.556344	2569.052658
842.871687	2568.006619
843.186987	2568.142730
843.502244	2569.022412
843.817458	2565.957390
844.132629	2565.632236
844.447756	2568.866136
844.762840	2561.241391
845.077881	2563.835064
845.392879	2565.929664
845.707833	2568.966959
846.022745	2565.233984
846.337613	2569.372772
846.652438	2566.665672
846.967221	2566.769016
847.281960	2569.150961
847.596656	2569.660118
847.911309	2565.720456
848.225919	2568.505693
848.540485	2566.458985
848.855009	2567.068964
849.169490	2571.091805
849.483928	2567.275652
849.798323	2566.242215
850.112675	2568.949315
850.426984	2565.765826
850.741251	2569.599624
851.055474	2568.362020
851.369654	2566.774057
851.683792	2567.416804
851.997887	2566.327915
852.311938	2566.282544
852.625947	2566.458985
852.939914	2567.346228
853.253837	2568.261197
853.567718	2568.485529
853.881555	2568.919068
854.195350	2568.422514
854.509103	2566.169118
854.822812	2566.708522
855.136479	2568.619119
855.450103	2567.676423
855.763685	2567.431928
856.077224	2566.930333
856.390720	2567.933522
856.704173	2564.737431
857.017584	2567.333625
857.330953	2568.198183
857.644278	2568.997206
857.957561	2568.314129
858.270802	2567.943605
858.584000	2568.896383
858.897155	2567.457133
859.210268	2566.191804
859.523339	2566.758933
859.836367	2568.235992
860.149352	2567.951166
860.462295	2568.281362
860.775195	2564.288768
861.088054	2563.124262
861.400869	2566.010322
861.713642	2564.860939
862.026373	2563.855229
862.339062	2568.815724
862.651708	2567.966290
862.964312	2568.397308
863.276873	2567.686506
863.589392	2566.640466
863.901869	2567.263049
864.214303	2566.282544
864.526696	2568.200703
864.839045	2567.290775
865.151353	2568.581311
865.463619	2569.017370
865.775842	2566.138872
866.088023	2567.346228
866.400162	2570.181877
866.712258	2570.139027
867.024313	2567.515107
867.336325	2569.455951
867.648296	2568.356979
867.960224	2563.893037
868.272110	2570.416291
868.583954	2563.832544
868.895755	2566.728687
869.207515	2566.408573
869.519233	2566.481670
869.830909	2569.052658
870.142542	2567.197514
870.454134	2568.286403
870.765684	2567.409242
871.077191	2567.184911
871.388657	2568.208265
871.700081	2567.996537
872.011463	2567.595765
872.322803	2566.446382
872.634101	2566.700960
872.945357	2565.649880
873.256571	2567.752041
873.567744	2568.072154
873.878874	2566.700960
874.189963	2570.514593
874.501010	2569.821434
874.812015	2568.394788
875.122979	2565.859087
875.433900	2567.008471
875.744780	2569.236661
876.055618	2566.945456
876.366415	2567.260528
876.677169	2567.217678
876.987882	2562.284909
877.298554	2565.917061
877.609183	2561.163253
877.919771	2563.373799
878.230317	2561.937070
878.540822	2569.760941
878.851285	2566.892524
879.161707	2566.585014
879.472087	2570.353276
879.782425	2567.515107
880.092722	2568.583831
880.402977	2567.363872
880.713191	2571.071641
881.023363	2572.258832
881.333494	2570.973338
881.643583	2569.007288
881.953631	2572.452917
882.263637	2573.251940
882.573602	2574.441652
882.883526	2570.023081
883.193408	2568.014181
883.503248	2569.221537
883.813048	2569.347566
884.122806	2568.717422
884.432522	2570.363358
884.742197	2568.805642
885.051831	2566.544684
885.361424	2569.463512
885.670975	2568.684654
885.980485	2565.992678
886.289954	2565.934705
886.599382	2564.770198
886.908768	2567.472257
887.218113	2568.014181
887.527417	2568.848492
887.836680	2566.869839
888.145901	2569.254305
888.455082	2567.472257
888.764221	2568.409911
889.073319	2565.972513
889.382376	2566.501835
889.691392	2566.380847
890.000366	2568.498132
890.309300	2568.021743
890.618193	2568.810683
890.927044	2566.136351
891.235855	2565.662482
891.544625	2566.726166
891.853353	2570.030642
892.162041	2567.714232
892.470687	2567.288255
892.779293	2567.830179
893.087858	2564.263562
893.396381	2563.716597
893.704864	2564.306412
894.013306	2564.992009
894.321707	2567.192473
894.630068	2566.438820
894.938387	2567.847823
895.246665	2569.395457
895.554903	2565.793552
895.863100	2563.638459
896.171256	2564.558470
896.479371	2567.512586
896.787446	2566.844633
897.095480	2567.648697
897.403473	2565.947308
897.711425	2565.143244
898.019336	2566.128789
898.327207	2565.753223
898.635038	2567.542833
898.942827	2568.074675
899.250576	2566.695919
899.558284	2567.512586
899.865952	2566.655590
900.173579	2565.738100
900.481165	2566.713563
900.788711	2566.393450
901.096216	2568.092319
901.403681	2567.615930
901.711105	2568.525858
902.018489	2564.061916
902.325832	2570.640622
902.633135	2564.530743
902.940397	2567.436969
903.247619	2564.268603
903.554800	2565.856567
903.861941	2566.406053
904.169041	2565.692729
904.476101	2568.510734
904.783121	2567.300857
905.090100	2567.386557
905.397039	2568.498132
905.703938	2567.656259
906.010796	2567.570559
906.317614	2565.922102
906.624391	2567.356310
906.931129	2569.027453
907.237826	2565.566701
907.544483	2566.063254
907.851099	2564.893707
908.157675	2565.937225
908.464211	2566.496793
908.770707	2565.319684
909.077163	2565.034859
909.383578	2560.500341
909.689954	2563.913202
909.996289	2561.899261
910.302584	2568.205745
910.608839	2563.696432
910.915054	2566.464026
911.221229	2562.804148
911.527363	2566.383367
911.833458	2566.411094
912.139513	2566.358162
912.445527	2565.410425
912.751502	2563.489745
913.057436	2564.752554
913.363331	2567.653738
913.669186	2566.048131
913.975000	2566.877401
914.280775	2566.670713
914.586510	2565.493604
914.892205	2566.257339
915.197859	2566.597617
915.503475	2565.576783
915.809050	2567.777247
916.114585	2567.235323
916.420081	2564.404715
916.725536	2565.992678
917.030952	2569.478636
917.336328	2569.597103
917.641665	2567.870508
917.946961	2566.524520
918.252218	2563.623336
918.557435	2566.403532
918.862612	2565.055023
919.167750	2564.838254
919.472848	2567.477298
919.777906	2566.358162
920.082925	2566.668193
920.387904	2564.140054
920.692843	2566.005281
920.997743	2563.683830
921.302603	2566.925292
921.607423	2564.162739
921.912204	2564.129972
922.216946	2564.291289
922.521647	2565.395301
922.826310	2567.527709
923.130932	2566.489232
923.435516	2565.155847
923.740059	2567.474777
924.044564	2566.597617
924.349028	2564.135013
924.653454	2559.509754
924.957840	2560.638973
925.262186	2560.462532
925.566493	2564.674416
925.870761	2561.133006
926.174989	2565.049982
926.479178	2565.178532
926.783328	2565.312122
927.087438	2565.115517
927.391509	2567.620971
927.695541	2564.530743
927.999533	2566.877401
928.303486	2562.965465
928.607400	2564.074519
928.911275	2565.239026
929.215110	2564.694581
929.518906	2564.898748
929.822663	2566.572411
930.126381	2565.082750
930.430060	2563.308264
930.733699	2567.280693
931.037299	2563.020918
931.340861	2563.870352
931.644383	2565.024777
931.947866	2565.405384
932.251309	2564.901268
932.554714	2563.547718
932.858080	2563.739282
933.161407	2563.467060
933.464694	2566.068295
933.767943	2562.292471
934.071153	2563.595609
934.374323	2565.564180
934.677455	2567.462174
934.980548	2564.971844
935.283602	2564.185424
935.586617	2563.719118
935.889593	2565.634756
936.192530	2565.697771
936.495428	2565.662483
936.798287	2563.809858
937.101108	2563.666186
937.403890	2564.603840
937.706632	2566.683316
938.009336	2564.427400
938.312002	2564.558470
938.614628	2564.908830
938.917216	2565.697771
939.219765	2562.141237
939.522275	2565.531413
939.824747	2566.524520
940.127179	2560.336503
940.429573	2560.850701
940.731929	2562.486556
941.034246	2560.553273
941.336524	2563.444375
941.638763	2563.804817
941.940964	2566.312791
942.243126	2565.158367
942.545250	2564.699622
942.847335	2565.044941
943.149381	2562.577296
943.451389	2565.186093
943.753359	2561.843808
944.055290	2564.313974
944.357182	2565.826320
944.659036	2565.801114
944.960851	2566.148954
945.262628	2564.616443
945.564367	2564.606361
945.866067	2563.348593
946.167729	2564.850857
946.469352	2565.629715
946.770937	2565.619633
947.072484	2564.911351
947.373992	2562.302553
947.675462	2564.692060
947.976893	2563.489745
948.278286	2565.294478
948.579641	2565.990158
948.880958	2561.616957
949.182236	2565.859088
949.483476	2564.039231
949.784678	2564.772719
950.085841	2562.607543
950.386967	2566.335477
950.688054	2562.557132
950.989103	2563.567883
951.290114	2566.537123
951.591087	2568.301527
951.892021	2561.667368
952.192917	2566.446382
952.493776	2564.397153
952.794596	2563.469581
953.095378	2564.455126
953.396122	2566.332956
953.696828	2566.320353
953.997496	2565.770867
954.298126	2565.170970
954.598718	2563.567883
954.899272	2563.015877
955.199788	2564.981927
955.500266	2564.477811
955.800706	2561.828685
956.101108	2562.307595
956.401472	2561.138047
956.701798	2561.193500
957.002087	2560.792728
957.302337	2562.668037
957.602550	2567.744479
957.902724	2563.416648
958.202861	2564.976886
958.502960	2565.065106
958.803022	2562.388253
959.103045	2562.804148
959.403031	2563.746844
959.702979	2563.366237
960.002889	2564.213151
960.302762	2563.343552
960.602596	2562.882286
960.902393	2561.407749
961.202153	2565.231464
961.501875	2563.363716
961.801559	2562.753737
962.101205	2563.373799
962.400814	2564.966803
962.700385	2562.915054
962.999918	2565.445713
963.299414	2566.350600
963.598873	2565.652400
963.898293	2563.656103
964.197677	2566.458985
964.497022	2565.576783
964.796331	2565.982596
965.095601	2564.427400
965.394835	2567.101732
965.694030	2564.888665
965.993189	2563.484704
966.292309	2564.102245
966.591393	2565.032338
966.890439	2563.638459
967.189447	2563.497307
967.488419	2561.901782
967.787353	2564.588717
968.086249	2562.753737
968.385108	2561.838767
968.683930	2565.551577
968.982714	2561.218705
969.281462	2563.033521
969.580172	2561.808520
969.878844	2564.427400
970.177480	2564.172822
970.476078	2563.754406
970.774639	2564.916392
971.073162	2565.579303
971.371649	2560.132337
971.670098	2560.770043
971.968510	2559.446740
972.266885	2558.163766
972.565223	2562.650393
972.863524	2561.259035
973.161788	2561.685012
973.460014	2561.644683
973.758204	2562.358006
974.056356	2563.371278
974.354471	2564.074519
974.652550	2564.477811
974.950591	2561.604354
975.248595	2563.552760
975.546563	2563.706515
975.844493	2561.748027
976.142386	2561.831206
976.440243	2565.133161
976.738062	2564.077040
977.035845	2560.719631
977.333590	2561.677450
977.631299	2563.366237
977.928971	2564.225754
978.226606	2563.519992
978.524204	2564.936556
978.821765	2561.649724
979.119290	2561.833726
979.416777	2563.187276
979.714228	2564.271124
980.011642	2562.874724
980.309020	2564.238357
980.606360	2563.575445
980.903664	2565.599468
981.200931	2564.230795
981.498162	2563.363716
981.795356	2562.340362
982.092513	2562.050496
982.389633	2561.806000
982.686717	2561.397666
982.983764	2562.872204
983.280775	2563.920764
983.577749	2563.373799
983.874686	2564.291289
984.171587	2563.880435
984.468451	2565.496124
984.765279	2563.530074
985.062070	2563.933367
985.358824	2563.552760
985.655543	2563.751885
985.952224	2563.537636
986.248869	2562.549570
986.545478	2557.561348
986.842050	2559.794579
987.138586	2559.318190
987.435086	2558.917419
987.731549	2560.142419
988.027975	2563.300702
988.324366	2562.728531
988.620719	2560.903633
988.917037	2566.632905
989.213318	2564.833213
989.509563	2563.018397
989.805772	2562.708366
990.101944	2564.142575
990.398080	2565.118038
990.694180	2561.274158
990.990244	2561.264076
991.286271	2563.058727
991.582262	2565.123079
991.878217	2561.014539
992.174136	2562.645352
992.470019	2565.344890
992.765865	2562.816751
993.061676	2563.421690
993.357450	2564.674416
993.653188	2564.107287
993.948890	2560.749878
994.244556	2563.477142
994.540186	2564.470250
994.835780	2562.418500
995.131337	2565.922102
995.426859	2562.529405
995.722345	2560.071843
996.017795	2561.468242
996.313208	2565.037379
996.608586	2562.917574
996.903928	2560.631411
997.199234	2563.187276
997.494504	2561.425393
997.789738	2562.305074
998.084936	2564.734910
998.380099	2562.274827
998.675225	2563.446895
998.970316	2564.097204
999.265371	2562.370609
999.560390	2562.993192
999.855373	2564.676937
1000.150320	2563.996381
1000.445232	2563.492266
1000.740108	2561.437996
1001.034948	2562.080743
1001.329752	2562.892368
1001.624521	2562.756257
1001.919254	2557.629404
1002.213951	2558.378015
1002.508613	2561.155691
1002.803239	2560.344065
1003.097829	2559.587892
1003.392384	2562.897410
1003.686903	2562.010167
1003.981386	2564.334138
1004.275834	2562.655434
1004.570246	2562.478994
1004.864623	2560.364230
1005.158964	2559.119065
1005.453270	2561.095197
1005.747540	2560.916236
1006.041775	2561.813562
1006.335974	2563.446895
1006.630138	2561.942111
1006.924266	2559.676112
1007.218359	2562.693243
1007.512416	2561.253993
1007.806438	2560.921277
1008.100425	2561.891699
1008.394376	2563.008315
1008.688292	2560.701987
1008.982172	2561.221226
1009.276017	2563.802297
1009.569827	2562.398335
1009.863602	2561.322049
1010.157341	2561.266596
1010.451045	2561.246432
1010.744714	2561.188458
1011.038347	2563.265414
1011.331945	2558.821637
1011.625508	2563.278017
1011.919036	2561.397666
1012.212528	2562.542008
1012.505986	2562.229457
1012.799408	2561.775753
1013.092795	2562.088304
1013.386147	2560.800290
1013.679464	2564.815569
1013.972745	2561.473284
1014.265992	2560.356668
1014.559204	2562.368088
1014.852380	2561.531257
1015.145521	2565.375137
1015.438628	2563.048644
1015.731699	2566.080898
1016.024736	2564.714746
1016.317737	2562.831875
1016.610703	2563.255332
1016.903635	2559.088818
1017.196531	2556.966492
1017.489393	2559.018242
1017.782219	2555.895247
1018.075011	2561.685012
1018.367768	2562.390774
1018.660490	2561.929508
1018.953177	2561.929508
1019.245829	2561.929508
