Dividing Wavelength (nm)	Counts (n)	Blue Motor Position (mm): 0.000000	Red Motor Position (mm): 30.000000	
326.493990	2143.659932
326.888308	2143.659932
327.282561	2143.659932
327.676750	2119.492641
328.070874	2117.410644
328.464933	2123.089504
328.858929	2132.085443
329.252859	2144.224542
329.646726	2159.602581
330.040528	2175.220076
330.434265	2192.198682
330.827938	2209.068903
331.221547	2230.168653
331.615091	2249.178844
332.008571	2270.971752
332.401986	2289.074536
332.795338	2310.287711
333.188625	2330.898468
333.581847	2348.691221
333.975006	2369.354911
334.368100	2388.506254
334.761129	2403.697771
335.154095	2421.193096
335.546996	2440.442742
335.939833	2455.785493
336.332606	2467.574232
336.725315	2481.155100
337.117960	2488.006028
337.510540	2499.958604
337.903056	2505.408091
338.295508	2514.426715
338.687896	2522.651358
339.080220	2527.873993
339.472480	2535.702905
339.864676	2537.318595
340.256807	2539.214069
340.648875	2543.904862
341.040879	2545.036602
341.432818	2548.005841
341.824694	2546.022147
342.216506	2545.354194
342.608253	2546.614483
342.999937	2543.315048
343.391557	2545.744884
343.783113	2543.035263
344.174605	2542.528628
344.566033	2538.984696
344.957397	2538.702392
345.348697	2536.713657
345.739934	2535.350024
346.131106	2531.838861
346.522215	2529.131761
346.913260	2529.630835
347.304241	2529.053623
347.695159	2525.852491
348.086012	2527.853829
348.476802	2526.659075
348.867528	2520.695390
349.258191	2519.644310
349.648789	2520.269413
350.039324	2518.157169
350.429796	2519.301511
350.820203	2516.105420
351.210548	2516.599453
351.600828	2514.300687
351.991045	2516.637261
352.381198	2515.177847
352.771288	2513.685666
353.161314	2517.224556
353.551276	2517.892509
353.941175	2515.825636
354.331010	2515.702127
354.720782	2513.985614
355.110490	2517.043074
355.500135	2514.635923
355.889717	2514.540141
356.279235	2514.726664
356.668689	2515.407220
357.058080	2516.609535
357.447408	2511.916221
357.836672	2513.002589
358.225873	2512.921931
358.615010	2512.306910
359.004084	2520.410565
359.393095	2519.472910
359.782043	2520.597088
360.170927	2523.722603
360.559748	2521.295287
360.948505	2521.867458
361.337199	2526.817872
361.725830	2521.628004
362.114398	2522.651358
362.502903	2522.878210
362.891344	2522.926101
363.279722	2524.987933
363.668037	2524.824095
364.056289	2525.418951
364.444478	2526.807789
364.832603	2528.015146
365.220665	2526.515402
365.608665	2527.309384
365.996601	2526.885927
366.384474	2529.701412
366.772284	2526.533046
367.160031	2528.720907
367.547715	2529.194776
367.935336	2529.708973
368.322893	2527.022038
368.710388	2530.008922
369.097820	2532.869777
369.485189	2528.662934
369.872495	2532.736186
370.259738	2531.501103
370.646918	2530.802904
371.034035	2530.475229
371.421090	2532.703419
371.808081	2533.731814
372.195010	2531.526309
372.581875	2535.425642
372.968678	2533.618388
373.355418	2535.972607
373.742096	2536.948070
374.128710	2537.623585
374.515262	2536.078471
374.901751	2537.737011
375.288177	2538.714995
375.674540	2546.715306
376.060841	2543.894780
376.447079	2546.891746
376.833254	2546.443083
377.219367	2545.921324
377.605417	2547.209339
377.991404	2548.144473
378.377329	2551.443908
378.763191	2556.104455
379.148991	2561.987481
379.534727	2563.378840
379.920402	2568.046948
380.306013	2573.609862
380.691563	2578.769482
381.077049	2578.010789
381.462474	2586.033785
381.847835	2591.006883
382.233134	2596.179107
382.618371	2601.333687
383.003545	2606.649584
383.388657	2610.745521
383.773706	2617.919083
384.158693	2624.742285
384.543618	2632.356948
384.928480	2638.812145
385.313280	2647.397230
385.698017	2654.041471
386.082692	2662.409787
386.467305	2671.052845
386.851856	2677.359328
387.236344	2686.297294
387.620770	2693.261648
388.005133	2704.062320
388.389435	2715.220914
388.773674	2721.928169
389.157851	2731.634911
389.541965	2742.259143
389.926018	2742.506159
390.310008	2757.644744
390.693936	2764.084818
391.077802	2771.752413
391.461606	2785.111471
391.845348	2793.568007
392.229027	2799.962710
392.612645	2817.707572
392.996200	2827.270641
393.379694	2835.606189
393.763125	2857.078983
394.146494	2861.628625
394.529801	2871.446272
394.913047	2892.515774
395.296230	2893.760939
395.679351	2902.900551
396.062410	2919.738005
396.445408	2914.190215
396.828343	2924.164138
397.211217	2931.372988
397.594028	2926.790579
397.976778	2940.104267
398.359466	2954.852162
398.742092	2953.120526
399.124656	2967.674337
399.507158	2979.757983
399.889598	2984.975577
400.271977	2998.677433
400.654294	3009.246212
401.036549	3018.476565
401.418742	3024.079807
401.800874	3047.566543
402.182944	3055.997873
402.564952	3082.224476
402.946898	3071.431366
403.328783	3083.963674
403.710606	3096.548915
404.092367	3122.120168
404.474067	3148.200577
404.855705	3136.512662
405.237282	3139.912920
405.618797	3170.502642
406.000250	3192.978626
406.381642	3224.634552
406.762972	3224.889130
407.144240	3218.035681
407.525447	3239.626943
407.906593	3238.177611
408.287677	3258.329624
408.668700	3281.130763
409.049661	3276.601286
409.430560	3292.924542
409.811399	3297.222126
410.192176	3320.338337
410.572891	3326.077690
410.953545	3365.076057
411.334138	3333.094977
411.714669	3385.182699
412.095139	3332.573217
412.475547	3382.604148
412.855894	3374.742469
413.236180	3402.221799
413.616405	3382.732698
413.996568	3406.625247
414.376670	3411.006009
414.756711	3404.719690
415.136691	3433.492076
415.516609	3454.896815
415.896466	3460.530305
416.276262	3485.599963
416.655997	3512.116432
417.035670	3520.338554
417.415283	3586.392793
417.794834	3611.389354
418.174324	3595.739092
418.553753	3596.797734
418.933121	3638.656955
419.312428	3628.955255
419.691674	3622.827732
420.070859	3663.262827
420.449983	3644.151813
420.829045	3689.060932
421.208047	3673.836647
421.586988	3720.532855
421.965867	3749.960591
422.344686	3763.985081
422.723444	3798.607726
423.102141	3705.820248
423.480777	3809.083243
423.859352	3773.926236
424.237866	3873.909961
424.616319	3855.582846
424.994712	3919.973504
425.373044	3906.012029
425.751314	3967.730875
426.129524	3902.495824
426.507673	4002.832430
426.885762	3981.967094
427.263789	4000.831092
427.641756	4007.061958
428.019662	4037.881052
428.397508	4038.851474
428.775292	4076.965117
429.153016	4083.382506
429.530679	4093.676543
429.908282	4109.485601
430.285824	4087.541458
430.663305	4154.961850
431.040726	4115.111529
431.418086	4106.503758
431.795385	4181.480840
432.172624	4218.800502
432.549802	4181.624513
432.926920	4199.926422
433.303977	4193.559444
433.680974	4229.991863
434.057910	4257.877006
434.434786	4260.379938
434.811601	4255.197632
435.188355	4365.467832
435.565050	4334.749561
435.941683	4331.157738
436.318257	4419.017488
436.694770	4422.705092
437.071222	4484.355883
437.447614	4415.501283
437.823946	4414.858536
438.200218	4435.544911
438.576429	4417.341305
438.952580	4441.059933
439.328670	4446.393474
439.704700	4493.611442
440.080670	4454.320689
440.456580	4516.538609
440.832429	4550.445410
441.208218	4456.531235
441.583947	4506.806662
441.959616	4520.707644
442.335224	4550.309299
442.710773	4567.461825
443.086261	4620.388899
443.461689	4573.503648
443.837057	4583.686779
444.212365	4663.667205
444.587612	4668.423534
444.962800	4631.607987
445.337927	4671.821271
445.712995	4562.150969
446.088002	4752.893107
446.462949	4773.219040
446.837837	4791.349550
447.212664	4779.661634
447.587431	5002.951982
447.962139	5299.787724
448.336786	5636.587212
448.711374	5624.317044
449.085901	5270.309577
449.460369	5208.936049
449.834776	5143.985823
450.209124	5374.469897
450.583412	5388.466661
450.957640	5510.681874
451.331808	5369.083424
451.705917	5223.557916
452.079965	5217.465681
452.453954	5255.070168
452.827883	5217.710177
453.201752	5220.891145
453.575562	5253.842648
453.949311	5385.434407
454.323001	5393.167537
454.696632	5389.618565
455.070202	5539.696235
455.443713	5570.570782
455.817164	5658.773330
456.190556	5732.374176
456.563888	5708.451381
456.937160	5789.727384
457.310373	5627.124966
457.683526	5682.166805
458.056619	5676.208161
458.429653	5657.283669
458.802628	5704.862079
459.175542	5733.987346
459.548398	5873.445826
459.921194	6055.849895
460.293930	6121.304237
460.666607	6368.945878
461.039224	6582.330359
461.411782	6701.828390
461.784280	6622.833509
462.156719	6627.252081
462.529099	6588.152892
462.901419	6450.405883
463.273680	6321.221275
463.645882	6308.197454
464.018024	6310.750798
464.390106	6370.581733
464.762130	6628.996320
465.134094	7015.002511
465.505999	7641.431412
465.877845	8349.542128
466.249631	8703.257208
466.621358	8629.409345
466.993026	8433.502545
467.364634	8220.546563
467.736184	7941.266639
468.107674	7786.629245
468.479105	7700.070113
468.850477	7636.990155
469.221790	7461.999102
469.593043	7241.093220
469.964238	7139.942468
470.335373	7116.763243
470.706449	7268.489371
471.077467	7447.392359
471.448425	8099.584076
471.819324	8679.621758
472.190164	8723.026093
472.560945	8238.356959
472.931667	7770.137110
473.302330	7585.608194
473.672934	7461.542878
474.043479	7531.146089
474.413965	7436.319464
474.784393	7387.455560
475.154761	7535.678086
475.525070	7540.774693
475.895321	7497.299782
476.265513	7592.706139
476.635645	7746.673060
477.005719	7731.872232
477.375734	7817.397928
477.745691	7924.729134
478.115588	8122.307077
478.485427	8357.746606
478.855207	8810.049011
479.224928	9233.674813
479.594591	9611.597514
479.964194	9621.427764
480.333739	9695.595740
480.703226	9691.053660
481.072653	9780.110684
481.442022	9888.765193
481.811333	10031.621411
482.180584	9879.028205
482.549777	9797.512747
482.918912	9733.059074
483.287988	9708.143172
483.657005	9612.711609
484.025964	9516.123101
484.394864	9576.344725
484.763706	9522.832877
485.132489	9428.291078
485.501213	9410.248788
485.869879	9453.224624
486.238487	9383.732319
486.607036	9444.095095
486.975527	9378.323161
487.343959	9416.305734
487.712333	9448.034757
488.080648	9465.804824
488.448905	9553.067197
488.817104	9538.899034
489.185244	9685.878916
489.553326	9859.743271
489.921350	10279.056365
490.289315	10839.040337
490.657222	11085.429252
491.025070	11224.890253
491.392861	11132.102775
491.760593	10966.276540
492.128267	10709.820441
492.495883	10467.827412
492.863440	10220.344567
493.230939	9986.480399
493.598380	9789.144432
493.965763	9747.126414
494.333088	9601.074105
494.700354	9500.518209
495.067563	9452.430643
495.434713	9422.665150
495.801805	9434.547149
496.168839	9372.480463
496.535815	9302.713415
496.902733	9316.785796
497.269593	9245.811391
497.636395	9220.403975
498.003139	9278.788098
498.369825	9173.410339
498.736453	9218.727792
499.103023	9140.022777
499.469535	9105.679917
499.835989	9105.392571
500.202385	9036.389257
500.568723	9014.951750
500.935003	9021.444756
501.301226	8953.411865
501.667390	9046.746308
502.033497	9077.958612
502.399546	8976.545720
502.765537	8858.360909
503.131470	8895.292402
503.497345	8924.780631
503.863163	8691.269344
504.228923	8745.411336
504.594625	8785.175958
504.960269	8661.428234
505.325856	8722.552224
505.691385	8579.204494
506.056856	8574.808608
506.422270	8588.497861
506.787625	8486.643868
507.152924	8478.164647
507.518164	8462.022873
507.883347	8304.817011
508.248472	8306.437742
508.613540	8321.535998
508.978550	8310.934451
509.343503	8234.437462
509.708398	8203.666259
510.073236	8235.680106
510.438016	8174.412443
510.802738	8061.931698
511.167403	8078.549862
511.532010	8051.516674
511.896561	8046.525932
512.261053	8100.940146
512.625488	7980.343143
512.989866	7903.271463
513.354186	7822.930594
513.718449	7759.404494
514.082655	7761.897344
514.446803	7672.288314
514.810894	7660.446644
515.174927	7588.166580
515.538904	7509.365784
515.902822	7522.997064
516.266684	7384.206537
516.630488	7363.799946
516.994235	7287.121475
517.357925	7276.625793
517.721558	7227.499749
518.085133	7192.783843
518.448651	7123.851105
518.812112	7038.022940
519.175516	6961.992258
519.538863	6935.470748
519.902152	6869.076231
520.265385	6845.954979
520.628560	6775.847652
520.991678	6682.341810
521.354739	6632.711650
521.717743	6587.875628
522.080690	6505.694738
522.443580	6486.913919
522.806413	6420.872283
523.169189	6340.866651
523.531908	6297.331247
523.894569	6205.849428
524.257174	6143.381970
524.619722	6108.766887
524.982213	6032.264857
525.344647	5956.035049
525.707025	5893.277725
526.069345	5851.703329
526.431608	5780.008039
526.793815	5738.753757
527.155964	5637.862624
527.518057	5576.032872
527.880093	5502.008569
528.242072	5468.038754
528.603995	5386.961877
528.965860	5319.002082
529.327669	5272.620946
529.689421	5191.997772
530.051117	5139.169000
530.412755	5082.670269
530.774337	5021.306823
531.135862	4957.599242
531.497331	4910.577879
531.858743	4847.707129
532.220098	4805.673988
532.581396	4737.595726
532.942638	4668.640303
533.303824	4628.164879
533.664953	4571.625818
534.026025	4514.507024
534.387040	4479.196262
534.747999	4425.812964
535.108902	4385.929875
535.469748	4315.883042
535.830537	4271.261269
536.191270	4230.816092
536.551947	4179.391281
536.912567	4140.236639
537.273131	4102.916978
537.633638	4045.906569
537.994089	4011.246115
538.354483	3961.348775
538.714821	3934.083694
539.075103	3905.293664
539.435328	3858.516798
539.795497	3818.863082
540.155609	3779.252215
540.515665	3756.708175
540.875665	3704.028118
541.235609	3678.746731
541.595496	3646.206083
541.955328	3625.754122
542.315102	3580.759303
542.674821	3543.782440
543.034483	3512.255064
543.394090	3483.669201
543.753640	3454.874130
544.113134	3443.095474
544.472571	3398.582086
544.831953	3387.635220
545.191278	3353.486444
545.550548	3319.388079
545.909761	3307.780823
546.268918	3283.754683
546.628019	3264.681478
546.987064	3235.883886
547.346053	3202.884493
547.704986	3193.218081
548.063863	3166.860408
548.422684	3147.774599
548.781449	3125.094448
549.140158	3114.934003
549.498811	3095.192844
549.857408	3067.300140
550.215949	3055.854200
550.574434	3038.310985
550.932864	3021.024868
551.291237	3013.745442
551.649555	2995.849346
552.007817	2985.366267
552.366022	2967.533185
552.724173	2953.823767
553.082267	2945.246244
553.440305	2933.177721
553.798288	2917.993766
554.156215	2906.857857
554.514086	2896.909140
554.871902	2885.465721
555.229661	2874.460882
555.587365	2865.956455
555.945014	2856.161493
556.302606	2846.568178
556.660143	2840.894359
557.017625	2831.921105
557.375050	2822.146308
557.732421	2817.301759
558.089735	2809.649287
558.446994	2799.002371
558.804197	2794.908954
559.161345	2786.956533
559.518437	2779.561161
559.875474	2772.289296
560.232455	2769.665376
560.589381	2763.729417
560.946251	2757.916967
561.303065	2754.239445
561.659825	2747.380955
562.016528	2743.884915
562.373177	2735.534244
562.729770	2731.818913
563.086307	2729.313460
563.442789	2725.383880
563.799216	2721.839949
564.155587	2719.324413
564.511904	2714.850389
564.868164	2712.440718
565.224370	2709.375696
565.580520	2702.471836
565.936615	2704.841178
566.292654	2698.862370
566.648638	2700.107535
567.004567	2694.680733
567.360441	2691.661082
567.716260	2688.366688
568.072023	2689.274095
568.427732	2683.323013
568.783385	2683.043229
569.138982	2679.857220
569.494525	2679.418640
569.850013	2673.578463
570.205445	2677.001406
570.560823	2675.834379
570.916145	2674.793381
571.271412	2671.340191
571.626625	2673.588545
571.981782	2668.658297
572.336884	2667.554284
572.691931	2666.021773
573.046923	2665.366423
573.401860	2666.016732
573.756743	2664.045641
574.111570	2661.978768
574.466342	2660.887358
574.821059	2664.065806
575.175722	2658.545742
575.530330	2656.854435
575.884882	2658.883499
576.239380	2652.831594
576.593823	2654.122130
576.948211	2653.900319
577.302544	2653.887716
577.656823	2653.645741
578.011047	2653.338230
578.365216	2650.245482
578.719330	2647.487971
579.073389	2650.099289
579.427394	2646.825059
579.781344	2646.217600
580.135239	2645.940337
580.489080	2649.464103
580.842866	2645.577374
581.196597	2646.328506
581.550273	2644.922024
581.903895	2643.323978
582.257463	2644.067548
582.610975	2644.987559
582.964434	2642.078813
583.317837	2643.192908
583.671186	2642.840027
584.024481	2641.143679
584.377721	2641.297434
584.730906	2639.172588
585.084037	2640.473206
585.437113	2639.379275
585.790135	2639.288534
586.143103	2638.885242
586.496016	2636.556229
586.848874	2633.037504
587.201679	2632.714870
587.554428	2633.962555
587.907124	2634.985910
588.259765	2632.241001
588.612352	2636.341980
588.964884	2633.902062
589.317362	2634.496918
589.669786	2634.864922
590.022155	2635.129582
590.374470	2634.093625
590.726731	2634.728811
591.078937	2632.044396
591.431090	2633.468522
591.783188	2631.071454
592.135232	2633.720580
592.487222	2632.014149
592.839157	2629.249077
593.191038	2632.346866
593.542866	2632.127575
593.894639	2629.188583
594.246358	2630.257307
594.598022	2628.155146
594.949633	2627.509878
595.301190	2626.907461
595.652692	2628.303860
596.004141	2627.661113
596.355535	2625.251442
596.706876	2626.179014
597.058162	2627.341000
597.409395	2625.649693
597.760573	2625.163221
598.111698	2625.684981
598.462768	2626.975516
598.813785	2624.586009
599.164748	2623.829836
599.515657	2625.238839
599.866511	2624.971657
600.217312	2624.855711
600.568060	2626.105917
600.918753	2625.233797
601.269392	2622.193982
601.619978	2622.130967
601.970510	2624.275978
602.320988	2620.043930
602.671412	2625.800927
603.021783	2623.998715
603.372100	2623.292953
603.722363	2623.033334
604.072572	2624.890999
604.422728	2624.341513
604.772830	2619.078549
605.122878	2617.437653
605.472872	2620.238014
605.822813	2618.705503
606.172701	2620.633745
606.522534	2620.424537
606.872314	2622.539301
607.222041	2623.499641
607.571714	2623.121554
607.921333	2620.842952
608.270899	2620.190123
608.620411	2623.038375
608.969870	2621.319342
609.319276	2621.513426
609.668627	2624.303705
610.017926	2624.129785
610.367171	2624.162552
610.716362	2623.174486
611.065500	2623.504682
611.414585	2618.138373
611.763616	2621.722634
612.112594	2622.075515
612.461518	2623.413941
612.810389	2622.148611
613.159207	2619.403703
613.507971	2621.339506
613.856682	2621.939403
614.205340	2621.465535
614.553945	2622.909826
614.902496	2622.995525
615.250994	2621.460494
615.599439	2622.133488
615.947830	2617.858589
616.296169	2622.072994
616.644454	2621.553755
616.992686	2620.207767
617.340864	2620.285905
617.688990	2621.553755
618.037063	2621.130298
618.385082	2618.022427
618.733048	2623.643313
619.080961	2617.936727
619.428821	2620.598457
619.776628	2623.338324
620.124382	2620.575771
620.472083	2622.420834
620.819731	2623.562655
621.167326	2620.918570
621.514868	2620.989146
621.862357	2618.758435
622.209793	2619.144084
622.557176	2621.417644
622.904506	2616.081583
623.251783	2615.154010
623.599007	2617.961933
623.946179	2615.983280
624.293297	2615.900101
624.640363	2617.054525
624.987376	2616.734412
625.334336	2616.258023
625.681243	2618.612242
626.028097	2615.108640
626.374899	2615.146449
626.721647	2614.682662
627.068343	2615.401027
627.414987	2616.184926
627.761577	2614.370111
628.108115	2615.514453
628.454600	2613.760131
628.801032	2614.569237
629.147412	2614.412961
629.493739	2615.774072
629.840014	2615.703496
630.186236	2614.100409
630.532405	2613.923969
630.878521	2615.181737
631.224585	2617.414968
631.570597	2613.760131
631.916556	2614.443208
632.262462	2614.281891
632.608316	2613.127467
632.954117	2612.189812
633.299866	2615.219545
633.645562	2612.600666
633.991206	2613.427415
634.336797	2612.499843
634.682336	2613.656788
635.027823	2609.865840
635.373257	2608.797115
635.718639	2609.757455
636.063968	2609.200408
636.409245	2606.389964
636.754470	2610.130501
637.099642	2608.950871
637.444762	2610.339708
637.789829	2607.516662
638.134845	2610.374997
638.479808	2608.124121
638.824719	2609.757455
639.169577	2608.008175
639.514383	2605.603544
639.859137	2608.880294
640.203839	2607.972887
640.548489	2607.486415
640.893086	2603.024994
641.237632	2602.825869
641.582125	2603.496342
641.926566	2601.752103
642.270955	2606.556322
642.615292	2606.863833
642.959576	2608.018257
643.303809	2607.388113
643.647990	2606.044645
643.992118	2604.040787
644.336195	2606.200921
644.680219	2605.764861
645.024192	2606.571446
645.368112	2604.822166
645.711981	2606.682351
646.055797	2608.229986
646.399562	2606.218565
646.743274	2607.085644
647.086935	2608.262753
647.430544	2609.654112
647.774101	2608.096395
648.117606	2609.656632
648.461059	2610.135542
648.804460	2609.901128
649.147810	2605.346446
649.491108	2606.798298
649.834354	2605.172526
650.177548	2606.634460
650.520690	2605.122114
650.863781	2602.757813
651.206820	2604.076075
651.549807	2602.853595
651.892742	2603.133379
652.235626	2605.618668
652.578458	2604.895262
652.921238	2605.220417
653.263967	2603.992896
653.606644	2599.914602
653.949269	2602.616661
654.291843	2603.030035
654.634365	2603.839141
654.976836	2603.279572
655.319255	2604.121445
655.661622	2602.599017
656.003938	2602.704881
656.346203	2602.878801
656.688416	2600.358224
657.030577	2602.097422
657.372687	2602.036928
657.714746	2601.399222
658.056753	2600.753954
658.398708	2597.086515
658.740612	2598.525764
659.082465	2597.903182
659.424266	2597.527616
659.766016	2596.194231
660.107715	2599.617174
660.449362	2602.349480
660.790958	2601.812597
661.132503	2600.514500
661.473996	2602.714963
661.815438	2603.942484
662.156829	2604.338215
662.498168	2603.264449
662.839456	2602.321753
663.180693	2601.003492
663.521879	2604.759151
663.863013	2600.325456
664.204097	2601.898296
664.545129	2601.918461
664.886110	2601.043821
665.227040	2600.769078
665.567918	2603.748400
665.908746	2603.277052
666.249522	2602.883842
666.590248	2602.110025
666.930922	2601.686568
667.271545	2601.474839
667.612118	2601.946187
667.952639	2600.169181
668.293109	2604.660849
668.633528	2599.571804
668.973896	2599.347472
669.314213	2604.076075
669.654480	2601.041300
669.994695	2601.305961
670.334859	2601.414346
670.674973	2600.708584
671.015035	2602.029366
671.355047	2600.892586
671.695008	2602.069696
672.034918	2599.826382
672.374777	2598.177925
672.714585	2603.362752
673.054342	2601.311002
673.394049	2601.578183
673.733705	2601.358893
674.073310	2602.248657
674.412864	2601.111876
674.752368	2598.772781
675.091820	2601.817638
675.431223	2599.763368
675.770574	2600.055755
676.109875	2596.037955
676.449125	2597.484766
676.788324	2597.257914
677.127473	2599.397884
677.466571	2596.075764
677.805619	2602.667072
678.144616	2596.658017
678.483562	2600.789243
678.822458	2597.900661
679.161303	2598.866042
679.500098	2600.156578
679.838842	2600.038111
680.177535	2598.440065
680.516179	2601.489963
680.854771	2601.691609
681.193314	2601.772267
681.531805	2603.478698
681.870247	2601.615992
682.208638	2601.311002
682.546978	2601.409304
682.885268	2603.229161
683.223508	2603.753441
683.561697	2598.772781
683.899836	2600.922833
684.237925	2599.450816
684.575963	2602.392329
684.913951	2599.932246
685.251889	2600.645570
685.589776	2599.503748
685.927614	2601.799994
686.265401	2601.147164
686.603137	2602.430138
686.940824	2601.696650
687.278460	2601.734459
687.616046	2602.104984
687.953582	2603.471136
688.291068	2602.288986
688.628504	2602.561208
688.965889	2602.518358
689.303224	2604.048348
689.640510	2602.856116
689.977745	2603.501383
690.314930	2599.113059
690.652065	2600.270004
690.989150	2599.022318
691.326185	2600.063316
691.663170	2597.472163
692.000105	2598.114910
692.336990	2596.131216
692.673825	2595.831268
693.010610	2598.205651
693.347345	2593.499734
693.684030	2591.755495
694.020665	2592.451174
694.357251	2590.026379
694.693786	2592.345310
695.030272	2592.683067
695.366707	2594.686926
695.703093	2592.897316
696.039429	2594.573500
696.375716	2593.991247
696.711952	2592.735999
697.048139	2592.042841
697.384276	2594.530650
697.720363	2593.058633
698.056400	2594.142481
698.392388	2590.192737
698.728326	2592.481421
699.064214	2590.774990
699.400053	2592.796493
699.735842	2589.892788
700.071581	2591.367326
700.407270	2587.462952
700.742910	2593.134250
701.078501	2590.359095
701.414042	2591.634507
701.749533	2587.538570
702.084974	2589.504620
702.420366	2590.724579
702.755709	2591.110227
703.091002	2592.113417
703.426246	2591.576534
703.761440	2588.264496
704.096584	2589.555031
704.431679	2587.861203
704.766725	2589.060998
705.101721	2587.573858
705.436668	2589.769280
705.771565	2589.461770
706.106413	2588.342634
706.441212	2588.708117
706.775961	2588.085535
707.110661	2590.490165
707.445311	2588.599732
707.779913	2590.104517
708.114465	2590.885896
708.448967	2590.825402
708.783421	2591.004363
709.117825	2589.802048
709.452180	2590.863211
709.786485	2592.420927
710.120742	2590.580906
710.454949	2591.700042
710.789107	2589.827253
711.123216	2589.108889
711.457275	2589.784404
711.791286	2590.502768
712.125247	2592.206678
712.459159	2594.434868
712.793023	2597.361258
713.126837	2593.197265
713.460602	2594.392018
713.794318	2594.205496
714.127985	2595.982502
714.461602	2592.887234
714.795171	2594.104672
715.128691	2592.254569
715.462162	2591.760536
715.795584	2591.513519
716.128957	2593.303129
716.462281	2590.049064
716.795556	2590.918663
717.128782	2590.618715
717.461960	2590.475042
717.795088	2587.175607
718.128167	2590.515371
718.461198	2588.088055
718.794180	2589.923035
719.127113	2584.705441
719.459997	2584.904567
719.792833	2587.551172
720.125619	2588.443457
720.458357	2584.899526
720.791046	2587.717531
721.123686	2584.584453
721.456278	2585.963209
721.788821	2586.477407
722.121315	2586.651327
722.453761	2585.222159
722.786158	2585.383476
723.118506	2587.619228
723.450805	2587.301635
723.783056	2583.488002
724.115259	2586.132088
724.447412	2582.978846
724.779518	2587.571337
725.111574	2583.326686
725.443582	2586.714341
725.775542	2585.015472
726.107453	2585.814495
726.439315	2586.174937
726.771129	2589.910433
727.102895	2587.430185
727.434612	2587.702407
727.766281	2588.955134
728.097901	2586.182499
728.429473	2584.576892
728.760996	2584.443301
729.092471	2582.467169
729.423897	2587.140318
729.755276	2587.412541
730.086606	2586.822726
730.417887	2589.237438
730.749120	2590.621235
731.080305	2587.720051
731.411442	2592.317583
731.742530	2591.458067
732.073570	2589.938159
732.404562	2587.384814
732.735506	2590.860690
733.066401	2593.340938
733.397249	2589.618046
733.728048	2588.778693
734.058798	2589.489496
734.389501	2584.823908
734.720156	2586.545462
735.050762	2586.845411
735.381320	2586.684094
735.711831	2582.724268
736.042293	2584.912128
736.372707	2586.878178
736.703073	2584.138311
737.033391	2584.912128
737.363661	2582.391552
737.693883	2583.601428
738.024056	2587.924218
738.354182	2586.585792
738.684260	2586.096800
739.014290	2585.880030
739.344272	2586.520257
739.674207	2584.672674
740.004093	2589.214753
740.333931	2586.943713
740.663722	2587.261306
740.993464	2586.948755
741.323159	2586.626121
741.652806	2587.059660
741.982405	2586.101841
742.311956	2584.899526
742.641460	2585.874989
742.970915	2586.056470
743.300323	2585.806933
743.629683	2584.874320
743.958996	2582.726788
744.288260	2587.488158
744.617477	2584.781058
744.946647	2580.690162
745.275768	2580.720409
745.604842	2582.003383
745.933869	2580.990111
746.262847	2578.804771
746.591778	2581.736202
746.920662	2584.097982
747.249498	2584.108064
747.578286	2584.382807
747.907027	2583.437591
748.235720	2581.768969
748.564365	2585.607808
748.892963	2585.017993
749.221514	2583.798033
749.550017	2580.911973
749.878473	2584.765935
750.206881	2582.452045
750.535242	2584.745770
750.863555	2581.184195
751.191821	2583.619072
751.520039	2581.900039
751.848210	2585.751481
752.176334	2583.727457
752.504411	2581.400965
752.832440	2582.552868
753.160421	2582.121850
753.488356	2582.245358
753.816243	2583.349371
754.144082	2583.941706
754.471875	2582.678897
754.799620	2579.644123
755.127318	2581.156469
755.454969	2581.942889
755.782572	2580.914493
756.110129	2583.765266
756.437638	2582.807447
756.765100	2583.911459
757.092515	2582.235276
757.419882	2579.165213
757.747203	2582.026068
758.074477	2580.201170
758.401703	2582.298290
758.728882	2580.987590
759.056014	2581.358115
759.383099	2581.506829
759.710138	2584.902046
760.037129	2582.202508
760.364073	2584.178641
760.690970	2581.799216
761.017820	2580.894329
761.344623	2583.470358
761.671379	2580.470872
761.998088	2580.884247
762.324751	2582.232755
762.651366	2586.192582
762.977935	2592.650300
763.304456	2593.151894
763.630931	2601.595827
763.957359	2600.214551
764.283740	2598.011567
764.610074	2595.667430
764.936362	2592.796493
765.262602	2590.061667
765.588796	2589.320617
765.914943	2585.728795
766.241044	2582.736871
766.567097	2583.485482
766.893104	2585.131419
767.219064	2580.120512
767.544978	2582.129412
767.870845	2579.752507
768.196665	2578.905594
768.522438	2578.668659
768.848165	2580.175964
769.173846	2579.427353
769.499479	2578.986252
769.825066	2576.160685
770.150607	2576.458113
770.476101	2577.743608
770.801548	2577.171437
771.126949	2575.517938
771.452303	2577.199163
771.777611	2574.396282
772.102872	2577.292424
772.428087	2577.108422
772.753256	2578.232600
773.078378	2577.662949
773.403453	2575.434759
773.728482	2576.117836
774.053465	2573.002402
774.378401	2573.130952
774.703291	2575.248237
775.028135	2576.810994
775.352932	2574.970973
775.677683	2574.862588
776.002388	2576.090109
776.327046	2576.758062
776.651658	2575.288566
776.976224	2574.141703
777.300743	2575.651529
777.625216	2574.287897
777.949643	2576.248906
778.274024	2576.727815
778.598359	2570.963256
778.922647	2573.567012
779.246889	2572.606672
779.571086	2569.521486
779.895236	2569.445868
780.219339	2572.639439
780.543397	2575.520459
780.867409	2575.528021
781.191374	2575.401992
781.515294	2572.475602
781.839167	2573.168761
782.162995	2576.132959
782.486776	2572.732701
782.810511	2573.188925
783.134201	2572.813359
783.457844	2575.210428
783.781441	2574.968453
784.104993	2574.852506
784.428498	2571.535427
784.751958	2575.603638
785.075372	2573.181363
785.398739	2576.178329
785.722061	2573.582135
786.045337	2570.650704
786.368568	2572.392423
786.691752	2572.702454
787.014891	2573.229254
787.337983	2573.214131
787.661030	2575.308730
787.984031	2576.556416
788.306987	2577.738567
788.629897	2577.027764
788.952760	2578.898032
789.275579	2576.054821
789.598351	2579.044225
789.921078	2575.167578
790.243759	2575.875860
790.566395	2574.630695
790.888984	2573.534244
791.211529	2575.941395
791.534027	2575.303689
791.856480	2572.929306
792.178888	2574.086251
792.501249	2574.174471
792.823566	2573.992989
793.145836	2573.075499
793.468062	2573.932495
793.790241	2573.672876
794.112375	2574.212279
794.434464	2572.626837
794.756507	2574.113977
795.078505	2576.009451
795.400457	2573.027608
795.722364	2569.934860
796.044226	2573.390571
796.366042	2572.803277
796.687812	2574.250088
797.009538	2573.660273
797.331218	2576.576581
797.652852	2576.112794
797.974442	2575.117167
798.295986	2572.757907
798.617484	2576.042218
798.938938	2573.569532
799.260346	2575.066755
799.581709	2574.734039
799.903026	2576.856365
800.224299	2572.755386
800.545526	2573.448545
800.866708	2575.462486
801.187845	2574.812177
801.508936	2573.856878
801.829983	2572.760427
802.150984	2573.330077
802.471940	2571.147258
802.792851	2570.267577
803.113717	2577.700758
803.434538	2571.656414
803.755314	2574.592887
804.076045	2573.672876
804.396731	2571.172464
804.717372	2574.837382
805.037967	2571.411918
805.358518	2571.490056
805.679024	2573.599779
805.999485	2573.287228
806.319901	2574.199677
806.640272	2573.687999
806.960598	2573.781261
807.280879	2574.338308
807.601115	2573.549368
807.921306	2571.847978
808.241453	2573.045252
808.561554	2572.460478
808.881611	2574.507187
809.201623	2569.879408
809.521590	2571.041394
809.841513	2575.795202
810.161390	2574.174471
810.481223	2573.423339
810.801011	2572.349573
811.120755	2572.762948
811.440453	2572.571384
811.760107	2572.215982
812.079716	2571.364027
812.399281	2568.845971
812.718801	2570.426373
813.038276	2568.553584
813.357707	2575.795202
813.677093	2574.066086
813.996434	2571.079202
814.315731	2574.539954
814.634983	2573.158678
814.954191	2571.984089
815.273354	2572.115159
815.592473	2571.200190
815.911547	2573.733370
816.230577	2572.021898
816.549562	2571.021229
816.868502	2573.420818
817.187399	2573.246898
817.506250	2572.165571
817.825058	2570.859912
818.143821	2577.113463
818.462539	2576.614389
818.781213	2573.385530
819.099843	2576.314441
819.418429	2577.405850
819.736970	2578.676221
820.055466	2581.426171
820.373919	2586.926069
820.692327	2585.310380
821.010691	2593.487131
821.329011	2605.016250
821.647286	2627.333438
821.965517	2652.627427
822.283704	2670.430262
822.601847	2681.518280
822.919945	2671.801456
823.237999	2665.784839
823.556010	2656.544404
823.873976	2645.068217
824.191897	2634.940539
824.509775	2627.479632
824.827609	2619.252468
825.145398	2611.186622
825.463144	2607.937599
825.780845	2607.118411
826.098502	2605.124635
826.416116	2610.869030
826.733685	2616.265585
827.051210	2619.081069
827.368692	2622.017541
827.686129	2613.167796
828.003522	2609.611262
828.320872	2596.993254
828.638177	2589.761718
828.955439	2592.289857
829.272656	2583.561099
829.589830	2582.832652
829.906960	2583.064546
830.224046	2580.317117
830.541088	2578.197312
830.858086	2578.600604
831.175041	2576.198494
831.491952	2576.127918
831.808819	2578.479616
832.125642	2573.917372
832.442421	2577.695717
832.759157	2578.827456
833.075849	2583.523291
833.392497	2590.676688
833.709101	2590.908581
834.025662	2593.469487
834.342179	2593.303129
834.658653	2591.165680
834.975083	2587.122674
835.291469	2588.834146
835.607811	2585.063363
835.924110	2580.808629
836.240366	2578.769482
836.556578	2579.298804
836.872746	2575.273442
837.188871	2574.171950
837.504952	2572.730180
837.820990	2572.352094
838.136984	2567.792370
838.452935	2572.609192
838.768842	2571.109449
839.084706	2570.179356
839.400526	2572.233627
839.716303	2576.498443
840.032037	2576.591704
840.347727	2577.526838
840.663373	2578.588001
840.978977	2575.827969
841.294537	2574.345870
841.610054	2572.132803
841.925527	2574.431570
842.240957	2572.150447
842.556344	2572.473081
842.871687	2568.596434
843.186987	2571.802608
843.502244	2568.500652
843.817458	2572.107598
844.132629	2566.829510
844.447756	2570.736404
844.762840	2564.654252
845.077881	2563.378840
845.392879	2563.824982
845.707833	2565.939746
846.022745	2563.761968
846.337613	2566.161557
846.652438	2568.291444
846.967221	2569.098029
847.281960	2565.302040
847.596656	2569.619788
847.911309	2564.452606
848.225919	2568.805642
848.540485	2564.044272
848.855009	2570.005437
849.169490	2566.504355
849.483928	2568.939232
849.798323	2567.542833
850.112675	2568.533420
850.426984	2566.955538
850.741251	2563.797256
851.055474	2565.798594
851.369654	2570.234809
851.683792	2566.045610
851.997887	2567.729356
852.311938	2562.347924
852.625947	2567.000909
852.939914	2564.510579
853.253837	2569.750858
853.567718	2568.112483
853.881555	2563.141906
854.195350	2563.540157
854.509103	2566.917730
854.822812	2565.607030
855.136479	2567.071485
855.450103	2568.462843
855.763685	2565.869170
856.077224	2568.344376
856.390720	2567.252967
856.704173	2563.953531
857.017584	2566.973182
857.330953	2564.185424
857.644278	2567.212637
857.957561	2568.016701
858.270802	2565.758264
858.584000	2567.162226
858.897155	2566.053172
859.210268	2563.847667
859.523339	2566.892524
859.836367	2566.751372
860.149352	2566.529561
860.462295	2568.107442
860.775195	2562.531926
861.088054	2559.761812
861.400869	2562.816751
861.713642	2562.105948
862.026373	2564.911351
862.339062	2564.129972
862.651708	2567.449572
862.964312	2567.144582
863.276873	2567.378995
863.589392	2564.303892
863.901869	2567.167267
864.214303	2565.944787
864.526696	2567.442010
864.839045	2563.653583
865.151353	2566.164077
865.463619	2569.027453
865.775842	2568.530899
866.088023	2567.343707
866.400162	2565.314643
866.712258	2565.959911
867.024313	2566.048131
867.336325	2566.451423
867.648296	2566.385888
867.960224	2567.512586
868.272110	2567.467216
868.583954	2565.259190
868.895755	2567.260528
869.207515	2565.072668
869.519233	2566.728687
869.830909	2569.536609
870.142542	2567.668862
870.454134	2566.501835
870.765684	2566.731207
871.077191	2568.787998
871.388657	2566.660631
871.700081	2563.986299
872.011463	2567.189952
872.322803	2568.596434
872.634101	2567.321022
872.945357	2569.632391
873.256571	2572.029460
873.567744	2567.948646
873.878874	2566.930333
874.189963	2568.767833
874.501010	2568.747669
874.812015	2566.534602
875.122979	2569.962587
875.433900	2569.599624
875.744780	2568.614078
876.055618	2570.796898
876.366415	2567.810014
876.677169	2569.564336
876.987882	2567.091650
877.298554	2566.496793
877.609183	2566.837071
877.919771	2565.503686
878.230317	2566.579973
878.540822	2570.728842
878.851285	2570.973338
879.161707	2571.880746
879.472087	2571.268246
879.782425	2577.700758
880.092722	2581.584967
880.402977	2587.979671
880.713191	2599.602051
881.023363	2610.289297
881.333494	2617.278857
881.643583	2623.943262
881.953631	2625.811010
882.263637	2620.689197
882.573602	2616.905811
882.883526	2614.924638
883.193408	2613.641664
883.503248	2611.577312
883.813048	2607.572115
884.122806	2601.731938
884.432522	2599.203800
884.742197	2595.528798
885.051831	2592.027717
885.361424	2585.078487
885.670975	2584.503795
885.980485	2583.377097
886.289954	2577.602455
886.599382	2576.833679
886.908768	2577.557085
887.218113	2574.401323
887.527417	2576.011971
887.836680	2572.031980
888.145901	2572.939388
888.455082	2570.693554
888.764221	2571.351425
889.073319	2569.458471
889.382376	2569.067782
889.691392	2570.345714
890.000366	2566.673234
890.309300	2571.825293
890.618193	2568.178018
890.927044	2566.469067
891.235855	2570.779254
891.544625	2568.664490
891.853353	2567.983934
892.162041	2566.965621
892.470687	2571.885787
892.779293	2570.786815
893.087858	2569.405539
893.396381	2567.991496
893.704864	2573.531724
894.013306	2573.529203
894.321707	2578.373752
894.630068	2581.191757
894.938387	2583.742581
895.246665	2585.880030
895.554903	2583.298959
895.863100	2583.568661
896.171256	2580.634709
896.479371	2578.648495
896.787446	2579.460121
897.095480	2577.214287
897.403473	2577.108422
897.711425	2573.990469
898.019336	2572.866291
898.327207	2572.069789
898.635038	2572.619275
898.942827	2571.011147
899.250576	2572.909141
899.558284	2568.987123
899.865952	2572.984758
900.173579	2571.827814
900.481165	2568.903944
900.788711	2566.728687
901.096216	2568.011660
901.403681	2567.915878
901.711105	2566.915209
902.018489	2570.383523
902.325832	2570.691033
902.633135	2568.046948
902.940397	2567.628533
903.247619	2572.710016
903.554800	2569.879408
903.861941	2579.807960
904.169041	2585.065884
904.476101	2589.050916
904.783121	2588.196440
905.090100	2585.504464
905.397039	2587.094948
905.703938	2581.479103
906.010796	2581.950451
906.317614	2580.806109
906.624391	2579.329051
906.931129	2576.616910
907.237826	2574.550037
907.544483	2575.132290
907.851099	2572.581466
908.157675	2574.285376
908.464211	2570.116342
908.770707	2563.923284
909.077163	2564.800445
909.383578	2565.561659
909.689954	2561.841288
909.996289	2561.498489
910.302584	2565.309602
910.608839	2566.481670
910.915054	2566.138872
911.221229	2566.758933
911.527363	2565.226423
911.833458	2563.320867
912.139513	2566.345559
912.445527	2562.794066
912.751502	2564.505538
913.057436	2565.244067
913.363331	2567.230281
913.669186	2568.966959
913.975000	2568.644325
914.280775	2569.408060
914.586510	2571.167422
914.892205	2573.435942
915.197859	2578.172106
915.503475	2578.698906
915.809050	2582.641089
916.114585	2585.484299
916.420081	2586.046388
916.725536	2588.798858
917.030952	2590.795155
917.336328	2585.373394
917.641665	2586.124526
917.946961	2580.609504
918.252218	2583.495564
918.557435	2579.538258
918.862612	2578.535069
919.167750	2579.117322
919.472848	2580.793506
919.777906	2577.000038
920.082925	2575.520459
920.387904	2573.725808
920.692843	2573.022567
920.997743	2570.862433
921.302603	2571.948801
921.607423	2568.172977
921.912204	2567.557956
922.216946	2568.866136
922.521647	2569.239181
922.826310	2565.632236
923.130932	2565.324725
923.435516	2563.827502
923.740059	2564.936556
924.044564	2563.973696
924.349028	2567.210117
924.653454	2561.700136
924.957840	2560.777604
925.262186	2560.797769
925.566493	2563.131823
925.870761	2560.424724
926.174989	2563.290620
926.479178	2565.445713
926.783328	2564.452606
927.087438	2563.804817
927.391509	2562.660475
927.695541	2561.243911
927.999533	2562.174004
928.303486	2562.413459
928.607400	2565.299519
928.911275	2563.031000
929.215110	2563.882955
929.518906	2562.761298
929.822663	2565.546536
930.126381	2562.325239
930.430060	2561.869014
930.733699	2560.366750
931.037299	2561.359858
931.340861	2561.858932
931.644383	2563.386402
931.947866	2564.344221
932.251309	2560.941442
932.554714	2561.576627
932.858080	2563.162070
933.161407	2562.121072
933.464694	2564.555949
933.767943	2562.176525
934.071153	2560.918757
934.374323	2563.696432
934.677455	2561.841288
934.980548	2560.039075
935.283602	2562.219374
935.586617	2559.237532
935.889593	2561.261555
936.192530	2562.799107
936.495428	2560.538150
936.798287	2561.188458
937.101108	2564.873542
937.403890	2561.967317
937.706632	2563.237687
938.009336	2563.830023
938.312002	2562.010167
938.614628	2561.717780
938.917216	2566.577452
939.219765	2561.929508
939.522275	2563.288099
939.824747	2565.594427
940.127179	2560.613767
940.429573	2559.366081
940.731929	2561.054868
941.034246	2560.465053
941.336524	2558.861966
941.638763	2565.319684
941.940964	2563.134344
942.243126	2564.603840
942.545250	2561.926988
942.847335	2563.204920
943.149381	2560.800290
943.451389	2562.300033
943.753359	2565.637277
944.055290	2560.419682
944.357182	2565.027297
944.659036	2561.354817
944.960851	2564.044272
945.262628	2562.224416
945.564367	2561.178376
945.866067	2562.978068
946.167729	2561.458160
946.469352	2563.361196
946.770937	2564.440003
947.072484	2563.366237
947.373992	2563.938408
947.675462	2560.051678
947.976893	2560.442368
948.278286	2561.299364
948.579641	2559.487069
948.880958	2559.721483
949.182236	2562.912533
949.483476	2565.070147
949.784678	2563.308264
950.085841	2562.463870
950.386967	2564.729869
950.688054	2561.140568
950.989103	2563.396484
951.290114	2562.506720
951.591087	2562.373130
951.892021	2563.053685
952.192917	2563.421690
952.493776	2562.148798
952.794596	2561.949673
953.095378	2564.576114
953.396122	2562.433623
953.696828	2561.150650
953.997496	2562.557132
954.298126	2562.103428
954.598718	2560.911195
954.899272	2561.679971
955.199788	2561.339693
955.500266	2562.670558
955.800706	2561.511092
956.101108	2559.950855
956.401472	2561.266596
956.701798	2557.891544
957.002087	2557.132850
957.302337	2561.334652
957.602550	2560.709549
957.902724	2561.677450
958.202861	2560.293654
958.502960	2560.276010
958.803022	2563.590568
959.103045	2560.606205
959.403031	2558.183931
959.702979	2560.376833
960.002889	2561.901782
960.302762	2560.797769
960.602596	2560.122254
960.902393	2559.693756
961.202153	2561.165773
961.501875	2560.946483
961.801559	2561.508572
962.101205	2558.995557
962.400814	2556.860628
962.700385	2558.347768
962.999918	2560.767522
963.299414	2559.973540
963.598873	2560.023952
963.898293	2557.818447
964.197677	2558.375495
964.497022	2561.654765
964.796331	2560.570917
965.095601	2559.534960
965.394835	2558.645196
965.694030	2557.800803
965.993189	2559.066133
966.292309	2558.660320
966.591393	2558.501523
966.890439	2559.028324
967.189447	2558.085628
967.488419	2558.320042
967.787353	2559.363561
968.086249	2561.059909
968.385108	2560.477656
968.683930	2559.023283
968.982714	2561.080074
969.281462	2561.299364
969.580172	2560.122254
969.878844	2560.797769
970.177480	2557.258879
970.476078	2560.084446
970.774639	2560.512944
971.073162	2558.065464
971.371649	2558.355330
971.670098	2555.885165
971.968510	2556.948848
972.266885	2553.498178
972.565223	2560.936401
972.863524	2559.182079
973.161788	2559.484548
973.460014	2559.471946
973.758204	2560.331462
974.056356	2558.859445
974.354471	2560.807851
974.652550	2558.773746
974.950591	2559.257697
975.248595	2557.868859
975.546563	2561.621998
975.844493	2560.139898
976.142386	2559.106462
976.440243	2560.245763
976.738062	2562.421021
977.035845	2560.641493
977.333590	2560.959086
977.631299	2561.984961
977.928971	2558.042778
978.226606	2560.311298
978.524204	2559.124106
978.821765	2559.981102
979.119290	2560.598643
979.416777	2558.264589
979.714228	2559.708880
980.011642	2561.710218
980.309020	2561.808520
980.606360	2559.474466
980.903664	2559.464384
981.200931	2563.512430
981.498162	2558.965310
981.795356	2560.684343
982.092513	2561.990002
982.389633	2564.903789
982.686717	2561.896741
982.983764	2563.830023
983.280775	2563.923284
983.577749	2563.187276
983.874686	2560.092008
984.171587	2563.620815
984.468451	2563.368757
984.765279	2561.064950
985.062070	2564.553429
985.358824	2560.283571
985.655543	2557.911708
985.952224	2562.678119
986.248869	2559.993705
986.545478	2557.959599
986.842050	2557.175700
987.138586	2556.684187
987.435086	2555.746533
987.731549	2554.912222
988.027975	2554.317366
988.324366	2558.315001
988.620719	2559.182079
988.917037	2557.780638
989.213318	2560.475135
989.509563	2559.948335
989.805772	2559.149312
990.101944	2557.105124
990.398080	2558.015052
990.694180	2561.208623
990.990244	2554.826522
991.286271	2560.245763
991.582262	2556.696790
991.878217	2559.504713
992.174136	2560.162584
992.470019	2557.387428
992.765865	2559.325752
993.061676	2556.734599
993.357450	2559.164435
993.653188	2557.626883
993.948890	2560.628890
994.244556	2559.348437
994.540186	2558.297357
994.835780	2558.816596
995.131337	2560.654096
995.426859	2557.664692
995.722345	2558.962789
996.017795	2559.045968
996.313208	2559.421534
996.608586	2562.587379
996.903928	2560.157542
997.199234	2563.368758
997.494504	2561.198541
997.789738	2560.495300
998.084936	2559.721483
998.380099	2561.506051
998.675225	2562.350444
998.970316	2560.276010
999.265371	2558.655279
999.560390	2561.879097
999.855373	2559.164435
1000.150320	2559.736606
1000.445232	2557.536143
1000.740108	2556.754764
1001.034948	2558.370453
1001.329752	2556.245607
1001.624521	2559.333314
1001.919254	2554.632438
1002.213951	2557.044630
1002.508613	2556.948848
1002.803239	2556.608570
1003.097829	2553.737633
1003.392384	2555.459187
1003.686903	2557.392470
1003.981386	2557.470607
1004.275834	2556.485062
1004.570246	2559.108982
1004.864623	2558.078067
1005.158964	2558.597305
1005.453270	2557.644527
1005.747540	2558.675443
1006.041775	2559.673592
1006.335974	2557.586554
1006.630138	2556.573282
1006.924266	2559.613098
1007.218359	2558.924980
1007.512416	2556.152346
1007.806438	2559.585372
1008.100425	2556.916081
1008.394376	2559.250135
1008.688292	2560.273489
1008.982172	2559.555125
1009.276017	2556.076728
1009.569827	2559.141750
1009.863602	2557.258879
1010.157341	2558.488921
1010.451045	2559.597974
1010.744714	2555.958261
1011.038347	2556.427089
1011.331945	2555.343241
1011.625508	2556.106975
1011.919036	2553.906512
1012.212528	2557.526060
1012.505986	2556.905998
1012.799408	2555.156718
1013.092795	2558.935063
1013.386147	2556.197716
1013.679464	2559.038406
1013.972745	2558.367933
1014.265992	2555.741492
1014.559204	2556.618652
1014.852380	2558.075546
1015.145521	2557.218550
1015.438628	2556.109496
1015.731699	2556.603529
1016.024736	2558.292316
1016.317737	2557.768036
1016.610703	2557.778118
1016.903635	2553.654454
1017.196531	2551.529608
1017.489393	2554.382901
1017.782219	2554.786193
1018.075011	2554.703014
1018.367768	2559.988664
1018.660490	2559.076215
1018.953177	2559.076215
1019.245829	2559.076215
