Dividing Wavelength (nm)	Counts (n)	Blue Motor Position (mm): 0.000000	Red Motor Position (mm): 2.000000	
326.493990	2192.901923
326.888308	2192.901923
327.282561	2192.901923
327.676750	2059.311346
328.070874	2155.093269
328.464933	2124.846346
328.858929	2160.134423
329.252859	2175.257885
329.646726	2132.408077
330.040528	2190.381346
330.434265	2170.216731
330.827938	2218.107692
331.221547	2215.587115
331.615091	2260.957500
332.008571	2208.025385
332.401986	2288.683846
332.795338	2288.683846
333.188625	2402.109808
333.581847	2308.848462
333.975006	2429.836154
334.368100	2389.506923
334.761129	2505.453462
335.154095	2470.165385
335.546996	2525.618077
335.939833	2414.712692
336.332606	2480.247692
336.725315	2477.727115
337.117960	2565.947308
337.510540	2518.056346
337.903056	2497.891731
338.295508	2505.453462
338.687896	2608.797115
339.080220	2523.097500
339.472480	2563.426731
339.864676	2583.591346
340.256807	2538.220962
340.648875	2618.879423
341.040879	2601.235385
341.432818	2606.276538
341.824694	2676.852692
342.216506	2659.208654
342.608253	2538.220962
342.999937	2606.276538
343.391557	2583.591346
343.783113	2669.290962
344.174605	2674.332115
344.566033	2598.714808
344.957397	2558.385577
345.348697	2555.865000
345.739934	2588.632500
346.131106	2570.988462
346.522215	2588.632500
346.913260	2659.208654
347.304241	2528.138654
347.695159	2583.591346
348.086012	2570.988462
348.476802	2563.426731
348.867528	2644.085192
349.258191	2563.426731
349.648789	2495.371154
350.039324	2545.782692
350.429796	2666.770385
350.820203	2611.317692
351.210548	2586.111923
351.600828	2558.385577
351.991045	2563.426731
352.381198	2548.303269
352.771288	2520.576923
353.161314	2634.002885
353.551276	2507.974038
353.941175	2550.823846
354.331010	2538.220962
354.720782	2540.741538
355.110490	2555.865000
355.500135	2598.714808
355.889717	2480.247692
356.279235	2593.673654
356.668689	2671.811538
357.058080	2553.344423
357.447408	2568.467885
357.836672	2475.206538
358.225873	2540.741538
358.615010	2550.823846
359.004084	2560.906154
359.393095	2513.015192
359.782043	2518.056346
360.170927	2576.029615
360.559748	2576.029615
360.948505	2555.865000
361.337199	2530.659231
361.725830	2538.220962
362.114398	2497.891731
362.502903	2528.138654
362.891344	2492.850577
363.279722	2560.906154
363.668037	2513.015192
364.056289	2518.056346
364.444478	2568.467885
364.832603	2510.494615
365.220665	2581.070769
365.608665	2596.194231
365.996601	2482.768269
366.384474	2502.932885
366.772284	2525.618077
367.160031	2550.823846
367.547715	2543.262115
367.935336	2525.618077
368.322893	2530.659231
368.710388	2502.932885
369.097820	2530.659231
369.485189	2646.605769
369.872495	2502.932885
370.259738	2565.947308
370.646918	2525.618077
371.034035	2450.000769
371.421090	2523.097500
371.808081	2591.153077
372.195010	2674.332115
372.581875	2553.344423
372.968678	2520.576923
373.355418	2535.700385
373.742096	2480.247692
374.128710	2636.523462
374.515262	2616.358846
374.901751	2515.535769
375.288177	2548.303269
375.674540	2646.605769
376.060841	2578.550192
376.447079	2558.385577
376.833254	2558.385577
377.219367	2578.550192
377.605417	2603.755962
377.991404	2462.603654
378.377329	2558.385577
378.763191	2623.920577
379.148991	2568.467885
379.534727	2576.029615
379.920402	2691.976154
380.306013	2523.097500
380.691563	2626.441154
381.077049	2639.044038
381.462474	2598.714808
381.847835	2621.400000
382.233134	2606.276538
382.618371	2583.591346
383.003545	2598.714808
383.388657	2502.932885
383.773706	2596.194231
384.158693	2568.467885
384.543618	2586.111923
384.928480	2618.879423
385.313280	2616.358846
385.698017	2588.632500
386.082692	2563.426731
386.467305	2573.509038
386.851856	2538.220962
387.236344	2608.797115
387.620770	2634.002885
388.005133	2606.276538
388.389435	2465.124231
388.773674	2563.426731
389.157851	2578.550192
389.541965	2621.400000
389.926018	2523.097500
390.310008	2573.509038
390.693936	2616.358846
391.077802	2563.426731
391.461606	2570.988462
391.845348	2550.823846
392.229027	2621.400000
392.612645	2659.208654
392.996200	2611.317692
393.379694	2606.276538
393.763125	2586.111923
394.146494	2636.523462
394.529801	2623.920577
394.913047	2581.070769
395.296230	2598.714808
395.679351	2603.755962
396.062410	2598.714808
396.445408	2586.111923
396.828343	2626.441154
397.211217	2598.714808
397.594028	2606.276538
397.976778	2553.344423
398.359466	2608.797115
398.742092	2634.002885
399.124656	2563.426731
399.507158	2628.961731
399.889598	2525.618077
400.271977	2603.755962
400.654294	2626.441154
401.036549	2601.235385
401.418742	2669.290962
401.800874	2613.838269
402.182944	2535.700385
402.564952	2583.591346
402.946898	2581.070769
403.328783	2583.591346
403.710606	2565.947308
404.092367	2639.044038
404.474067	2570.988462
404.855705	2596.194231
405.237282	2651.646923
405.618797	2558.385577
406.000250	2578.550192
406.381642	2520.576923
406.762972	2568.467885
407.144240	2530.659231
407.525447	2649.126346
407.906593	2558.385577
408.287677	2631.482308
408.668700	2588.632500
409.049661	2636.523462
409.430560	2553.344423
409.811399	2674.332115
410.192176	2601.235385
410.572891	2684.414423
410.953545	2573.509038
411.334138	2515.535769
411.714669	2611.317692
412.095139	2702.058462
412.475547	2661.729231
412.855894	2626.441154
413.236180	2628.961731
413.616405	2641.564615
413.996568	2621.400000
414.376670	2586.111923
414.756711	2528.138654
415.136691	2649.126346
415.516609	2550.823846
415.896466	2641.564615
416.276262	2558.385577
416.655997	2568.467885
417.035670	2598.714808
417.415283	2646.605769
417.794834	2586.111923
418.174324	2593.673654
418.553753	2543.262115
418.933121	2538.220962
419.312428	2578.550192
419.691674	2563.426731
420.070859	2626.441154
420.449983	2596.194231
420.829045	2553.344423
421.208047	2583.591346
421.586988	2591.153077
421.965867	2628.961731
422.344686	2634.002885
422.723444	2576.029615
423.102141	2631.482308
423.480777	2520.576923
423.859352	2583.591346
424.237866	2591.153077
424.616319	2548.303269
424.994712	2641.564615
425.373044	2601.235385
425.751314	2626.441154
426.129524	2616.358846
426.507673	2523.097500
426.885762	2641.564615
427.263789	2686.935000
427.641756	2603.755962
428.019662	2588.632500
428.397508	2606.276538
428.775292	2676.852692
429.153016	2538.220962
429.530679	2611.317692
429.908282	2593.673654
430.285824	2553.344423
430.663305	2639.044038
431.040726	2623.920577
431.418086	2651.646923
431.795385	2626.441154
432.172624	2510.494615
432.549802	2538.220962
432.926920	2550.823846
433.303977	2555.865000
433.680974	2618.879423
434.057910	2545.782692
434.434786	2603.755962
434.811601	2646.605769
435.188355	2623.920577
435.565050	2608.797115
435.941683	2618.879423
436.318257	2510.494615
436.694770	2618.879423
437.071222	2641.564615
437.447614	2649.126346
437.823946	2664.249808
438.200218	2601.235385
438.576429	2704.579038
438.952580	2591.153077
439.328670	2649.126346
439.704700	2666.770385
440.080670	2596.194231
440.456580	2737.346538
440.832429	2661.729231
441.208218	2765.072885
441.583947	2754.990577
441.959616	2760.031731
442.335224	2805.402115
442.710773	2802.881538
443.086261	2818.005000
443.461689	2671.811538
443.837057	2754.990577
444.212365	2949.075000
444.587612	2848.251923
444.962800	2901.184038
445.337927	2863.375385
445.712995	2933.951538
446.088002	2996.965962
446.462949	2971.760192
446.837837	3117.953654
447.212664	3130.556538
447.587431	3095.268462
447.962139	3226.338462
448.336786	3511.163654
448.711374	3453.190385
449.085901	3430.505192
449.460369	3448.149231
449.834776	3559.054615
450.209124	3740.536154
450.583412	3828.756346
450.957640	3937.141154
451.331808	3886.729615
451.705917	3896.811923
452.079965	3916.976538
452.453954	4000.155577
452.827883	4035.443654
453.201752	4206.842885
453.575562	4247.172115
453.949311	4438.735962
454.323001	4479.065192
454.696632	4658.026154
455.070202	4915.125000
455.443713	5031.071538
455.817164	5283.129231
456.190556	5358.746538
456.563888	5494.857692
456.937160	5638.530577
457.310373	5610.804231
457.683526	5711.627308
458.056619	5739.353654
458.429653	5852.779615
458.802628	5837.656154
459.175542	6152.728269
459.548398	6616.514423
459.921194	6901.339615
460.293930	7236.576346
460.666607	7637.348077
461.039224	8388.480000
461.411782	8822.019231
461.784280	8844.704423
462.156719	8920.321731
462.529099	8910.239423
462.901419	8625.414231
463.273680	8811.936923
463.645882	8917.801154
464.018024	8970.733269
464.390106	9474.848654
464.762130	9807.564808
465.134094	10601.546538
465.505999	12287.812500
465.877845	14460.549808
466.249631	16028.348654
466.621358	15756.126346
466.993026	15367.957500
467.364634	15161.270192
467.736184	14558.852308
468.107674	14178.245192
468.479105	14642.031346
468.850477	14256.383077
469.221790	14480.714423
469.593043	14115.230769
469.964238	13832.926154
470.335373	13812.761538
470.706449	14548.770000
471.077467	14689.922308
471.448425	16877.783077
471.819324	20320.891154
472.190164	20865.335769
472.560945	17391.980769
472.931667	16388.791154
473.302330	16096.404231
473.672934	16643.369423
474.043479	16678.657500
474.413965	16529.943462
474.784393	16219.912500
475.154761	17258.390192
475.525070	17137.402500
475.895321	17008.853077
476.265513	17964.151731
476.635645	18664.872115
477.005719	18690.077885
477.375734	18972.382500
477.745691	19252.166538
478.115588	19657.979423
478.485427	20643.525000
478.855207	22218.885577
479.224928	23680.820192
479.594591	25757.775577
479.964194	25137.713654
480.333739	25510.759038
480.703226	25707.364038
481.072653	25838.434038
481.442022	26251.808654
481.811333	26617.292308
482.180584	26556.798462
482.549777	26019.915577
482.918912	26040.080192
483.287988	25782.981346
483.657005	25331.798077
484.025964	25598.979231
484.394864	25475.470962
484.763706	24986.479038
485.132489	24540.336923
485.501213	24699.133269
485.869879	24167.291538
486.238487	24154.688654
486.607036	24323.567308
486.975527	24031.180385
487.343959	24295.840962
487.712333	23799.287308
488.080648	23605.202885
488.448905	24089.153654
488.817104	23499.338654
489.185244	24442.034423
489.553326	24038.742115
489.921350	25236.016154
490.289315	27363.383077
490.657222	28570.739423
491.025070	28845.482308
491.392861	28124.597308
491.760593	27086.119615
492.128267	26002.271538
492.495883	24976.396731
492.863440	23884.986923
493.230939	23539.667885
493.598380	22763.330192
493.965763	22276.858846
494.333088	21545.891538
494.700354	21298.875000
495.067563	20812.403654
495.434713	20585.551731
495.801805	20555.304808
496.168839	19952.886923
496.535815	19894.913654
496.902733	19605.047308
497.269593	19143.781731
497.636395	19446.250962
498.003139	19136.220000
498.369825	18495.993462
498.736453	18170.839038
499.103023	17994.398654
499.469535	18191.003654
499.835989	17578.503462
500.202385	17772.587885
500.568723	16968.523846
500.935003	17202.937500
501.301226	16746.713077
501.667390	16940.797500
502.033497	16708.904423
502.399546	16403.914615
502.765537	15693.111923
503.131470	15859.470000
503.497345	15677.988462
503.863163	15229.325769
504.228923	14866.362692
504.594625	14873.924423
504.960269	14291.671154
505.325856	14437.864615
505.691385	13895.940577
506.056856	13996.763654
506.422270	13817.802692
506.787625	13049.026731
507.152924	13258.234615
507.518164	13258.234615
507.883347	12764.201538
508.248472	12247.483269
508.613540	12224.798077
508.978550	12058.440000
509.343503	12078.604615
509.708398	11720.682692
510.073236	11551.804038
510.438016	11319.910962
510.802738	10929.221538
511.167403	10702.369615
511.532010	10805.713269
511.896561	10664.560962
512.261053	10437.709038
512.625488	10178.089615
512.989866	9999.128654
513.354186	9621.042115
513.718449	9585.754038
514.082655	9568.110000
514.446803	9116.926731
514.810894	9192.544038
515.174927	8837.142692
515.538904	8723.716731
515.902822	8504.426538
516.266684	8277.574615
516.630488	8078.449038
516.994235	7841.514808
517.357925	7733.130000
517.721558	7619.704038
518.085133	7440.743077
518.448651	7299.590769
518.812112	7090.382885
519.175516	7062.656538
519.538863	6954.271731
519.902152	6745.063846
520.265385	6674.487692
520.628560	6477.882692
520.991678	6298.921731
521.354739	6198.098654
521.717743	6135.084231
522.080690	5998.973077
522.443580	6006.534808
522.806413	5764.559423
523.169189	5578.036731
523.531908	5492.337115
523.894569	5499.898846
524.257174	5315.896731
524.619722	5250.361731
524.982213	5046.195000
525.344647	5008.386346
525.707025	5013.427500
526.069345	4920.166154
526.431608	4726.081731
526.793815	4801.699038
527.155964	4569.805962
527.518057	4526.956154
527.880093	4451.338846
528.242072	4317.748269
528.603995	4330.351154
528.965860	4194.240000
529.327669	4073.252308
529.689421	4121.143269
530.051117	4133.746154
530.412755	4000.155577
530.774337	3916.976538
531.135862	3775.824231
531.497331	3818.674038
531.858743	3775.824231
532.220098	3738.015577
532.581396	3576.698654
532.942638	3637.192500
533.303824	3531.328269
533.664953	3430.505192
534.026025	3521.245962
534.387040	3435.546346
534.747999	3364.970192
535.108902	3453.190385
535.469748	3276.750000
535.830537	3317.079231
536.191270	3284.311731
536.551947	3309.517500
536.912567	3238.941346
537.273131	3170.885769
537.633638	3090.227308
537.994089	3203.653269
538.354483	3175.926923
538.714821	3160.803462
539.075103	3128.035962
539.435328	2991.924808
539.795497	2971.760192
540.155609	3049.898077
540.515665	3032.254038
540.875665	2938.992692
541.235609	2946.554423
541.595496	2946.554423
541.955328	2936.472115
542.315102	2916.307500
542.674821	2906.225192
543.034483	2903.704615
543.394090	2873.457692
543.753640	2883.540000
544.113134	2818.005000
544.472571	2838.169615
544.831953	2918.828077
545.191278	2787.758077
545.550548	2792.799231
545.909761	2744.908269
546.268918	2785.237500
546.628019	2739.867115
546.987064	2845.731346
547.346053	2802.881538
547.704986	2787.758077
548.063863	2611.317692
548.422684	2800.360962
548.781449	2838.169615
549.140158	2722.223077
549.498811	2785.237500
549.857408	2712.140769
550.215949	2739.867115
550.574434	2669.290962
550.932864	2807.922692
551.291237	2697.017308
551.649555	2777.675769
552.007817	2694.496731
552.366022	2765.072885
552.724173	2704.579038
553.082267	2639.044038
553.440305	2684.414423
553.798288	2681.893846
554.156215	2691.976154
554.514086	2611.317692
554.871902	2709.620192
555.229661	2636.523462
555.587365	2686.935000
555.945014	2707.099615
556.302606	2671.811538
556.660143	2760.031731
557.017625	2679.373269
557.375050	2644.085192
557.732421	2603.755962
558.089735	2671.811538
558.446994	2714.661346
558.804197	2684.414423
559.161345	2707.099615
559.518437	2616.358846
559.875474	2742.387692
560.232455	2661.729231
560.589381	2550.823846
560.946251	2704.579038
561.303065	2749.949423
561.659825	2656.688077
562.016528	2651.646923
562.373177	2576.029615
562.729770	2671.811538
563.086307	2654.167500
563.442789	2644.085192
563.799216	2616.358846
564.155587	2694.496731
564.511904	2656.688077
564.868164	2666.770385
565.224370	2666.770385
565.580520	2634.002885
565.936615	2631.482308
566.292654	2628.961731
566.648638	2669.290962
567.004567	2654.167500
567.360441	2651.646923
567.716260	2626.441154
568.072023	2613.838269
568.427732	2543.262115
568.783385	2717.181923
569.138982	2611.317692
569.494525	2644.085192
569.850013	2586.111923
570.205445	2646.605769
570.560823	2583.591346
570.916145	2686.935000
571.271412	2611.317692
571.626625	2694.496731
571.981782	2659.208654
572.336884	2671.811538
572.691931	2628.961731
573.046923	2651.646923
573.401860	2591.153077
573.756743	2573.509038
574.111570	2586.111923
574.466342	2654.167500
574.821059	2616.358846
575.175722	2742.387692
575.530330	2646.605769
575.884882	2649.126346
576.239380	2596.194231
576.593823	2669.290962
576.948211	2596.194231
577.302544	2628.961731
577.656823	2608.797115
578.011047	2603.755962
578.365216	2598.714808
578.719330	2608.797115
579.073389	2654.167500
579.427394	2689.455577
579.781344	2717.181923
580.135239	2679.373269
580.489080	2674.332115
580.842866	2591.153077
581.196597	2689.455577
581.550273	2634.002885
581.903895	2664.249808
582.257463	2606.276538
582.610975	2631.482308
582.964434	2613.838269
583.317837	2591.153077
583.671186	2606.276538
584.024481	2664.249808
584.377721	2606.276538
584.730906	2636.523462
585.084037	2586.111923
585.437113	2578.550192
585.790135	2601.235385
586.143103	2548.303269
586.496016	2608.797115
586.848874	2649.126346
587.201679	2689.455577
587.554428	2565.947308
587.907124	2583.591346
588.259765	2603.755962
588.612352	2583.591346
588.964884	2669.290962
589.317362	2568.467885
589.669786	2636.523462
590.022155	2565.947308
590.374470	2616.358846
590.726731	2548.303269
591.078937	2583.591346
591.431090	2664.249808
591.783188	2649.126346
592.135232	2664.249808
592.487222	2639.044038
592.839157	2641.564615
593.191038	2707.099615
593.542866	2623.920577
593.894639	2656.688077
594.246358	2628.961731
594.598022	2570.988462
594.949633	2679.373269
595.301190	2646.605769
595.652692	2634.002885
596.004141	2623.920577
596.355535	2651.646923
596.706876	2664.249808
597.058162	2654.167500
597.409395	2631.482308
597.760573	2626.441154
598.111698	2616.358846
598.462768	2626.441154
598.813785	2702.058462
599.164748	2712.140769
599.515657	2679.373269
599.866511	2699.537885
600.217312	2634.002885
600.568060	2591.153077
600.918753	2651.646923
601.269392	2613.838269
601.619978	2684.414423
601.970510	2586.111923
602.320988	2646.605769
602.671412	2646.605769
603.021783	2697.017308
603.372100	2626.441154
603.722363	2623.920577
604.072572	2593.673654
604.422728	2689.455577
604.772830	2649.126346
605.122878	2699.537885
605.472872	2661.729231
605.822813	2641.564615
606.172701	2623.920577
606.522534	2623.920577
606.872314	2583.591346
607.222041	2475.206538
607.571714	2631.482308
607.921333	2596.194231
608.270899	2621.400000
608.620411	2661.729231
608.969870	2639.044038
609.319276	2616.358846
609.668627	2613.838269
610.017926	2671.811538
610.367171	2621.400000
610.716362	2568.467885
611.065500	2578.550192
611.414585	2702.058462
611.763616	2651.646923
612.112594	2646.605769
612.461518	2644.085192
612.810389	2603.755962
613.159207	2691.976154
613.507971	2691.976154
613.856682	2704.579038
614.205340	2586.111923
614.553945	2596.194231
614.902496	2560.906154
615.250994	2596.194231
615.599439	2641.564615
615.947830	2623.920577
616.296169	2598.714808
616.644454	2616.358846
616.992686	2634.002885
617.340864	2545.782692
617.688990	2570.988462
618.037063	2593.673654
618.385082	2654.167500
618.733048	2611.317692
619.080961	2598.714808
619.428821	2611.317692
619.776628	2586.111923
620.124382	2646.605769
620.472083	2606.276538
620.819731	2613.838269
621.167326	2586.111923
621.514868	2598.714808
621.862357	2644.085192
622.209793	2634.002885
622.557176	2717.181923
622.904506	2649.126346
623.251783	2654.167500
623.599007	2545.782692
623.946179	2606.276538
624.293297	2674.332115
624.640363	2628.961731
624.987376	2666.770385
625.334336	2583.591346
625.681243	2649.126346
626.028097	2540.741538
626.374899	2618.879423
626.721647	2654.167500
627.068343	2676.852692
627.414987	2674.332115
627.761577	2656.688077
628.108115	2644.085192
628.454600	2530.659231
628.801032	2639.044038
629.147412	2656.688077
629.493739	2578.550192
629.840014	2611.317692
630.186236	2636.523462
630.532405	2654.167500
630.878521	2608.797115
631.224585	2628.961731
631.570597	2636.523462
631.916556	2618.879423
632.262462	2676.852692
632.608316	2588.632500
632.954117	2628.961731
633.299866	2679.373269
633.645562	2674.332115
633.991206	2674.332115
634.336797	2573.509038
634.682336	2644.085192
635.027823	2634.002885
635.373257	2641.564615
635.718639	2591.153077
636.063968	2686.935000
636.409245	2616.358846
636.754470	2560.906154
637.099642	2550.823846
637.444762	2732.305385
637.789829	2669.290962
638.134845	2704.579038
638.479808	2560.906154
638.824719	2646.605769
639.169577	2691.976154
639.514383	2689.455577
639.859137	2636.523462
640.203839	2586.111923
640.548489	2639.044038
640.893086	2616.358846
641.237632	2603.755962
641.582125	2543.262115
641.926566	2593.673654
642.270955	2709.620192
642.615292	2628.961731
642.959576	2656.688077
643.303809	2686.935000
643.647990	2601.235385
643.992118	2573.509038
644.336195	2659.208654
644.680219	2654.167500
645.024192	2634.002885
645.368112	2651.646923
645.711981	2656.688077
646.055797	2628.961731
646.399562	2626.441154
646.743274	2656.688077
647.086935	2641.564615
647.430544	2649.126346
647.774101	2593.673654
648.117606	2588.632500
648.461059	2729.784808
648.804460	2661.729231
649.147810	2704.579038
649.491108	2712.140769
649.834354	2684.414423
650.177548	2644.085192
650.520690	2581.070769
650.863781	2606.276538
651.206820	2651.646923
651.549807	2560.906154
651.892742	2697.017308
652.235626	2636.523462
652.578458	2548.303269
652.921238	2560.906154
653.263967	2661.729231
653.606644	2714.661346
653.949269	2644.085192
654.291843	2598.714808
654.634365	2560.906154
654.976836	2646.605769
655.319255	2631.482308
655.661622	2671.811538
656.003938	2639.044038
656.346203	2686.935000
656.688416	2603.755962
657.030577	2641.564615
657.372687	2596.194231
657.714746	2639.044038
658.056753	2639.044038
658.398708	2631.482308
658.740612	2666.770385
659.082465	2598.714808
659.424266	2639.044038
659.766016	2644.085192
660.107715	2671.811538
660.449362	2634.002885
660.790958	2603.755962
661.132503	2623.920577
661.473996	2586.111923
661.815438	2591.153077
662.156829	2697.017308
662.498168	2621.400000
662.839456	2550.823846
663.180693	2588.632500
663.521879	2676.852692
663.863013	2563.426731
664.204097	2656.688077
664.545129	2641.564615
664.886110	2628.961731
665.227040	2623.920577
665.567918	2631.482308
665.908746	2664.249808
666.249522	2636.523462
666.590248	2669.290962
666.930922	2530.659231
667.271545	2591.153077
667.612118	2520.576923
667.952639	2644.085192
668.293109	2568.467885
668.633528	2656.688077
668.973896	2570.988462
669.314213	2616.358846
669.654480	2581.070769
669.994695	2603.755962
670.334859	2659.208654
670.674973	2626.441154
671.015035	2634.002885
671.355047	2656.688077
671.695008	2666.770385
672.034918	2563.426731
672.374777	2654.167500
672.714585	2621.400000
673.054342	2639.044038
673.394049	2573.509038
673.733705	2671.811538
674.073310	2621.400000
674.412864	2636.523462
674.752368	2684.414423
675.091820	2500.412308
675.431223	2586.111923
675.770574	2591.153077
676.109875	2664.249808
676.449125	2666.770385
676.788324	2616.358846
677.127473	2634.002885
677.466571	2676.852692
677.805619	2606.276538
678.144616	2583.591346
678.483562	2628.961731
678.822458	2626.441154
679.161303	2608.797115
679.500098	2628.961731
679.838842	2681.893846
680.177535	2593.673654
680.516179	2664.249808
680.854771	2689.455577
681.193314	2649.126346
681.531805	2732.305385
681.870247	2651.646923
682.208638	2636.523462
682.546978	2689.455577
682.885268	2689.455577
683.223508	2636.523462
683.561697	2596.194231
683.899836	2608.797115
684.237925	2634.002885
684.575963	2628.961731
684.913951	2618.879423
685.251889	2618.879423
685.589776	2649.126346
685.927614	2646.605769
686.265401	2588.632500
686.603137	2684.414423
686.940824	2618.879423
687.278460	2573.509038
687.616046	2664.249808
687.953582	2644.085192
688.291068	2631.482308
688.628504	2674.332115
688.965889	2596.194231
689.303224	2591.153077
689.640510	2686.935000
689.977745	2661.729231
690.314930	2591.153077
690.652065	2608.797115
690.989150	2576.029615
691.326185	2669.290962
691.663170	2560.906154
692.000105	2676.852692
692.336990	2649.126346
692.673825	2593.673654
693.010610	2558.385577
693.347345	2626.441154
693.684030	2669.290962
694.020665	2654.167500
694.357251	2666.770385
694.693786	2644.085192
695.030272	2608.797115
695.366707	2593.673654
695.703093	2535.700385
696.039429	2578.550192
696.375716	2671.811538
696.711952	2608.797115
697.048139	2581.070769
697.384276	2623.920577
697.720363	2598.714808
698.056400	2606.276538
698.392388	2523.097500
698.728326	2591.153077
699.064214	2651.646923
699.400053	2608.797115
699.735842	2679.373269
700.071581	2727.264231
700.407270	2576.029615
700.742910	2596.194231
701.078501	2583.591346
701.414042	2644.085192
701.749533	2568.467885
702.084974	2654.167500
702.420366	2634.002885
702.755709	2591.153077
703.091002	2560.906154
703.426246	2528.138654
703.761440	2606.276538
704.096584	2626.441154
704.431679	2581.070769
704.766725	2525.618077
705.101721	2598.714808
705.436668	2644.085192
705.771565	2639.044038
706.106413	2631.482308
706.441212	2583.591346
706.775961	2573.509038
707.110661	2631.482308
707.445311	2654.167500
707.779913	2565.947308
708.114465	2576.029615
708.448967	2641.564615
708.783421	2681.893846
709.117825	2606.276538
709.452180	2659.208654
709.786485	2568.467885
710.120742	2611.317692
710.454949	2576.029615
710.789107	2634.002885
711.123216	2603.755962
711.457275	2603.755962
711.791286	2641.564615
712.125247	2608.797115
712.459159	2596.194231
712.793023	2666.770385
713.126837	2646.605769
713.460602	2641.564615
713.794318	2618.879423
714.127985	2634.002885
714.461602	2699.537885
714.795171	2618.879423
715.128691	2651.646923
715.462162	2634.002885
715.795584	2586.111923
716.128957	2543.262115
716.462281	2628.961731
716.795556	2621.400000
717.128782	2550.823846
717.461960	2634.002885
717.795088	2596.194231
718.128167	2623.920577
718.461198	2586.111923
718.794180	2641.564615
719.127113	2576.029615
719.459997	2674.332115
719.792833	2691.976154
720.125619	2623.920577
720.458357	2646.605769
720.791046	2603.755962
721.123686	2586.111923
721.456278	2691.976154
721.788821	2591.153077
722.121315	2659.208654
722.453761	2586.111923
722.786158	2593.673654
723.118506	2555.865000
723.450805	2666.770385
723.783056	2593.673654
724.115259	2573.509038
724.447412	2606.276538
724.779518	2623.920577
725.111574	2583.591346
725.443582	2707.099615
725.775542	2611.317692
726.107453	2634.002885
726.439315	2611.317692
726.771129	2621.400000
727.102895	2487.809423
727.434612	2611.317692
727.766281	2702.058462
728.097901	2646.605769
728.429473	2591.153077
728.760996	2634.002885
729.092471	2596.194231
729.423897	2666.770385
729.755276	2634.002885
730.086606	2555.865000
730.417887	2606.276538
730.749120	2649.126346
731.080305	2618.879423
731.411442	2621.400000
731.742530	2689.455577
732.073570	2598.714808
732.404562	2649.126346
732.735506	2528.138654
733.066401	2606.276538
733.397249	2618.879423
733.728048	2533.179808
734.058798	2598.714808
734.389501	2573.509038
734.720156	2538.220962
735.050762	2689.455577
735.381320	2646.605769
735.711831	2618.879423
736.042293	2626.441154
736.372707	2568.467885
736.703073	2563.426731
737.033391	2538.220962
737.363661	2578.550192
737.693883	2608.797115
738.024056	2613.838269
738.354182	2576.029615
738.684260	2664.249808
739.014290	2659.208654
739.344272	2588.632500
739.674207	2732.305385
740.004093	2639.044038
740.333931	2666.770385
740.663722	2608.797115
740.993464	2573.509038
741.323159	2717.181923
741.652806	2613.838269
741.982405	2654.167500
742.311956	2659.208654
742.641460	2500.412308
742.970915	2558.385577
743.300323	2606.276538
743.629683	2606.276538
743.958996	2573.509038
744.288260	2656.688077
744.617477	2608.797115
744.946647	2593.673654
745.275768	2623.920577
745.604842	2626.441154
745.933869	2623.920577
746.262847	2593.673654
746.591778	2666.770385
746.920662	2636.523462
747.249498	2598.714808
747.578286	2586.111923
747.907027	2641.564615
748.235720	2563.426731
748.564365	2628.961731
748.892963	2634.002885
749.221514	2639.044038
749.550017	2616.358846
749.878473	2586.111923
750.206881	2664.249808
750.535242	2596.194231
750.863555	2533.179808
751.191821	2573.509038
751.520039	2578.550192
751.848210	2586.111923
752.176334	2669.290962
752.504411	2591.153077
752.832440	2666.770385
753.160421	2518.056346
753.488356	2628.961731
753.816243	2598.714808
754.144082	2661.729231
754.471875	2583.591346
754.799620	2578.550192
755.127318	2583.591346
755.454969	2623.920577
755.782572	2565.947308
756.110129	2596.194231
756.437638	2543.262115
756.765100	2616.358846
757.092515	2570.988462
757.419882	2623.920577
757.747203	2598.714808
758.074477	2691.976154
758.401703	2578.550192
758.728882	2606.276538
759.056014	2691.976154
759.383099	2634.002885
759.710138	2691.976154
760.037129	2749.949423
760.364073	2568.467885
760.690970	2611.317692
761.017820	2616.358846
761.344623	2631.482308
761.671379	2533.179808
761.998088	2528.138654
762.324751	2586.111923
762.651366	2608.797115
762.977935	2596.194231
763.304456	2631.482308
763.630931	2649.126346
763.957359	2689.455577
764.283740	2654.167500
764.610074	2659.208654
764.936362	2626.441154
765.262602	2649.126346
765.588796	2613.838269
765.914943	2646.605769
766.241044	2689.455577
766.567097	2664.249808
766.893104	2593.673654
767.219064	2591.153077
767.544978	2573.509038
767.870845	2628.961731
768.196665	2656.688077
768.522438	2550.823846
768.848165	2626.441154
769.173846	2565.947308
769.499479	2664.249808
769.825066	2553.344423
770.150607	2626.441154
770.476101	2563.426731
770.801548	2548.303269
771.126949	2586.111923
771.452303	2626.441154
771.777611	2608.797115
772.102872	2656.688077
772.428087	2593.673654
772.753256	2694.496731
773.078378	2538.220962
773.403453	2578.550192
773.728482	2538.220962
774.053465	2631.482308
774.378401	2641.564615
774.703291	2659.208654
775.028135	2603.755962
775.352932	2563.426731
775.677683	2676.852692
776.002388	2606.276538
776.327046	2568.467885
776.651658	2616.358846
776.976224	2621.400000
777.300743	2669.290962
777.625216	2608.797115
777.949643	2563.426731
778.274024	2598.714808
778.598359	2520.576923
778.922647	2639.044038
779.246889	2598.714808
779.571086	2581.070769
779.895236	2634.002885
780.219339	2616.358846
780.543397	2664.249808
780.867409	2563.426731
781.191374	2641.564615
781.515294	2560.906154
781.839167	2588.632500
782.162995	2596.194231
782.486776	2565.947308
782.810511	2636.523462
783.134201	2581.070769
783.457844	2593.673654
783.781441	2598.714808
784.104993	2593.673654
784.428498	2649.126346
784.751958	2656.688077
785.075372	2586.111923
785.398739	2558.385577
785.722061	2530.659231
786.045337	2523.097500
786.368568	2628.961731
786.691752	2558.385577
787.014891	2553.344423
787.337983	2596.194231
787.661030	2555.865000
787.984031	2608.797115
788.306987	2644.085192
788.629897	2656.688077
788.952760	2603.755962
789.275579	2603.755962
789.598351	2613.838269
789.921078	2525.618077
790.243759	2593.673654
790.566395	2550.823846
790.888984	2646.605769
791.211529	2565.947308
791.534027	2664.249808
791.856480	2505.453462
792.178888	2621.400000
792.501249	2558.385577
792.823566	2553.344423
793.145836	2611.317692
793.468062	2528.138654
793.790241	2641.564615
794.112375	2618.879423
794.434464	2565.947308
794.756507	2626.441154
795.078505	2593.673654
795.400457	2651.646923
795.722364	2608.797115
796.044226	2623.920577
796.366042	2568.467885
796.687812	2641.564615
797.009538	2661.729231
797.331218	2568.467885
797.652852	2606.276538
797.974442	2628.961731
798.295986	2560.906154
798.617484	2596.194231
798.938938	2497.891731
799.260346	2664.249808
799.581709	2593.673654
799.903026	2641.564615
800.224299	2467.644808
800.545526	2669.290962
800.866708	2656.688077
801.187845	2601.235385
801.508936	2545.782692
801.829983	2704.579038
802.150984	2654.167500
802.471940	2644.085192
802.792851	2545.782692
803.113717	2558.385577
803.434538	2570.988462
803.755314	2691.976154
804.076045	2707.099615
804.396731	2628.961731
804.717372	2492.850577
805.037967	2661.729231
805.358518	2601.235385
805.679024	2538.220962
805.999485	2608.797115
806.319901	2596.194231
806.640272	2540.741538
806.960598	2661.729231
807.280879	2623.920577
807.601115	2623.920577
807.921306	2634.002885
808.241453	2621.400000
808.561554	2565.947308
808.881611	2641.564615
809.201623	2626.441154
809.521590	2601.235385
809.841513	2540.741538
810.161390	2543.262115
810.481223	2535.700385
810.801011	2563.426731
811.120755	2686.935000
811.440453	2570.988462
811.760107	2656.688077
812.079716	2654.167500
812.399281	2641.564615
812.718801	2613.838269
813.038276	2560.906154
813.357707	2613.838269
813.677093	2641.564615
813.996434	2621.400000
814.315731	2591.153077
814.634983	2596.194231
814.954191	2606.276538
815.273354	2697.017308
815.592473	2631.482308
815.911547	2646.605769
816.230577	2623.920577
816.549562	2553.344423
816.868502	2558.385577
817.187399	2631.482308
817.506250	2583.591346
817.825058	2545.782692
818.143821	2611.317692
818.462539	2634.002885
818.781213	2601.235385
819.099843	2611.317692
819.418429	2669.290962
819.736970	2611.317692
820.055466	2565.947308
820.373919	2666.770385
820.692327	2616.358846
821.010691	2729.784808
821.329011	2636.523462
821.647286	2603.755962
821.965517	2634.002885
822.283704	2714.661346
822.601847	2724.743654
822.919945	2628.961731
823.237999	2631.482308
823.556010	2616.358846
823.873976	2646.605769
824.191897	2606.276538
824.509775	2528.138654
824.827609	2646.605769
825.145398	2608.797115
825.463144	2558.385577
825.780845	2573.509038
826.098502	2568.467885
826.416116	2634.002885
826.733685	2709.620192
827.051210	2634.002885
827.368692	2606.276538
827.686129	2694.496731
828.003522	2586.111923
828.320872	2608.797115
828.638177	2651.646923
828.955439	2583.591346
829.272656	2611.317692
829.589830	2578.550192
829.906960	2583.591346
830.224046	2545.782692
830.541088	2621.400000
830.858086	2626.441154
831.175041	2593.673654
831.491952	2626.441154
831.808819	2628.961731
832.125642	2666.770385
832.442421	2608.797115
832.759157	2601.235385
833.075849	2709.620192
833.392497	2644.085192
833.709101	2593.673654
834.025662	2603.755962
834.342179	2631.482308
834.658653	2603.755962
834.975083	2621.400000
835.291469	2606.276538
835.607811	2616.358846
835.924110	2621.400000
836.240366	2601.235385
836.556578	2611.317692
836.872746	2659.208654
837.188871	2613.838269
837.504952	2581.070769
837.820990	2691.976154
838.136984	2722.223077
838.452935	2553.344423
838.768842	2616.358846
839.084706	2591.153077
839.400526	2525.618077
839.716303	2570.988462
840.032037	2646.605769
840.347727	2593.673654
840.663373	2616.358846
840.978977	2613.838269
841.294537	2646.605769
841.610054	2618.879423
841.925527	2666.770385
842.240957	2543.262115
842.556344	2671.811538
842.871687	2639.044038
843.186987	2623.920577
843.502244	2634.002885
843.817458	2611.317692
844.132629	2565.947308
844.447756	2598.714808
844.762840	2581.070769
845.077881	2636.523462
845.392879	2586.111923
845.707833	2603.755962
846.022745	2578.550192
846.337613	2641.564615
846.652438	2603.755962
846.967221	2634.002885
847.281960	2560.906154
847.596656	2613.838269
847.911309	2621.400000
848.225919	2611.317692
848.540485	2626.441154
848.855009	2601.235385
849.169490	2591.153077
849.483928	2712.140769
849.798323	2666.770385
850.112675	2588.632500
850.426984	2636.523462
850.741251	2591.153077
851.055474	2631.482308
851.369654	2634.002885
851.683792	2487.809423
851.997887	2598.714808
852.311938	2576.029615
852.625947	2666.770385
852.939914	2606.276538
853.253837	2644.085192
853.567718	2628.961731
853.881555	2563.426731
854.195350	2598.714808
854.509103	2608.797115
854.822812	2485.288846
855.136479	2598.714808
855.450103	2641.564615
855.763685	2578.550192
856.077224	2588.632500
856.390720	2593.673654
856.704173	2583.591346
857.017584	2631.482308
857.330953	2593.673654
857.644278	2563.426731
857.957561	2611.317692
858.270802	2550.823846
858.584000	2570.988462
858.897155	2591.153077
859.210268	2611.317692
859.523339	2535.700385
859.836367	2666.770385
860.149352	2560.906154
860.462295	2676.852692
860.775195	2601.235385
861.088054	2553.344423
861.400869	2578.550192
861.713642	2631.482308
862.026373	2608.797115
862.339062	2550.823846
862.651708	2576.029615
862.964312	2477.727115
863.276873	2525.618077
863.589392	2583.591346
863.901869	2631.482308
864.214303	2618.879423
864.526696	2598.714808
864.839045	2588.632500
865.151353	2606.276538
865.463619	2555.865000
865.775842	2659.208654
866.088023	2598.714808
866.400162	2623.920577
866.712258	2593.673654
867.024313	2578.550192
867.336325	2608.797115
867.648296	2583.591346
867.960224	2626.441154
868.272110	2626.441154
868.583954	2568.467885
868.895755	2553.344423
869.207515	2641.564615
869.519233	2502.932885
869.830909	2628.961731
870.142542	2563.426731
870.454134	2641.564615
870.765684	2591.153077
871.077191	2606.276538
871.388657	2563.426731
871.700081	2621.400000
872.011463	2586.111923
872.322803	2565.947308
872.634101	2639.044038
872.945357	2656.688077
873.256571	2611.317692
873.567744	2583.591346
873.878874	2558.385577
874.189963	2603.755962
874.501010	2628.961731
874.812015	2606.276538
875.122979	2545.782692
875.433900	2603.755962
875.744780	2570.988462
876.055618	2644.085192
876.366415	2623.920577
876.677169	2583.591346
876.987882	2555.865000
877.298554	2596.194231
877.609183	2661.729231
877.919771	2651.646923
878.230317	2606.276538
878.540822	2588.632500
878.851285	2507.974038
879.161707	2611.317692
879.472087	2591.153077
879.782425	2649.126346
880.092722	2674.332115
880.402977	2543.262115
880.713191	2646.605769
881.023363	2646.605769
881.333494	2613.838269
881.643583	2576.029615
881.953631	2621.400000
882.263637	2644.085192
882.573602	2634.002885
882.883526	2611.317692
883.193408	2639.044038
883.503248	2606.276538
883.813048	2591.153077
884.122806	2681.893846
884.432522	2606.276538
884.742197	2623.920577
885.051831	2649.126346
885.361424	2631.482308
885.670975	2550.823846
885.980485	2674.332115
886.289954	2601.235385
886.599382	2639.044038
886.908768	2596.194231
887.218113	2515.535769
887.527417	2565.947308
887.836680	2591.153077
888.145901	2538.220962
888.455082	2618.879423
888.764221	2634.002885
889.073319	2548.303269
889.382376	2601.235385
889.691392	2618.879423
890.000366	2644.085192
890.309300	2641.564615
890.618193	2578.550192
890.927044	2621.400000
891.235855	2528.138654
891.544625	2576.029615
891.853353	2581.070769
892.162041	2613.838269
892.470687	2616.358846
892.779293	2553.344423
893.087858	2639.044038
893.396381	2631.482308
893.704864	2621.400000
894.013306	2523.097500
894.321707	2586.111923
894.630068	2654.167500
894.938387	2555.865000
895.246665	2586.111923
895.554903	2606.276538
895.863100	2578.550192
896.171256	2611.317692
896.479371	2603.755962
896.787446	2593.673654
897.095480	2578.550192
897.403473	2608.797115
897.711425	2606.276538
898.019336	2570.988462
898.327207	2626.441154
898.635038	2588.632500
898.942827	2553.344423
899.250576	2679.373269
899.558284	2576.029615
899.865952	2573.509038
900.173579	2623.920577
900.481165	2525.618077
900.788711	2603.755962
901.096216	2634.002885
901.403681	2586.111923
901.711105	2671.811538
902.018489	2628.961731
902.325832	2601.235385
902.633135	2686.935000
902.940397	2644.085192
903.247619	2591.153077
903.554800	2593.673654
903.861941	2601.235385
904.169041	2634.002885
904.476101	2601.235385
904.783121	2651.646923
905.090100	2626.441154
905.397039	2646.605769
905.703938	2636.523462
906.010796	2565.947308
906.317614	2606.276538
906.624391	2598.714808
906.931129	2533.179808
907.237826	2568.467885
907.544483	2578.550192
907.851099	2548.303269
908.157675	2578.550192
908.464211	2636.523462
908.770707	2553.344423
909.077163	2634.002885
909.383578	2573.509038
909.689954	2613.838269
909.996289	2618.879423
910.302584	2671.811538
910.608839	2586.111923
910.915054	2616.358846
911.221229	2545.782692
911.527363	2608.797115
911.833458	2631.482308
912.139513	2634.002885
912.445527	2533.179808
912.751502	2507.974038
913.057436	2628.961731
913.363331	2606.276538
913.669186	2530.659231
913.975000	2495.371154
914.280775	2628.961731
914.586510	2634.002885
914.892205	2598.714808
915.197859	2565.947308
915.503475	2623.920577
915.809050	2533.179808
916.114585	2530.659231
916.420081	2538.220962
916.725536	2603.755962
917.030952	2576.029615
917.336328	2631.482308
917.641665	2525.618077
917.946961	2634.002885
918.252218	2646.605769
918.557435	2603.755962
918.862612	2601.235385
919.167750	2623.920577
919.472848	2540.741538
919.777906	2623.920577
920.082925	2581.070769
920.387904	2591.153077
920.692843	2606.276538
920.997743	2646.605769
921.302603	2606.276538
921.607423	2656.688077
921.912204	2565.947308
922.216946	2689.455577
922.521647	2644.085192
922.826310	2674.332115
923.130932	2583.591346
923.435516	2568.467885
923.740059	2573.509038
924.044564	2560.906154
924.349028	2611.317692
924.653454	2591.153077
924.957840	2603.755962
925.262186	2631.482308
925.566493	2676.852692
925.870761	2641.564615
926.174989	2676.852692
926.479178	2565.947308
926.783328	2545.782692
927.087438	2608.797115
927.391509	2621.400000
927.695541	2543.262115
927.999533	2603.755962
928.303486	2558.385577
928.607400	2548.303269
928.911275	2626.441154
929.215110	2540.741538
929.518906	2651.646923
929.822663	2573.509038
930.126381	2553.344423
930.430060	2558.385577
930.733699	2656.688077
931.037299	2560.906154
931.340861	2616.358846
931.644383	2596.194231
931.947866	2659.208654
932.251309	2634.002885
932.554714	2656.688077
932.858080	2553.344423
933.161407	2568.467885
933.464694	2482.768269
933.767943	2646.605769
934.071153	2603.755962
934.374323	2611.317692
934.677455	2634.002885
934.980548	2560.906154
935.283602	2593.673654
935.586617	2651.646923
935.889593	2520.576923
936.192530	2560.906154
936.495428	2591.153077
936.798287	2616.358846
937.101108	2581.070769
937.403890	2621.400000
937.706632	2636.523462
938.009336	2596.194231
938.312002	2628.961731
938.614628	2570.988462
938.917216	2611.317692
939.219765	2548.303269
939.522275	2623.920577
939.824747	2523.097500
940.127179	2581.070769
940.429573	2631.482308
940.731929	2593.673654
941.034246	2606.276538
941.336524	2641.564615
941.638763	2606.276538
941.940964	2596.194231
942.243126	2606.276538
942.545250	2578.550192
942.847335	2576.029615
943.149381	2598.714808
943.451389	2573.509038
943.753359	2618.879423
944.055290	2628.961731
944.357182	2588.632500
944.659036	2543.262115
944.960851	2591.153077
945.262628	2613.838269
945.564367	2664.249808
945.866067	2558.385577
946.167729	2576.029615
946.469352	2555.865000
946.770937	2450.000769
947.072484	2606.276538
947.373992	2598.714808
947.675462	2603.755962
947.976893	2608.797115
948.278286	2631.482308
948.579641	2618.879423
948.880958	2573.509038
949.182236	2535.700385
949.483476	2558.385577
949.784678	2565.947308
950.085841	2573.509038
950.386967	2646.605769
950.688054	2689.455577
950.989103	2613.838269
951.290114	2613.838269
951.591087	2651.646923
951.892021	2513.015192
952.192917	2649.126346
952.493776	2661.729231
952.794596	2661.729231
953.095378	2611.317692
953.396122	2591.153077
953.696828	2618.879423
953.997496	2596.194231
954.298126	2576.029615
954.598718	2636.523462
954.899272	2651.646923
955.199788	2623.920577
955.500266	2573.509038
955.800706	2593.673654
956.101108	2528.138654
956.401472	2591.153077
956.701798	2570.988462
957.002087	2495.371154
957.302337	2606.276538
957.602550	2507.974038
957.902724	2631.482308
958.202861	2601.235385
958.502960	2608.797115
958.803022	2573.509038
959.103045	2598.714808
959.403031	2586.111923
959.702979	2651.646923
960.002889	2588.632500
960.302762	2581.070769
960.602596	2543.262115
960.902393	2593.673654
961.202153	2515.535769
961.501875	2603.755962
961.801559	2510.494615
962.101205	2601.235385
962.400814	2616.358846
962.700385	2523.097500
962.999918	2576.029615
963.299414	2576.029615
963.598873	2576.029615
963.898293	2644.085192
964.197677	2591.153077
964.497022	2553.344423
964.796331	2573.509038
965.095601	2568.467885
965.394835	2616.358846
965.694030	2611.317692
965.993189	2576.029615
966.292309	2525.618077
966.591393	2568.467885
966.890439	2623.920577
967.189447	2606.276538
967.488419	2573.509038
967.787353	2502.932885
968.086249	2649.126346
968.385108	2636.523462
968.683930	2573.509038
968.982714	2611.317692
969.281462	2586.111923
969.580172	2593.673654
969.878844	2679.373269
970.177480	2550.823846
970.476078	2560.906154
970.774639	2654.167500
971.073162	2641.564615
971.371649	2598.714808
971.670098	2520.576923
971.968510	2641.564615
972.266885	2576.029615
972.565223	2606.276538
972.863524	2548.303269
973.161788	2550.823846
973.460014	2601.235385
973.758204	2608.797115
974.056356	2644.085192
974.354471	2628.961731
974.652550	2616.358846
974.950591	2621.400000
975.248595	2639.044038
975.546563	2570.988462
975.844493	2578.550192
976.142386	2558.385577
976.440243	2621.400000
976.738062	2613.838269
977.035845	2666.770385
977.333590	2603.755962
977.631299	2558.385577
977.928971	2631.482308
978.226606	2586.111923
978.524204	2588.632500
978.821765	2616.358846
979.119290	2634.002885
979.416777	2601.235385
979.714228	2523.097500
980.011642	2634.002885
980.309020	2598.714808
980.606360	2586.111923
980.903664	2601.235385
981.200931	2565.947308
981.498162	2555.865000
981.795356	2639.044038
982.092513	2634.002885
982.389633	2621.400000
982.686717	2618.879423
982.983764	2558.385577
983.280775	2583.591346
983.577749	2626.441154
983.874686	2586.111923
984.171587	2583.591346
984.468451	2634.002885
984.765279	2470.165385
985.062070	2558.385577
985.358824	2593.673654
985.655543	2500.412308
985.952224	2681.893846
986.248869	2570.988462
986.545478	2679.373269
986.842050	2621.400000
987.138586	2611.317692
987.435086	2616.358846
987.731549	2606.276538
988.027975	2639.044038
988.324366	2601.235385
988.620719	2550.823846
988.917037	2583.591346
989.213318	2679.373269
989.509563	2573.509038
989.805772	2606.276538
990.101944	2616.358846
990.398080	2535.700385
990.694180	2598.714808
990.990244	2641.564615
991.286271	2623.920577
991.582262	2603.755962
991.878217	2588.632500
992.174136	2639.044038
992.470019	2611.317692
992.765865	2656.688077
993.061676	2611.317692
993.357450	2518.056346
993.653188	2528.138654
993.948890	2586.111923
994.244556	2644.085192
994.540186	2510.494615
994.835780	2543.262115
995.131337	2553.344423
995.426859	2533.179808
995.722345	2570.988462
996.017795	2636.523462
996.313208	2611.317692
996.608586	2586.111923
996.903928	2631.482308
997.199234	2606.276538
997.494504	2492.850577
997.789738	2621.400000
998.084936	2664.249808
998.380099	2540.741538
998.675225	2573.509038
998.970316	2616.358846
999.265371	2596.194231
999.560390	2601.235385
999.855373	2591.153077
1000.150320	2586.111923
1000.445232	2613.838269
1000.740108	2593.673654
1001.034948	2611.317692
1001.329752	2631.482308
1001.624521	2618.879423
1001.919254	2636.523462
1002.213951	2576.029615
1002.508613	2591.153077
1002.803239	2586.111923
1003.097829	2593.673654
1003.392384	2573.509038
1003.686903	2644.085192
1003.981386	2671.811538
1004.275834	2588.632500
1004.570246	2601.235385
1004.864623	2606.276538
1005.158964	2666.770385
1005.453270	2601.235385
1005.747540	2563.426731
1006.041775	2586.111923
1006.335974	2583.591346
1006.630138	2548.303269
1006.924266	2586.111923
1007.218359	2545.782692
1007.512416	2553.344423
1007.806438	2596.194231
1008.100425	2714.661346
1008.394376	2603.755962
1008.688292	2553.344423
1008.982172	2591.153077
1009.276017	2628.961731
1009.569827	2581.070769
1009.863602	2596.194231
1010.157341	2591.153077
1010.451045	2626.441154
1010.744714	2563.426731
1011.038347	2515.535769
1011.331945	2543.262115
1011.625508	2636.523462
1011.919036	2558.385577
1012.212528	2550.823846
1012.505986	2497.891731
1012.799408	2515.535769
1013.092795	2613.838269
1013.386147	2608.797115
1013.679464	2560.906154
1013.972745	2593.673654
1014.265992	2548.303269
1014.559204	2560.906154
1014.852380	2618.879423
1015.145521	2611.317692
1015.438628	2616.358846
1015.731699	2603.755962
1016.024736	2545.782692
1016.317737	2613.838269
1016.610703	2651.646923
1016.903635	2603.755962
1017.196531	2611.317692
1017.489393	2543.262115
1017.782219	2621.400000
1018.075011	2560.906154
1018.367768	2576.029615
1018.660490	2555.865000
1018.953177	2555.865000
1019.245829	2555.865000
