Dividing Wavelength (nm)	Counts (n)	Blue Motor Position (mm): 0.000000	Red Motor Position (mm): 7.000000	
326.493990	2086.347054
326.888308	2086.347054
327.282561	2086.347054
327.676750	2062.449464
328.070874	2065.149002
328.464933	2072.375496
328.858929	2082.556107
329.252859	2095.862232
329.646726	2106.940168
330.040528	2123.785183
330.434265	2145.736888
330.827938	2162.546615
331.221547	2183.253155
331.615091	2203.516073
332.008571	2224.623384
332.401986	2246.844790
332.795338	2264.261976
333.188625	2285.880965
333.581847	2303.184725
333.975006	2322.600729
334.368100	2338.717298
334.761129	2355.554752
335.154095	2372.039325
335.546996	2389.428785
335.939833	2400.078223
336.332606	2413.172620
336.725315	2425.513364
337.117960	2431.522420
337.510540	2440.253698
337.903056	2452.362550
338.295508	2455.084773
338.687896	2464.678089
339.080220	2473.132104
339.472480	2477.361632
339.864676	2478.601756
340.256807	2484.036119
340.648875	2484.401603
341.040879	2488.532829
341.432818	2488.152222
341.824694	2490.241780
342.216506	2486.297077
342.608253	2486.314721
342.999937	2487.138950
343.391557	2487.650627
343.783113	2481.896150
344.174605	2483.189206
344.566033	2478.846252
344.957397	2478.440439
345.348697	2477.278453
345.739934	2476.484471
346.131106	2475.544296
346.522215	2474.435242
346.913260	2470.049438
347.304241	2473.280818
347.695159	2470.306537
348.086012	2466.974334
348.476802	2465.421659
348.867528	2465.361165
349.258191	2463.251442
349.648789	2463.294292
350.039324	2462.954014
350.429796	2460.388067
350.820203	2460.055351
351.210548	2459.082408
351.600828	2458.099383
351.991045	2456.168621
352.381198	2458.190124
352.771288	2459.803293
353.161314	2458.225412
353.551276	2459.248766
353.941175	2459.833540
354.331010	2460.125927
354.720782	2458.175000
355.110490	2457.234825
355.500135	2458.790021
355.889717	2460.067953
356.279235	2461.872687
356.668689	2461.232460
357.058080	2459.417645
357.447408	2460.622480
357.836672	2458.038889
358.225873	2458.742130
358.615010	2458.850515
359.004084	2465.295630
359.393095	2462.727162
359.782043	2464.927626
360.170927	2466.878552
360.559748	2466.077009
360.948505	2467.080198
361.337199	2466.031638
361.725830	2469.585652
362.114398	2466.959211
362.502903	2467.019705
362.891344	2469.247895
363.279722	2468.718573
363.668037	2468.469036
364.056289	2469.847792
364.444478	2468.499283
364.832603	2473.482464
365.220665	2472.794346
365.608665	2470.629171
365.996601	2471.949953
366.384474	2473.258133
366.772284	2473.235447
367.160031	2476.071096
367.547715	2474.573874
367.935336	2474.830972
368.322893	2477.064204
368.710388	2475.519090
369.097820	2477.790130
369.485189	2476.834831
369.872495	2475.771148
370.259738	2478.992445
370.646918	2478.216107
371.034035	2482.581747
371.421090	2483.156438
371.808081	2486.110554
372.195010	2492.485093
372.581875	2492.981647
372.968678	2497.087667
373.355418	2502.990858
373.742096	2512.125429
374.128710	2518.895698
374.515262	2531.652338
374.901751	2541.588452
375.288177	2558.012532
375.674540	2573.274625
376.060841	2592.297419
376.447079	2613.689555
376.833254	2637.955149
377.219367	2658.797800
377.605417	2690.428520
377.991404	2710.893084
378.377329	2748.376583
378.763191	2778.273146
379.148991	2822.698314
379.534727	2867.060468
379.920402	2908.317271
380.306013	2950.224383
380.691563	3006.229082
381.077049	3053.250444
381.462474	3101.310284
381.847835	3165.542146
382.233134	3221.274622
382.618371	3269.652055
383.003545	3338.360462
383.388657	3399.292888
383.773706	3469.546408
384.158693	3522.402906
384.543618	3585.641661
384.928480	3639.806338
385.313280	3707.987944
385.698017	3774.803397
386.082692	3850.042618
386.467305	3876.997668
386.851856	3950.356539
387.236344	4039.161505
387.620770	4059.401737
388.005133	4108.868060
388.389435	4181.069986
388.773674	4206.797514
389.157851	4262.656019
389.541965	4309.803411
389.926018	4290.125267
390.310008	4359.970453
390.693936	4393.973036
391.077802	4413.260491
391.461606	4444.107311
391.845348	4458.351091
392.229027	4469.943224
392.612645	4538.505437
392.996200	4540.842012
393.379694	4574.141354
393.763125	4618.846306
394.146494	4597.686063
394.529801	4597.940641
394.913047	4634.599912
395.296230	4562.627358
395.679351	4512.795553
396.062410	4544.937950
396.445408	4428.731792
396.828343	4412.441303
397.211217	4384.762848
397.594028	4266.941000
397.976778	4254.297786
398.359466	4237.949324
398.742092	4151.430522
399.124656	4121.271819
399.507158	4096.860031
399.889598	4025.799927
400.271977	4003.565917
400.654294	3934.514713
401.036549	3905.092018
401.418742	3835.287161
401.800874	3823.551355
402.182944	3766.498096
402.564952	3755.785644
402.946898	3653.934172
403.328783	3595.648351
403.710606	3550.633368
404.092367	3518.609438
404.474067	3498.293588
404.855705	3406.416039
405.237282	3338.065554
405.618797	3323.489058
406.000250	3288.954633
406.381642	3267.749020
406.762972	3203.708722
407.144240	3133.200624
407.525447	3100.859101
407.906593	3047.556461
408.287677	3019.031092
408.668700	2981.232520
409.049661	2940.202569
409.430560	2906.696540
409.811399	2870.740510
410.192176	2845.093640
410.572891	2815.623055
410.953545	2797.177473
411.334138	2753.682397
411.714669	2744.106726
412.095139	2708.826211
412.475547	2695.459591
412.855894	2676.076355
413.236180	2662.989519
413.616405	2643.838176
413.996568	2635.144706
414.376670	2620.359002
414.756711	2606.495829
415.136691	2602.987186
415.516609	2592.864549
415.896466	2589.920515
416.276262	2583.866089
416.655997	2575.275963
417.035670	2569.082905
417.415283	2570.219686
417.794834	2565.803635
418.174324	2560.396997
418.553753	2558.554456
418.933121	2557.528581
419.312428	2552.898281
419.691674	2552.074052
420.070859	2549.248486
420.449983	2547.486602
420.829045	2544.802188
421.208047	2543.186498
421.586988	2543.642723
421.965867	2540.514687
422.344686	2538.697351
422.723444	2542.483257
423.102141	2536.504449
423.480777	2538.563760
423.859352	2541.134748
424.237866	2539.027546
424.616319	2537.187525
424.994712	2539.566950
425.373044	2540.129038
425.751314	2537.056455
426.129524	2535.448327
426.507673	2535.261804
426.885762	2535.589479
427.263789	2538.828421
427.641756	2536.569984
428.019662	2535.299613
428.397508	2536.262473
428.775292	2535.602082
429.153016	2537.487474
429.530679	2536.998482
429.908282	2535.803728
430.285824	2535.929757
430.663305	2533.898172
431.040726	2536.048224
431.418086	2534.850950
431.795385	2535.788605
432.172624	2534.654345
432.549802	2539.453524
432.926920	2540.575180
433.303977	2537.863040
433.680974	2537.895807
434.057910	2538.200797
434.434786	2537.978986
434.811601	2537.759696
435.188355	2540.454193
435.565050	2539.766075
435.941683	2542.064841
436.318257	2539.851775
436.694770	2538.936805
437.071222	2540.696168
437.447614	2538.331867
437.823946	2538.019315
438.200218	2543.181457
438.576429	2542.465613
438.952580	2540.151723
439.328670	2542.034594
439.704700	2541.472506
440.080670	2543.201622
440.456580	2541.681714
440.832429	2544.598021
441.208218	2541.661549
441.583947	2542.115253
441.959616	2541.926210
442.335224	2542.269008
442.710773	2543.297403
443.086261	2544.971067
443.461689	2543.922507
443.837057	2545.265974
444.212365	2545.238248
444.587612	2546.974925
444.962800	2546.788402
445.337927	2544.197249
445.712995	2544.494678
446.088002	2550.365101
446.462949	2550.087838
446.837837	2549.775286
447.212664	2545.066848
447.587431	2556.220401
447.962139	2560.528067
448.336786	2566.350600
448.711374	2563.583007
449.085901	2556.056564
449.460369	2558.065464
449.834776	2555.169321
450.209124	2561.314487
450.583412	2558.196534
450.957640	2558.967830
451.331808	2558.294836
451.705917	2550.758311
452.079965	2554.143446
452.453954	2554.796275
452.827883	2554.380380
453.201752	2552.467262
453.575562	2552.953734
453.949311	2557.347099
454.323001	2555.706204
454.696632	2556.195196
455.070202	2560.570917
455.443713	2558.617470
455.817164	2559.295505
456.190556	2556.096893
456.563888	2556.953889
456.937160	2555.237376
457.310373	2557.982285
457.683526	2557.505896
458.056619	2558.556976
458.429653	2557.674774
458.802628	2559.156873
459.175542	2555.040771
459.548398	2558.531770
459.921194	2562.773901
460.293930	2566.748851
460.666607	2568.558625
461.039224	2574.655901
461.411782	2569.856722
461.784280	2571.011147
462.156719	2567.462174
462.529099	2568.596434
462.901419	2565.871690
463.273680	2562.859601
463.645882	2563.812379
464.018024	2563.335990
464.390106	2565.349931
464.762130	2571.109449
465.134094	2578.635892
465.505999	2588.718200
465.877845	2598.606423
466.249631	2599.851588
466.621358	2597.121803
466.993026	2595.496031
467.364634	2592.914960
467.736184	2585.910277
468.107674	2581.955492
468.479105	2581.905080
468.850477	2581.277457
469.221790	2577.562126
469.593043	2573.173802
469.964238	2571.127093
470.335373	2571.366548
470.706449	2573.821590
471.077467	2578.396437
471.448425	2589.197109
471.819324	2589.827253
472.190164	2587.921697
472.560945	2583.666963
472.931667	2574.948288
473.302330	2571.356466
473.672934	2569.171126
474.043479	2571.061558
474.413965	2568.147771
474.784393	2559.983623
475.154761	2564.172822
475.525070	2563.451937
475.895321	2560.417162
476.265513	2560.528067
476.635645	2565.665003
477.005719	2566.411094
477.375734	2566.917730
477.745691	2566.688357
478.115588	2567.931002
478.485427	2570.756568
478.855207	2572.543657
479.224928	2576.165727
479.594591	2579.603793
479.964194	2575.091961
480.333739	2578.870306
480.703226	2574.597928
481.072653	2576.450552
481.442022	2578.978690
481.811333	2576.672363
482.180584	2575.994327
482.549777	2574.187074
482.918912	2572.024419
483.287988	2573.602300
483.657005	2568.818245
484.025964	2568.528378
484.394864	2567.600806
484.763706	2568.770354
485.132489	2567.691547
485.501213	2566.937894
485.869879	2565.589386
486.238487	2562.894889
486.607036	2567.497462
486.975527	2566.277503
487.343959	2562.965465
487.712333	2563.552760
488.080648	2565.047462
488.448905	2561.695094
488.817104	2565.115517
489.185244	2564.407235
489.553326	2566.811866
489.921350	2568.409911
490.289315	2574.872671
490.657222	2573.713205
491.025070	2574.713874
491.392861	2573.592217
491.760593	2570.459140
492.128267	2569.342525
492.495883	2567.678944
492.863440	2569.846640
493.230939	2563.900599
493.598380	2563.217523
493.965763	2559.015721
494.333088	2556.563200
494.700354	2553.238559
495.067563	2554.093034
495.434713	2554.387942
495.801805	2560.898592
496.168839	2559.776935
496.535815	2558.269630
496.902733	2558.839281
497.269593	2560.800290
497.636395	2559.030845
498.003139	2556.936245
498.369825	2555.849877
498.736453	2558.657799
499.103023	2556.497665
499.469535	2557.165618
499.835989	2554.798796
500.202385	2553.835936
500.568723	2555.103786
500.935003	2556.220401
501.301226	2553.926676
501.667390	2556.046482
502.033497	2559.502192
502.399546	2554.657644
502.765537	2554.899619
503.131470	2553.155380
503.497345	2556.069167
503.863163	2553.074721
504.228923	2554.420709
504.594625	2553.364588
504.960269	2554.879454
505.325856	2555.209650
505.691385	2551.201933
506.056856	2552.873075
506.422270	2551.121274
506.787625	2553.561193
507.152924	2551.680842
507.518164	2554.907181
507.883347	2551.209494
508.248472	2555.996070
508.613540	2550.223949
508.978550	2553.173024
509.343503	2549.331665
509.708398	2554.206460
510.073236	2550.551624
510.438016	2552.250493
510.802738	2551.527087
511.167403	2553.475493
511.532010	2552.810061
511.896561	2548.963660
512.261053	2550.934752
512.625488	2546.375028
512.989866	2546.347302
513.354186	2550.095399
513.718449	2546.246478
514.082655	2547.360573
514.446803	2551.055739
514.810894	2550.173537
515.174927	2550.468445
515.538904	2550.234031
515.902822	2550.992725
516.266684	2549.684545
516.630488	2549.583722
516.994235	2550.186140
517.357925	2548.262940
517.721558	2550.985163
518.085133	2549.694628
518.448651	2550.077755
518.812112	2547.912580
519.175516	2547.375697
519.538863	2550.450801
519.902152	2549.772766
520.265385	2548.368804
520.628560	2548.704041
520.991678	2549.739998
521.354739	2548.845193
521.717743	2549.263609
522.080690	2549.639175
522.443580	2547.443752
522.806413	2552.563044
523.169189	2546.606921
523.531908	2549.558517
523.894569	2547.862168
524.257174	2549.762683
524.619722	2546.054915
524.982213	2549.855945
525.344647	2544.643392
525.707025	2546.201108
526.069345	2546.430481
526.431608	2549.044319
526.793815	2547.373176
527.155964	2548.152035
527.518057	2547.042981
527.880093	2548.242775
528.242072	2544.562733
528.603995	2547.156407
528.965860	2548.905687
529.327669	2546.591797
529.689421	2544.164482
530.051117	2547.350491
530.412755	2546.407795
530.774337	2545.301262
531.135862	2545.724719
531.497331	2541.822866
531.858743	2542.357228
532.220098	2543.131045
532.581396	2540.963349
532.942638	2541.696837
533.303824	2543.667928
533.664953	2545.349153
534.026025	2544.938299
534.387040	2543.806560
534.747999	2544.076262
535.108902	2544.615665
535.469748	2543.428473
535.830537	2543.718340
536.191270	2542.954605
536.551947	2544.151879
536.912567	2543.163813
537.273131	2544.015768
537.633638	2543.662887
537.994089	2542.074924
538.354483	2540.885211
538.714821	2544.000644
539.075103	2542.725232
539.435328	2541.747249
539.795497	2541.578370
540.155609	2543.199101
540.515665	2542.286652
540.875665	2541.487629
541.235609	2540.673483
541.595496	2541.074255
541.955328	2543.020140
542.315102	2541.999306
542.674821	2542.140459
543.034483	2539.466127
543.394090	2540.242464
543.753640	2541.275901
544.113134	2539.650129
544.472571	2538.752803
544.831953	2543.453679
545.191278	2540.431508
545.550548	2540.943185
545.909761	2540.358411
546.268918	2542.314378
546.628019	2539.062834
546.987064	2541.316230
547.346053	2540.474357
547.704986	2540.139121
548.063863	2537.585776
548.422684	2539.299768
548.781449	2541.059131
549.140158	2540.796991
549.498811	2540.285314
549.857408	2540.620551
550.215949	2535.387833
550.574434	2535.476053
550.932864	2536.290200
551.291237	2535.329860
551.649555	2543.189019
552.007817	2541.676673
552.366022	2538.092412
552.724173	2538.725077
553.082267	2538.165509
553.440305	2539.816487
553.798288	2539.773637
554.156215	2540.562578
554.514086	2541.230530
554.871902	2537.081661
555.229661	2538.946888
555.587365	2539.241795
555.945014	2539.909748
556.302606	2539.667773
556.660143	2537.467309
557.017625	2538.175591
557.375050	2539.438400
557.732421	2537.530323
558.089735	2539.587114
558.446994	2538.578883
558.804197	2536.885056
559.161345	2539.655170
559.518437	2537.121990
559.875474	2540.905376
560.232455	2540.917979
560.589381	2538.818338
560.946251	2539.241795
561.303065	2537.590817
561.659825	2537.081661
562.016528	2537.825231
562.373177	2536.514531
562.729770	2539.319933
563.086307	2537.789943
563.442789	2536.403626
563.799216	2536.219623
564.155587	2536.930426
564.511904	2539.939995
564.868164	2538.246167
565.224370	2537.729449
565.580520	2536.479243
565.936615	2536.562422
566.292654	2535.234078
566.648638	2539.128369
567.004567	2533.802390
567.360441	2539.143493
567.716260	2538.994779
568.072023	2538.490663
568.427732	2532.668131
568.783385	2536.229706
569.138982	2535.246681
569.494525	2532.935312
569.850013	2531.344828
570.205445	2539.907228
570.560823	2536.552340
570.916145	2536.138965
571.271412	2540.050900
571.626625	2535.891948
571.981782	2538.828421
572.336884	2535.869263
572.691931	2539.617361
573.046923	2532.673172
573.401860	2535.092926
573.756743	2535.765920
574.111570	2535.433203
574.466342	2537.800025
574.821059	2535.143337
575.175722	2536.892618
575.530330	2538.944367
575.884882	2537.752134
576.239380	2536.060827
576.593823	2534.387164
576.948211	2536.569984
577.302544	2533.880528
577.656823	2536.300282
578.011047	2538.374717
578.365216	2533.288193
578.719330	2534.087215
579.073389	2534.760209
579.427394	2534.934129
579.781344	2531.392719
580.135239	2534.417411
580.489080	2534.984541
580.842866	2530.266021
581.196597	2540.766744
581.550273	2535.448327
581.903895	2534.084695
582.257463	2531.879190
582.610975	2533.202493
582.964434	2532.980682
583.317837	2537.958822
583.671186	2534.402288
584.024481	2536.224665
584.377721	2534.551002
584.730906	2530.686957
585.084037	2535.828934
585.437113	2534.422452
585.790135	2535.045035
586.143103	2531.266690
586.496016	2534.349355
586.848874	2530.024045
587.201679	2531.659900
587.554428	2529.008253
587.907124	2533.361289
588.259765	2527.720238
588.612352	2532.647966
588.964884	2533.888090
589.317362	2532.867256
589.669786	2532.698378
590.022155	2534.636701
590.374470	2534.114942
590.726731	2531.027235
591.078937	2533.502442
591.431090	2534.127545
591.783188	2532.476567
592.135232	2532.857174
592.487222	2532.423635
592.839157	2532.103521
593.191038	2533.565456
593.542866	2531.680064
593.894639	2532.937832
594.246358	2533.091587
594.598022	2530.921371
594.949633	2534.656866
595.301190	2529.305681
595.652692	2532.574869
596.004141	2527.722759
596.355535	2533.492359
596.706876	2531.695188
597.058162	2532.005219
597.409395	2529.812317
597.760573	2530.359282
598.111698	2531.957328
598.462768	2532.950435
598.813785	2528.799045
599.164748	2531.770805
599.515657	2531.932122
599.866511	2532.801721
600.217312	2528.940197
600.568060	2531.304498
600.918753	2536.711136
601.269392	2530.530681
601.619978	2531.478418
601.970510	2531.359951
602.320988	2530.278624
602.671412	2529.222502
603.021783	2532.307688
603.372100	2529.862728
603.722363	2531.039838
604.072572	2530.671834
604.422728	2532.910106
604.772830	2528.796524
605.122878	2527.684950
605.472872	2526.943900
605.822813	2527.737882
606.172701	2527.763088
606.522534	2530.954138
606.872314	2531.924560
607.222041	2529.661082
607.571714	2530.583613
607.921333	2530.581093
608.270899	2529.961031
608.620411	2529.421628
608.969870	2531.029756
609.319276	2531.483459
609.668627	2530.293747
610.017926	2530.835671
610.367171	2533.141999
610.716362	2530.200486
611.065500	2532.224509
611.414585	2527.238808
611.763616	2532.637884
612.112594	2530.167718
612.461518	2532.201824
612.810389	2532.073274
613.159207	2531.846423
613.507971	2531.959848
613.856682	2530.172759
614.205340	2530.273582
614.553945	2530.898686
614.902496	2528.720907
615.250994	2530.742410
615.599439	2530.258459
615.947830	2532.098480
616.296169	2530.686957
616.644454	2533.416742
616.992686	2533.265507
617.340864	2531.440610
617.688990	2532.597554
618.037063	2531.319622
618.385082	2530.460105
618.733048	2532.592513
619.080961	2532.705939
619.428821	2531.080167
619.776628	2531.838861
620.124382	2529.779549
620.472083	2529.116638
620.819731	2532.489170
621.167326	2531.717873
621.514868	2529.464477
621.862357	2530.311391
622.209793	2532.784077
622.557176	2531.430527
622.904506	2527.856349
623.251783	2523.445340
623.599007	2527.473222
623.946179	2526.328880
624.293297	2526.144878
624.640363	2530.117307
624.987376	2528.423479
625.334336	2529.971113
625.681243	2531.949766
626.028097	2530.939015
626.374899	2531.788449
626.721647	2527.775691
627.068343	2527.957172
627.414987	2528.448685
627.761577	2531.639735
628.108115	2528.186545
628.454600	2526.792666
628.801032	2525.660927
629.147412	2530.876000
629.493739	2527.342152
629.840014	2527.440454
630.186236	2526.253262
630.532405	2530.467667
630.878521	2526.225536
631.224585	2529.610671
631.570597	2528.274765
631.916556	2527.959693
632.262462	2526.341483
632.608316	2529.860208
632.954117	2527.594209
633.299866	2527.833664
633.645562	2529.106555
633.991206	2527.914322
634.336797	2525.492048
634.682336	2525.877696
635.027823	2525.489527
635.373257	2527.994981
635.718639	2526.028931
636.063968	2525.479445
636.409245	2525.865093
636.754470	2526.376771
637.099642	2524.766122
637.444762	2527.432892
637.789829	2525.784435
638.134845	2528.335259
638.479808	2528.083201
638.824719	2524.917357
639.169577	2524.806451
639.514383	2530.205527
639.859137	2528.559590
640.203839	2525.081194
640.548489	2523.195803
640.893086	2522.215298
641.237632	2524.093128
641.582125	2523.533560
641.926566	2522.832839
642.270955	2525.988602
642.615292	2524.791328
642.959576	2525.726462
643.303809	2526.596061
643.647990	2524.866945
643.992118	2521.486851
644.336195	2524.851822
644.680219	2522.258148
645.024192	2526.081863
645.368112	2524.254445
645.711981	2525.073632
646.055797	2529.388860
646.399562	2528.269724
646.743274	2523.349558
647.086935	2525.849970
647.430544	2525.827285
647.774101	2527.445495
648.117606	2527.737882
648.461059	2528.161339
648.804460	2528.128572
649.147810	2526.202851
649.491108	2525.005577
649.834354	2525.648324
650.177548	2526.059178
650.520690	2523.793179
650.863781	2525.529857
651.206820	2525.502130
651.549807	2523.611698
651.892742	2523.485669
652.235626	2524.672861
652.578458	2524.945083
652.921238	2523.558766
653.263967	2524.602284
653.606644	2524.624970
653.949269	2524.214116
654.291843	2521.625483
654.634365	2520.844104
654.976836	2523.830988
655.319255	2525.620598
655.661622	2525.247552
656.003938	2526.051616
656.346203	2522.358971
656.688416	2524.703108
657.030577	2522.290915
657.372687	2524.745957
657.714746	2524.496420
658.056753	2522.847963
658.398708	2518.346212
658.740612	2522.026255
659.082465	2519.402334
659.424266	2519.954341
659.766016	2520.216481
660.107715	2525.121523
660.449362	2520.145904
660.790958	2524.453570
661.132503	2520.987777
661.473996	2524.584640
661.815438	2523.558766
662.156829	2523.586492
662.498168	2523.243693
662.839456	2521.955679
663.180693	2522.409382
663.521879	2523.316790
663.863013	2522.941224
664.204097	2524.897192
664.545129	2524.977850
664.886110	2522.621111
665.227040	2523.067253
665.567918	2524.395597
665.908746	2525.948272
666.249522	2520.420647
666.590248	2525.202182
666.930922	2522.119516
667.271545	2524.201513
667.612118	2525.580268
667.952639	2520.516429
668.293109	2521.386028
668.633528	2523.773015
668.973896	2521.169259
669.314213	2522.268230
669.654480	2524.768643
669.994695	2524.297295
670.334859	2525.330731
670.674973	2522.878210
671.015035	2524.098169
671.355047	2523.311749
671.695008	2523.639424
672.034918	2522.364012
672.374777	2522.611029
672.714585	2520.511388
673.054342	2524.057840
673.394049	2522.800072
673.733705	2522.341327
674.073310	2521.917870
674.412864	2524.773684
674.752368	2521.847294
675.091820	2524.660258
675.431223	2525.113962
675.770574	2524.289733
676.109875	2517.665657
676.449125	2521.073477
676.788324	2519.341840
677.127473	2520.019876
677.466571	2517.403517
677.805619	2523.871317
678.144616	2521.585154
678.483562	2520.226563
678.822458	2520.680267
679.161303	2522.467356
679.500098	2520.455935
679.838842	2521.252438
680.177535	2522.379136
680.516179	2523.077335
680.854771	2519.319155
681.193314	2521.716224
681.531805	2520.947448
681.870247	2522.671522
682.208638	2519.064577
682.546978	2525.562624
682.885268	2520.312263
683.223508	2523.548683
683.561697	2523.382325
683.899836	2523.170597
684.237925	2521.602798
684.575963	2520.345030
684.913951	2519.246058
685.251889	2523.830988
685.589776	2523.125226
685.927614	2523.319311
686.265401	2523.329393
686.603137	2522.018693
686.940824	2522.051461
687.278460	2522.485000
687.616046	2522.656399
687.953582	2521.252438
688.291068	2525.222346
688.628504	2524.970289
688.965889	2522.142201
689.303224	2524.524147
689.640510	2523.042047
689.977745	2522.560617
690.314930	2524.428365
690.652065	2523.568848
690.989150	2522.807634
691.326185	2520.133302
691.663170	2521.393590
692.000105	2522.621111
692.336990	2519.898888
692.673825	2521.161697
693.010610	2521.557428
693.347345	2517.839577
693.684030	2516.964936
694.020665	2517.927797
694.357251	2514.575429
694.693786	2518.749505
695.030272	2520.503826
695.366707	2519.263702
695.703093	2519.684639
696.039429	2519.281347
696.375716	2518.376459
696.711952	2521.174300
697.048139	2517.373270
697.384276	2519.266223
697.720363	2518.651202
698.056400	2517.479134
698.392388	2518.444515
698.728326	2516.428053
699.064214	2517.136336
699.400053	2518.757067
699.735842	2518.820081
700.071581	2515.520646
700.407270	2519.120030
700.742910	2518.149608
701.078501	2518.502488
701.414042	2519.185565
701.749533	2518.699093
702.084974	2519.603980
702.420366	2518.172293
702.755709	2516.453259
703.091002	2517.595081
703.426246	2518.089114
703.761440	2517.537107
704.096584	2520.675226
704.431679	2519.394773
704.766725	2519.147756
705.101721	2518.628517
705.436668	2517.537107
705.771565	2515.792868
706.106413	2518.252951
706.441212	2518.232787
706.775961	2517.093486
707.110661	2516.838908
707.445311	2519.082221
707.779913	2517.753877
708.114465	2522.018693
708.448967	2519.339320
708.783421	2518.590708
709.117825	2519.246058
709.452180	2519.828312
709.786485	2517.506860
710.120742	2516.944772
710.454949	2518.275636
710.789107	2518.981398
711.123216	2513.867147
711.457275	2517.431243
711.791286	2518.101717
712.125247	2517.610204
712.459159	2519.271264
712.793023	2521.290246
713.126837	2516.607014
713.460602	2518.769669
713.794318	2516.740605
714.127985	2515.762621
714.461602	2518.063908
714.795171	2518.840246
715.128691	2520.072808
715.462162	2520.629855
715.795584	2519.856038
716.128957	2518.237828
716.462281	2518.343692
716.795556	2518.389062
717.128782	2515.258506
717.461960	2518.694052
717.795088	2516.594412
718.128167	2515.820594
718.461198	2514.837569
718.794180	2516.067611
719.127113	2517.413599
719.459997	2517.776562
719.792833	2516.654905
720.125619	2519.011645
720.458357	2515.152642
720.791046	2516.465862
721.123686	2513.294976
721.456278	2516.365039
721.788821	2516.816222
722.121315	2517.464011
722.453761	2517.078362
722.786158	2517.068280
723.118506	2515.639113
723.450805	2516.544000
723.783056	2514.726664
724.115259	2516.241531
724.447412	2515.571057
724.779518	2518.084072
725.111574	2516.554082
725.443582	2516.672549
725.775542	2516.891840
726.107453	2514.988804
726.439315	2515.056860
726.771129	2519.553569
727.102895	2515.462673
727.434612	2516.685152
727.766281	2515.669360
728.097901	2514.635923
728.429473	2510.570233
728.760996	2517.262364
729.092471	2513.118536
729.423897	2519.094824
729.755276	2516.743126
730.086606	2517.204391
730.417887	2517.995852
730.749120	2517.058198
731.080305	2515.316479
731.411442	2515.064421
731.742530	2513.630213
732.073570	2516.412930
732.404562	2516.680111
732.735506	2516.591891
733.066401	2517.791686
733.397249	2517.892509
733.728048	2517.393434
734.058798	2516.836387
734.389501	2518.056346
734.720156	2514.320851
735.050762	2518.119361
735.381320	2515.903773
735.711831	2512.682476
736.042293	2519.563651
736.372707	2514.144411
736.703073	2516.483506
737.033391	2513.983094
737.363661	2514.600635
737.693883	2512.788340
738.024056	2517.433764
738.354182	2513.814215
738.684260	2516.102899
739.014290	2515.621469
739.344272	2514.298166
739.674207	2517.973167
740.004093	2518.497447
740.333931	2514.983763
740.663722	2515.356808
740.993464	2517.567354
741.323159	2517.554751
741.652806	2515.064421
741.982405	2515.124915
742.311956	2513.138701
742.641460	2515.112312
742.970915	2516.226407
743.300323	2515.008969
743.629683	2513.100892
743.958996	2513.307579
744.288260	2513.322703
744.617477	2515.805471
744.946647	2510.474451
745.275768	2514.968639
745.604842	2511.260871
745.933869	2510.416477
746.262847	2511.777589
746.591778	2520.052643
746.920662	2512.566530
747.249498	2515.719771
747.578286	2513.564678
747.907027	2514.351098
748.235720	2516.859072
748.564365	2513.322703
748.892963	2515.480317
749.221514	2516.707838
749.550017	2514.093999
749.878473	2515.008969
750.206881	2515.119874
750.535242	2515.031654
750.863555	2517.496778
751.191821	2518.157169
751.520039	2513.995697
751.848210	2517.227076
752.176334	2513.715913
752.504411	2512.725326
752.832440	2514.756911
753.160421	2517.020389
753.488356	2517.411078
753.816243	2516.947292
754.144082	2513.814215
754.471875	2515.656757
754.799620	2514.537621
755.127318	2514.366222
755.454969	2514.144411
755.782572	2512.778258
756.110129	2514.235152
756.437638	2516.584329
756.765100	2514.840090
757.092515	2514.928310
757.419882	2514.154493
757.747203	2514.093999
758.074477	2514.656088
758.401703	2511.233144
758.728882	2513.350429
759.056014	2513.325223
759.383099	2514.260357
759.710138	2514.638444
760.037129	2514.769514
760.364073	2517.524504
760.690970	2515.618948
761.017820	2515.316479
761.344623	2516.791017
761.671379	2513.821777
761.998088	2510.439163
762.324751	2512.206087
762.651366	2510.418998
762.977935	2517.955523
763.304456	2512.828670
763.630931	2515.742457
763.957359	2517.441325
764.283740	2517.877385
764.610074	2517.763959
764.936362	2515.424864
765.262602	2515.117353
765.588796	2513.985614
765.914943	2513.748680
766.241044	2514.381345
766.567097	2513.113495
766.893104	2511.802795
767.219064	2510.633247
767.544978	2513.179030
767.870845	2514.262878
768.196665	2512.700120
768.522438	2515.719771
768.848165	2514.046108
769.173846	2513.042919
769.499479	2513.602487
769.825066	2511.754904
770.150607	2512.022085
770.476101	2512.448063
770.801548	2513.569719
771.126949	2513.806653
771.452303	2517.075842
771.777611	2513.741118
772.102872	2513.025275
772.428087	2513.557116
772.753256	2512.639626
773.078378	2511.182733
773.403453	2513.776407
773.728482	2513.887312
774.053465	2512.349760
774.378401	2511.278515
774.703291	2512.359842
775.028135	2511.200377
775.352932	2511.417147
775.677683	2511.160048
776.002388	2513.690707
776.327046	2510.721467
776.651658	2513.897394
776.976224	2512.548886
777.300743	2509.680469
777.625216	2511.472599
777.949643	2513.151303
778.274024	2512.788340
778.598359	2510.781961
778.922647	2506.643174
779.246889	2510.671056
779.571086	2507.595952
779.895236	2510.114008
780.219339	2509.751045
780.543397	2511.712054
780.867409	2511.444873
781.191374	2511.802795
781.515294	2512.760614
781.839167	2511.034019
782.162995	2510.277846
782.486776	2510.366066
782.810511	2512.380007
783.134201	2511.185253
783.457844	2510.887825
783.781441	2514.199863
784.104993	2512.014523
784.428498	2512.397651
784.751958	2508.599142
785.075372	2512.110305
785.398739	2509.262053
785.722061	2511.089472
786.045337	2513.257168
786.368568	2513.509225
786.691752	2511.568381
787.014891	2511.651560
787.337983	2511.056704
787.661030	2513.703310
787.984031	2511.149965
788.306987	2516.397807
788.629897	2511.593587
788.952760	2511.076869
789.275579	2511.777589
789.598351	2512.561488
789.921078	2510.272805
790.243759	2511.936385
790.566395	2511.757424
790.888984	2512.742970
791.211529	2511.686848
791.534027	2512.735408
791.856480	2511.790192
792.178888	2512.269102
792.501249	2513.216838
792.823566	2513.277332
793.145836	2509.231806
793.468062	2511.994359
793.790241	2512.349760
794.112375	2511.091992
794.434464	2510.411436
794.756507	2509.015037
795.078505	2510.285407
795.400457	2506.917917
795.722364	2506.670900
796.044226	2508.662156
796.366042	2509.680469
796.687812	2512.334637
797.009538	2512.866478
797.331218	2512.730367
797.652852	2513.083248
797.974442	2513.539472
798.295986	2514.323372
798.617484	2511.880933
798.938938	2509.441014
799.260346	2512.437980
799.581709	2513.899915
799.903026	2511.366735
800.224299	2511.606190
800.545526	2510.860099
800.866708	2511.190295
801.187845	2510.091323
801.508936	2511.568381
801.829983	2513.073166
802.150984	2512.848834
802.471940	2511.502846
802.792851	2510.605521
803.113717	2510.933196
803.434538	2509.516632
803.755314	2510.335819
804.076045	2511.628875
804.396731	2511.558299
804.717372	2510.371107
805.037967	2509.070489
805.358518	2510.676097
805.679024	2512.064935
805.999485	2510.298010
806.319901	2510.570233
806.640272	2510.174502
806.960598	2510.580315
807.280879	2509.415808
807.601115	2512.616941
807.921306	2510.222393
808.241453	2513.128618
808.561554	2509.766169
808.881611	2513.108454
809.201623	2511.301200
809.521590	2511.860768
809.841513	2512.135511
810.161390	2509.259533
810.481223	2511.028978
810.801011	2511.817918
811.120755	2511.981756
811.440453	2511.749863
811.760107	2512.138032
812.079716	2507.961436
812.399281	2508.029491
812.718801	2506.849861
813.038276	2505.173678
813.357707	2510.504698
813.677093	2508.231137
813.996434	2511.558299
814.315731	2508.896570
814.634983	2512.926972
814.954191	2511.427229
815.273354	2510.497136
815.592473	2509.529234
815.911547	2511.676766
816.230577	2508.682321
816.549562	2511.001251
816.868502	2509.899759
817.187399	2511.633916
817.506250	2507.651405
817.825058	2514.724143
818.143821	2509.466220
818.462539	2510.938237
818.781213	2510.799605
819.099843	2512.427898
819.418429	2511.386900
819.736970	2510.978566
820.055466	2511.901097
820.373919	2511.638957
820.692327	2513.625172
821.010691	2515.639113
821.329011	2520.390400
821.647286	2525.479445
821.965517	2531.057482
822.283704	2534.281300
822.601847	2533.189890
822.919945	2534.210724
823.237999	2528.607481
823.556010	2525.396266
823.873976	2522.590864
824.191897	2522.565658
824.509775	2519.142715
824.827609	2518.883095
825.145398	2516.196160
825.463144	2515.021572
825.780845	2515.477796
826.098502	2518.043743
826.416116	2519.477952
826.733685	2520.014834
827.051210	2518.920904
827.368692	2521.207067
827.686129	2516.312107
828.003522	2518.910822
828.320872	2510.706344
828.638177	2512.175840
828.955439	2507.008658
829.272656	2511.465037
829.589830	2504.639315
829.906960	2513.375635
830.224046	2510.991169
830.541088	2512.632065
830.858086	2507.399347
831.175041	2509.267094
831.491952	2509.569564
831.808819	2510.018226
832.125642	2508.112670
832.442421	2511.822959
832.759157	2512.372445
833.075849	2515.871006
833.392497	2512.208608
833.709101	2514.819925
834.025662	2513.655419
834.342179	2513.519308
834.658653	2514.187261
834.975083	2514.184740
835.291469	2518.081552
835.607811	2510.164420
835.924110	2511.734739
836.240366	2511.333968
836.556578	2508.553771
836.872746	2510.015706
837.188871	2509.410767
837.504952	2510.386231
837.820990	2510.098885
838.136984	2507.822804
838.452935	2508.707526
838.768842	2509.423370
839.084706	2509.299862
839.400526	2513.564678
839.716303	2513.993176
840.032037	2511.391941
840.347727	2511.233144
840.663373	2507.840448
840.978977	2512.221211
841.294537	2510.519821
841.610054	2510.184584
841.925527	2511.467558
842.240957	2508.205932
842.556344	2511.134842
842.871687	2509.254492
843.186987	2508.732732
843.502244	2507.447238
843.817458	2509.884636
844.132629	2509.146107
844.447756	2508.369769
844.762840	2506.615448
845.077881	2505.932371
845.392879	2508.019409
845.707833	2508.674759
846.022745	2501.934736
846.337613	2507.825324
846.652438	2509.231806
846.967221	2507.520335
847.281960	2509.191477
847.596656	2508.838596
847.911309	2509.191477
848.225919	2507.109481
848.540485	2507.096878
848.855009	2509.156189
849.169490	2508.115191
849.483928	2508.621827
849.798323	2509.834224
850.112675	2509.448576
850.426984	2505.395488
850.741251	2509.965294
851.055474	2507.913545
851.369654	2508.518483
851.683792	2509.982938
851.997887	2505.445900
852.311938	2507.900942
852.625947	2509.241889
852.939914	2508.079903
853.253837	2507.406909
853.567718	2507.064110
853.881555	2505.942453
854.195350	2506.678462
854.509103	2507.570746
854.822812	2511.167609
855.136479	2510.126611
855.450103	2506.181908
855.763685	2507.767351
856.077224	2508.470592
856.390720	2508.147958
856.704173	2507.860613
857.017584	2509.690551
857.330953	2508.619306
857.644278	2511.175171
857.957561	2510.199708
858.270802	2507.865654
858.584000	2508.697444
858.897155	2505.556805
859.210268	2507.457320
859.523339	2508.382372
859.836367	2509.015037
860.149352	2510.126611
860.462295	2509.047804
860.775195	2503.406753
861.088054	2504.412463
861.400869	2504.210817
861.713642	2502.370796
862.026373	2507.409429
862.339062	2505.435818
862.651708	2507.467403
862.964312	2505.803822
863.276873	2509.446055
863.589392	2508.198370
863.901869	2507.777433
864.214303	2507.507732
864.526696	2507.759789
864.839045	2506.396157
865.151353	2507.023781
865.463619	2508.163082
865.775842	2509.395644
866.088023	2508.095026
866.400162	2508.641991
866.712258	2507.883298
867.024313	2507.714419
867.336325	2508.175685
867.648296	2508.621827
867.960224	2504.977073
868.272110	2506.045797
868.583954	2509.196518
868.895755	2507.669049
869.207515	2506.547392
869.519233	2505.831548
869.830909	2509.952691
870.142542	2504.709891
870.454134	2509.446055
870.765684	2506.776764
871.077191	2510.073679
871.388657	2510.913031
871.700081	2508.069820
872.011463	2508.049656
872.322803	2507.802639
872.634101	2508.387413
872.945357	2508.793226
873.256571	2508.256343
873.567744	2507.273318
873.878874	2509.952691
874.189963	2510.431601
874.501010	2511.575943
874.812015	2506.915396
875.122979	2506.217196
875.433900	2507.968997
875.744780	2508.896570
876.055618	2507.124604
876.366415	2507.326250
876.677169	2507.727022
876.987882	2504.367093
877.298554	2505.055210
877.609183	2506.895232
877.919771	2505.181239
878.230317	2504.813235
878.540822	2509.786333
878.851285	2510.668535
879.161707	2511.543175
879.472087	2508.533607
879.782425	2510.532424
880.092722	2512.621982
880.402977	2515.631551
880.713191	2517.224556
881.023363	2518.411747
881.333494	2519.621624
881.643583	2518.537776
881.953631	2518.212622
882.263637	2519.944258
882.573602	2516.181037
882.883526	2516.049967
883.193408	2517.302694
883.503248	2515.807992
883.813048	2514.139370
884.122806	2511.565861
884.432522	2512.405213
884.742197	2509.720798
885.051831	2509.889677
885.361424	2509.892197
885.670975	2509.504029
885.980485	2509.541837
886.289954	2505.990344
886.599382	2507.651405
886.908768	2510.892867
887.218113	2508.281549
887.527417	2510.073679
887.836680	2509.115860
888.145901	2509.635099
888.455082	2507.724501
888.764221	2509.393123
889.073319	2507.071672
889.382376	2508.389934
889.691392	2507.263236
890.000366	2508.120232
890.309300	2508.155520
890.618193	2507.343894
890.927044	2506.633092
891.235855	2508.871364
891.544625	2508.349604
891.853353	2507.537979
892.162041	2509.080572
892.470687	2507.530417
892.779293	2509.264574
893.087858	2506.769203
893.396381	2505.939933
893.704864	2506.174347
894.013306	2502.516989
894.321707	2510.184584
894.630068	2509.297341
894.938387	2509.599811
895.246665	2510.403875
895.554903	2511.533093
895.863100	2508.959584
896.171256	2508.523524
896.479371	2509.715757
896.787446	2510.691220
897.095480	2508.440345
897.403473	2507.621158
897.711425	2507.797598
898.019336	2509.728360
898.327207	2506.252484
898.635038	2508.102588
898.942827	2506.161744
899.250576	2505.889521
899.558284	2507.018740
899.865952	2509.136024
900.173579	2509.675428
900.481165	2505.902124
900.788711	2504.568739
901.096216	2508.145438
901.403681	2506.126456
901.711105	2508.831035
902.018489	2509.030160
902.325832	2511.444873
902.633135	2507.772392
902.940397	2509.360356
903.247619	2505.718122
903.554800	2510.794564
903.861941	2507.497649
904.169041	2509.771210
904.476101	2510.716426
904.783121	2511.843124
905.090100	2511.258350
905.397039	2510.003103
905.703938	2508.460510
906.010796	2509.793895
906.317614	2505.690396
906.624391	2507.359018
906.931129	2509.637619
907.237826	2509.720798
907.544483	2508.377331
907.851099	2507.754748
908.157675	2505.299706
908.464211	2505.062772
908.770707	2504.558657
909.077163	2506.663338
909.383578	2501.919613
909.689954	2504.846003
909.996289	2499.343583
910.302584	2504.568739
910.608839	2504.639315
910.915054	2506.764162
911.221229	2507.406909
911.527363	2507.858092
911.833458	2502.585045
912.139513	2507.180057
912.445527	2508.674759
912.751502	2506.232320
913.057436	2508.279028
913.363331	2506.706188
913.669186	2507.797598
913.975000	2506.398678
914.280775	2509.456138
914.586510	2507.805160
914.892205	2508.195849
915.197859	2508.541168
915.503475	2512.959740
915.809050	2510.376148
916.114585	2511.495284
916.420081	2510.136693
916.725536	2510.479492
917.030952	2509.095695
917.336328	2511.795233
917.641665	2509.148627
917.946961	2510.015706
918.252218	2505.687875
918.557435	2508.074862
918.862612	2505.629902
919.167750	2509.894718
919.472848	2511.207939
919.777906	2507.923627
920.082925	2509.020078
920.387904	2507.608555
920.692843	2507.303565
920.997743	2504.740138
921.302603	2507.951353
921.607423	2507.341374
921.912204	2506.454131
922.216946	2505.884480
922.521647	2506.035715
922.826310	2507.112001
923.130932	2509.930006
923.435516	2504.276352
923.740059	2506.219717
924.044564	2502.146465
924.349028	2507.696775
924.653454	2501.266783
924.957840	2499.199910
925.262186	2501.793584
925.566493	2505.710560
925.870761	2501.453306
926.174989	2506.454131
926.479178	2506.491939
926.783328	2506.605365
927.087438	2507.979080
927.391509	2507.535458
927.695541	2507.011178
927.999533	2505.675272
928.303486	2504.230982
928.607400	2505.493791
928.911275	2506.043277
929.215110	2505.277021
929.518906	2504.699809
929.822663	2507.159892
930.126381	2505.866836
930.430060	2505.801301
930.733699	2504.107473
931.037299	2504.341887
931.340861	2505.566887
931.644383	2509.035201
931.947866	2506.774244
932.251309	2504.165447
932.554714	2505.024963
932.858080	2505.395488
933.161407	2503.200066
933.464694	2506.219717
933.767943	2504.311640
934.071153	2505.892042
934.374323	2505.526558
934.677455	2506.834738
934.980548	2502.330467
935.283602	2503.920951
935.586617	2503.381547
935.889593	2506.524707
936.192530	2506.827176
936.495428	2505.909686
936.798287	2505.634943
937.101108	2504.498163
937.403890	2505.340036
937.706632	2507.628719
938.009336	2505.249295
938.312002	2504.982114
938.614628	2504.886332
938.917216	2506.038235
939.219765	2506.081085
939.522275	2506.570077
939.824747	2506.504542
940.127179	2502.141423
940.429573	2503.860457
940.731929	2503.053872
941.034246	2501.004643
941.336524	2502.960611
941.638763	2505.027484
941.940964	2505.909686
942.243126	2506.759120
942.545250	2505.251815
942.847335	2505.718122
943.149381	2507.230468
943.451389	2505.087978
943.753359	2507.253153
944.055290	2506.431445
944.357182	2503.580673
944.659036	2504.092350
944.960851	2506.723832
945.262628	2505.085457
945.564367	2506.524707
945.866067	2503.996568
946.167729	2505.609737
946.469352	2504.059583
946.770937	2505.944974
947.072484	2505.062772
947.373992	2507.008657
947.675462	2505.914727
947.976893	2507.079234
948.278286	2505.909686
948.579641	2505.181239
948.880958	2502.698471
949.182236	2507.432114
949.483476	2505.387927
949.784678	2506.176867
950.085841	2504.664521
950.386967	2507.522855
950.688054	2504.714932
950.989103	2506.718791
951.290114	2506.975890
951.591087	2502.892555
951.892021	2505.294665
952.192917	2504.745179
952.493776	2505.715602
952.794596	2508.004285
953.095378	2504.430107
953.396122	2508.929337
953.696828	2507.422032
953.997496	2504.384737
954.298126	2503.235354
954.598718	2508.382372
954.899272	2504.631753
955.199788	2506.312978
955.500266	2507.585870
955.800706	2501.854078
956.101108	2500.805518
956.401472	2503.931033
956.701798	2502.832062
957.002087	2501.614623
957.302337	2504.878770
957.602550	2503.116887
957.902724	2502.708553
958.202861	2506.428925
958.502960	2501.513800
958.803022	2504.024294
959.103045	2506.648215
959.403031	2506.191991
959.702979	2504.760303
960.002889	2504.251146
960.302762	2504.412463
960.602596	2506.038235
960.902393	2503.217710
961.202153	2504.518327
961.501875	2503.840292
961.801559	2507.739625
962.101205	2502.771568
962.400814	2507.469923
962.700385	2502.975734
962.999918	2505.231651
963.299414	2506.426404
963.598873	2506.504542
963.898293	2503.784840
964.197677	2504.135200
964.497022	2501.632267
964.796331	2504.846003
965.095601	2507.258195
965.394835	2504.702330
965.694030	2504.548574
965.993189	2503.840292
966.292309	2504.016733
966.591393	2504.069665
966.890439	2501.349962
967.189447	2503.666372
967.488419	2502.428769
967.787353	2504.404902
968.086249	2507.752228
968.385108	2503.331136
968.683930	2502.733759
968.982714	2505.433297
969.281462	2506.270128
969.580172	2502.695950
969.878844	2505.317350
970.177480	2503.956239
970.476078	2504.440190
970.774639	2506.766682
971.073162	2504.367093
971.371649	2501.574294
971.670098	2500.828203
971.968510	2502.201917
972.266885	2500.548419
972.565223	2503.774757
972.863524	2504.001609
973.161788	2504.752741
973.460014	2501.924654
973.758204	2504.230982
974.056356	2505.899604
974.354471	2505.796260
974.652550	2502.905158
974.950591	2506.058400
975.248595	2504.180570
975.546563	2505.458503
975.844493	2505.357680
976.142386	2503.419356
976.440243	2503.079078
976.738062	2507.480005
977.035845	2503.840292
977.333590	2503.938595
977.631299	2504.200735
977.928971	2504.674603
978.226606	2506.587721
978.524204	2501.619664
978.821765	2504.966990
979.119290	2506.060921
979.416777	2502.665703
979.714228	2502.892555
980.011642	2502.101094
980.309020	2505.950015
980.606360	2502.537154
980.903664	2503.608399
981.200931	2503.169819
981.498162	2502.269973
981.795356	2505.919768
982.092513	2503.973883
982.389633	2505.856754
982.686717	2504.157885
982.983764	2503.215189
983.280775	2504.934223
983.577749	2508.026971
983.874686	2505.329953
984.171587	2502.280055
984.468451	2505.667711
984.765279	2504.765344
985.062070	2503.028667
985.358824	2502.494304
985.655543	2504.926661
985.952224	2502.895076
986.248869	2504.301558
986.545478	2499.557832
986.842050	2503.671414
987.138586	2503.615961
987.435086	2498.511793
987.731549	2500.218223
988.027975	2501.959942
988.324366	2504.896414
988.620719	2503.656290
988.917037	2502.935405
989.213318	2505.077896
989.509563	2501.266783
989.805772	2503.855416
990.101944	2502.693430
990.398080	2503.691578
990.694180	2501.342401
990.990244	2504.636795
991.286271	2501.107987
991.582262	2504.357011
991.878217	2503.515138
992.174136	2504.188132
992.470019	2502.809376
992.765865	2503.202586
993.061676	2502.786691
993.357450	2503.189983
993.653188	2502.297699
993.948890	2505.319871
994.244556	2503.603358
994.540186	2505.803822
994.835780	2500.994561
995.131337	2503.376506
995.426859	2503.182422
995.722345	2502.690909
996.017795	2503.578152
996.313208	2504.437669
996.608586	2502.166629
996.903928	2504.440190
997.199234	2501.443224
997.494504	2503.757113
997.789738	2501.745693
998.084936	2502.368275
998.380099	2504.719974
998.675225	2504.777947
998.970316	2500.896258
999.265371	2503.452123
999.560390	2503.240395
999.855373	2504.523369
1000.150320	2502.436331
1000.445232	2502.275014
1000.740108	2500.981958
1001.034948	2503.121928
1001.329752	2503.462206
1001.624521	2503.381547
1001.919254	2497.569097
1002.213951	2500.898779
1002.508613	2500.876094
1002.803239	2501.551608
1003.097829	2496.878459
1003.392384	2502.887514
1003.686903	2504.238543
1003.981386	2506.242402
1004.275834	2503.363903
1004.570246	2504.972031
1004.864623	2501.672596
1005.158964	2502.562360
1005.453270	2504.324243
1005.747540	2501.901969
1006.041775	2502.232164
1006.335974	2500.772750
1006.630138	2503.101763
1006.924266	2504.447751
1007.218359	2503.137051
1007.512416	2505.488750
1007.806438	2505.370282
1008.100425	2504.606548
1008.394376	2502.527072
1008.688292	2504.982114
1008.982172	2501.924654
1009.276017	2502.847185
1009.569827	2501.579335
1009.863602	2503.169819
1010.157341	2504.147803
1010.451045	2501.831393
1010.744714	2503.520179
1011.038347	2503.585714
1011.331945	2502.396002
1011.625508	2504.556136
1011.919036	2501.917092
1012.212528	2504.508245
1012.505986	2504.644356
1012.799408	2500.041783
1013.092795	2503.749552
1013.386147	2501.024808
1013.679464	2503.361383
1013.972745	2504.185611
1014.265992	2501.904489
1014.559204	2501.150837
1014.852380	2501.286948
1015.145521	2502.887514
1015.438628	2502.655621
1015.731699	2504.851044
1016.024736	2503.865498
1016.317737	2504.510766
1016.610703	2504.556136
1016.903635	2498.098418
1017.196531	2498.095898
1017.489393	2498.489108
1017.782219	2498.612616
1018.075011	2500.117400
1018.367768	2502.035559
1018.660490	2502.917761
1018.953177	2502.917761
1019.245829	2502.917761
