Dividing Wavelength (nm)	Counts (n)	Blue Motor Position (mm): 0.000000	Red Motor Position (mm): 46.500000	
326.493990	2075.790878
326.888308	2075.790878
327.282561	2075.790878
327.676750	2053.869421
328.070874	2054.960830
328.464933	2060.899310
328.858929	2072.609910
329.252859	2084.358319
329.646726	2099.731318
330.040528	2112.472834
330.434265	2133.552419
330.827938	2153.616211
331.221547	2172.021464
331.615091	2192.044927
332.008571	2213.878164
332.401986	2233.989848
332.795338	2255.341655
333.188625	2275.062648
333.581847	2293.969496
333.975006	2310.141518
334.368100	2329.393684
334.761129	2345.928669
335.154095	2362.004908
335.546996	2405.462175
335.939833	2492.142295
336.332606	2502.244767
336.725315	2515.024092
337.117960	2521.572551
337.510540	2530.954138
337.903056	2541.202804
338.295508	2543.373021
338.687896	2555.025648
339.080220	2558.317521
339.472480	2563.174673
339.864676	2571.530386
340.256807	2570.998544
340.648875	2577.083217
341.040879	2579.117322
341.432818	2580.511201
341.824694	2579.790316
342.216506	2579.316448
342.608253	2577.065572
342.999937	2576.309399
343.391557	2575.076837
343.783113	2574.335788
344.174605	2573.481312
344.566033	2568.634243
344.957397	2570.998544
345.348697	2569.110632
345.739934	2568.750189
346.131106	2569.425704
346.522215	2564.455126
346.913260	2564.225754
347.304241	2561.707697
347.695159	2562.116031
348.086012	2559.257697
348.476802	2557.710062
348.867528	2555.570092
349.258191	2553.430123
349.648789	2554.871893
350.039324	2551.872406
350.429796	2556.379198
350.820203	2550.891902
351.210548	2550.932231
351.600828	2549.671942
351.991045	2550.052550
352.381198	2547.806716
352.771288	2550.934752
353.161314	2550.108002
353.551276	2549.482899
353.941175	2552.280740
354.331010	2549.371994
354.720782	2553.858621
355.110490	2551.839639
355.500135	2552.691594
355.889717	2550.052550
356.279235	2550.899463
356.668689	2553.624207
357.058080	2551.852242
357.447408	2554.052705
357.836672	2550.203784
358.225873	2550.652447
358.615010	2555.212171
359.004084	2558.309960
359.393095	2558.075546
359.782043	2562.320197
360.170927	2560.359189
360.559748	2558.307439
360.948505	2562.670558
361.337199	2563.272976
361.725830	2565.483522
362.114398	2562.300033
362.502903	2567.010991
362.891344	2567.172308
363.279722	2569.612227
363.668037	2567.769685
364.056289	2566.615261
364.444478	2569.637432
364.832603	2570.925447
365.220665	2571.790005
365.608665	2571.467371
365.996601	2573.677917
366.384474	2575.291086
366.772284	2574.648339
367.160031	2577.269739
367.547715	2575.217990
367.935336	2574.726477
368.322893	2579.301324
368.710388	2576.818556
369.097820	2581.463979
369.485189	2584.949937
369.872495	2586.863055
370.259738	2584.622262
370.646918	2586.260637
371.034035	2587.929259
371.421090	2592.856987
371.808081	2592.546956
372.195010	2597.744386
372.581875	2604.040787
372.968678	2609.371807
373.355418	2615.073352
373.742096	2624.533077
374.128710	2632.056999
374.515262	2641.846920
374.901751	2653.731440
375.288177	2669.396826
375.674540	2684.406861
376.060841	2705.700695
376.447079	2724.826833
376.833254	2746.501274
377.219367	2769.683020
377.605417	2801.916157
377.991404	2824.414827
378.377329	2864.759181
378.763191	2896.024418
379.148991	2943.474278
379.534727	2988.514467
379.920402	3028.894109
380.306013	3077.216090
380.691563	3137.639360
381.077049	3188.229859
381.462474	3242.407139
381.847835	3311.899445
382.233134	3379.786143
382.618371	3438.717232
383.003545	3521.966847
383.388657	3594.645162
383.773706	3679.966690
384.158693	3750.988986
384.543618	3840.966021
384.928480	3913.515786
385.313280	4012.140920
385.698017	4112.719501
386.082692	4228.106472
386.467305	4290.871358
386.851856	4407.269079
387.236344	4554.354825
387.620770	4617.860761
388.005133	4729.166917
388.389435	4872.376015
388.773674	4951.436431
389.157851	5078.329835
389.541965	5206.544022
389.926018	5228.727619
390.310008	5400.983846
390.693936	5518.921640
391.077802	5632.362725
391.461606	5762.061531
391.845348	5870.756370
392.229027	5983.597558
392.612645	6199.154776
392.996200	6311.781714
393.379694	6486.329146
393.763125	6699.275046
394.146494	6791.760054
394.529801	6921.915085
394.913047	7156.164901
395.296230	7154.612226
395.679351	7212.030968
396.062410	7455.952238
396.445408	7364.546037
396.828343	7515.548759
397.211217	7653.905747
397.594028	7538.302007
397.976778	7740.414467
398.359466	7901.733911
398.742092	7886.260089
399.124656	8014.469234
399.507158	8211.394348
399.889598	8232.405877
400.271977	8446.370090
400.654294	8475.271025
401.036549	8674.893156
401.418742	8700.678658
401.800874	8997.252259
402.182944	9085.316176
402.564952	9438.537223
402.946898	9276.736349
403.328783	9329.683588
403.710606	9522.084265
404.092367	9782.316189
404.474067	10137.089911
404.855705	9946.020098
405.237282	9887.532631
405.618797	10316.607920
406.000250	10561.900384
406.381642	10914.365258
406.762972	10870.880265
407.144240	10680.619557
407.525447	10940.082704
407.906593	10880.929805
408.287677	11146.560804
408.668700	11283.861670
409.049661	11277.930753
409.430560	11441.790938
409.811399	11415.206413
410.192176	11567.003117
410.572891	11654.696509
410.953545	12124.106070
411.334138	11612.406269
411.714669	12193.086699
412.095139	11544.176773
412.475547	12020.432221
412.855894	11888.568239
413.236180	12211.449102
413.616405	11910.570355
413.996568	12183.498424
414.376670	12156.976914
414.756711	12042.777135
415.136691	12325.074189
415.516609	12502.394255
415.896466	12591.942791
416.276262	12863.660983
416.655997	13326.907734
417.035670	13375.459086
417.415283	13987.639165
417.794834	14070.500611
418.174324	13826.591944
418.553753	13740.302514
418.933121	14220.875710
419.312428	14055.001584
419.691674	13965.541268
420.070859	14428.140230
420.449983	14084.439402
420.829045	14637.781653
421.208047	14390.697059
421.586988	14850.946844
421.965867	15093.265027
422.344686	15101.711480
422.723444	15661.713096
423.102141	14365.420714
423.480777	15568.267748
423.859352	15054.758173
424.237866	16169.135478
424.616319	15886.979577
424.994712	16530.843308
425.373044	16320.044939
425.751314	17018.060744
426.129524	16146.021787
426.507673	17221.781333
426.885762	16954.582535
427.263789	17134.521481
427.641756	17322.821180
428.019662	17381.696815
428.397508	17431.601718
428.775292	17724.548209
429.153016	17700.743881
429.530679	17774.415303
429.908282	17812.539029
430.285824	17557.068475
430.663305	18250.499352
431.040726	17865.322430
431.418086	17701.308490
431.795385	18343.823712
432.172624	18796.174008
432.549802	18344.960492
432.926920	18565.757990
433.303977	18429.238502
433.680974	18683.239559
434.057910	18999.380399
434.434786	19045.252379
434.811601	18961.518813
435.188355	20022.107007
435.565050	19686.915646
435.941683	19640.068203
436.318257	20542.099505
436.694770	20334.512352
437.071222	20941.147161
437.447614	20002.998513
437.823946	20052.777387
438.200218	20214.414423
438.576429	19995.159519
438.952580	20302.185952
439.328670	20262.023080
439.704700	20704.349042
440.080670	20267.240674
440.456580	20879.403109
440.832429	21060.083104
441.208218	20054.327541
441.583947	20493.419603
441.959616	20627.410952
442.335224	20872.476564
442.710773	21012.537462
443.086261	21575.893966
443.461689	20897.929349
443.837057	21075.052810
444.212365	21728.824929
444.587612	21736.323646
444.962800	21327.503713
445.337927	21764.165938
445.712995	20467.639142
446.088002	22379.325339
446.462949	22572.250297
446.837837	22773.916615
447.212664	22775.421400
447.587431	25734.303965
447.962139	28728.043588
448.336786	31056.940718
448.711374	29401.778676
449.085901	25646.890357
449.460369	25653.867314
449.834776	25644.019420
450.209124	28205.553197
450.583412	27691.264764
450.957640	28201.968937
451.331808	26843.841762
451.705917	25453.804082
452.079965	25492.278168
452.453954	25888.228036
452.827883	25802.329295
453.201752	25589.688384
453.575562	25756.709373
453.949311	26906.616730
454.323001	26957.166900
454.696632	26742.043221
455.070202	28356.515590
455.443713	28545.032059
455.817164	29126.229207
456.190556	29696.237513
456.563888	29106.732544
456.937160	29552.080678
457.310373	27827.612852
457.683526	28274.556511
458.056619	28270.490821
458.429653	28254.049097
458.802628	28863.227169
459.175542	28998.544341
459.548398	30383.785363
459.921194	32026.258821
460.293930	32757.684873
460.666607	34844.830951
461.039224	36659.724473
461.411782	37032.422018
461.784280	35739.098875
462.156719	35196.980753
462.529099	34614.800580
462.901419	33288.725061
463.273680	32216.267471
463.645882	32373.617006
464.018024	32355.972967
464.390106	33290.192037
464.762130	36204.644392
465.134094	40536.855732
465.505999	46035.353137
465.877845	50603.266145
466.249631	51622.224490
466.621358	49799.466767
466.993026	47573.923373
467.364634	45427.465600
467.736184	43458.819406
468.107674	42175.452542
468.479105	41380.606254
468.850477	40644.527216
469.221790	39192.299342
469.593043	37420.303518
469.964238	36513.810796
470.335373	36450.544315
470.706449	38303.695154
471.077467	41079.031828
471.448425	45768.585358
471.819324	48568.006144
472.190164	46590.558095
472.560945	42933.180815
472.931667	39765.017269
473.302330	38652.212804
473.672934	37798.828637
474.043479	38342.146555
474.413965	37541.883546
474.784393	37168.225662
475.154761	38096.390305
475.525070	38155.966661
475.895321	37652.640217
476.265513	38286.388873
476.635645	39305.662289
477.005719	39154.452880
477.375734	39651.800515
477.745691	40389.575901
478.115588	41759.829572
478.485427	43889.815375
478.855207	47365.900160
479.224928	50034.896214
479.594591	51581.018098
479.964194	50498.667244
480.333739	50644.094450
480.703226	50706.080478
481.072653	51360.384438
481.442022	51833.405986
481.811333	52065.341913
482.180584	50788.137860
482.549777	50253.831005
482.918912	49737.400081
483.287988	49395.821579
483.657005	48574.557123
484.025964	47877.829333
484.394864	47893.066220
484.763706	47439.047302
485.132489	46562.120946
485.501213	46394.545431
485.869879	46536.171607
486.238487	46126.923176
486.607036	46326.411716
486.975527	45762.230983
487.343959	45992.641961
487.712333	46051.772175
488.080648	45936.412931
488.448905	46421.460151
488.817104	46200.304732
489.185244	47228.571567
489.553326	48986.437037
489.921350	51728.408834
490.289315	54558.275669
490.657222	55088.176555
491.025070	55311.855072
491.392861	54407.787144
491.760593	53156.482019
492.128267	51466.097435
492.495883	49912.829714
492.863440	48491.962859
493.230939	47117.101573
493.598380	45997.814185
493.965763	45684.932451
494.333088	44845.756776
494.700354	44330.104711
495.067563	44043.651226
495.434713	43899.980862
495.801805	43968.553157
496.168839	43579.222325
496.535815	43241.951488
496.902733	43251.789300
497.269593	42806.640292
497.636395	42746.849687
498.003139	43160.539374
498.369825	42588.325563
498.736453	42899.505908
499.103023	42418.993205
499.469535	42300.921820
499.835989	42390.740058
500.202385	42041.632593
500.568723	42060.350397
500.935003	42251.377360
501.301226	42044.037223
501.667390	42665.225844
502.033497	42903.117894
502.399546	42346.072915
502.765537	41634.748463
503.131470	42019.960673
503.497345	42387.700243
503.863163	41002.471824
504.228923	41658.000785
504.594625	42069.091758
504.960269	41321.856647
505.325856	42014.392718
505.691385	41378.541901
506.056856	41519.895855
506.422270	41975.573313
506.787625	41516.977027
507.152924	41713.095556
507.518164	41814.568941
507.883347	41014.295851
508.248472	41259.731987
508.613540	41763.023143
508.978550	42049.615260
509.343503	41809.807572
509.708398	42011.652851
510.073236	42543.920559
510.438016	42533.288766
510.802738	41979.553304
511.167403	42633.690906
511.532010	42851.549411
511.896561	43146.025892
512.261053	44005.910627
512.625488	43548.912387
512.989866	43425.903192
513.354186	43245.858383
513.718449	43245.036674
514.082655	43932.468577
514.446803	43599.505407
514.810894	44127.956962
515.174927	44030.221592
515.538904	43939.574084
515.902822	44615.887722
516.266684	44041.004620
516.630488	44477.460158
516.994235	44315.702134
517.357925	44899.717287
517.721558	45080.936685
518.085133	45375.410646
518.448651	45496.726013
518.812112	45262.521567
519.175516	45369.005860
519.538863	45710.473457
519.902152	45653.420198
520.265385	46125.622558
520.628560	46152.307906
520.991678	45933.554597
521.354739	46172.096956
521.717743	46483.960377
522.080690	46355.390789
522.443580	46916.239319
522.806413	46957.483519
523.169189	46906.590550
523.531908	47082.025225
523.894569	46936.557689
524.257174	47097.181454
524.619722	47373.466932
524.982213	47369.232362
525.344647	47276.517981
525.707025	47341.082559
526.069345	47732.555882
526.431608	47647.453643
526.793815	47967.776120
527.155964	47494.467227
527.518057	47663.451745
527.880093	47451.042728
528.242072	47952.730797
528.603995	47650.793407
528.965860	47635.498547
529.327669	47739.172396
529.689421	47645.417017
530.051117	47591.988348
530.412755	47735.822549
530.774337	47813.925146
531.135862	47597.142928
531.497331	47799.068866
531.858743	47703.959937
532.220098	48046.455929
532.581396	47735.918331
532.942638	47404.422137
533.303824	47723.491887
533.664953	47669.957354
534.026025	47398.942403
534.387040	47875.018889
534.747999	47813.199220
535.108902	47993.019698
535.469748	47467.552506
535.830537	47579.448478
536.191270	47786.344993
536.551947	47434.641333
536.912567	47737.841532
537.273131	47861.017085
537.633638	47345.183538
537.994089	47683.462605
538.354483	47260.129190
538.714821	47869.418168
539.075103	48188.175366
539.435328	47937.138508
539.795497	47819.924119
540.155609	47818.237853
540.515665	48288.653124
540.875665	47720.925940
541.235609	48057.523782
541.595496	48029.005975
541.955328	48700.752328
542.315102	48059.578052
542.674821	47818.961259
543.034483	47860.495325
543.394090	47834.687138
543.753640	47793.286662
544.113134	48797.676072
544.472571	47767.319679
544.831953	49038.101302
545.191278	48224.668279
545.550548	47942.318293
545.909761	48436.847924
546.268918	48613.462228
546.628019	48901.561650
546.987064	48449.639852
547.346053	47703.055049
547.704986	48589.030276
548.063863	48145.365888
548.422684	48309.977205
548.781449	48152.612547
549.140158	48546.782886
549.498811	48382.562259
549.857408	47808.460535
550.215949	48644.843411
550.574434	48576.916383
550.932864	48321.665120
551.291237	49040.092558
551.649555	48639.280498
552.007817	48879.370491
552.366022	48511.293163
552.724173	48679.894554
553.082267	49061.814890
553.440305	49342.415595
553.798288	48639.361156
554.156215	48944.325758
554.514086	49168.997382
554.871902	48867.198625
555.229661	48892.890865
555.587365	48706.554696
555.945014	48808.254933
556.302606	48736.123584
556.660143	48962.489035
557.017625	49017.341830
557.375050	48801.683789
557.732421	49140.232558
558.089735	49102.189491
558.446994	49017.097334
558.804197	49478.068004
559.161345	49406.380276
559.518437	48636.074324
559.875474	48928.045352
560.232455	49119.997367
560.589381	49264.794429
560.946251	48956.853025
561.303065	49626.159460
561.659825	49398.480788
562.016528	49078.707796
562.373177	48767.595507
562.729770	49265.696795
563.086307	48777.695459
563.442789	49229.723121
563.799216	49240.364997
564.155587	49035.351353
564.511904	49066.664480
564.868164	49119.198344
565.224370	49359.999140
565.580520	49095.063820
565.936615	49291.106731
566.292654	48995.110342
566.648638	49247.825905
567.004567	49187.906750
567.360441	49236.266539
567.716260	49080.162169
568.072023	49356.682060
568.427732	49325.555456
568.783385	48853.663127
569.138982	49246.981512
569.494525	49207.993228
569.850013	48934.298903
570.205445	48926.187687
570.560823	48859.291575
570.916145	48718.960975
571.271412	48750.770656
571.626625	48499.186832
571.981782	48522.156850
572.336884	48197.093168
572.691931	48515.573103
573.046923	48122.660531
573.401860	47939.792675
573.756743	47895.816170
574.111570	48009.025362
574.466342	47839.889609
574.821059	47954.119634
575.175722	47472.296232
575.530330	47481.640011
575.884882	47171.591405
576.239380	47111.831047
576.593823	47097.085672
576.948211	47020.530710
577.302544	46530.069290
577.656823	46524.493774
578.011047	46760.301307
578.365216	46485.719739
578.719330	46231.282622
579.073389	46091.173833
579.427394	46168.076635
579.781344	46125.476365
580.135239	45764.086128
580.489080	45833.885944
580.842866	45312.996120
581.196597	45732.667137
581.550273	45675.780236
581.903895	45551.087296
582.257463	45953.215097
582.610975	45309.434545
582.964434	45603.444719
583.317837	45222.850207
583.671186	45047.211366
584.024481	45273.526406
584.377721	44777.156754
584.730906	45050.162961
585.084037	45084.825935
585.437113	44795.987984
585.790135	44803.189273
586.143103	44377.244540
586.496016	44500.283982
586.848874	44522.008835
587.201679	44530.694743
587.554428	43999.107590
587.907124	44191.699832
588.259765	43940.383189
588.612352	44162.667827
588.964884	43534.252712
589.317362	43828.411600
589.669786	43765.828196
590.022155	43508.966284
590.374470	43929.411118
590.726731	43446.161069
591.078937	42942.275057
591.431090	43051.557190
591.783188	42682.476673
592.135232	42363.487581
592.487222	42612.749953
592.839157	42681.443236
593.191038	42341.223325
593.542866	42088.041455
593.894639	41507.923115
594.246358	41765.445418
594.598022	41737.134298
594.949633	41327.356546
595.301190	41281.172015
595.652692	41108.792279
596.004141	41436.452156
596.355535	40442.036669
596.706876	40364.392817
597.058162	40211.345907
597.409395	40660.293425
597.760573	40728.570812
598.111698	40313.179735
598.462768	40332.298311
598.813785	40362.169668
599.164748	39798.596395
599.515657	40194.142970
599.866511	39681.581132
600.217312	40296.977467
600.568060	39255.701934
600.918753	40001.850677
601.269392	39945.276328
601.619978	39605.537847
601.970510	39804.590327
602.320988	39979.236061
602.671412	40282.345518
603.021783	40048.090660
603.372100	39673.943784
603.722363	39766.396025
604.072572	39842.784629
604.422728	39864.096107
604.772830	39663.158235
605.122878	39776.589238
605.472872	39687.996000
605.822813	39961.097989
606.172701	39791.548862
606.522534	40030.547445
606.872314	40287.996651
607.222041	40074.009753
607.571714	40433.282705
607.921333	39870.200944
608.270899	40157.100571
608.620411	40519.216734
608.969870	40301.897633
609.319276	40301.574999
609.668627	40345.720383
610.017926	40830.087048
610.367171	40985.999854
610.716362	41056.530637
611.065500	40994.012768
611.414585	41184.691892
611.763616	41485.575680
612.112594	41413.461974
612.461518	41627.438790
612.810389	41935.286932
613.159207	41790.441979
613.507971	41857.958152
613.856682	42334.669825
614.205340	42217.394942
614.553945	42922.541460
614.902496	42364.258877
615.250994	42842.520704
615.599439	42904.373142
615.947830	43100.355559
616.296169	43181.694576
616.644454	43281.146459
616.992686	43451.222387
617.340864	43973.304444
617.688990	43675.384855
618.037063	44295.048527
618.385082	44248.619500
618.733048	44542.599428
619.080961	44552.684256
619.428821	44576.818780
619.776628	44670.052400
620.124382	44513.300241
620.472083	44619.903001
620.819731	44754.983239
621.167326	44421.445377
621.514868	44398.961831
621.862357	43938.250781
622.209793	43973.896780
622.557176	43637.818176
622.904506	43376.883012
623.251783	43038.210735
623.599007	42803.991166
623.946179	42582.374481
624.293297	42528.729042
624.640363	41951.214457
624.987376	41919.072061
625.334336	41683.385515
625.681243	41324.215907
626.028097	41299.307566
626.374899	41147.687302
626.721647	41137.970478
627.068343	41032.340661
627.414987	40792.122118
627.761577	40565.391183
628.108115	40901.268140
628.454600	40358.744204
628.801032	40549.090612
629.147412	40503.747954
629.493739	40507.022183
629.840014	40141.357048
630.186236	40493.194298
630.532405	40071.416079
630.878521	40305.948200
631.224585	40174.200165
631.570597	39865.865552
631.916556	40034.461901
632.262462	39969.247014
632.608316	39989.499850
632.954117	39892.729861
633.299866	39887.948326
633.645562	39790.880909
633.991206	39317.319958
634.336797	38866.716421
634.682336	38859.747026
635.027823	38622.364132
635.373257	38432.733569
635.718639	38179.075310
636.063968	38051.052688
636.409245	37466.664490
636.754470	37507.218052
637.099642	37278.140459
637.444762	36803.785527
637.789829	36954.059802
638.134845	36614.399459
638.479808	36536.884157
638.824719	36463.421942
639.169577	36074.660761
639.514383	36126.466178
639.859137	35828.181105
640.203839	36056.651238
640.548489	35698.527669
640.893086	35771.795799
641.237632	35509.738978
641.582125	35630.651053
641.926566	35558.000465
642.270955	35518.334146
642.615292	35548.016459
642.959576	35520.469074
643.303809	35496.901680
643.647990	35654.137789
643.992118	35624.788191
644.336195	35612.346624
644.680219	35702.623607
645.024192	36009.549218
645.368112	36520.192896
645.711981	36524.437548
646.055797	37393.411483
646.399562	37315.500451
646.743274	38270.980586
647.086935	38700.970844
647.430544	38593.208619
647.774101	38697.436996
648.117606	38955.395358
648.461059	39236.076722
648.804460	38813.433946
649.147810	38207.386430
649.491108	37955.376629
649.834354	37590.301308
650.177548	36756.202075
650.520690	36322.415828
650.863781	36342.875351
651.206820	36175.733375
651.549807	35749.224033
651.892742	35255.659783
652.235626	35079.761323
652.578458	34928.909835
652.921238	34320.089685
653.263967	34648.530940
653.606644	34318.622709
653.949269	34276.801297
654.291843	33862.403327
654.634365	34258.738843
654.976836	33862.935169
655.319255	33865.463308
655.661622	33859.426526
656.003938	33642.397291
656.346203	33498.855477
656.688416	33723.718664
657.030577	33513.303423
657.372687	33352.241079
657.714746	33609.365131
658.056753	33735.643514
658.398708	33184.426108
658.740612	33237.693460
659.082465	33492.818695
659.424266	33337.689788
659.766016	33456.998776
660.107715	33326.753005
660.449362	33441.973617
660.790958	33427.240845
661.132503	33431.228398
661.473996	33459.892398
661.815438	33578.515790
662.156829	33764.927577
662.498168	33519.829197
662.839456	33545.849113
663.180693	33702.692012
663.521879	33861.735374
663.863013	33816.191070
664.204097	33808.997343
664.545129	34257.019809
664.886110	34195.001014
665.227040	34282.402019
665.567918	34402.870472
665.908746	34437.654434
666.249522	34607.090135
666.590248	34597.995894
666.930922	34705.574117
667.271545	34666.603477
667.612118	34735.072428
667.952639	34512.059344
668.293109	34568.280812
668.633528	34463.916325
668.973896	34381.553953
669.314213	34420.620375
669.654480	34160.698483
669.994695	34177.845967
670.334859	34075.563477
670.674973	33954.618634
671.015035	34107.257211
671.355047	34033.353895
671.695008	33987.149200
672.034918	33888.645054
672.374777	33971.814010
672.714585	33799.025941
673.054342	34024.804098
673.394049	33776.423928
673.733705	34052.568253
674.073310	33699.238821
674.412864	33772.617857
674.752368	33374.195304
675.091820	33670.383257
675.431223	33248.103443
675.770574	32967.381750
676.109875	32813.009016
676.449125	32536.993240
676.788324	32464.919864
677.127473	31920.780238
677.466571	31848.900946
677.805619	31495.016987
678.144616	31489.408704
678.483562	31413.514133
678.822458	31078.027865
679.161303	31016.349347
679.500098	30924.975913
679.838842	30805.324127
680.177535	30957.607302
680.516179	31233.585269
680.854771	31479.379328
681.193314	32326.149501
681.531805	33437.209727
681.870247	34180.943757
682.208638	34889.558588
682.546978	35105.778718
682.885268	35179.820665
683.223508	34643.557842
683.561697	34323.542875
683.899836	34104.721510
684.237925	33628.261896
684.575963	33458.677480
684.913951	32996.272603
685.251889	33131.622542
685.589776	33131.546925
685.927614	33122.414875
686.265401	33247.639657
686.603137	33335.272555
686.940824	33836.718648
687.278460	34203.051737
687.616046	34313.463088
687.953582	34884.840068
688.291068	34743.750775
688.628504	35001.744426
688.965889	34933.950989
689.303224	34553.298503
689.640510	34205.446285
689.977745	33466.367761
690.314930	32652.428102
690.652065	32154.593995
690.989150	31426.235484
691.326185	30526.800377
691.663170	29850.085967
692.000105	29112.366033
692.336990	28427.530325
692.673825	27977.874525
693.010610	27463.374363
693.347345	26889.431436
693.684030	26239.750214
694.020665	25966.426414
694.357251	25304.452338
694.693786	25247.820016
695.030272	25019.649831
695.366707	24476.697397
695.703093	24191.206772
696.039429	24171.478217
696.375716	23920.688375
696.711952	23887.368868
697.048139	23722.351738
697.384276	23527.717829
697.720363	23656.156347
698.056400	23458.142345
698.392388	23224.482343
698.728326	23192.418084
699.064214	22985.151044
699.400053	22925.655346
699.735842	22570.085121
700.071581	22281.418570
700.407270	22012.122652
700.742910	21816.725008
701.078501	21553.009648
701.414042	21273.772574
701.749533	20971.825103
702.084974	20618.251175
702.420366	20834.582210
702.755709	20396.374871
703.091002	20107.073134
703.426246	20114.710482
703.761440	20012.402785
704.096584	19742.769110
704.431679	19690.696512
704.766725	19605.417832
705.101721	19536.956443
705.436668	19624.483476
705.771565	19302.159661
706.106413	19641.215066
706.441212	19631.553695
706.775961	19751.823023
707.110661	19812.573967
707.445311	20164.098666
707.779913	19997.244036
708.114465	20237.570963
708.448967	20510.309989
708.783421	21178.605672
709.117825	21427.462232
709.452180	21637.179273
709.786485	22035.407742
710.120742	22800.687663
710.454949	22810.389363
710.789107	23256.329833
711.123216	23921.875566
711.457275	24032.012175
711.791286	24538.363311
712.125247	24600.621561
712.459159	24288.695126
712.793023	24924.319091
713.126837	23841.302804
713.460602	24095.825621
713.794318	23725.109249
714.127985	23351.438762
714.461602	22462.630407
714.795171	22422.197832
715.128691	21434.020773
715.462162	20908.213303
715.795584	20501.122486
716.128957	20248.512788
716.462281	19852.499906
716.795556	19624.117993
717.128782	19126.654411
717.461960	18596.151106
717.795088	18518.166977
718.128167	18118.819372
718.461198	17662.332809
718.794180	17530.516718
719.127113	17180.900096
719.459997	16990.024367
719.792833	16636.591592
720.125619	16605.096983
720.458357	16299.124150
720.791046	16123.082017
721.123686	15960.353571
721.456278	15730.542490
721.788821	15693.200143
722.121315	15442.521207
722.453761	15509.407236
722.786158	15430.268682
723.118506	15433.157263
723.450805	15307.388037
723.783056	15456.228104
724.115259	15354.069121
724.447412	15278.839982
724.779518	15508.683830
725.111574	15528.177972
725.443582	15729.471245
725.775542	15706.375199
726.107453	16145.734442
726.439315	16022.558889
726.771129	16405.658855
727.102895	16756.450066
727.434612	16937.866069
727.766281	17050.704736
728.097901	17293.615255
728.429473	17319.231878
728.760996	17309.714180
729.092471	17385.913741
729.423897	17262.145852
729.755276	17126.130480
730.086606	17235.952017
730.417887	17742.903050
730.749120	18235.385972
731.080305	18397.174243
731.411442	18697.627013
731.742530	18762.080685
732.073570	18853.126444
732.404562	19122.898751
732.735506	18939.672973
733.066401	18648.793355
733.397249	18133.247154
733.728048	17515.413421
734.058798	16739.383239
734.389501	16083.816470
734.720156	15648.643905
735.050762	15129.601664
735.381320	14798.317198
735.711831	14569.668103
736.042293	14231.232760
736.372707	14249.350667
736.703073	14035.373851
737.033391	14211.284915
737.363661	14187.442778
737.693883	14270.238688
738.024056	14430.181897
738.354182	14598.690026
738.684260	14864.164749
739.014290	15062.947528
739.344272	15221.758997
739.674207	15492.630276
740.004093	15589.906901
740.333931	15582.130921
740.663722	15612.697958
740.993464	15601.597337
741.323159	15433.051399
741.652806	15155.462783
741.982405	14955.500375
742.311956	14620.268685
742.641460	14514.984187
742.970915	14217.604001
743.300323	13906.380807
743.629683	13704.351525
743.958996	13430.740379
744.288260	13175.378211
744.617477	12879.459959
744.946647	12808.954382
745.275768	12541.553938
745.604842	12359.134745
745.933869	12210.992877
746.262847	12156.122438
746.591778	12093.942326
746.920662	11984.047693
747.249498	11989.040956
747.578286	12100.689910
747.907027	12221.624671
748.235720	12427.649067
748.564365	12442.991818
748.892963	12345.974813
749.221514	12399.451373
749.550017	12253.913261
749.878473	12216.404556
750.206881	12007.668019
750.535242	11922.096953
750.863555	11844.301867
751.191821	11746.453071
751.520039	11759.958322
751.848210	11671.922132
752.176334	11703.426823
752.504411	11612.313008
752.832440	11448.936774
753.160421	11512.286433
753.488356	11391.576005
753.816243	11309.296812
754.144082	11164.509832
754.471875	11107.257448
754.799620	11052.485312
755.127318	11028.691066
755.454969	10990.262350
755.782572	10944.196286
756.110129	10947.641915
756.437638	10862.010355
756.765100	10854.879643
757.092515	10861.758297
757.419882	10868.183248
757.747203	10872.732889
758.074477	10939.374422
758.401703	10899.148535
758.728882	11042.899558
759.056014	11071.994577
759.383099	11177.115238
759.710138	11278.563418
760.037129	11350.697288
760.364073	11360.356139
760.690970	11353.076713
761.017820	11345.953562
761.344623	11518.862619
761.671379	11822.677837
761.998088	12410.559555
762.324751	13906.839552
762.651366	16583.293993
762.977935	19947.558423
763.304456	21934.088111
763.630931	22304.544863
763.957359	21182.840241
764.283740	19420.115099
764.610074	17655.197056
764.936362	15718.481530
765.262602	14320.630062
765.588796	12945.736009
765.914943	12005.066784
766.241044	11226.415202
766.567097	10632.143822
766.893104	10129.840732
767.219064	9793.769690
767.544978	9438.174260
767.870845	9152.844952
768.196665	8976.701995
768.522438	8790.464128
768.848165	8639.194225
769.173846	8479.150193
769.499479	8370.515848
769.825066	8221.363229
770.150607	8042.525776
770.476101	7984.872620
770.801548	7879.565437
771.126949	7752.188082
771.452303	7660.915471
771.777611	7512.012389
772.102872	7491.542784
772.428087	7380.773511
772.753256	7269.197653
773.078378	7186.512647
773.403453	7051.560959
773.728482	6953.066895
774.053465	6892.999026
774.378401	6812.121275
774.703291	6729.247226
775.028135	6634.465972
775.352932	6593.771258
775.677683	6522.267531
776.002388	6438.675118
776.327046	6436.641013
776.651658	6355.473395
776.976224	6284.599813
777.300743	6272.748060
777.625216	6209.935283
777.949643	6164.597666
778.274024	6172.930693
778.598359	6108.030879
778.922647	6110.299398
779.246889	6074.108954
779.571086	6072.679787
779.895236	6085.693526
780.219339	6081.239667
780.543397	6076.047278
780.867409	6123.902952
781.191374	6120.669051
781.515294	6085.675882
781.839167	6131.875536
782.162995	6099.733139
782.486776	6054.256891
782.810511	6015.160222
783.134201	5949.431138
783.457844	5939.515188
783.781441	5893.675976
784.104993	5854.526375
784.428498	5826.580739
784.751958	5808.200692
785.075372	5784.267814
785.398739	5745.415641
785.722061	5764.022540
786.045337	5766.112098
786.368568	5861.964598
786.691752	5883.104676
787.014891	6114.627228
787.337983	6367.655343
787.661030	6768.606035
787.984031	7144.693756
788.306987	7371.258333
788.629897	7440.405320
788.952760	7345.976946
789.275579	7191.392484
789.598351	6917.791421
789.921078	6682.092273
790.243759	6423.861688
790.566395	6242.309573
790.888984	6065.942285
791.211529	5943.227998
791.534027	5799.623169
791.856480	5675.081463
792.178888	5616.475529
792.501249	5555.711981
792.823566	5461.543227
793.145836	5457.787567
793.468062	5441.166883
793.790241	5397.034102
794.112375	5437.116316
794.434464	5524.063617
794.756507	5551.648811
795.078505	5661.833311
795.400457	5856.338670
795.722364	6072.503347
796.044226	6240.978708
796.366042	6377.999791
796.687812	6323.555329
797.009538	6348.219174
797.331218	6264.551144
797.652852	6195.827614
797.974442	6089.350883
798.295986	6021.643146
798.617484	5904.519498
798.938938	5810.731351
799.260346	5743.411783
799.581709	5625.116067
799.903026	5574.346606
800.224299	5507.700032
800.545526	5409.818468
800.866708	5350.148851
801.187845	5304.581861
801.508936	5233.998145
801.829983	5209.263724
802.150984	5113.748982
802.471940	5084.737142
802.792851	5074.357406
803.113717	5052.887132
803.434538	5029.798647
803.755314	5002.384853
804.076045	4991.236341
804.396731	4957.942040
804.717372	4974.419052
805.037967	4974.096418
805.358518	4998.646837
805.679024	5048.357655
805.999485	5058.460127
806.319901	5077.697170
806.640272	5085.700002
806.960598	5128.244820
807.280879	5115.709991
807.601115	5143.539681
807.921306	5112.423159
808.241453	5107.676912
808.561554	5115.389878
808.881611	5088.586063
809.201623	5085.571453
809.521590	5036.150501
809.841513	5020.464951
810.161390	5032.871230
810.481223	4952.515238
810.801011	4941.001243
811.120755	4920.904683
811.440453	4870.112537
811.760107	4845.625132
812.079716	4818.234023
812.399281	4776.747847
812.718801	4765.498513
813.038276	4734.273606
813.357707	4704.334193
813.677093	4726.563161
813.996434	4670.371940
814.315731	4690.211401
814.634983	4684.313251
814.954191	4688.446997
815.273354	4742.014297
815.592473	4777.839257
815.911547	4839.318649
816.230577	4884.873036
816.549562	4960.487823
816.868502	5003.884596
817.187399	5049.154157
817.506250	5120.806598
817.825058	5136.940810
818.143821	5273.230925
818.462539	5423.348925
818.781213	5620.878977
819.099843	5941.677843
819.418429	6497.964129
819.736970	7035.890532
820.055466	7645.378635
820.373919	8446.102909
820.692327	9741.598789
821.010691	12146.771098
821.329011	17798.108726
821.647286	26443.392665
821.965517	35702.956323
822.283704	40386.437783
822.601847	41425.275918
822.919945	37059.291368
823.237999	32397.517116
823.556010	27760.346216
823.873976	23655.672396
824.191897	19995.610702
824.509775	17289.352959
824.827609	14923.872175
825.145398	13584.989605
825.463144	12944.087552
825.780845	13228.948032
826.098502	14362.958110
826.416116	16464.607587
826.733685	18414.079753
827.051210	18776.732799
827.368692	17438.500537
827.686129	15229.290481
828.003522	13119.996095
828.320872	11219.914634
828.638177	9824.364453
828.955439	8761.361547
829.272656	7851.821447
829.589830	7116.110413
829.906960	6500.635940
830.224046	6036.718716
830.541088	5686.718967
830.858086	5463.075738
831.175041	5289.609634
831.491952	5243.074743
831.808819	5269.031644
832.125642	5486.360827
832.442421	5972.766639
832.759157	6938.409740
833.075849	8486.442222
833.392497	10063.070649
833.709101	10964.759153
834.025662	10698.586229
834.342179	9761.067725
834.658653	8651.209815
834.975083	7712.922535
835.291469	6952.386339
835.607811	6330.804508
835.924110	5888.448299
836.240366	5475.794569
836.556578	5088.727215
836.872746	4789.353253
837.188871	4555.655443
837.504952	4366.075291
837.820990	4230.415320
838.136984	4128.221049
838.452935	4091.685287
838.768842	4122.741315
839.084706	4379.477198
839.400526	5032.276374
839.716303	5790.692765
840.032037	6246.796200
840.347727	6082.794862
840.663373	5566.447118
840.978977	5086.463737
841.294537	4717.337849
841.610054	4438.965334
841.925527	4235.123758
842.240957	4065.914908
842.556344	3910.672576
842.871687	3775.199128
843.186987	3649.687000
843.502244	3550.013306
843.817458	3475.827686
844.132629	3415.520363
844.447756	3377.782285
844.762840	3332.621108
845.077881	3300.650110
845.392879	3273.876542
845.707833	3252.441556
846.022745	3228.874162
846.337613	3217.176164
846.652438	3201.692260
846.967221	3193.081970
847.281960	3172.652694
847.596656	3166.721776
847.911309	3153.992863
848.225919	3143.255205
848.540485	3137.026859
848.855009	3129.664254
849.169490	3120.403655
849.483928	3114.278653
849.798323	3109.202211
850.112675	3098.121755
850.426984	3102.023608
850.741251	3095.104624
851.055474	3091.280909
851.369654	3095.414655
851.683792	3091.918615
851.997887	3091.742174
852.311938	3091.948862
852.625947	3090.630600
852.939914	3086.446442
853.253837	3091.389294
853.567718	3089.294694
853.881555	3082.544589
854.195350	3086.779158
854.509103	3084.314034
854.822812	3083.416709
855.136479	3078.453693
855.450103	3083.031061
855.763685	3075.517221
856.077224	3077.755493
856.390720	3085.849066
856.704173	3094.013214
857.017584	3099.457660
857.330953	3101.796756
857.644278	3107.152982
857.957561	3110.442335
858.270802	3108.057869
858.584000	3107.251284
858.897155	3101.199379
859.210268	3094.751743
859.523339	3084.190526
859.836367	3079.643405
860.149352	3074.236768
860.462295	3073.052097
860.775195	3063.378122
861.088054	3058.364695
861.400869	3060.071125
861.713642	3057.308573
862.026373	3062.669840
862.339062	3066.420459
862.651708	3077.609300
862.964312	3090.522215
863.276873	3099.573607
863.589392	3123.377935
863.901869	3144.011378
864.214303	3162.388904
864.526696	3176.257119
864.839045	3190.783203
865.151353	3200.391643
865.463619	3199.058257
865.775842	3199.269986
866.088023	3203.161757
866.400162	3194.248997
866.712258	3198.370140
867.024313	3197.067002
867.336325	3198.251673
867.648296	3197.949204
867.960224	3194.501054
868.272110	3198.481045
868.583954	3195.965510
868.895755	3202.508927
869.207515	3197.722352
869.519233	3213.962429
869.830909	3215.736915
870.142542	3227.838205
870.454134	3232.402970
870.765684	3244.937799
871.077191	3257.908687
871.388657	3266.962600
871.700081	3284.326854
872.011463	3301.202117
872.322803	3316.121412
872.634101	3332.406859
872.945357	3349.143490
873.256571	3372.668034
873.567744	3383.640106
873.878874	3388.472052
874.189963	3398.725758
874.501010	3401.183321
874.812015	3394.904564
875.122979	3411.774785
875.433900	3406.794125
875.744780	3405.286820
876.055618	3413.216555
876.366415	3412.563726
876.677169	3415.336360
876.987882	3427.006632
877.298554	3443.778550
877.609183	3475.893221
877.919771	3512.852440
878.230317	3570.374526
878.540822	3655.786796
878.851285	3777.386988
879.161707	3958.155204
879.472087	4270.368985
879.782425	4795.080003
880.092722	5809.889478
880.402977	7492.697208
880.713191	9593.963557
881.023363	11652.213741
881.333494	12778.548662
881.643583	13097.346190
881.953631	12641.275522
882.263637	11870.168027
882.573602	10987.711526
882.883526	10169.070991
883.193408	9350.420374
883.503248	8582.899660
883.813048	7894.399032
884.122806	7246.204950
884.432522	6610.361695
884.742197	6051.280089
885.051831	5584.451599
885.361424	5167.591026
885.670975	4840.203372
885.980485	4570.572217
886.289954	4350.682127
886.599382	4174.559335
886.908768	4027.329917
887.218113	3892.968043
887.527417	3783.166671
887.836680	3685.385931
888.145901	3604.601440
888.455082	3538.751368
888.764221	3484.014520
889.073319	3436.398301
889.382376	3412.581370
889.691392	3390.516239
890.000366	3386.024571
890.309300	3383.183881
890.618193	3384.260168
890.927044	3376.824466
891.235855	3384.277812
891.544625	3394.418093
891.853353	3423.918925
892.162041	3470.962972
892.470687	3546.527348
892.779293	3647.055517
893.087858	3789.087507
893.396381	4020.950337
893.704864	4366.871793
894.013306	4836.198175
894.321707	5298.839987
894.630068	5577.283078
894.938387	5585.096867
895.246665	5424.357156
895.554903	5164.936858
895.863100	4894.022730
896.171256	4673.240356
896.479371	4478.510665
896.787446	4300.293274
897.095480	4145.958349
897.403473	4026.656923
897.711425	3908.411618
898.019336	3812.533913
898.327207	3709.573387
898.635038	3629.978609
898.942827	3540.782953
899.250576	3472.087150
899.558284	3404.018970
899.865952	3363.304091
900.173579	3308.826862
900.481165	3271.371089
900.788711	3238.248187
901.096216	3210.864640
901.403681	3193.873431
901.711105	3182.818180
902.018489	3180.955474
902.325832	3207.998744
902.633135	3255.312493
902.940397	3398.690470
903.247619	3744.702667
903.554800	4378.592476
903.861941	5177.670813
904.169041	5731.302931
904.476101	5875.058995
904.783121	5628.062621
905.090100	5291.225324
905.397039	4958.186536
905.703938	4671.080222
906.010796	4409.464502
906.317614	4205.038152
906.624391	4019.115357
906.931129	3861.370091
907.237826	3711.715877
907.544483	3574.752768
907.851099	3433.492076
908.157675	3305.010708
908.464211	3187.458562
908.770707	3106.212807
909.077163	3046.777603
909.383578	2995.062926
909.689954	2960.964561
909.996289	2937.482867
910.302584	2922.740012
910.608839	2912.821542
910.915054	2900.964748
911.221229	2901.088257
911.527363	2899.031466
911.833458	2906.285686
912.139513	2918.749939
912.445527	2929.832916
912.751502	2953.775876
913.057436	2990.649396
913.363331	3036.244112
913.669186	3107.029473
913.975000	3204.691747
914.280775	3354.807226
914.586510	3574.793098
914.892205	3887.672311
915.197859	4299.527019
915.503475	4775.709370
915.809050	5171.886089
916.114585	5396.736674
916.420081	5438.490031
916.725536	5374.316142
917.030952	5176.370195
917.336328	5006.803424
917.641665	4833.075180
917.946961	4651.941481
918.252218	4489.260926
918.557435	4307.436589
918.862612	4151.685100
919.167750	4015.117722
919.472848	3857.695090
919.777906	3722.647619
920.082925	3596.885954
920.387904	3469.420379
920.692843	3381.414436
920.997743	3302.699339
921.302603	3227.084552
921.607423	3175.463137
921.912204	3125.054119
922.216946	3084.916452
922.521647	3044.534289
922.826310	3014.042870
923.130932	2981.126656
923.435516	2952.142542
923.740059	2929.623708
924.044564	2906.641088
924.349028	2885.160731
924.653454	2861.830271
924.957840	2842.028619
925.262186	2824.687049
925.566493	2808.857826
925.870761	2788.320166
926.174989	2780.070317
926.479178	2771.001282
926.783328	2758.244642
927.087438	2747.196953
927.391509	2736.124059
927.695541	2727.909498
927.999533	2720.224259
928.303486	2714.051367
928.607400	2708.450645
928.911275	2705.509131
929.215110	2702.189532
929.518906	2698.222143
929.822663	2698.900179
930.126381	2696.747606
930.430060	2699.734490
930.733699	2697.992771
931.037299	2704.049717
931.340861	2702.224820
931.644383	2705.461240
931.947866	2707.160109
932.251309	2703.469985
932.554714	2703.016281
932.858080	2702.681044
933.161407	2694.746268
933.464694	2693.312060
933.767943	2692.939014
934.071153	2689.195957
934.374323	2686.035154
934.677455	2683.428877
934.980548	2680.933506
935.283602	2678.198680
935.586617	2677.578618
935.889593	2681.122550
936.192530	2680.714216
936.495428	2683.784279
936.798287	2693.859025
937.101108	2704.634491
937.403890	2721.960937
937.706632	2741.820562
938.009336	2766.106321
938.312002	2787.866462
938.614628	2806.586787
938.917216	2822.950372
939.219765	2827.966320
939.522275	2836.972341
939.824747	2834.991168
940.127179	2830.491938
940.429573	2825.211329
940.731929	2822.053047
941.034246	2815.950730
941.336524	2816.490133
941.638763	2810.171047
941.940964	2804.870274
942.243126	2794.162863
942.545250	2788.350412
942.847335	2774.953546
943.149381	2761.695312
943.451389	2751.751636
943.753359	2743.002713
944.055290	2738.768144
944.357182	2728.983264
944.659036	2726.896227
944.960851	2722.528067
945.262628	2717.784341
945.564367	2721.028323
945.866067	2719.422716
946.167729	2721.358519
946.469352	2717.507077
946.770937	2717.202088
947.072484	2710.905687
947.373992	2710.822507
947.675462	2707.071889
947.976893	2704.468133
948.278286	2702.854964
948.579641	2699.764737
948.880958	2695.121834
949.182236	2697.055116
949.483476	2692.628983
949.784678	2694.206864
950.085841	2693.488500
950.386967	2698.146526
950.688054	2699.820189
950.989103	2706.043494
951.290114	2714.822663
951.591087	2722.573437
951.892021	2730.609036
952.192917	2742.846437
952.493776	2749.712489
952.794596	2750.251892
953.095378	2756.243304
953.396122	2751.066039
953.696828	2750.546800
953.997496	2746.874319
954.298126	2740.444327
954.598718	2732.749006
954.899272	2723.380022
955.199788	2714.588249
955.500266	2708.193546
955.800706	2694.413552
956.101108	2680.202539
956.401472	2674.052331
956.701798	2664.227122
957.002087	2653.766728
957.302337	2645.907569
957.602550	2637.977834
957.902724	2630.151443
958.202861	2621.180710
958.502960	2616.777262
958.803022	2611.085799
959.103045	2603.582042
959.403031	2601.389140
959.702979	2596.353027
960.002889	2593.151894
960.302762	2589.134095
960.602596	2588.352716
960.902393	2580.657395
961.202153	2580.438104
961.501875	2576.929461
961.801559	2575.459965
962.101205	2574.199677
962.400814	2572.112639
962.700385	2573.337639
962.999918	2570.083574
963.299414	2567.167267
963.598873	2565.564180
963.898293	2564.273645
964.197677	2567.182390
964.497022	2564.568552
964.796331	2563.073850
965.095601	2563.721638
965.394835	2562.715928
965.694030	2562.080743
965.993189	2562.032852
966.292309	2562.148798
966.591393	2560.094528
966.890439	2560.553273
967.189447	2561.501010
967.488419	2560.535629
967.787353	2560.875907
968.086249	2559.832388
968.385108	2559.792059
968.683930	2561.145609
968.982714	2563.721638
969.281462	2564.203068
969.580172	2564.739951
969.878844	2564.298850
970.177480	2571.280848
970.476078	2570.451579
970.774639	2571.981569
971.073162	2573.088102
971.371649	2576.095150
971.670098	2574.544996
971.968510	2577.181519
972.266885	2573.836713
972.565223	2579.276118
972.863524	2582.565471
973.161788	2584.690318
973.460014	2582.111767
973.758204	2584.622262
974.056356	2583.861048
974.354471	2588.773652
974.652550	2584.150914
974.950591	2581.708475
975.248595	2583.150245
975.546563	2581.143866
975.844493	2579.790316
976.142386	2579.245872
976.440243	2577.438618
976.738062	2578.262847
977.035845	2574.391240
977.333590	2572.536096
977.631299	2570.093657
977.928971	2569.831517
978.226606	2566.050651
978.524204	2568.810683
978.821765	2564.354303
979.119290	2564.966803
979.416777	2563.789694
979.714228	2567.550395
980.011642	2565.647359
980.309020	2570.882597
980.606360	2572.185736
980.903664	2581.325347
981.200931	2591.402614
981.498162	2608.575305
981.795356	2630.617750
982.092513	2660.602533
982.389633	2694.665609
982.686717	2726.808006
982.983764	2752.364136
983.280775	2768.223606
983.577749	2764.790580
983.874686	2757.110382
984.171587	2744.502456
984.468451	2732.378481
984.765279	2718.248127
985.062070	2705.292362
985.358824	2687.945751
985.655543	2670.102587
985.952224	2655.437871
986.248869	2636.195787
986.545478	2612.058742
986.842050	2598.316557
987.138586	2581.285018
987.435086	2570.433935
987.731549	2560.863304
988.027975	2558.004970
988.324366	2554.554300
988.620719	2550.733105
988.917037	2547.070707
989.213318	2547.940306
989.509563	2544.827394
989.805772	2541.459903
990.101944	2541.248174
990.398080	2543.012578
990.694180	2537.850437
990.990244	2543.289842
991.286271	2538.725077
991.582262	2540.933102
991.878217	2543.529297
992.174136	2540.093750
992.470019	2541.732125
992.765865	2544.852599
993.061676	2547.022816
993.357450	2547.804195
993.653188	2549.278733
993.948890	2554.377860
994.244556	2559.048489
994.540186	2564.107287
994.835780	2576.674883
995.131337	2585.917839
995.426859	2600.781681
995.722345	2615.249792
996.017795	2631.323511
996.313208	2640.390027
996.608586	2647.248516
996.903928	2650.396717
997.199234	2650.275729
997.494504	2645.274905
997.789738	2642.565284
998.084936	2631.993985
998.380099	2623.479476
998.675225	2613.099740
998.970316	2603.496342
999.265371	2594.482759
999.560390	2585.479258
999.855373	2573.773699
1000.150320	2566.673234
1000.445232	2559.837429
1000.740108	2556.376677
1001.034948	2550.649926
1001.329752	2543.569626
1001.624521	2542.037115
1001.919254	2536.617875
1002.213951	2536.602751
1002.508613	2532.917668
1002.803239	2534.440096
1003.097829	2528.610002
1003.392384	2533.081505
1003.686903	2528.869621
1003.981386	2531.175949
1004.275834	2529.774508
1004.570246	2529.693850
1004.864623	2527.994981
1005.158964	2528.501617
1005.453270	2524.569517
1005.747540	2525.229908
1006.041775	2526.969106
1006.335974	2525.870135
1006.630138	2526.205371
1006.924266	2523.468025
1007.218359	2524.196472
1007.512416	2523.589013
1007.806438	2525.411390
1008.100425	2523.266379
1008.394376	2522.555576
1008.688292	2523.475587
1008.982172	2521.897705
1009.276017	2522.870648
1009.569827	2523.276461
1009.863602	2522.681605
1010.157341	2521.564989
1010.451045	2521.993487
1010.744714	2522.240504
1011.038347	2520.755884
1011.331945	2521.368384
1011.625508	2523.276461
1011.919036	2519.661954
1012.212528	2519.813188
1012.505986	2519.266223
1012.799408	2520.597088
1013.092795	2518.633558
1013.386147	2519.319155
1013.679464	2518.666326
1013.972745	2518.242869
1014.265992	2517.821932
1014.559204	2522.066584
1014.852380	2519.422499
1015.145521	2517.693383
1015.438628	2519.999711
1015.731699	2521.476769
1016.024736	2517.806809
1016.317737	2521.990967
1016.610703	2519.724968
1016.903635	2519.697242
1017.196531	2516.445698
1017.489393	2516.758249
1017.782219	2512.511077
1018.075011	2518.018538
1018.367768	2519.503157
1018.660490	2521.154135
1018.953177	2521.154135
1019.245829	2521.154135
