Dividing Wavelength (nm)	Counts (n)	Blue Motor Position (mm): 38.800000	Red Motor Position (mm): 0.000000	
326.493990	2243.159706
326.888308	2243.159706
327.282561	2243.159706
327.676750	2203.135465
328.070874	2200.493901
328.464933	2201.096319
328.858929	2205.121680
329.252859	2210.349357
329.646726	2218.924359
330.040528	2231.164281
330.434265	2242.910169
330.827938	2261.577562
331.221547	2279.385438
331.615091	2295.123920
332.008571	2316.276602
332.401986	2336.032884
332.795338	2352.023424
333.188625	2371.608306
333.581847	2390.053888
333.975006	2411.834193
334.368100	2426.960176
334.761129	2446.930707
335.154095	2466.714715
335.546996	2490.549290
335.939833	2531.307019
336.332606	2550.322251
336.725315	2559.048489
337.117960	2572.815880
337.510540	2585.138980
337.903056	2593.658530
338.295508	2605.245622
338.687896	2612.840121
339.080220	2619.262551
339.472480	2626.884775
339.864676	2627.875362
340.256807	2636.087402
340.648875	2637.761065
341.040879	2642.144348
341.432818	2646.116777
341.824694	2649.327992
342.216506	2650.058960
342.608253	2648.297076
342.999937	2651.268837
343.391557	2651.190699
343.783113	2648.821356
344.174605	2649.388486
344.566033	2648.473517
344.957397	2647.351860
345.348697	2645.905049
345.739934	2643.883546
346.131106	2641.864564
346.522215	2638.204686
346.913260	2639.401960
347.304241	2636.805766
347.695159	2635.051445
348.086012	2634.575056
348.476802	2629.896865
348.867528	2630.159005
349.258191	2626.302522
349.648789	2624.860752
350.039324	2621.967130
350.429796	2623.257665
350.820203	2622.569548
351.210548	2620.495113
351.600828	2621.243724
351.991045	2618.811367
352.381198	2617.568723
352.771288	2618.949999
353.161314	2619.035699
353.551276	2617.359515
353.941175	2617.946810
354.331010	2616.381531
354.720782	2616.956223
355.110490	2615.096037
355.500135	2617.508229
355.889717	2615.706017
356.279235	2614.793568
356.668689	2615.998404
357.058080	2616.815071
357.447408	2616.855400
357.836672	2616.777262
358.225873	2619.272633
358.615010	2618.884464
359.004084	2618.153497
359.393095	2619.708693
359.782043	2621.480658
360.170927	2622.284722
360.559748	2619.628034
360.948505	2621.750360
361.337199	2624.439816
361.725830	2621.210957
362.114398	2620.994187
362.502903	2622.604836
362.891344	2625.238839
363.279722	2624.580968
363.668037	2624.719600
364.056289	2623.081225
364.444478	2626.456277
364.832603	2628.634056
365.220665	2629.584313
365.608665	2630.353089
365.996601	2627.837553
366.384474	2627.285547
366.772284	2629.206227
367.160031	2627.346041
367.547715	2632.480456
367.935336	2629.937194
368.322893	2628.482821
368.710388	2630.194293
369.097820	2628.124899
369.485189	2630.043058
369.872495	2636.515900
370.259738	2635.152268
370.646918	2635.288379
371.034035	2635.742083
371.421090	2637.420787
371.808081	2634.378451
372.195010	2636.823410
372.581875	2636.316774
372.968678	2636.820890
373.355418	2638.088740
373.742096	2638.459265
374.128710	2642.300624
374.515262	2639.200314
374.901751	2637.884573
375.288177	2638.824748
375.674540	2640.453041
376.060841	2643.613844
376.447079	2640.203504
376.833254	2641.567136
377.219367	2643.124852
377.605417	2643.180305
377.991404	2643.538227
378.377329	2645.784061
378.763191	2644.710295
379.148991	2648.458393
379.534727	2644.289359
379.920402	2645.683238
380.306013	2646.043681
380.691563	2647.344298
381.077049	2651.218425
381.462474	2649.809422
381.847835	2651.112561
382.233134	2646.767086
382.618371	2650.033754
383.003545	2651.155411
383.388657	2651.646923
383.773706	2654.961482
384.158693	2655.778149
384.543618	2654.578354
384.928480	2652.970226
385.313280	2657.993736
385.698017	2654.626245
386.082692	2654.633807
386.467305	2656.839312
386.851856	2655.087511
387.236344	2657.406441
387.620770	2655.417706
388.005133	2655.294198
388.389435	2658.724703
388.773674	2656.163797
389.157851	2660.484066
389.541965	2662.772750
389.926018	2665.449602
390.310008	2662.951711
390.693936	2669.835406
391.077802	2670.765499
391.461606	2676.628361
391.845348	2683.738908
392.229027	2687.794517
392.612645	2698.791794
392.996200	2708.866540
393.379694	2722.676781
393.763125	2743.176633
394.146494	2765.957607
394.529801	2795.203861
394.913047	2827.169818
395.296230	2852.967922
395.679351	2900.765623
396.062410	2951.499795
396.445408	2995.317504
396.828343	3052.169117
397.211217	3116.022892
397.594028	3149.478509
397.976778	3232.206365
398.359466	3302.036428
398.742092	3372.100904
399.124656	3411.545413
399.507158	3511.408150
399.889598	3601.622118
400.271977	3718.828945
400.654294	3783.925365
401.036549	3874.139334
401.418742	3913.949326
401.800874	4078.850509
402.182944	4180.495294
402.564952	4315.484791
402.946898	4422.090072
403.328783	4409.555242
403.710606	4489.923838
404.092367	4760.069190
404.474067	4845.980534
404.855705	4855.772975
405.237282	4879.864649
405.618797	5121.474550
406.000250	5172.034803
406.381642	5384.080857
406.762972	5464.459535
407.144240	5572.597326
407.525447	5619.359069
407.906593	5708.670671
408.287677	5888.095419
408.668700	5863.224886
409.049661	6020.652559
409.430560	6082.457105
409.811399	5999.590618
410.192176	6293.010978
410.572891	6325.292007
410.953545	6555.997892
411.334138	6338.204922
411.714669	6532.735487
412.095139	6362.657039
412.475547	6622.175639
412.855894	6706.461211
413.236180	6892.812504
413.616405	6614.944104
413.996568	6843.356264
414.376670	6877.958744
414.756711	6797.380941
415.136691	6900.764924
415.516609	7106.925431
415.896466	7113.942717
416.276262	7314.540311
416.655997	7302.229813
417.035670	7500.662232
417.415283	7843.576640
417.794834	7880.099799
418.174324	7759.084381
418.553753	7675.605393
418.933121	7995.212027
419.312428	8101.638346
419.691674	7888.861325
420.070859	8361.308181
420.449983	8043.057618
420.829045	8411.278618
421.208047	8190.183693
421.586988	8477.721026
421.965867	8497.683995
422.344686	8615.440308
422.723444	8649.115216
423.102141	8019.444853
423.480777	8767.685675
423.859352	8292.650186
424.237866	8904.636181
424.616319	8778.345194
424.994712	9187.039098
425.373044	8761.245601
425.751314	9211.879384
426.129524	9081.167306
426.507673	9210.659425
426.885762	9360.041416
427.263789	9271.445658
427.641756	9193.514461
428.019662	9299.643352
428.397508	9535.692860
428.775292	9228.091735
429.153016	9607.786401
429.530679	9436.150236
429.908282	9484.058842
430.285824	9201.270276
430.663305	9877.702381
431.040726	9333.015790
431.418086	9318.688831
431.795385	9639.540629
432.172624	9726.644206
432.549802	9636.342017
432.926920	9726.187982
433.303977	9603.183828
433.680974	9805.013984
434.057910	9889.584381
434.434786	9957.929824
434.811601	9805.366865
435.188355	10364.776145
435.565050	10094.960988
435.941683	10026.774342
436.318257	10518.528817
436.694770	10644.013218
437.071222	10711.423528
437.447614	10560.413244
437.823946	10458.957502
438.200218	10588.915927
438.576429	10411.326160
438.952580	10651.128807
439.328670	10698.462721
439.704700	10480.992385
440.080670	10483.923816
440.456580	11030.337002
440.832429	10785.457913
441.208218	10391.925279
441.583947	10710.458147
441.959616	10865.546724
442.335224	10669.251755
442.710773	10806.877776
443.086261	11014.472491
443.461689	10296.302152
443.837057	10952.786412
444.212365	11219.753317
444.587612	10862.065807
444.962800	11096.108937
445.337927	10857.072545
445.712995	10458.849117
446.088002	11531.402489
446.462949	11199.717251
446.837837	11172.240442
447.212664	11150.928964
447.587431	11677.971516
447.962139	12403.302814
448.336786	14667.680737
448.711374	15218.270519
449.085901	13052.197617
449.460369	12670.252075
449.834776	12125.469702
450.209124	13006.892767
450.583412	13419.891816
450.957640	14373.421025
451.331808	13485.757012
451.705917	12491.943943
452.079965	11788.403032
452.453954	12698.444728
452.827883	12332.114160
453.201752	12620.707615
453.575562	12139.426137
453.949311	12561.607648
454.323001	12530.695292
454.696632	12753.980599
455.070202	13033.895707
455.443713	13269.609979
455.817164	13739.700096
456.190556	13721.246952
456.563888	14089.104989
456.937160	14256.869548
457.310373	13593.579731
457.683526	13686.962065
458.056619	13225.227661
458.429653	13395.510276
458.802628	12806.350626
459.175542	13190.904965
459.548398	14141.328823
459.921194	14482.032685
460.293930	14540.724318
460.666607	15418.142187
461.039224	16469.298381
461.411782	17168.955082
461.784280	17023.316147
462.156719	17093.221828
462.529099	16773.337931
462.901419	15717.800974
463.273680	15496.393497
463.645882	15365.101686
464.018024	15093.393576
464.390106	15317.777855
464.762130	16037.437854
465.134094	16808.469732
465.505999	18825.654676
465.877845	22089.872368
466.249631	24916.109572
466.621358	24590.977834
466.993026	23140.940342
467.364634	22583.650866
467.736184	21116.854058
468.107674	20311.824639
468.479105	20437.931623
468.850477	19905.419418
469.221790	19497.416153
469.593043	18808.056008
469.964238	18250.237212
470.335373	17898.606648
470.706449	18357.707050
471.077467	17920.724711
471.448425	19765.000599
471.819324	23826.247398
472.190164	25808.207280
472.560945	22202.090973
472.931667	19866.927688
473.302330	19230.313137
473.672934	18786.807545
474.043479	19078.947451
474.413965	18901.461027
474.784393	18506.920162
475.154761	19223.021108
475.525070	19197.245688
475.895321	18872.610504
476.265513	19467.257450
476.635645	20054.130936
477.005719	19833.789663
477.375734	20019.016779
477.745691	20497.301292
478.115588	21042.265146
478.485427	21564.833674
478.855207	22641.331749
479.224928	24421.146402
479.594591	26644.869940
479.964194	26636.410884
480.333739	26866.801697
480.703226	26419.865600
481.072653	26127.551773
481.442022	26710.099950
481.811333	27637.553791
482.180584	27525.967850
482.549777	26579.546668
482.918912	26239.591417
483.287988	26357.191454
483.657005	26019.562696
484.025964	25774.880212
484.394864	25680.618197
484.763706	25355.073084
485.132489	24799.580780
485.501213	24968.280473
485.869879	24880.914756
486.238487	24708.615680
486.607036	24847.345713
486.975527	24574.452932
487.343959	24890.881117
487.712333	24820.801517
488.080648	24479.379291
488.448905	24957.719256
488.817104	24721.090015
489.185244	25412.194398
489.553326	25354.712642
489.921350	26380.995783
490.289315	28678.947790
490.657222	30454.152309
491.025070	30947.880396
491.392861	30720.121065
491.760593	29875.029596
492.128267	28971.070053
492.495883	27898.925015
492.863440	27032.345627
493.230939	26165.551991
493.598380	26002.989903
493.965763	25614.397600
494.333088	25139.742718
494.700354	25095.224289
495.067563	24948.423368
495.434713	24709.182809
495.801805	24875.339240
496.168839	24664.911396
496.535815	24504.128836
496.902733	24736.677263
497.269593	24409.715586
497.636395	24586.924746
498.003139	24535.875502
498.369825	24280.500730
498.736453	24493.978472
499.103023	24360.012329
499.469535	24373.888105
499.835989	24587.824592
500.202385	24620.534119
500.568723	24127.436176
500.935003	24344.243600
501.301226	24001.331713
501.667390	24830.719987
502.033497	25052.339193
502.399546	24790.156343
502.765537	24348.077398
503.131470	24741.647840
503.497345	24871.263467
503.863163	24097.017854
504.228923	24669.599669
504.594625	24909.046915
504.960269	24431.236272
505.325856	24914.272071
505.691385	24316.393746
506.056856	24924.818165
506.422270	24896.544854
506.787625	24455.466577
507.152924	24871.991914
507.518164	24897.936212
507.883347	24715.925353
508.248472	24403.010851
508.613540	25186.219636
508.978550	24975.703572
509.343503	24973.102337
509.708398	25205.852410
510.073236	25382.093669
510.438016	25578.880150
510.802738	25241.765590
511.167403	25504.109757
511.532010	25227.819238
511.896561	26001.621230
512.261053	25951.925535
512.625488	25782.441943
512.989866	25684.336048
513.354186	25513.456056
513.718449	25646.371118
514.082655	26022.529415
514.446803	25755.927994
514.810894	26223.661371
515.174927	25716.881737
515.538904	25736.950570
515.902822	26237.080923
516.266684	25982.275802
516.630488	25898.877473
516.994235	25856.483890
517.357925	26179.515987
517.721558	26344.185278
518.085133	26445.895598
518.448651	26356.994849
518.812112	26102.086385
519.175516	26311.727808
519.538863	26447.007172
519.902152	26258.082370
520.265385	26530.589503
520.628560	26309.807129
520.991678	26315.599415
521.354739	26376.995627
521.717743	26456.363553
522.080690	26230.174542
522.443580	26567.261376
522.806413	26549.329992
523.169189	26656.348647
523.531908	26705.862860
523.894569	26320.262482
524.257174	26403.817086
524.619722	26560.811220
524.982213	26266.115448
525.344647	26298.998895
525.707025	26457.757432
526.069345	26433.759020
526.431608	26396.378864
526.793815	26566.031335
527.155964	26056.118623
527.518057	26217.924538
527.880093	26139.539637
528.242072	26365.365685
528.603995	26081.231131
528.965860	25879.632868
529.327669	25923.271617
529.689421	25909.514308
530.051117	25742.362249
530.412755	25922.800269
530.774337	25715.220677
531.135862	25590.636121
531.497331	25785.365812
531.858743	25369.891556
532.220098	25829.939694
532.581396	25512.188206
532.942638	25430.539157
533.303824	25554.347375
533.664953	25554.029782
534.026025	25206.878285
534.387040	25454.177128
534.747999	25505.773337
535.108902	25661.638252
535.469748	25165.563508
535.830537	25340.272257
536.191270	25470.588604
536.551947	25312.719830
536.912567	24959.045079
537.273131	25342.530693
537.633638	25039.834611
537.994089	25261.358034
538.354483	24755.959676
538.714821	25275.516115
539.075103	25319.656458
539.435328	25093.701860
539.795497	24669.617313
540.155609	25051.504882
540.515665	25354.637024
540.875665	24568.403547
541.235609	24893.532764
541.595496	24838.223745
541.955328	25195.258425
542.315102	25116.901250
542.674821	24646.153263
543.034483	24517.528223
543.394090	24698.934144
543.753640	24511.430947
544.113134	25118.587516
544.472571	24717.765374
544.831953	25024.796849
545.191278	24657.873946
545.550548	24560.045314
545.909761	24756.567135
546.268918	24999.588559
546.628019	24957.540295
546.987064	24659.784543
547.346053	24399.744183
547.704986	24513.651575
548.063863	24664.805532
548.422684	24695.922054
548.781449	24204.190264
549.140158	24616.077739
549.498811	24189.323901
549.857408	23945.054792
550.215949	24347.432130
550.574434	24033.471589
550.932864	24244.867334
551.291237	24417.902420
551.649555	24269.831128
552.007817	24334.367980
552.366022	24191.027811
552.724173	24214.396080
553.082267	24171.291694
553.440305	24654.859336
553.798288	23898.572833
554.156215	24409.327417
554.514086	24509.913560
554.871902	23908.002311
555.229661	24179.508775
555.587365	24031.941599
555.945014	23917.078908
556.302606	24152.747810
556.660143	24119.289672
557.017625	24360.811352
557.375050	23875.189441
557.732421	24268.270891
558.089735	24090.875208
558.446994	24148.714887
558.804197	24174.238248
559.161345	24096.014664
559.518437	23863.683007
559.875474	24041.348392
560.232455	24230.671445
560.589381	24048.635380
560.946251	24037.996025
561.303065	24347.195196
561.659825	24445.296050
562.016528	24052.002871
562.373177	23793.366472
562.729770	24160.811135
563.086307	24013.059957
563.442789	24174.969216
563.799216	24019.426934
564.155587	24013.427961
564.511904	24001.664429
564.868164	23948.470173
565.224370	23900.717844
565.580520	23839.898843
565.936615	23956.306647
566.292654	23652.990503
566.648638	23919.564197
567.004567	23751.368620
567.360441	23697.859292
567.716260	23420.913423
568.072023	23741.266148
568.427732	23524.995606
568.783385	23287.867291
569.138982	23530.021637
569.494525	23557.989958
569.850013	23311.129696
570.205445	23420.920985
570.560823	23236.797882
570.916145	22989.259584
571.271412	23180.730169
571.626625	22925.282301
571.981782	23028.409185
572.336884	22843.207275
572.691931	22971.492038
573.046923	22714.062996
573.401860	22598.262651
573.756743	22607.878652
574.111570	22517.100074
574.466342	22432.418772
574.821059	22514.892048
575.175722	22230.407134
575.530330	22201.881765
575.884882	22220.534034
576.239380	22137.932208
576.593823	22032.630066
576.948211	21994.201350
577.302544	21845.446982
577.656823	21710.568391
578.011047	21817.352632
578.365216	21685.768434
578.719330	21563.845608
579.073389	21447.916713
579.427394	21606.503852
579.781344	21355.340964
580.135239	21251.460427
580.489080	21208.272862
580.842866	20987.971919
581.196597	21191.069925
581.550273	21150.594501
581.903895	21030.317611
582.257463	21355.204853
582.610975	20884.661033
582.964434	21200.010411
583.317837	20887.320241
583.671186	20975.873150
584.024481	20955.995880
584.377721	20719.691793
584.730906	20799.846140
585.084037	20811.498767
585.437113	20713.060156
585.790135	20920.571692
586.143103	20374.458455
586.496016	20399.417207
586.848874	20638.035183
587.201679	20562.299409
587.554428	20242.191181
587.907124	20585.483675
588.259765	20341.665749
588.612352	20415.881616
588.964884	19981.588732
589.317362	20153.507202
589.669786	20219.085052
590.022155	20236.925695
590.374470	20454.348140
590.726731	20219.884075
591.078937	20005.829121
591.431090	20095.090311
591.783188	19853.220791
592.135232	19814.350974
592.487222	19916.207488
592.839157	19934.121228
593.191038	19818.744340
593.542866	19699.140444
593.894639	19410.431043
594.246358	19642.480396
594.598022	19517.910963
594.949633	19289.201375
595.301190	19253.565459
595.652692	19420.856149
596.004141	19659.368261
596.355535	18981.000352
596.706876	19001.979114
597.058162	18890.380571
597.409395	19123.909502
597.760573	19190.137661
598.111698	18966.917889
598.462768	18909.415968
598.813785	18881.112410
599.164748	18681.578499
599.515657	18738.039422
599.866511	18523.976907
600.217312	18878.180979
600.568060	18392.458244
600.918753	18703.046253
601.269392	18604.302652
601.619978	18399.742711
601.970510	18591.558615
602.320988	18530.308596
602.671412	18742.294156
603.021783	18670.518208
603.372100	18379.575575
603.722363	18525.438841
604.072572	18464.808884
604.422728	18611.251883
604.772830	18365.987145
605.122878	18328.740580
605.472872	18309.871541
605.822813	18301.840983
606.172701	18279.796017
606.522534	18453.075598
606.872314	18488.270414
607.222041	18319.298499
607.571714	18540.073311
607.921333	18362.339870
608.270899	18436.921221
608.620411	18606.987066
608.969870	18391.089571
609.319276	18388.153098
609.668627	18419.330114
610.017926	18542.009114
610.367171	18660.934974
610.716362	18721.015446
611.065500	18529.383544
611.414585	18668.884874
611.763616	18656.781063
612.112594	18593.343183
612.461518	18559.133913
612.810389	18757.591538
613.159207	18609.686604
613.507971	18520.072533
613.856682	18786.807545
614.205340	18711.785093
614.553945	18863.238999
614.902496	18606.631665
615.250994	18828.500408
615.599439	18782.399056
615.947830	18762.501621
616.296169	18826.771292
616.644454	18782.572975
616.992686	18758.259490
617.340864	18973.804105
617.688990	18728.277228
618.037063	18892.293689
618.385082	18754.511392
618.733048	19022.005098
619.080961	18903.439680
619.428821	18939.695658
619.776628	18829.483433
620.124382	18742.082428
620.472083	18793.267783
620.819731	18808.696235
621.167326	18509.445781
621.514868	18544.945586
621.862357	18315.787335
622.209793	18311.088980
622.557176	18155.342532
622.904506	17994.053335
623.251783	17916.018794
623.599007	17660.817942
623.946179	17602.892564
624.293297	17528.633847
624.640363	17276.404756
624.987376	17302.084393
625.334336	17104.153570
625.681243	16949.513655
626.028097	16955.832741
626.374899	16888.329171
626.721647	16748.684168
627.068343	16573.859473
627.414987	16515.137593
627.761577	16490.657750
628.108115	16511.631470
628.454600	16244.737662
628.801032	16341.008577
629.147412	16287.670649
629.493739	16292.903367
629.840014	16097.213336
630.186236	16190.162131
630.532405	15968.789942
630.878521	16164.696742
631.224585	16061.078345
631.570597	15881.336005
631.916556	15914.481591
632.262462	15882.165275
632.608316	15802.446988
632.954117	15744.077988
633.299866	15738.767133
633.645562	15657.072714
633.991206	15416.471044
634.336797	15286.532783
634.682336	15265.117962
635.027823	15134.783970
635.373257	15004.727242
635.718639	14917.469910
636.063968	14865.568711
636.409245	14617.140649
636.754470	14646.212983
637.099642	14494.454088
637.444762	14265.235343
637.789829	14305.602382
638.134845	14136.017967
638.479808	14165.402853
638.824719	14096.447430
639.169577	13957.513230
639.514383	13996.438499
639.859137	13829.107480
640.203839	13928.012398
640.548489	13759.922684
640.893086	13748.660747
641.237632	13621.366571
641.582125	13770.020116
641.926566	13598.242798
642.270955	13608.650260
642.615292	13563.509248
642.959576	13579.139346
643.303809	13602.263118
643.647990	13535.293910
643.992118	13602.870577
644.336195	13367.857026
644.680219	13593.567128
645.024192	13498.312006
645.368112	13745.104213
645.711981	13793.917705
646.055797	13984.516171
646.399562	13958.372747
646.743274	14216.963774
647.086935	14490.695908
647.430544	14461.409324
647.774101	14499.941384
648.117606	14629.509120
648.461059	14615.656029
648.804460	14584.872223
649.147810	14326.873531
649.491108	14225.107758
649.834354	14245.380759
650.177548	13925.522068
650.520690	13738.971649
650.863781	13663.664372
651.206820	13708.107185
651.549807	13531.064382
651.892742	13329.433352
652.235626	13274.706586
652.578458	13275.767748
652.921238	12967.206283
653.263967	13166.732632
653.606644	12994.985562
653.949269	12976.149290
654.291843	12769.935851
654.634365	12934.529524
654.976836	12777.747119
655.319255	12786.531329
655.661622	12737.125501
656.003938	12665.790654
656.346203	12584.103797
656.688416	12665.606652
657.030577	12625.660548
657.372687	12532.253009
657.714746	12517.694157
658.056753	12711.554248
658.398708	12516.340607
658.740612	12522.962162
659.082465	12619.888427
659.424266	12595.340529
659.766016	12621.241977
660.107715	12528.585569
660.449362	12605.158176
660.790958	12560.178481
661.132503	12494.555260
661.473996	12578.994587
661.815438	12589.880959
662.156829	12617.188889
662.498168	12590.027153
662.839456	12580.224629
663.180693	12599.312958
663.521879	12696.219058
663.863013	12664.840396
664.204097	12639.498516
664.545129	12769.048608
664.886110	12740.258578
665.227040	12837.580574
665.567918	12831.916837
665.908746	12856.714273
666.249522	12845.832943
666.590248	12897.537537
666.930922	13016.042461
667.271545	12993.011950
667.612118	13071.986666
667.952639	12972.464207
668.293109	12995.227537
668.633528	12946.335906
668.973896	12925.125252
669.314213	12990.377947
669.654480	12736.623906
669.994695	12816.112820
670.334859	12839.105523
670.674973	12788.489818
671.015035	12813.851863
671.355047	12761.146599
671.695008	12728.341291
672.034918	12754.567893
672.374777	12792.207669
672.714585	12700.662835
673.054342	12732.820356
673.394049	12685.136082
673.733705	12785.727265
674.073310	12681.375381
674.412864	12700.725850
674.752368	12552.092470
675.091820	12586.964652
675.431223	12576.899988
675.770574	12440.148607
676.109875	12359.170033
676.449125	12307.878813
676.788324	12268.469593
677.127473	12094.559867
677.466571	12088.528127
677.805619	11986.056592
678.144616	11905.317472
678.483562	11878.448123
678.822458	11746.168246
679.161303	11720.085316
679.500098	11709.798841
679.838842	11659.667087
680.177535	11696.054135
680.516179	11765.276739
680.854771	11701.448170
681.193314	11918.593351
681.531805	12087.966038
681.870247	12509.923218
682.208638	12931.177157
682.546978	13225.588103
682.885268	13260.598917
683.223508	12957.565077
683.561697	12813.710710
683.899836	12719.688150
684.237925	12504.418278
684.575963	12426.756782
684.913951	12338.133298
685.251889	12299.409674
685.589776	12392.938202
685.927614	12320.338025
686.265401	12289.970114
686.603137	12335.471568
686.940824	12490.872698
687.278460	12616.082356
687.616046	12657.112307
687.953582	12815.943942
688.291068	12756.619643
688.628504	12988.404335
688.965889	12994.395747
689.303224	12945.249538
689.640510	12833.726612
689.977745	12529.944160
690.314930	12306.936117
690.652065	12211.451622
690.989150	11920.035121
691.326185	11698.794002
691.663170	11489.008906
692.000105	11255.686662
692.336990	11133.156376
692.673825	10873.325225
693.010610	10758.671742
693.347345	10550.787160
693.684030	10354.184681
694.020665	10296.221494
694.357251	10103.367112
694.693786	10034.406648
695.030272	9875.524603
695.366707	9759.389021
695.703093	9695.131953
696.039429	9690.708341
696.375716	9602.465463
696.711952	9476.749169
697.048139	9518.096713
697.384276	9475.130958
697.720363	9497.067539
698.056400	9427.693701
698.392388	9378.224858
698.728326	9339.642387
699.064214	9282.417729
699.400053	9325.348195
699.735842	9137.429103
700.071581	9098.271941
700.407270	9027.090849
700.742910	8944.746121
701.078501	8848.286163
701.414042	8718.090803
701.749533	8660.387236
702.084974	8522.380608
702.420366	8642.612127
702.755709	8516.999176
703.091002	8387.733909
703.426246	8414.101664
703.761440	8364.022842
704.096584	8318.917118
704.431679	8256.953776
704.766725	8237.552895
705.101721	8189.190586
705.436668	8241.318637
705.771565	8130.599775
706.106413	8211.631282
706.441212	8249.455059
706.775961	8215.200419
707.110661	8256.545442
707.445311	8391.209785
707.779913	8285.774052
708.114465	8416.503774
708.448967	8451.670863
708.783421	8605.857074
709.117825	8783.119167
709.452180	8817.376328
709.786485	8911.915607
710.120742	9193.237197
710.454949	9194.699132
710.789107	9302.194176
711.123216	9515.568574
711.457275	9693.891830
711.791286	9834.222429
712.125247	9836.422893
712.459159	9830.348303
712.793023	10057.326254
713.126837	9639.628850
713.460602	9801.371750
713.794318	9622.856931
714.127985	9648.692844
714.461602	9319.739912
714.795171	9268.184031
715.128691	9019.629941
715.462162	8768.635932
715.795584	8714.796409
716.128957	8557.131802
716.462281	8388.361533
716.795556	8437.656456
717.128782	8228.403201
717.461960	7968.083057
717.795088	8044.393524
718.128167	7955.583516
718.461198	7789.505223
718.794180	7728.701346
719.127113	7718.334213
719.459997	7553.523771
719.792833	7334.266346
720.125619	7404.514825
720.458357	7252.871876
720.791046	7243.013900
721.123686	7236.427632
721.456278	7076.625576
721.788821	7093.997392
722.121315	6994.185066
722.453761	7064.741056
722.786158	6998.427197
723.118506	7013.268354
723.450805	6979.500185
723.783056	7035.323402
724.115259	6953.109745
724.447412	6952.739220
724.779518	7003.536407
725.111574	7004.942889
725.443582	7077.938796
725.775542	7057.948101
726.107453	7257.355982
726.439315	7169.571850
726.771129	7233.652477
727.102895	7407.819301
727.434612	7519.301898
727.766281	7561.602220
728.097901	7636.170968
728.429473	7629.801470
728.760996	7610.592153
729.092471	7586.850839
729.423897	7526.372116
729.755276	7527.156016
730.086606	7450.044006
730.417887	7549.947072
730.749120	7771.241123
731.080305	7953.640152
731.411442	8062.360196
731.742530	8051.057929
732.073570	8160.037593
732.404562	8254.138291
732.735506	8106.137576
733.066401	8244.819718
733.397249	8171.405395
733.728048	7924.527488
734.058798	7592.300326
734.389501	7366.139041
734.720156	7186.210178
735.050762	6960.232895
735.381320	6871.921962
735.711831	6807.299411
736.042293	6704.255706
736.372707	6726.247739
736.703073	6591.646411
737.033391	6625.870805
737.363661	6634.103009
737.693883	6668.052659
738.024056	6752.965855
738.354182	6792.077647
738.684260	6826.019736
739.014290	6951.607481
739.344272	7057.633029
739.674207	7088.983964
740.004093	7158.549367
740.333931	7167.714185
740.663722	7178.469486
740.993464	7255.316836
741.323159	7240.692448
741.652806	6992.944943
741.982405	7020.895620
742.311956	7060.592186
742.641460	6886.818572
742.970915	6696.051228
743.300323	6689.134765
743.629683	6648.918960
743.958996	6512.694380
744.288260	6420.826913
744.617477	6367.509149
744.946647	6363.985383
745.275768	6202.255085
745.604842	6153.020656
745.933869	6135.565661
746.262847	6098.863540
746.591778	6088.607313
746.920662	6046.740530
747.249498	6041.800199
747.578286	6084.781077
747.907027	6159.690103
748.235720	6220.080605
748.564365	6194.189239
748.892963	6236.134160
749.221514	6377.712445
749.550017	6195.038673
749.878473	6079.994502
750.206881	6141.075642
750.535242	6086.144709
750.863555	6012.173338
751.191821	6031.301997
751.520039	6023.989803
751.848210	5932.195433
752.176334	5961.058559
752.504411	6004.626731
752.832440	5930.027736
753.160421	5864.570874
753.488356	5909.127113
753.816243	5941.415703
754.144082	5789.261077
754.471875	5765.867603
754.799620	5805.770856
755.127318	5812.841074
755.454969	5774.747595
755.782572	5744.964458
756.110129	5789.639163
756.437638	5763.788127
756.765100	5711.040013
757.092515	5710.205702
757.419882	5763.364670
757.747203	5741.022276
758.074477	5798.998066
758.401703	5784.524913
758.728882	5742.703501
759.056014	5808.301515
759.383099	5922.811325
759.710138	5938.207008
760.037129	5924.792498
760.364073	5930.620072
760.690970	6009.735940
761.017820	5984.792311
761.344623	5950.189831
761.671379	6057.626902
761.998088	6178.959913
762.324751	6433.875940
762.651366	7060.531692
762.977935	8416.196264
763.304456	10060.224918
763.630931	10931.202712
763.957359	10494.520322
764.283740	9539.884580
764.610074	8682.278446
764.936362	7681.067484
765.262602	7090.516475
765.588796	6554.883797
765.914943	6220.030194
766.241044	6051.736314
766.567097	5844.590261
766.893104	5585.747176
767.219064	5405.145318
767.544978	5344.596020
767.870845	5263.826653
768.196665	5157.755735
768.522438	5088.873408
768.848165	5055.314447
769.173846	4986.757276
769.499479	4945.450061
769.825066	4890.814036
770.150607	4827.829859
770.476101	4803.841529
770.801548	4799.700221
771.126949	4721.511925
771.452303	4666.694418
771.777611	4628.137153
772.102872	4648.614320
772.428087	4612.118886
772.753256	4569.072474
773.078378	4519.318806
773.403453	4447.431952
773.728482	4435.333183
774.053465	4392.039753
774.378401	4379.313361
774.703291	4372.437227
775.028135	4302.017349
775.352932	4252.798043
775.677683	4243.245057
776.002388	4262.048560
776.327046	4272.380405
776.651658	4195.039023
776.976224	4132.564003
777.300743	4138.404180
777.625216	4160.633148
777.949643	4151.395233
778.274024	4110.733287
778.598359	4070.341041
778.922647	4096.277778
779.246889	4088.786623
779.571086	4076.539140
779.895236	4061.811409
780.219339	4047.839851
780.543397	4045.926733
780.867409	4099.998149
781.191374	4106.826392
781.515294	4043.431362
781.839167	4042.513872
782.162995	4060.248651
782.486776	4043.910272
782.810511	4060.515832
783.134201	4051.351015
783.457844	4003.767564
783.781441	3950.996765
784.104993	3957.202426
784.428498	3977.432576
784.751958	3968.774394
785.075372	3949.277732
785.398739	3916.260695
785.722061	3925.324689
786.045337	3972.204899
786.368568	3997.768591
786.691752	3909.704674
787.014891	3968.517295
787.337983	4096.499589
787.661030	4257.811471
787.984031	4419.776182
788.306987	4587.878498
788.629897	4673.401673
788.952760	4629.417606
789.275579	4561.046957
789.598351	4492.404085
789.921078	4343.085108
790.243759	4147.921878
790.566395	4132.148108
790.888984	4121.894401
791.211529	4017.759286
791.534027	3960.365750
791.856480	3939.699539
792.178888	3878.441958
792.501249	3836.466791
792.823566	3848.406764
793.145836	3871.187738
793.468062	3818.530366
793.790241	3776.734159
794.112375	3807.293634
794.434464	3876.324674
794.756507	3894.790420
795.078505	3873.249570
795.400457	3912.290786
795.722364	4056.482909
796.044226	4156.234741
796.366042	4230.695104
796.687812	4209.187021
797.009538	4212.337742
797.331218	4171.390970
797.652852	4147.311899
797.974442	4127.031337
798.295986	4123.174854
798.617484	4039.285013
798.938938	3955.725367
799.260346	3999.001153
799.581709	3990.549658
799.903026	3915.617947
800.224299	3880.579408
800.545526	3875.775188
800.866708	3835.745906
801.187845	3777.787760
801.508936	3809.955363
801.829983	3804.122748
802.150984	3726.201633
802.471940	3719.935479
802.792851	3726.045357
803.113717	3726.340265
803.434538	3730.715986
803.755314	3668.188034
804.076045	3645.903614
804.396731	3667.278106
804.717372	3692.428423
805.037967	3676.241278
805.358518	3664.755009
805.679024	3697.101572
805.999485	3708.774364
806.319901	3714.407853
806.640272	3724.225501
806.960598	3736.326790
807.280879	3710.188408
807.601115	3726.287333
807.921306	3745.204262
808.241453	3786.307310
808.561554	3757.880244
808.881611	3691.546221
809.201623	3733.418045
809.521590	3737.844178
809.841513	3710.879046
810.161390	3745.242071
810.481223	3719.849779
810.801011	3667.061337
811.120755	3660.800223
811.440453	3692.947662
811.760107	3694.603681
812.079716	3650.586846
812.399281	3621.300262
812.718801	3647.214314
813.038276	3620.680201
813.357707	3613.395733
813.677093	3631.362406
813.996434	3579.488932
814.315731	3590.808843
814.634983	3594.982919
814.954191	3607.495063
815.273354	3636.131337
815.592473	3627.750419
815.911547	3643.730877
816.230577	3685.277546
816.549562	3736.253694
816.868502	3777.729787
817.187399	3799.126964
817.506250	3801.113179
817.825058	3772.774333
818.143821	3867.540463
818.462539	3970.284220
818.781213	4014.787526
819.099843	4075.919078
819.418429	4335.203264
819.736970	4577.586983
820.055466	4827.940765
820.373919	5200.388773
820.692327	5616.730107
821.010691	6087.808290
821.329011	7533.301182
821.647286	10378.946829
821.965517	15050.785744
822.283704	19059.445747
822.601847	21120.186261
822.919945	19222.080932
823.237999	16602.767970
823.556010	14105.821456
823.873976	11965.203860
824.191897	9856.872333
824.509775	8516.318620
824.827609	7385.229891
825.145398	6850.605443
825.463144	6733.791826
825.780845	6842.774011
826.098502	7061.176960
826.416116	7979.218966
826.733685	9334.165173
827.051210	10432.372977
827.368692	10416.054762
827.686129	9107.656049
828.003522	7597.863239
828.320872	6576.807775
828.638177	5865.165730
828.955439	5299.364267
829.272656	4791.455414
829.589830	4521.131101
829.906960	4342.099563
830.224046	4152.063186
830.541088	4031.836708
830.858086	3980.096826
831.175041	3901.661513
831.491952	3885.365983
831.808819	3899.080442
832.125642	3973.744972
832.442421	4132.440495
832.759157	4418.936830
833.075849	4988.627544
833.392497	5873.997832
833.709101	6658.529920
834.025662	6978.605380
834.342179	6576.888433
834.658653	5907.541670
834.975083	5247.185804
835.291469	4664.544366
835.607811	4261.589815
835.924110	4121.239051
836.240366	3915.875046
836.556578	3712.272925
836.872746	3604.979527
837.188871	3558.482444
837.504952	3495.757888
837.820990	3413.246802
838.136984	3366.827858
838.452935	3391.048081
838.768842	3386.289232
839.084706	3409.564239
839.400526	3580.174529
839.716303	3932.515895
840.032037	4474.076971
840.347727	4719.503025
840.663373	4422.382458
840.978977	4031.322511
841.294537	3722.234245
841.610054	3495.200840
841.925527	3392.615880
842.240957	3319.425888
842.556344	3266.128289
842.871687	3207.539999
843.186987	3154.247441
843.502244	3117.502471
843.817458	3083.487285
844.132629	3051.314641
844.447756	3058.646999
844.762840	3043.226110
845.077881	3011.550020
845.392879	2993.185096
845.707833	2992.910353
846.022745	2991.503871
846.337613	2991.130826
846.652438	2975.775471
846.967221	2973.733804
847.281960	2962.255097
847.596656	2958.650672
847.911309	2961.198975
848.225919	2953.065073
848.540485	2945.861264
848.855009	2947.545010
849.169490	2936.653597
849.483928	2927.450971
849.798323	2928.925508
850.112675	2921.762028
850.426984	2935.612599
850.741251	2931.093204
851.055474	2920.705907
851.369654	2915.677356
851.683792	2920.791606
851.997887	2929.979109
852.311938	2930.601692
852.625947	2920.128695
852.939914	2924.627924
853.253837	2926.956938
853.567718	2910.908424
853.881555	2912.859351
854.195350	2927.357709
854.509103	2923.516350
854.822812	2913.229876
855.136479	2910.711819
855.450103	2916.191553
855.763685	2906.605799
856.077224	2904.458268
856.390720	2916.206677
856.704173	2924.753953
857.017584	2918.107192
857.330953	2918.591143
857.644278	2926.031886
857.957561	2932.850046
858.270802	2938.511262
858.584000	2939.398505
858.897155	2920.166503
859.210268	2923.372677
859.523339	2918.568458
859.836367	2917.701379
860.149352	2915.430339
860.462295	2908.690317
860.775195	2918.628951
861.088054	2918.558375
861.400869	2903.245870
861.713642	2900.042217
862.026373	2915.127870
862.339062	2918.404620
862.651708	2920.602563
862.964312	2924.950558
863.276873	2917.663570
863.589392	2929.021290
863.901869	2942.105605
864.214303	2963.769963
864.526696	2980.499033
864.839045	2975.044504
865.151353	2973.002837
865.463619	2970.613330
865.775842	2974.759679
866.088023	2992.832215
866.400162	2998.271620
866.712258	2971.452682
867.024313	2958.796865
867.336325	2966.701394
867.648296	2993.472442
867.960224	2979.652119
868.272110	2970.666262
868.583954	2972.400419
868.895755	2984.315186
869.207515	2973.151551
869.519233	2979.541213
869.830909	2989.331134
870.142542	2999.204234
870.454134	2996.784480
870.765684	3001.311436
871.077191	3000.877897
871.388657	3007.872498
871.700081	3023.341278
872.011463	3034.278062
872.322803	3035.913916
872.634101	3034.767054
872.945357	3051.796071
873.256571	3077.949577
873.567744	3070.904565
873.878874	3065.563463
874.189963	3087.668922
874.501010	3086.990887
874.812015	3080.271029
875.122979	3077.425297
875.433900	3075.139134
875.744780	3085.236565
876.055618	3088.150352
876.366415	3087.563058
876.677169	3096.473297
876.987882	3093.221753
877.298554	3086.706062
877.609183	3111.957201
877.919771	3136.560553
878.230317	3163.518123
878.540822	3213.791030
878.851285	3255.685539
879.161707	3299.145326
879.472087	3409.501225
879.782425	3648.983759
880.092722	4104.555353
880.402977	4640.515706
880.713191	5292.460407
881.023363	6482.833105
881.333494	7787.962630
881.643583	8315.446284
881.953631	8000.245619
882.263637	7338.639547
882.573602	6732.637402
882.883526	6152.085522
883.193408	5575.790897
883.503248	5122.896156
883.813048	4811.433507
884.122806	4486.117767
884.432522	4169.107328
884.742197	3927.361315
885.051831	3734.239753
885.361424	3603.570524
885.670975	3528.401879
885.980485	3437.910647
886.289954	3359.820654
886.599382	3315.851710
886.908768	3278.837038
887.218113	3233.275089
887.527417	3175.795853
887.836680	3122.286526
888.145901	3120.416257
888.455082	3110.540637
888.764221	3053.416802
889.073319	3026.718852
889.382376	3022.315404
889.691392	3031.560880
890.000366	3026.126516
890.309300	3015.088910
890.618193	3027.659027
890.927044	3042.777447
891.235855	3041.154196
891.544625	3028.725231
891.853353	3042.517828
892.162041	3061.296126
892.470687	3101.910182
892.779293	3152.656957
893.087858	3201.959442
893.396381	3278.121194
893.704864	3409.523910
894.013306	3652.933503
894.321707	3965.621152
894.630068	4161.853107
894.938387	4154.941685
895.246665	4110.463585
895.554903	3986.491529
895.863100	3779.839510
896.171256	3611.744755
896.479371	3468.664206
896.787446	3340.734845
897.095480	3237.381109
897.403473	3172.861902
897.711425	3136.056437
898.019336	3128.240128
898.327207	3098.552773
898.635038	3062.851322
898.942827	3045.998744
899.250576	3037.680841
899.558284	3000.968638
899.865952	2981.892912
900.173579	2962.265179
900.481165	2954.499282
900.788711	2941.813218
901.096216	2915.800864
901.403681	2904.629667
901.711105	2914.124680
902.018489	2910.227868
902.325832	2909.295255
902.633135	2921.731782
902.940397	2954.940383
903.247619	3042.911038
903.554800	3242.974269
903.861941	3608.571349
904.169041	4048.139800
904.476101	4340.405735
904.783121	4279.390130
905.090100	4023.468393
905.397039	3743.482708
905.703938	3492.002228
906.010796	3306.654125
906.317614	3193.986857
906.624391	3094.514809
906.931129	3020.805578
907.237826	2960.543625
907.544483	2916.662901
907.851099	2882.199053
908.157675	2862.631814
908.464211	2842.174812
908.770707	2828.649396
909.077163	2815.486944
909.383578	2799.312402
909.689954	2787.110289
909.996289	2787.319497
910.302584	2788.569703
910.608839	2789.310752
910.915054	2782.265740
911.221229	2772.732918
911.527363	2775.324071
911.833458	2783.397479
912.139513	2789.850156
912.445527	2793.283182
912.751502	2801.593524
913.057436	2811.401088
913.363331	2823.915753
913.669186	2848.332582
913.975000	2884.858262
914.280775	2948.480144
914.586510	3020.170393
914.892205	3098.961107
915.197859	3233.385995
915.503475	3435.916871
915.809050	3658.249400
916.114585	3803.240546
916.420081	3815.321671
916.725536	3753.575098
917.030952	3632.786532
917.336328	3498.049092
917.641665	3363.914071
917.946961	3265.359513
918.252218	3190.135415
918.557435	3110.500308
918.862612	3052.108623
919.167750	2997.129799
919.472848	2957.954993
919.777906	2934.163267
920.082925	2907.966911
920.387904	2874.962477
920.692843	2856.456401
920.997743	2847.125225
921.302603	2833.753565
921.607423	2820.641523
921.912204	2808.638536
922.216946	2793.643624
922.521647	2787.982408
922.826310	2781.076027
923.130932	2773.206786
923.435516	2765.982813
923.740059	2757.065012
924.044564	2748.187540
924.349028	2743.118660
924.653454	2735.907289
924.957840	2729.835219
925.262186	2725.494786
925.566493	2719.999928
925.870761	2717.892726
926.174989	2713.249823
926.479178	2705.776312
926.783328	2701.680375
927.087438	2704.074923
927.391509	2700.034438
927.695541	2699.200127
927.999533	2693.233922
928.303486	2690.375587
928.607400	2690.647810
928.911275	2688.843077
929.215110	2687.547500
929.518906	2686.594722
929.822663	2689.974816
930.126381	2687.081193
930.430060	2691.214940
930.733699	2687.560103
931.037299	2692.618901
931.340861	2693.720393
931.644383	2691.212419
931.947866	2691.340968
932.251309	2688.364167
932.554714	2688.976667
932.858080	2685.321831
933.161407	2684.754701
933.464694	2682.725637
933.767943	2681.233455
934.071153	2682.276974
934.374323	2680.709175
934.677455	2681.387210
934.980548	2680.194977
935.283602	2680.439473
935.586617	2679.579957
935.889593	2679.978208
936.192530	2678.818742
936.495428	2679.421160
936.798287	2679.743794
937.101108	2686.806451
937.403890	2686.945082
937.706632	2693.193592
938.009336	2700.142823
938.312002	2712.501212
938.614628	2718.827860
938.917216	2723.979919
939.219765	2724.731051
939.522275	2725.131823
939.824747	2723.241390
940.127179	2717.665874
940.429573	2715.024309
940.731929	2715.031871
941.034246	2708.768237
941.336524	2708.871581
941.638763	2702.018132
941.940964	2702.923019
942.243126	2698.743903
942.545250	2699.028728
942.847335	2697.226516
943.149381	2693.581761
943.451389	2688.838036
943.753359	2687.023220
944.055290	2686.110771
944.357182	2684.505164
944.659036	2684.951306
944.960851	2683.010462
945.262628	2682.201357
945.564367	2681.740091
945.866067	2681.898887
946.167729	2682.077848
946.469352	2685.067252
946.770937	2683.822087
947.072484	2683.401151
947.373992	2679.869823
947.675462	2680.200018
947.976893	2676.356139
948.278286	2674.566529
948.579641	2672.323216
948.880958	2671.630057
949.182236	2674.634585
949.483476	2675.647857
949.784678	2673.228103
950.085841	2673.286076
950.386967	2672.855057
950.688054	2675.516787
950.989103	2675.766324
951.290114	2675.476457
951.591087	2677.316478
951.892021	2679.917714
952.192917	2681.132632
952.493776	2685.067252
952.794596	2685.919207
953.095378	2684.172448
953.396122	2684.043898
953.696828	2682.173630
953.997496	2680.426870
954.298126	2678.549041
954.598718	2678.191119
954.899272	2674.412774
955.199788	2672.459327
955.500266	2669.374141
955.800706	2665.694098
956.101108	2663.531443
956.401472	2660.504230
956.701798	2660.531957
957.002087	2659.198572
957.302337	2657.655978
957.602550	2656.728406
957.902724	2655.458035
958.202861	2653.582726
958.502960	2652.345123
958.803022	2655.135402
959.103045	2650.525266
959.403031	2646.971253
959.702979	2649.070893
960.002889	2648.803712
960.302762	2648.102992
960.602596	2647.024185
960.902393	2649.459062
961.202153	2646.893115
961.501875	2648.929741
961.801559	2648.087868
962.101205	2645.552168
962.400814	2649.113743
962.700385	2644.639719
962.999918	2643.497898
963.299414	2641.786426
963.598873	2643.003865
963.898293	2639.492701
964.197677	2645.453866
964.497022	2644.307003
964.796331	2648.506284
965.095601	2646.648619
965.394835	2646.580563
965.694030	2643.694503
965.993189	2642.693834
966.292309	2644.453197
966.591393	2647.026706
966.890439	2642.923206
967.189447	2642.834986
967.488419	2645.511839
967.787353	2644.725419
968.086249	2642.698875
968.385108	2645.083341
968.683930	2643.530665
968.982714	2646.028557
969.281462	2645.269863
969.580172	2646.900677
969.878844	2643.553351
970.177480	2646.915800
970.476078	2644.218783
970.774639	2644.198618
971.073162	2644.052425
971.371649	2644.619555
971.670098	2641.821714
971.968510	2643.036632
972.266885	2645.040491
972.565223	2644.798516
972.863524	2643.928917
973.161788	2645.935296
973.460014	2643.790285
973.758204	2644.548978
974.056356	2643.099647
974.354471	2644.909421
974.652550	2646.182312
974.950591	2644.821201
975.248595	2645.073258
975.546563	2645.746252
975.844493	2641.337763
976.142386	2643.538227
976.440243	2642.406488
976.738062	2643.381951
977.035845	2642.603093
977.333590	2643.611324
977.631299	2641.115953
977.928971	2638.129069
978.226606	2637.292237
978.524204	2640.064872
978.821765	2636.520941
979.119290	2643.558392
979.416777	2640.894142
979.714228	2641.773823
980.011642	2639.517907
980.309020	2642.250212
980.606360	2644.032260
980.903664	2641.201652
981.200931	2643.974287
981.498162	2640.881539
981.795356	2643.366828
982.092513	2644.753145
982.389633	2652.766059
982.686717	2653.161790
982.983764	2655.843684
983.280775	2661.580517
983.577749	2660.799138
983.874686	2660.998263
984.171587	2657.335865
984.468451	2651.886378
984.765279	2651.901501
985.062070	2651.745226
985.358824	2649.801861
985.655543	2647.437560
985.952224	2646.961171
986.248869	2646.938485
986.545478	2642.671149
986.842050	2640.561426
987.138586	2645.436222
987.435086	2640.621920
987.731549	2643.515542
988.027975	2638.076137
988.324366	2640.397588
988.620719	2640.861374
988.917037	2639.832979
989.213318	2637.894655
989.509563	2636.820890
989.805772	2638.350880
990.101944	2637.808956
990.398080	2637.498925
990.694180	2638.131590
990.990244	2637.325005
991.286271	2640.553864
991.582262	2638.812145
991.878217	2641.914976
992.174136	2639.056641
992.470019	2637.899697
992.765865	2635.782412
993.061676	2636.157978
993.357450	2635.230406
993.653188	2636.195787
993.948890	2639.727115
994.244556	2640.687455
994.540186	2638.711322
994.835780	2639.343987
995.131337	2641.209214
995.426859	2640.337094
995.722345	2640.891621
996.017795	2639.444810
996.313208	2644.901859
996.608586	2642.351035
996.903928	2642.600572
997.199234	2645.877322
997.494504	2643.298772
997.789738	2642.461941
998.084936	2642.618217
998.380099	2639.167547
998.675225	2641.862043
998.970316	2640.016981
999.265371	2642.459420
999.560390	2641.741056
999.855373	2639.313740
1000.150320	2641.292393
1000.445232	2639.573360
1000.740108	2639.580921
1001.034948	2638.933133
1001.329752	2638.121507
1001.624521	2637.705612
1001.919254	2637.146044
1002.213951	2637.733338
1002.508613	2638.025725
1002.803239	2638.426497
1003.097829	2633.425672
1003.392384	2635.600930
1003.686903	2636.853657
1003.981386	2635.177473
1004.275834	2638.854995
1004.570246	2638.214769
1004.864623	2635.316105
1005.158964	2636.780560
1005.453270	2636.639408
1005.747540	2635.187556
1006.041775	2639.054121
1006.335974	2633.949953
1006.630138	2636.399953
1006.924266	2636.357103
1007.218359	2635.001033
1007.512416	2635.631177
1007.806438	2634.572535
1008.100425	2636.004223
1008.394376	2631.056330
1008.688292	2635.837865
1008.982172	2635.916002
1009.276017	2635.616054
1009.569827	2635.311064
1009.863602	2635.953811
1010.157341	2635.006074
1010.451045	2636.944398
1010.744714	2634.847278
1011.038347	2636.110087
1011.331945	2634.761578
1011.625508	2636.147896
1011.919036	2633.954994
1012.212528	2635.588327
1012.505986	2635.379120
1012.799408	2634.534726
1013.092795	2636.203348
1013.386147	2636.488173
1013.679464	2636.858698
1013.972745	2636.682258
1014.265992	2635.691671
1014.559204	2637.209058
1014.852380	2633.864253
1015.145521	2634.864922
1015.438628	2633.516413
1015.731699	2636.364665
1016.024736	2636.974645
1016.317737	2635.694192
1016.610703	2633.322329
1016.903635	2636.483132
1017.196531	2633.571866
1017.489393	2633.448358
1017.782219	2636.634367
1018.075011	2635.595889
1018.367768	2633.849129
1018.660490	2633.287041
1018.953177	2633.287041
1019.245829	2633.287041
