Dividing Wavelength (nm)	Counts (n)	Blue Motor Position (mm): 0.000000	Red Motor Position (mm): 9.700000	
326.493990	2074.434808
326.888308	2074.434808
327.282561	2074.434808
327.676750	2092.078846
328.070874	2089.558269
328.464933	2044.187885
328.858929	2041.667308
329.252859	2041.667308
329.646726	2069.393654
330.040528	2142.490385
330.434265	1978.652885
330.827938	2064.352500
331.221547	2155.093269
331.615091	2152.572692
332.008571	2145.010962
332.401986	2228.190000
332.795338	2260.957500
333.188625	2306.327885
333.581847	2265.998654
333.975006	2346.657115
334.368100	2187.860769
334.761129	2374.383462
335.154095	2316.410192
335.546996	2245.834038
335.939833	2341.615962
336.332606	2323.971923
336.725315	2447.480192
337.117960	2422.274423
337.510540	2407.150962
337.903056	2419.753846
338.295508	2432.356731
338.687896	2427.315577
339.080220	2409.671538
339.472480	2442.439038
339.864676	2475.206538
340.256807	2520.576923
340.648875	2507.974038
341.040879	2510.494615
341.432818	2419.753846
341.824694	2528.138654
342.216506	2480.247692
342.608253	2492.850577
342.999937	2419.753846
343.391557	2465.124231
343.783113	2447.480192
344.174605	2520.576923
344.566033	2540.741538
344.957397	2475.206538
345.348697	2507.974038
345.739934	2497.891731
346.131106	2465.124231
346.522215	2460.083077
346.913260	2437.397885
347.304241	2457.562500
347.695159	2487.809423
348.086012	2407.150962
348.476802	2515.535769
348.867528	2407.150962
349.258191	2381.945192
349.648789	2492.850577
350.039324	2457.562500
350.429796	2507.974038
350.820203	2477.727115
351.210548	2455.041923
351.600828	2450.000769
351.991045	2422.274423
352.381198	2492.850577
352.771288	2427.315577
353.161314	2361.780577
353.551276	2424.795000
353.941175	2429.836154
354.331010	2389.506923
354.720782	2497.891731
355.110490	2520.576923
355.500135	2487.809423
355.889717	2485.288846
356.279235	2460.083077
356.668689	2407.150962
357.058080	2455.041923
357.447408	2467.644808
357.836672	2341.615962
358.225873	2510.494615
358.615010	2447.480192
359.004084	2472.685962
359.393095	2472.685962
359.782043	2434.877308
360.170927	2450.000769
360.559748	2381.945192
360.948505	2419.753846
361.337199	2450.000769
361.725830	2457.562500
362.114398	2530.659231
362.502903	2439.918462
362.891344	2465.124231
363.279722	2495.371154
363.668037	2417.233269
364.056289	2500.412308
364.444478	2434.877308
364.832603	2417.233269
365.220665	2407.150962
365.608665	2467.644808
365.996601	2460.083077
366.384474	2472.685962
366.772284	2533.179808
367.160031	2528.138654
367.547715	2467.644808
367.935336	2444.959615
368.322893	2424.795000
368.710388	2515.535769
369.097820	2467.644808
369.485189	2513.015192
369.872495	2437.397885
370.259738	2442.439038
370.646918	2467.644808
371.034035	2497.891731
371.421090	2455.041923
371.808081	2502.932885
372.195010	2510.494615
372.581875	2553.344423
372.968678	2477.727115
373.355418	2386.986346
373.742096	2500.412308
374.128710	2424.795000
374.515262	2399.589231
374.901751	2482.768269
375.288177	2492.850577
375.674540	2439.918462
376.060841	2533.179808
376.447079	2460.083077
376.833254	2465.124231
377.219367	2455.041923
377.605417	2434.877308
377.991404	2399.589231
378.377329	2404.630385
378.763191	2563.426731
379.148991	2472.685962
379.534727	2407.150962
379.920402	2379.424615
380.306013	2492.850577
380.691563	2439.918462
381.077049	2429.836154
381.462474	2412.192115
381.847835	2480.247692
382.233134	2505.453462
382.618371	2495.371154
383.003545	2419.753846
383.388657	2465.124231
383.773706	2419.753846
384.158693	2427.315577
384.543618	2447.480192
384.928480	2434.877308
385.313280	2502.932885
385.698017	2460.083077
386.082692	2462.603654
386.467305	2492.850577
386.851856	2467.644808
387.236344	2490.330000
387.620770	2515.535769
388.005133	2384.465769
388.389435	2475.206538
388.773674	2457.562500
389.157851	2520.576923
389.541965	2578.550192
389.926018	2407.150962
390.310008	2477.727115
390.693936	2442.439038
391.077802	2419.753846
391.461606	2397.068654
391.845348	2467.644808
392.229027	2502.932885
392.612645	2591.153077
392.996200	2515.535769
393.379694	2442.439038
393.763125	2513.015192
394.146494	2450.000769
394.529801	2439.918462
394.913047	2518.056346
395.296230	2520.576923
395.679351	2475.206538
396.062410	2450.000769
396.445408	2515.535769
396.828343	2492.850577
397.211217	2475.206538
397.594028	2412.192115
397.976778	2424.795000
398.359466	2507.974038
398.742092	2490.330000
399.124656	2513.015192
399.507158	2540.741538
399.889598	2467.644808
400.271977	2523.097500
400.654294	2434.877308
401.036549	2429.836154
401.418742	2495.371154
401.800874	2437.397885
402.182944	2465.124231
402.564952	2533.179808
402.946898	2455.041923
403.328783	2432.356731
403.710606	2467.644808
404.092367	2573.509038
404.474067	2419.753846
404.855705	2492.850577
405.237282	2470.165385
405.618797	2523.097500
406.000250	2470.165385
406.381642	2510.494615
406.762972	2455.041923
407.144240	2455.041923
407.525447	2520.576923
407.906593	2439.918462
408.287677	2500.412308
408.668700	2407.150962
409.049661	2442.439038
409.430560	2530.659231
409.811399	2460.083077
410.192176	2525.618077
410.572891	2513.015192
410.953545	2460.083077
411.334138	2444.959615
411.714669	2520.576923
412.095139	2472.685962
412.475547	2470.165385
412.855894	2505.453462
413.236180	2502.932885
413.616405	2444.959615
413.996568	2475.206538
414.376670	2485.288846
414.756711	2528.138654
415.136691	2429.836154
415.516609	2472.685962
415.896466	2457.562500
416.276262	2502.932885
416.655997	2462.603654
417.035670	2540.741538
417.415283	2414.712692
417.794834	2447.480192
418.174324	2550.823846
418.553753	2450.000769
418.933121	2485.288846
419.312428	2467.644808
419.691674	2528.138654
420.070859	2475.206538
420.449983	2495.371154
420.829045	2462.603654
421.208047	2513.015192
421.586988	2497.891731
421.965867	2502.932885
422.344686	2528.138654
422.723444	2450.000769
423.102141	2465.124231
423.480777	2432.356731
423.859352	2460.083077
424.237866	2518.056346
424.616319	2616.358846
424.994712	2437.397885
425.373044	2439.918462
425.751314	2540.741538
426.129524	2432.356731
426.507673	2528.138654
426.885762	2513.015192
427.263789	2414.712692
427.641756	2480.247692
428.019662	2439.918462
428.397508	2497.891731
428.775292	2475.206538
429.153016	2462.603654
429.530679	2490.330000
429.908282	2434.877308
430.285824	2477.727115
430.663305	2422.274423
431.040726	2470.165385
431.418086	2480.247692
431.795385	2533.179808
432.172624	2538.220962
432.549802	2545.782692
432.926920	2460.083077
433.303977	2480.247692
433.680974	2490.330000
434.057910	2482.768269
434.434786	2472.685962
434.811601	2480.247692
435.188355	2444.959615
435.565050	2419.753846
435.941683	2530.659231
436.318257	2505.453462
436.694770	2485.288846
437.071222	2482.768269
437.447614	2505.453462
437.823946	2470.165385
438.200218	2497.891731
438.576429	2553.344423
438.952580	2485.288846
439.328670	2492.850577
439.704700	2550.823846
440.080670	2548.303269
440.456580	2409.671538
440.832429	2492.850577
441.208218	2465.124231
441.583947	2500.412308
441.959616	2513.015192
442.335224	2495.371154
442.710773	2535.700385
443.086261	2487.809423
443.461689	2560.906154
443.837057	2475.206538
444.212365	2528.138654
444.587612	2558.385577
444.962800	2442.439038
445.337927	2475.206538
445.712995	2507.974038
446.088002	2472.685962
446.462949	2472.685962
446.837837	2510.494615
447.212664	2492.850577
447.587431	2523.097500
447.962139	2465.124231
448.336786	2455.041923
448.711374	2525.618077
449.085901	2485.288846
449.460369	2545.782692
449.834776	2538.220962
450.209124	2568.467885
450.583412	2538.220962
450.957640	2402.109808
451.331808	2492.850577
451.705917	2402.109808
452.079965	2467.644808
452.453954	2397.068654
452.827883	2500.412308
453.201752	2439.918462
453.575562	2495.371154
453.949311	2558.385577
454.323001	2487.809423
454.696632	2500.412308
455.070202	2480.247692
455.443713	2437.397885
455.817164	2477.727115
456.190556	2583.591346
456.563888	2490.330000
456.937160	2530.659231
457.310373	2507.974038
457.683526	2538.220962
458.056619	2545.782692
458.429653	2515.535769
458.802628	2455.041923
459.175542	2412.192115
459.548398	2412.192115
459.921194	2553.344423
460.293930	2603.755962
460.666607	2543.262115
461.039224	2515.535769
461.411782	2540.741538
461.784280	2515.535769
462.156719	2500.412308
462.529099	2480.247692
462.901419	2422.274423
463.273680	2500.412308
463.645882	2538.220962
464.018024	2470.165385
464.390106	2525.618077
464.762130	2480.247692
465.134094	2490.330000
465.505999	2492.850577
465.877845	2601.235385
466.249631	2442.439038
466.621358	2555.865000
466.993026	2485.288846
467.364634	2470.165385
467.736184	2429.836154
468.107674	2520.576923
468.479105	2497.891731
468.850477	2487.809423
469.221790	2450.000769
469.593043	2495.371154
469.964238	2490.330000
470.335373	2492.850577
470.706449	2548.303269
471.077467	2460.083077
471.448425	2518.056346
471.819324	2439.918462
472.190164	2525.618077
472.560945	2462.603654
472.931667	2550.823846
473.302330	2437.397885
473.672934	2450.000769
474.043479	2437.397885
474.413965	2535.700385
474.784393	2560.906154
475.154761	2523.097500
475.525070	2444.959615
475.895321	2523.097500
476.265513	2553.344423
476.635645	2520.576923
477.005719	2470.165385
477.375734	2568.467885
477.745691	2444.959615
478.115588	2510.494615
478.485427	2495.371154
478.855207	2505.453462
479.224928	2548.303269
479.594591	2492.850577
479.964194	2520.576923
480.333739	2523.097500
480.703226	2523.097500
481.072653	2528.138654
481.442022	2455.041923
481.811333	2515.535769
482.180584	2460.083077
482.549777	2565.947308
482.918912	2467.644808
483.287988	2533.179808
483.657005	2457.562500
484.025964	2535.700385
484.394864	2507.974038
484.763706	2502.932885
485.132489	2525.618077
485.501213	2513.015192
485.869879	2452.521346
486.238487	2457.562500
486.607036	2465.124231
486.975527	2528.138654
487.343959	2419.753846
487.712333	2450.000769
488.080648	2543.262115
488.448905	2482.768269
488.817104	2447.480192
489.185244	2490.330000
489.553326	2500.412308
489.921350	2419.753846
490.289315	2520.576923
490.657222	2538.220962
491.025070	2515.535769
491.392861	2515.535769
491.760593	2515.535769
492.128267	2485.288846
492.495883	2452.521346
492.863440	2492.850577
493.230939	2457.562500
493.598380	2462.603654
493.965763	2548.303269
494.333088	2485.288846
494.700354	2480.247692
495.067563	2482.768269
495.434713	2500.412308
495.801805	2442.439038
496.168839	2563.426731
496.535815	2465.124231
496.902733	2520.576923
497.269593	2475.206538
497.636395	2515.535769
498.003139	2530.659231
498.369825	2538.220962
498.736453	2439.918462
499.103023	2482.768269
499.469535	2452.521346
499.835989	2515.535769
500.202385	2487.809423
500.568723	2439.918462
500.935003	2520.576923
501.301226	2515.535769
501.667390	2497.891731
502.033497	2432.356731
502.399546	2444.959615
502.765537	2495.371154
503.131470	2583.591346
503.497345	2553.344423
503.863163	2545.782692
504.228923	2518.056346
504.594625	2502.932885
504.960269	2495.371154
505.325856	2520.576923
505.691385	2487.809423
506.056856	2528.138654
506.422270	2485.288846
506.787625	2502.932885
507.152924	2505.453462
507.518164	2422.274423
507.883347	2513.015192
508.248472	2412.192115
508.613540	2515.535769
508.978550	2482.768269
509.343503	2545.782692
509.708398	2530.659231
510.073236	2545.782692
510.438016	2568.467885
510.802738	2515.535769
511.167403	2548.303269
511.532010	2550.823846
511.896561	2598.714808
512.261053	2523.097500
512.625488	2447.480192
512.989866	2487.809423
513.354186	2480.247692
513.718449	2442.439038
514.082655	2485.288846
514.446803	2472.685962
514.810894	2523.097500
515.174927	2545.782692
515.538904	2510.494615
515.902822	2558.385577
516.266684	2439.918462
516.630488	2530.659231
516.994235	2487.809423
517.357925	2520.576923
517.721558	2432.356731
518.085133	2520.576923
518.448651	2485.288846
518.812112	2482.768269
519.175516	2424.795000
519.538863	2500.412308
519.902152	2525.618077
520.265385	2563.426731
520.628560	2439.918462
520.991678	2467.644808
521.354739	2525.618077
521.717743	2462.603654
522.080690	2465.124231
522.443580	2515.535769
522.806413	2538.220962
523.169189	2528.138654
523.531908	2505.453462
523.894569	2442.439038
524.257174	2492.850577
524.619722	2417.233269
524.982213	2427.315577
525.344647	2548.303269
525.707025	2455.041923
526.069345	2520.576923
526.431608	2502.932885
526.793815	2477.727115
527.155964	2523.097500
527.518057	2482.768269
527.880093	2490.330000
528.242072	2591.153077
528.603995	2538.220962
528.965860	2505.453462
529.327669	2530.659231
529.689421	2455.041923
530.051117	2505.453462
530.412755	2558.385577
530.774337	2472.685962
531.135862	2505.453462
531.497331	2507.974038
531.858743	2392.027500
532.220098	2432.356731
532.581396	2545.782692
532.942638	2543.262115
533.303824	2432.356731
533.664953	2495.371154
534.026025	2520.576923
534.387040	2422.274423
534.747999	2535.700385
535.108902	2505.453462
535.469748	2518.056346
535.830537	2470.165385
536.191270	2455.041923
536.551947	2462.603654
536.912567	2523.097500
537.273131	2507.974038
537.633638	2565.947308
537.994089	2457.562500
538.354483	2439.918462
538.714821	2510.494615
539.075103	2437.397885
539.435328	2477.727115
539.795497	2437.397885
540.155609	2540.741538
540.515665	2444.959615
540.875665	2518.056346
541.235609	2568.467885
541.595496	2427.315577
541.955328	2455.041923
542.315102	2487.809423
542.674821	2497.891731
543.034483	2533.179808
543.394090	2472.685962
543.753640	2402.109808
544.113134	2518.056346
544.472571	2543.262115
544.831953	2465.124231
545.191278	2434.877308
545.550548	2550.823846
545.909761	2482.768269
546.268918	2500.412308
546.628019	2523.097500
546.987064	2528.138654
547.346053	2540.741538
547.704986	2510.494615
548.063863	2480.247692
548.422684	2535.700385
548.781449	2538.220962
549.140158	2439.918462
549.498811	2424.795000
549.857408	2485.288846
550.215949	2457.562500
550.574434	2528.138654
550.932864	2510.494615
551.291237	2513.015192
551.649555	2523.097500
552.007817	2553.344423
552.366022	2507.974038
552.724173	2570.988462
553.082267	2495.371154
553.440305	2525.618077
553.798288	2530.659231
554.156215	2472.685962
554.514086	2485.288846
554.871902	2442.439038
555.229661	2518.056346
555.587365	2525.618077
555.945014	2530.659231
556.302606	2482.768269
556.660143	2490.330000
557.017625	2568.467885
557.375050	2608.797115
557.732421	2555.865000
558.089735	2450.000769
558.446994	2535.700385
558.804197	2462.603654
559.161345	2452.521346
559.518437	2442.439038
559.875474	2434.877308
560.232455	2502.932885
560.589381	2465.124231
560.946251	2510.494615
561.303065	2485.288846
561.659825	2528.138654
562.016528	2429.836154
562.373177	2427.315577
562.729770	2545.782692
563.086307	2472.685962
563.442789	2407.150962
563.799216	2505.453462
564.155587	2513.015192
564.511904	2462.603654
564.868164	2510.494615
565.224370	2502.932885
565.580520	2502.932885
565.936615	2510.494615
566.292654	2414.712692
566.648638	2570.988462
567.004567	2525.618077
567.360441	2480.247692
567.716260	2550.823846
568.072023	2618.879423
568.427732	2520.576923
568.783385	2412.192115
569.138982	2419.753846
569.494525	2586.111923
569.850013	2497.891731
570.205445	2565.947308
570.560823	2545.782692
570.916145	2485.288846
571.271412	2518.056346
571.626625	2528.138654
571.981782	2548.303269
572.336884	2482.768269
572.691931	2442.439038
573.046923	2497.891731
573.401860	2407.150962
573.756743	2538.220962
574.111570	2450.000769
574.466342	2515.535769
574.821059	2442.439038
575.175722	2502.932885
575.530330	2558.385577
575.884882	2434.877308
576.239380	2457.562500
576.593823	2515.535769
576.948211	2439.918462
577.302544	2533.179808
577.656823	2492.850577
578.011047	2543.262115
578.365216	2376.904038
578.719330	2535.700385
579.073389	2475.206538
579.427394	2555.865000
579.781344	2515.535769
580.135239	2482.768269
580.489080	2573.509038
580.842866	2528.138654
581.196597	2492.850577
581.550273	2482.768269
581.903895	2560.906154
582.257463	2515.535769
582.610975	2492.850577
582.964434	2525.618077
583.317837	2455.041923
583.671186	2500.412308
584.024481	2472.685962
584.377721	2455.041923
584.730906	2422.274423
585.084037	2502.932885
585.437113	2419.753846
585.790135	2465.124231
586.143103	2432.356731
586.496016	2520.576923
586.848874	2439.918462
587.201679	2576.029615
587.554428	2538.220962
587.907124	2530.659231
588.259765	2540.741538
588.612352	2455.041923
588.964884	2558.385577
589.317362	2548.303269
589.669786	2510.494615
590.022155	2450.000769
590.374470	2578.550192
590.726731	2502.932885
591.078937	2457.562500
591.431090	2444.959615
591.783188	2470.165385
592.135232	2507.974038
592.487222	2444.959615
592.839157	2477.727115
593.191038	2553.344423
593.542866	2520.576923
593.894639	2487.809423
594.246358	2477.727115
594.598022	2462.603654
594.949633	2540.741538
595.301190	2550.823846
595.652692	2457.562500
596.004141	2553.344423
596.355535	2475.206538
596.706876	2520.576923
597.058162	2480.247692
597.409395	2462.603654
597.760573	2490.330000
598.111698	2477.727115
598.462768	2565.947308
598.813785	2480.247692
599.164748	2495.371154
599.515657	2475.206538
599.866511	2487.809423
600.217312	2538.220962
600.568060	2490.330000
600.918753	2543.262115
601.269392	2452.521346
601.619978	2497.891731
601.970510	2392.027500
602.320988	2545.782692
602.671412	2419.753846
603.021783	2530.659231
603.372100	2583.591346
603.722363	2515.535769
604.072572	2502.932885
604.422728	2530.659231
604.772830	2455.041923
605.122878	2490.330000
605.472872	2467.644808
605.822813	2490.330000
606.172701	2500.412308
606.522534	2548.303269
606.872314	2535.700385
607.222041	2447.480192
607.571714	2450.000769
607.921333	2565.947308
608.270899	2502.932885
608.620411	2523.097500
608.969870	2513.015192
609.319276	2510.494615
609.668627	2407.150962
610.017926	2419.753846
610.367171	2520.576923
610.716362	2444.959615
611.065500	2550.823846
611.414585	2502.932885
611.763616	2555.865000
612.112594	2475.206538
612.461518	2528.138654
612.810389	2444.959615
613.159207	2500.412308
613.507971	2513.015192
613.856682	2457.562500
614.205340	2518.056346
614.553945	2442.439038
614.902496	2409.671538
615.250994	2530.659231
615.599439	2528.138654
615.947830	2482.768269
616.296169	2434.877308
616.644454	2460.083077
616.992686	2505.453462
617.340864	2452.521346
617.688990	2535.700385
618.037063	2397.068654
618.385082	2525.618077
618.733048	2477.727115
619.080961	2475.206538
619.428821	2538.220962
619.776628	2492.850577
620.124382	2513.015192
620.472083	2407.150962
620.819731	2553.344423
621.167326	2513.015192
621.514868	2576.029615
621.862357	2570.988462
622.209793	2518.056346
622.557176	2540.741538
622.904506	2460.083077
623.251783	2543.262115
623.599007	2465.124231
623.946179	2523.097500
624.293297	2409.671538
624.640363	2510.494615
624.987376	2530.659231
625.334336	2482.768269
625.681243	2424.795000
626.028097	2520.576923
626.374899	2465.124231
626.721647	2565.947308
627.068343	2515.535769
627.414987	2482.768269
627.761577	2419.753846
628.108115	2548.303269
628.454600	2518.056346
628.801032	2487.809423
629.147412	2535.700385
629.493739	2525.618077
629.840014	2442.439038
630.186236	2432.356731
630.532405	2538.220962
630.878521	2472.685962
631.224585	2523.097500
631.570597	2535.700385
631.916556	2495.371154
632.262462	2523.097500
632.608316	2444.959615
632.954117	2505.453462
633.299866	2513.015192
633.645562	2538.220962
633.991206	2520.576923
634.336797	2487.809423
634.682336	2432.356731
635.027823	2480.247692
635.373257	2533.179808
635.718639	2505.453462
636.063968	2502.932885
636.409245	2470.165385
636.754470	2434.877308
637.099642	2535.700385
637.444762	2543.262115
637.789829	2429.836154
638.134845	2555.865000
638.479808	2497.891731
638.824719	2447.480192
639.169577	2505.453462
639.514383	2500.412308
639.859137	2578.550192
640.203839	2427.315577
640.548489	2507.974038
640.893086	2427.315577
641.237632	2515.535769
641.582125	2523.097500
641.926566	2482.768269
642.270955	2452.521346
642.615292	2497.891731
642.959576	2523.097500
643.303809	2540.741538
643.647990	2475.206538
643.992118	2515.535769
644.336195	2386.986346
644.680219	2490.330000
645.024192	2434.877308
645.368112	2533.179808
645.711981	2507.974038
646.055797	2502.932885
646.399562	2439.918462
646.743274	2437.397885
647.086935	2550.823846
647.430544	2538.220962
647.774101	2555.865000
648.117606	2570.988462
648.461059	2477.727115
648.804460	2495.371154
649.147810	2422.274423
649.491108	2422.274423
649.834354	2490.330000
650.177548	2573.509038
650.520690	2437.397885
650.863781	2485.288846
651.206820	2515.535769
651.549807	2520.576923
651.892742	2490.330000
652.235626	2573.509038
652.578458	2437.397885
652.921238	2492.850577
653.263967	2480.247692
653.606644	2570.988462
653.949269	2545.782692
654.291843	2507.974038
654.634365	2515.535769
654.976836	2439.918462
655.319255	2485.288846
655.661622	2528.138654
656.003938	2528.138654
656.346203	2447.480192
656.688416	2485.288846
657.030577	2432.356731
657.372687	2492.850577
657.714746	2427.315577
658.056753	2462.603654
658.398708	2513.015192
658.740612	2530.659231
659.082465	2439.918462
659.424266	2543.262115
659.766016	2470.165385
660.107715	2520.576923
660.449362	2505.453462
660.790958	2475.206538
661.132503	2510.494615
661.473996	2500.412308
661.815438	2560.906154
662.156829	2381.945192
662.498168	2533.179808
662.839456	2535.700385
663.180693	2455.041923
663.521879	2500.412308
663.863013	2374.383462
664.204097	2485.288846
664.545129	2482.768269
664.886110	2502.932885
665.227040	2465.124231
665.567918	2477.727115
665.908746	2558.385577
666.249522	2470.165385
666.590248	2535.700385
666.930922	2558.385577
667.271545	2507.974038
667.612118	2588.632500
667.952639	2530.659231
668.293109	2502.932885
668.633528	2467.644808
668.973896	2523.097500
669.314213	2543.262115
669.654480	2505.453462
669.994695	2535.700385
670.334859	2422.274423
670.674973	2500.412308
671.015035	2545.782692
671.355047	2397.068654
671.695008	2447.480192
672.034918	2525.618077
672.374777	2510.494615
672.714585	2497.891731
673.054342	2613.838269
673.394049	2523.097500
673.733705	2523.097500
674.073310	2586.111923
674.412864	2518.056346
674.752368	2540.741538
675.091820	2515.535769
675.431223	2570.988462
675.770574	2482.768269
676.109875	2437.397885
676.449125	2525.618077
676.788324	2528.138654
677.127473	2485.288846
677.466571	2439.918462
677.805619	2467.644808
678.144616	2432.356731
678.483562	2507.974038
678.822458	2452.521346
679.161303	2439.918462
679.500098	2457.562500
679.838842	2490.330000
680.177535	2497.891731
680.516179	2439.918462
680.854771	2414.712692
681.193314	2513.015192
681.531805	2500.412308
681.870247	2442.439038
682.208638	2455.041923
682.546978	2417.233269
682.885268	2540.741538
683.223508	2495.371154
683.561697	2444.959615
683.899836	2543.262115
684.237925	2523.097500
684.575963	2515.535769
684.913951	2533.179808
685.251889	2568.467885
685.589776	2520.576923
685.927614	2450.000769
686.265401	2502.932885
686.603137	2525.618077
686.940824	2588.632500
687.278460	2515.535769
687.616046	2500.412308
687.953582	2470.165385
688.291068	2472.685962
688.628504	2452.521346
688.965889	2518.056346
689.303224	2460.083077
689.640510	2510.494615
689.977745	2540.741538
690.314930	2475.206538
690.652065	2528.138654
690.989150	2495.371154
691.326185	2485.288846
691.663170	2510.494615
692.000105	2497.891731
692.336990	2578.550192
692.673825	2543.262115
693.010610	2533.179808
693.347345	2475.206538
693.684030	2523.097500
694.020665	2432.356731
694.357251	2540.741538
694.693786	2631.482308
695.030272	2472.685962
695.366707	2480.247692
695.703093	2500.412308
696.039429	2535.700385
696.375716	2500.412308
696.711952	2515.535769
697.048139	2475.206538
697.384276	2550.823846
697.720363	2533.179808
698.056400	2480.247692
698.392388	2543.262115
698.728326	2447.480192
699.064214	2460.083077
699.400053	2535.700385
699.735842	2545.782692
700.071581	2545.782692
700.407270	2543.262115
700.742910	2465.124231
701.078501	2457.562500
701.414042	2397.068654
701.749533	2563.426731
702.084974	2555.865000
702.420366	2477.727115
702.755709	2487.809423
703.091002	2467.644808
703.426246	2470.165385
703.761440	2497.891731
704.096584	2482.768269
704.431679	2598.714808
704.766725	2467.644808
705.101721	2550.823846
705.436668	2482.768269
705.771565	2505.453462
706.106413	2472.685962
706.441212	2507.974038
706.775961	2550.823846
707.110661	2495.371154
707.445311	2513.015192
707.779913	2611.317692
708.114465	2427.315577
708.448967	2475.206538
708.783421	2472.685962
709.117825	2470.165385
709.452180	2475.206538
709.786485	2457.562500
710.120742	2563.426731
710.454949	2465.124231
710.789107	2530.659231
711.123216	2437.397885
711.457275	2472.685962
711.791286	2389.506923
712.125247	2528.138654
712.459159	2495.371154
712.793023	2543.262115
713.126837	2485.288846
713.460602	2444.959615
713.794318	2513.015192
714.127985	2502.932885
714.461602	2530.659231
714.795171	2462.603654
715.128691	2487.809423
715.462162	2535.700385
715.795584	2480.247692
716.128957	2424.795000
716.462281	2570.988462
716.795556	2447.480192
717.128782	2533.179808
717.461960	2555.865000
717.795088	2548.303269
718.128167	2379.424615
718.461198	2482.768269
718.794180	2520.576923
719.127113	2548.303269
719.459997	2528.138654
719.792833	2429.836154
720.125619	2525.618077
720.458357	2525.618077
720.791046	2437.397885
721.123686	2518.056346
721.456278	2510.494615
721.788821	2492.850577
722.121315	2487.809423
722.453761	2523.097500
722.786158	2482.768269
723.118506	2555.865000
723.450805	2515.535769
723.783056	2543.262115
724.115259	2490.330000
724.447412	2510.494615
724.779518	2553.344423
725.111574	2548.303269
725.443582	2475.206538
725.775542	2550.823846
726.107453	2409.671538
726.439315	2460.083077
726.771129	2502.932885
727.102895	2467.644808
727.434612	2505.453462
727.766281	2505.453462
728.097901	2450.000769
728.429473	2434.877308
728.760996	2482.768269
729.092471	2432.356731
729.423897	2548.303269
729.755276	2586.111923
730.086606	2487.809423
730.417887	2505.453462
730.749120	2530.659231
731.080305	2417.233269
731.411442	2523.097500
731.742530	2563.426731
732.073570	2427.315577
732.404562	2530.659231
732.735506	2502.932885
733.066401	2455.041923
733.397249	2500.412308
733.728048	2442.439038
734.058798	2495.371154
734.389501	2399.589231
734.720156	2502.932885
735.050762	2409.671538
735.381320	2439.918462
735.711831	2497.891731
736.042293	2500.412308
736.372707	2485.288846
736.703073	2535.700385
737.033391	2611.317692
737.363661	2492.850577
737.693883	2525.618077
738.024056	2492.850577
738.354182	2497.891731
738.684260	2500.412308
739.014290	2404.630385
739.344272	2538.220962
739.674207	2485.288846
740.004093	2437.397885
740.333931	2525.618077
740.663722	2477.727115
740.993464	2538.220962
741.323159	2467.644808
741.652806	2497.891731
741.982405	2447.480192
742.311956	2513.015192
742.641460	2397.068654
742.970915	2472.685962
743.300323	2417.233269
743.629683	2482.768269
743.958996	2424.795000
744.288260	2497.891731
744.617477	2540.741538
744.946647	2528.138654
745.275768	2475.206538
745.604842	2502.932885
745.933869	2432.356731
746.262847	2601.235385
746.591778	2477.727115
746.920662	2452.521346
747.249498	2515.535769
747.578286	2545.782692
747.907027	2505.453462
748.235720	2538.220962
748.564365	2576.029615
748.892963	2457.562500
749.221514	2497.891731
749.550017	2462.603654
749.878473	2528.138654
750.206881	2543.262115
750.535242	2563.426731
750.863555	2502.932885
751.191821	2510.494615
751.520039	2507.974038
751.848210	2545.782692
752.176334	2576.029615
752.504411	2475.206538
752.832440	2444.959615
753.160421	2523.097500
753.488356	2553.344423
753.816243	2482.768269
754.144082	2507.974038
754.471875	2492.850577
754.799620	2495.371154
755.127318	2500.412308
755.454969	2545.782692
755.782572	2518.056346
756.110129	2535.700385
756.437638	2507.974038
756.765100	2520.576923
757.092515	2437.397885
757.419882	2502.932885
757.747203	2447.480192
758.074477	2523.097500
758.401703	2475.206538
758.728882	2523.097500
759.056014	2480.247692
759.383099	2492.850577
759.710138	2535.700385
760.037129	2457.562500
760.364073	2570.988462
760.690970	2490.330000
761.017820	2409.671538
761.344623	2543.262115
761.671379	2477.727115
761.998088	2490.330000
762.324751	2510.494615
762.651366	2460.083077
762.977935	2465.124231
763.304456	2472.685962
763.630931	2545.782692
763.957359	2460.083077
764.283740	2485.288846
764.610074	2492.850577
764.936362	2490.330000
765.262602	2502.932885
765.588796	2439.918462
765.914943	2513.015192
766.241044	2525.618077
766.567097	2480.247692
766.893104	2550.823846
767.219064	2460.083077
767.544978	2525.618077
767.870845	2422.274423
768.196665	2510.494615
768.522438	2475.206538
768.848165	2550.823846
769.173846	2528.138654
769.499479	2475.206538
769.825066	2530.659231
770.150607	2472.685962
770.476101	2555.865000
770.801548	2452.521346
771.126949	2452.521346
771.452303	2460.083077
771.777611	2480.247692
772.102872	2518.056346
772.428087	2540.741538
772.753256	2505.453462
773.078378	2535.700385
773.403453	2520.576923
773.728482	2407.150962
774.053465	2455.041923
774.378401	2533.179808
774.703291	2402.109808
775.028135	2465.124231
775.352932	2467.644808
775.677683	2548.303269
776.002388	2535.700385
776.327046	2500.412308
776.651658	2386.986346
776.976224	2477.727115
777.300743	2513.015192
777.625216	2548.303269
777.949643	2525.618077
778.274024	2538.220962
778.598359	2482.768269
778.922647	2535.700385
779.246889	2452.521346
779.571086	2538.220962
779.895236	2533.179808
780.219339	2505.453462
780.543397	2477.727115
780.867409	2505.453462
781.191374	2437.397885
781.515294	2455.041923
781.839167	2482.768269
782.162995	2518.056346
782.486776	2472.685962
782.810511	2472.685962
783.134201	2507.974038
783.457844	2450.000769
783.781441	2558.385577
784.104993	2424.795000
784.428498	2586.111923
784.751958	2507.974038
785.075372	2455.041923
785.398739	2543.262115
785.722061	2472.685962
786.045337	2467.644808
786.368568	2482.768269
786.691752	2533.179808
787.014891	2409.671538
787.337983	2480.247692
787.661030	2538.220962
787.984031	2460.083077
788.306987	2424.795000
788.629897	2475.206538
788.952760	2510.494615
789.275579	2497.891731
789.598351	2500.412308
789.921078	2487.809423
790.243759	2386.986346
790.566395	2444.959615
790.888984	2563.426731
791.211529	2465.124231
791.534027	2533.179808
791.856480	2487.809423
792.178888	2518.056346
792.501249	2520.576923
792.823566	2412.192115
793.145836	2495.371154
793.468062	2538.220962
793.790241	2467.644808
794.112375	2339.095385
794.434464	2576.029615
794.756507	2432.356731
795.078505	2507.974038
795.400457	2482.768269
795.722364	2485.288846
796.044226	2386.986346
796.366042	2434.877308
796.687812	2492.850577
797.009538	2419.753846
797.331218	2528.138654
797.652852	2422.274423
797.974442	2502.932885
798.295986	2555.865000
798.617484	2560.906154
798.938938	2523.097500
799.260346	2495.371154
799.581709	2555.865000
799.903026	2472.685962
800.224299	2515.535769
800.545526	2470.165385
800.866708	2553.344423
801.187845	2482.768269
801.508936	2434.877308
801.829983	2492.850577
802.150984	2429.836154
802.471940	2601.235385
802.792851	2389.506923
803.113717	2578.550192
803.434538	2460.083077
803.755314	2470.165385
804.076045	2560.906154
804.396731	2545.782692
804.717372	2538.220962
805.037967	2515.535769
805.358518	2424.795000
805.679024	2505.453462
805.999485	2497.891731
806.319901	2558.385577
806.640272	2492.850577
806.960598	2507.974038
807.280879	2558.385577
807.601115	2402.109808
807.921306	2477.727115
808.241453	2460.083077
808.561554	2482.768269
808.881611	2538.220962
809.201623	2485.288846
809.521590	2523.097500
809.841513	2525.618077
810.161390	2450.000769
810.481223	2598.714808
810.801011	2477.727115
811.120755	2540.741538
811.440453	2472.685962
811.760107	2470.165385
812.079716	2492.850577
812.399281	2477.727115
812.718801	2495.371154
813.038276	2434.877308
813.357707	2515.535769
813.677093	2470.165385
813.996434	2437.397885
814.315731	2588.632500
814.634983	2427.315577
814.954191	2528.138654
815.273354	2470.165385
815.592473	2386.986346
815.911547	2457.562500
816.230577	2482.768269
816.549562	2427.315577
816.868502	2414.712692
817.187399	2553.344423
817.506250	2492.850577
817.825058	2515.535769
818.143821	2538.220962
818.462539	2502.932885
818.781213	2480.247692
819.099843	2495.371154
819.418429	2543.262115
819.736970	2583.591346
820.055466	2550.823846
820.373919	2485.288846
820.692327	2462.603654
821.010691	2444.959615
821.329011	2465.124231
821.647286	2439.918462
821.965517	2427.315577
822.283704	2480.247692
822.601847	2518.056346
822.919945	2518.056346
823.237999	2475.206538
823.556010	2477.727115
823.873976	2576.029615
824.191897	2477.727115
824.509775	2452.521346
824.827609	2487.809423
825.145398	2492.850577
825.463144	2457.562500
825.780845	2533.179808
826.098502	2495.371154
826.416116	2457.562500
826.733685	2434.877308
827.051210	2533.179808
827.368692	2480.247692
827.686129	2578.550192
828.003522	2492.850577
828.320872	2477.727115
828.638177	2525.618077
828.955439	2465.124231
829.272656	2543.262115
829.589830	2500.412308
829.906960	2507.974038
830.224046	2492.850577
830.541088	2528.138654
830.858086	2485.288846
831.175041	2596.194231
831.491952	2513.015192
831.808819	2374.383462
832.125642	2361.780577
832.442421	2553.344423
832.759157	2573.509038
833.075849	2510.494615
833.392497	2427.315577
833.709101	2510.494615
834.025662	2470.165385
834.342179	2520.576923
834.658653	2606.276538
834.975083	2447.480192
835.291469	2500.412308
835.607811	2475.206538
835.924110	2490.330000
836.240366	2513.015192
836.556578	2452.521346
836.872746	2485.288846
837.188871	2457.562500
837.504952	2510.494615
837.820990	2525.618077
838.136984	2570.988462
838.452935	2472.685962
838.768842	2457.562500
839.084706	2480.247692
839.400526	2558.385577
839.716303	2500.412308
840.032037	2475.206538
840.347727	2543.262115
840.663373	2535.700385
840.978977	2507.974038
841.294537	2439.918462
841.610054	2452.521346
841.925527	2500.412308
842.240957	2477.727115
842.556344	2518.056346
842.871687	2500.412308
843.186987	2434.877308
843.502244	2560.906154
843.817458	2523.097500
844.132629	2482.768269
844.447756	2434.877308
844.762840	2437.397885
845.077881	2540.741538
845.392879	2455.041923
845.707833	2434.877308
846.022745	2528.138654
846.337613	2543.262115
846.652438	2470.165385
846.967221	2563.426731
847.281960	2482.768269
847.596656	2553.344423
847.911309	2455.041923
848.225919	2505.453462
848.540485	2409.671538
848.855009	2540.741538
849.169490	2450.000769
849.483928	2553.344423
849.798323	2447.480192
850.112675	2576.029615
850.426984	2450.000769
850.741251	2444.959615
851.055474	2470.165385
851.369654	2502.932885
851.683792	2583.591346
851.997887	2515.535769
852.311938	2437.397885
852.625947	2515.535769
852.939914	2570.988462
853.253837	2500.412308
853.567718	2513.015192
853.881555	2482.768269
854.195350	2497.891731
854.509103	2444.959615
854.822812	2560.906154
855.136479	2520.576923
855.450103	2515.535769
855.763685	2452.521346
856.077224	2482.768269
856.390720	2465.124231
856.704173	2550.823846
857.017584	2482.768269
857.330953	2515.535769
857.644278	2535.700385
857.957561	2502.932885
858.270802	2485.288846
858.584000	2450.000769
858.897155	2533.179808
859.210268	2462.603654
859.523339	2520.576923
859.836367	2462.603654
860.149352	2470.165385
860.462295	2530.659231
860.775195	2565.947308
861.088054	2591.153077
861.400869	2460.083077
861.713642	2455.041923
862.026373	2490.330000
862.339062	2467.644808
862.651708	2515.535769
862.964312	2475.206538
863.276873	2538.220962
863.589392	2505.453462
863.901869	2487.809423
864.214303	2467.644808
864.526696	2432.356731
864.839045	2507.974038
865.151353	2558.385577
865.463619	2543.262115
865.775842	2437.397885
866.088023	2510.494615
866.400162	2568.467885
866.712258	2528.138654
867.024313	2505.453462
867.336325	2558.385577
867.648296	2480.247692
867.960224	2467.644808
868.272110	2497.891731
868.583954	2477.727115
868.895755	2558.385577
869.207515	2460.083077
869.519233	2467.644808
869.830909	2543.262115
870.142542	2447.480192
870.454134	2467.644808
870.765684	2525.618077
871.077191	2518.056346
871.388657	2550.823846
871.700081	2518.056346
872.011463	2588.632500
872.322803	2427.315577
872.634101	2538.220962
872.945357	2510.494615
873.256571	2462.603654
873.567744	2538.220962
873.878874	2523.097500
874.189963	2507.974038
874.501010	2570.988462
874.812015	2455.041923
875.122979	2518.056346
875.433900	2490.330000
875.744780	2487.809423
876.055618	2540.741538
876.366415	2518.056346
876.677169	2533.179808
876.987882	2540.741538
877.298554	2538.220962
877.609183	2530.659231
877.919771	2548.303269
878.230317	2540.741538
878.540822	2505.453462
878.851285	2507.974038
879.161707	2470.165385
879.472087	2477.727115
879.782425	2591.153077
880.092722	2402.109808
880.402977	2558.385577
880.713191	2444.959615
881.023363	2472.685962
881.333494	2450.000769
881.643583	2450.000769
881.953631	2467.644808
882.263637	2376.904038
882.573602	2404.630385
882.883526	2540.741538
883.193408	2460.083077
883.503248	2533.179808
883.813048	2558.385577
884.122806	2548.303269
884.432522	2475.206538
884.742197	2510.494615
885.051831	2530.659231
885.361424	2513.015192
885.670975	2497.891731
885.980485	2457.562500
886.289954	2515.535769
886.599382	2490.330000
886.908768	2485.288846
887.218113	2477.727115
887.527417	2523.097500
887.836680	2518.056346
888.145901	2530.659231
888.455082	2482.768269
888.764221	2563.426731
889.073319	2510.494615
889.382376	2523.097500
889.691392	2490.330000
890.000366	2510.494615
890.309300	2560.906154
890.618193	2359.260000
890.927044	2460.083077
891.235855	2369.342308
891.544625	2490.330000
891.853353	2581.070769
892.162041	2530.659231
892.470687	2429.836154
892.779293	2399.589231
893.087858	2460.083077
893.396381	2500.412308
893.704864	2535.700385
894.013306	2475.206538
894.321707	2475.206538
894.630068	2505.453462
894.938387	2520.576923
895.246665	2457.562500
895.554903	2452.521346
895.863100	2538.220962
896.171256	2497.891731
896.479371	2485.288846
896.787446	2356.739423
897.095480	2495.371154
897.403473	2437.397885
897.711425	2447.480192
898.019336	2578.550192
898.327207	2457.562500
898.635038	2507.974038
898.942827	2467.644808
899.250576	2477.727115
899.558284	2437.397885
899.865952	2518.056346
900.173579	2538.220962
900.481165	2482.768269
900.788711	2543.262115
901.096216	2422.274423
901.403681	2497.891731
901.711105	2432.356731
902.018489	2424.795000
902.325832	2540.741538
902.633135	2540.741538
902.940397	2507.974038
903.247619	2540.741538
903.554800	2467.644808
903.861941	2505.453462
904.169041	2465.124231
904.476101	2487.809423
904.783121	2555.865000
905.090100	2528.138654
905.397039	2518.056346
905.703938	2518.056346
906.010796	2417.233269
906.317614	2568.467885
906.624391	2487.809423
906.931129	2487.809423
907.237826	2482.768269
907.544483	2523.097500
907.851099	2492.850577
908.157675	2472.685962
908.464211	2447.480192
908.770707	2470.165385
909.077163	2419.753846
909.383578	2475.206538
909.689954	2555.865000
909.996289	2427.315577
910.302584	2530.659231
910.608839	2545.782692
910.915054	2472.685962
911.221229	2538.220962
911.527363	2417.233269
911.833458	2515.535769
912.139513	2477.727115
912.445527	2414.712692
912.751502	2437.397885
913.057436	2427.315577
913.363331	2507.974038
913.669186	2477.727115
913.975000	2492.850577
914.280775	2462.603654
914.586510	2553.344423
914.892205	2528.138654
915.197859	2543.262115
915.503475	2495.371154
915.809050	2505.453462
916.114585	2414.712692
916.420081	2513.015192
916.725536	2439.918462
917.030952	2482.768269
917.336328	2477.727115
917.641665	2392.027500
917.946961	2480.247692
918.252218	2485.288846
918.557435	2480.247692
918.862612	2548.303269
919.167750	2505.453462
919.472848	2444.959615
919.777906	2487.809423
920.082925	2565.947308
920.387904	2528.138654
920.692843	2472.685962
920.997743	2462.603654
921.302603	2553.344423
921.607423	2513.015192
921.912204	2528.138654
922.216946	2490.330000
922.521647	2545.782692
922.826310	2540.741538
923.130932	2490.330000
923.435516	2482.768269
923.740059	2510.494615
924.044564	2462.603654
924.349028	2555.865000
924.653454	2485.288846
924.957840	2455.041923
925.262186	2455.041923
925.566493	2490.330000
925.870761	2497.891731
926.174989	2412.192115
926.479178	2598.714808
926.783328	2548.303269
927.087438	2515.535769
927.391509	2513.015192
927.695541	2399.589231
927.999533	2442.439038
928.303486	2437.397885
928.607400	2492.850577
928.911275	2515.535769
929.215110	2530.659231
929.518906	2399.589231
929.822663	2477.727115
930.126381	2520.576923
930.430060	2618.879423
930.733699	2495.371154
931.037299	2510.494615
931.340861	2462.603654
931.644383	2500.412308
931.947866	2528.138654
932.251309	2513.015192
932.554714	2475.206538
932.858080	2530.659231
933.161407	2490.330000
933.464694	2518.056346
933.767943	2540.741538
934.071153	2593.673654
934.374323	2470.165385
934.677455	2570.988462
934.980548	2492.850577
935.283602	2525.618077
935.586617	2480.247692
935.889593	2389.506923
936.192530	2485.288846
936.495428	2485.288846
936.798287	2568.467885
937.101108	2490.330000
937.403890	2455.041923
937.706632	2447.480192
938.009336	2482.768269
938.312002	2553.344423
938.614628	2480.247692
938.917216	2457.562500
939.219765	2492.850577
939.522275	2490.330000
939.824747	2525.618077
940.127179	2394.548077
940.429573	2538.220962
940.731929	2354.218846
941.034246	2510.494615
941.336524	2497.891731
941.638763	2447.480192
941.940964	2452.521346
942.243126	2447.480192
942.545250	2545.782692
942.847335	2538.220962
943.149381	2513.015192
943.451389	2520.576923
943.753359	2472.685962
944.055290	2407.150962
944.357182	2457.562500
944.659036	2475.206538
944.960851	2460.083077
945.262628	2450.000769
945.564367	2452.521346
945.866067	2507.974038
946.167729	2518.056346
946.469352	2354.218846
946.770937	2550.823846
947.072484	2480.247692
947.373992	2467.644808
947.675462	2533.179808
947.976893	2467.644808
948.278286	2455.041923
948.579641	2495.371154
948.880958	2518.056346
949.182236	2465.124231
949.483476	2492.850577
949.784678	2543.262115
950.085841	2583.591346
950.386967	2442.439038
950.688054	2513.015192
950.989103	2540.741538
951.290114	2480.247692
951.591087	2530.659231
951.892021	2510.494615
952.192917	2450.000769
952.493776	2460.083077
952.794596	2490.330000
953.095378	2419.753846
953.396122	2490.330000
953.696828	2480.247692
953.997496	2455.041923
954.298126	2535.700385
954.598718	2460.083077
954.899272	2495.371154
955.199788	2439.918462
955.500266	2507.974038
955.800706	2447.480192
956.101108	2490.330000
956.401472	2533.179808
956.701798	2490.330000
957.002087	2427.315577
957.302337	2447.480192
957.602550	2485.288846
957.902724	2505.453462
958.202861	2465.124231
958.502960	2487.809423
958.803022	2457.562500
959.103045	2518.056346
959.403031	2518.056346
959.702979	2518.056346
960.002889	2457.562500
960.302762	2528.138654
960.602596	2472.685962
960.902393	2492.850577
961.202153	2528.138654
961.501875	2457.562500
961.801559	2513.015192
962.101205	2510.494615
962.400814	2455.041923
962.700385	2407.150962
962.999918	2442.439038
963.299414	2570.988462
963.598873	2439.918462
963.898293	2412.192115
964.197677	2513.015192
964.497022	2444.959615
964.796331	2404.630385
965.095601	2515.535769
965.394835	2495.371154
965.694030	2525.618077
965.993189	2487.809423
966.292309	2467.644808
966.591393	2336.574808
966.890439	2437.397885
967.189447	2502.932885
967.488419	2593.673654
967.787353	2507.974038
968.086249	2502.932885
968.385108	2518.056346
968.683930	2439.918462
968.982714	2525.618077
969.281462	2331.533654
969.580172	2475.206538
969.878844	2492.850577
970.177480	2439.918462
970.476078	2507.974038
970.774639	2555.865000
971.073162	2452.521346
971.371649	2560.906154
971.670098	2439.918462
971.968510	2477.727115
972.266885	2588.632500
972.565223	2475.206538
972.863524	2465.124231
973.161788	2465.124231
973.460014	2507.974038
973.758204	2502.932885
974.056356	2392.027500
974.354471	2548.303269
974.652550	2497.891731
974.950591	2533.179808
975.248595	2480.247692
975.546563	2439.918462
975.844493	2452.521346
976.142386	2462.603654
976.440243	2480.247692
976.738062	2465.124231
977.035845	2475.206538
977.333590	2419.753846
977.631299	2515.535769
977.928971	2480.247692
978.226606	2523.097500
978.524204	2492.850577
978.821765	2570.988462
979.119290	2472.685962
979.416777	2545.782692
979.714228	2485.288846
980.011642	2555.865000
980.309020	2450.000769
980.606360	2581.070769
980.903664	2548.303269
981.200931	2513.015192
981.498162	2538.220962
981.795356	2460.083077
982.092513	2470.165385
982.389633	2417.233269
982.686717	2495.371154
982.983764	2497.891731
983.280775	2530.659231
983.577749	2591.153077
983.874686	2507.974038
984.171587	2447.480192
984.468451	2533.179808
984.765279	2495.371154
985.062070	2500.412308
985.358824	2518.056346
985.655543	2487.809423
985.952224	2490.330000
986.248869	2502.932885
986.545478	2500.412308
986.842050	2482.768269
987.138586	2492.850577
987.435086	2525.618077
987.731549	2465.124231
988.027975	2490.330000
988.324366	2490.330000
988.620719	2515.535769
988.917037	2497.891731
989.213318	2543.262115
989.509563	2490.330000
989.805772	2480.247692
990.101944	2523.097500
990.398080	2487.809423
990.694180	2510.494615
990.990244	2424.795000
991.286271	2515.535769
991.582262	2389.506923
991.878217	2543.262115
992.174136	2455.041923
992.470019	2487.809423
992.765865	2523.097500
993.061676	2490.330000
993.357450	2515.535769
993.653188	2568.467885
993.948890	2472.685962
994.244556	2540.741538
994.540186	2576.029615
994.835780	2492.850577
995.131337	2558.385577
995.426859	2510.494615
995.722345	2535.700385
996.017795	2543.262115
996.313208	2530.659231
996.608586	2507.974038
996.903928	2510.494615
997.199234	2538.220962
997.494504	2439.918462
997.789738	2525.618077
998.084936	2407.150962
998.380099	2389.506923
998.675225	2518.056346
998.970316	2480.247692
999.265371	2467.644808
999.560390	2482.768269
999.855373	2555.865000
1000.150320	2513.015192
1000.445232	2505.453462
1000.740108	2452.521346
1001.034948	2535.700385
1001.329752	2487.809423
1001.624521	2550.823846
1001.919254	2482.768269
1002.213951	2500.412308
1002.508613	2472.685962
1002.803239	2427.315577
1003.097829	2394.548077
1003.392384	2465.124231
1003.686903	2470.165385
1003.981386	2520.576923
1004.275834	2543.262115
1004.570246	2487.809423
1004.864623	2578.550192
1005.158964	2404.630385
1005.453270	2429.836154
1005.747540	2450.000769
1006.041775	2462.603654
1006.335974	2502.932885
1006.630138	2533.179808
1006.924266	2379.424615
1007.218359	2439.918462
1007.512416	2460.083077
1007.806438	2475.206538
1008.100425	2444.959615
1008.394376	2480.247692
1008.688292	2439.918462
1008.982172	2505.453462
1009.276017	2412.192115
1009.569827	2422.274423
1009.863602	2450.000769
1010.157341	2510.494615
1010.451045	2523.097500
1010.744714	2490.330000
1011.038347	2510.494615
1011.331945	2530.659231
1011.625508	2429.836154
1011.919036	2419.753846
1012.212528	2520.576923
1012.505986	2429.836154
1012.799408	2525.618077
1013.092795	2485.288846
1013.386147	2545.782692
1013.679464	2535.700385
1013.972745	2525.618077
1014.265992	2533.179808
1014.559204	2513.015192
1014.852380	2528.138654
1015.145521	2553.344423
1015.438628	2467.644808
1015.731699	2535.700385
1016.024736	2434.877308
1016.317737	2513.015192
1016.610703	2515.535769
1016.903635	2467.644808
1017.196531	2538.220962
1017.489393	2497.891731
1017.782219	2485.288846
1018.075011	2437.397885
1018.367768	2487.809423
1018.660490	2457.562500
1018.953177	2457.562500
1019.245829	2457.562500
