Dividing Wavelength (nm)	Counts (n)	Blue Motor Position (mm): 0.000000	Red Motor Position (mm): 8.200000	
326.493990	2066.873077
326.888308	2066.873077
327.282561	2066.873077
327.676750	2054.270192
328.070874	2114.764038
328.464933	2001.338077
328.858929	2061.831923
329.252859	2076.955385
329.646726	2069.393654
330.040528	2139.969808
330.434265	2049.229038
330.827938	2119.805192
331.221547	2112.243462
331.615091	2192.901923
332.008571	2202.984231
332.401986	2223.148846
332.795338	2152.572692
333.188625	2205.504808
333.581847	2220.628269
333.975006	2245.834038
334.368100	2260.957500
334.761129	2331.533654
335.154095	2316.410192
335.546996	2379.424615
335.939833	2381.945192
336.332606	2450.000769
336.725315	2439.918462
337.117960	2392.027500
337.510540	2465.124231
337.903056	2379.424615
338.295508	2460.083077
338.687896	2389.506923
339.080220	2414.712692
339.472480	2477.727115
339.864676	2409.671538
340.256807	2570.988462
340.648875	2389.506923
341.040879	2477.727115
341.432818	2477.727115
341.824694	2596.194231
342.216506	2439.918462
342.608253	2455.041923
342.999937	2573.509038
343.391557	2548.303269
343.783113	2437.397885
344.174605	2505.453462
344.566033	2437.397885
344.957397	2359.260000
345.348697	2427.315577
345.739934	2507.974038
346.131106	2492.850577
346.522215	2397.068654
346.913260	2505.453462
347.304241	2452.521346
347.695159	2502.932885
348.086012	2480.247692
348.476802	2548.303269
348.867528	2502.932885
349.258191	2389.506923
349.648789	2480.247692
350.039324	2510.494615
350.429796	2412.192115
350.820203	2419.753846
351.210548	2465.124231
351.600828	2409.671538
351.991045	2369.342308
352.381198	2414.712692
352.771288	2470.165385
353.161314	2427.315577
353.551276	2419.753846
353.941175	2374.383462
354.331010	2407.150962
354.720782	2485.288846
355.110490	2427.315577
355.500135	2354.218846
355.889717	2457.562500
356.279235	2482.768269
356.668689	2462.603654
357.058080	2482.768269
357.447408	2467.644808
357.836672	2316.410192
358.225873	2379.424615
358.615010	2434.877308
359.004084	2414.712692
359.393095	2427.315577
359.782043	2462.603654
360.170927	2434.877308
360.559748	2386.986346
360.948505	2477.727115
361.337199	2467.644808
361.725830	2460.083077
362.114398	2513.015192
362.502903	2361.780577
362.891344	2447.480192
363.279722	2392.027500
363.668037	2485.288846
364.056289	2364.301154
364.444478	2444.959615
364.832603	2402.109808
365.220665	2409.671538
365.608665	2402.109808
365.996601	2422.274423
366.384474	2452.521346
366.772284	2495.371154
367.160031	2434.877308
367.547715	2485.288846
367.935336	2460.083077
368.322893	2419.753846
368.710388	2417.233269
369.097820	2447.480192
369.485189	2452.521346
369.872495	2495.371154
370.259738	2530.659231
370.646918	2492.850577
371.034035	2432.356731
371.421090	2480.247692
371.808081	2507.974038
372.195010	2550.823846
372.581875	2465.124231
372.968678	2490.330000
373.355418	2450.000769
373.742096	2432.356731
374.128710	2480.247692
374.515262	2558.385577
374.901751	2485.288846
375.288177	2480.247692
375.674540	2470.165385
376.060841	2480.247692
376.447079	2462.603654
376.833254	2482.768269
377.219367	2485.288846
377.605417	2500.412308
377.991404	2485.288846
378.377329	2485.288846
378.763191	2450.000769
379.148991	2427.315577
379.534727	2540.741538
379.920402	2397.068654
380.306013	2533.179808
380.691563	2455.041923
381.077049	2392.027500
381.462474	2500.412308
381.847835	2447.480192
382.233134	2490.330000
382.618371	2467.644808
383.003545	2419.753846
383.388657	2460.083077
383.773706	2407.150962
384.158693	2500.412308
384.543618	2452.521346
384.928480	2434.877308
385.313280	2495.371154
385.698017	2392.027500
386.082692	2444.959615
386.467305	2530.659231
386.851856	2477.727115
387.236344	2507.974038
387.620770	2465.124231
388.005133	2482.768269
388.389435	2419.753846
388.773674	2502.932885
389.157851	2482.768269
389.541965	2482.768269
389.926018	2495.371154
390.310008	2465.124231
390.693936	2455.041923
391.077802	2470.165385
391.461606	2540.741538
391.845348	2477.727115
392.229027	2457.562500
392.612645	2427.315577
392.996200	2515.535769
393.379694	2606.276538
393.763125	2533.179808
394.146494	2447.480192
394.529801	2497.891731
394.913047	2442.439038
395.296230	2452.521346
395.679351	2525.618077
396.062410	2492.850577
396.445408	2452.521346
396.828343	2439.918462
397.211217	2520.576923
397.594028	2447.480192
397.976778	2525.618077
398.359466	2409.671538
398.742092	2480.247692
399.124656	2419.753846
399.507158	2442.439038
399.889598	2442.439038
400.271977	2495.371154
400.654294	2480.247692
401.036549	2520.576923
401.418742	2455.041923
401.800874	2525.618077
402.182944	2482.768269
402.564952	2465.124231
402.946898	2414.712692
403.328783	2467.644808
403.710606	2472.685962
404.092367	2414.712692
404.474067	2548.303269
404.855705	2447.480192
405.237282	2502.932885
405.618797	2455.041923
406.000250	2482.768269
406.381642	2442.439038
406.762972	2477.727115
407.144240	2500.412308
407.525447	2472.685962
407.906593	2485.288846
408.287677	2465.124231
408.668700	2452.521346
409.049661	2434.877308
409.430560	2555.865000
409.811399	2447.480192
410.192176	2442.439038
410.572891	2465.124231
410.953545	2497.891731
411.334138	2447.480192
411.714669	2492.850577
412.095139	2490.330000
412.475547	2417.233269
412.855894	2427.315577
413.236180	2513.015192
413.616405	2450.000769
413.996568	2384.465769
414.376670	2381.945192
414.756711	2497.891731
415.136691	2444.959615
415.516609	2495.371154
415.896466	2487.809423
416.276262	2505.453462
416.655997	2452.521346
417.035670	2528.138654
417.415283	2518.056346
417.794834	2427.315577
418.174324	2543.262115
418.553753	2490.330000
418.933121	2397.068654
419.312428	2467.644808
419.691674	2472.685962
420.070859	2500.412308
420.449983	2540.741538
420.829045	2497.891731
421.208047	2502.932885
421.586988	2414.712692
421.965867	2520.576923
422.344686	2424.795000
422.723444	2568.467885
423.102141	2480.247692
423.480777	2497.891731
423.859352	2500.412308
424.237866	2477.727115
424.616319	2507.974038
424.994712	2419.753846
425.373044	2477.727115
425.751314	2505.453462
426.129524	2482.768269
426.507673	2502.932885
426.885762	2500.412308
427.263789	2457.562500
427.641756	2573.509038
428.019662	2485.288846
428.397508	2530.659231
428.775292	2570.988462
429.153016	2422.274423
429.530679	2465.124231
429.908282	2462.603654
430.285824	2429.836154
430.663305	2520.576923
431.040726	2505.453462
431.418086	2407.150962
431.795385	2515.535769
432.172624	2460.083077
432.549802	2470.165385
432.926920	2447.480192
433.303977	2407.150962
433.680974	2558.385577
434.057910	2495.371154
434.434786	2475.206538
434.811601	2492.850577
435.188355	2462.603654
435.565050	2482.768269
435.941683	2417.233269
436.318257	2492.850577
436.694770	2550.823846
437.071222	2485.288846
437.447614	2429.836154
437.823946	2482.768269
438.200218	2495.371154
438.576429	2485.288846
438.952580	2482.768269
439.328670	2510.494615
439.704700	2439.918462
440.080670	2563.426731
440.456580	2502.932885
440.832429	2591.153077
441.208218	2434.877308
441.583947	2450.000769
441.959616	2470.165385
442.335224	2404.630385
442.710773	2444.959615
443.086261	2452.521346
443.461689	2510.494615
443.837057	2490.330000
444.212365	2462.603654
444.587612	2507.974038
444.962800	2485.288846
445.337927	2414.712692
445.712995	2515.535769
446.088002	2455.041923
446.462949	2407.150962
446.837837	2523.097500
447.212664	2437.397885
447.587431	2462.603654
447.962139	2442.439038
448.336786	2467.644808
448.711374	2465.124231
449.085901	2518.056346
449.460369	2470.165385
449.834776	2485.288846
450.209124	2487.809423
450.583412	2467.644808
450.957640	2563.426731
451.331808	2576.029615
451.705917	2412.192115
452.079965	2472.685962
452.453954	2548.303269
452.827883	2490.330000
453.201752	2482.768269
453.575562	2439.918462
453.949311	2424.795000
454.323001	2447.480192
454.696632	2515.535769
455.070202	2439.918462
455.443713	2444.959615
455.817164	2523.097500
456.190556	2467.644808
456.563888	2518.056346
456.937160	2460.083077
457.310373	2482.768269
457.683526	2470.165385
458.056619	2548.303269
458.429653	2417.233269
458.802628	2460.083077
459.175542	2429.836154
459.548398	2485.288846
459.921194	2543.262115
460.293930	2487.809423
460.666607	2485.288846
461.039224	2465.124231
461.411782	2447.480192
461.784280	2460.083077
462.156719	2502.932885
462.529099	2573.509038
462.901419	2563.426731
463.273680	2492.850577
463.645882	2596.194231
464.018024	2510.494615
464.390106	2450.000769
464.762130	2576.029615
465.134094	2465.124231
465.505999	2583.591346
465.877845	2429.836154
466.249631	2510.494615
466.621358	2482.768269
466.993026	2558.385577
467.364634	2419.753846
467.736184	2444.959615
468.107674	2565.947308
468.479105	2520.576923
468.850477	2497.891731
469.221790	2560.906154
469.593043	2507.974038
469.964238	2492.850577
470.335373	2439.918462
470.706449	2523.097500
471.077467	2465.124231
471.448425	2518.056346
471.819324	2429.836154
472.190164	2525.618077
472.560945	2485.288846
472.931667	2477.727115
473.302330	2513.015192
473.672934	2434.877308
474.043479	2634.002885
474.413965	2502.932885
474.784393	2538.220962
475.154761	2369.342308
475.525070	2447.480192
475.895321	2570.988462
476.265513	2465.124231
476.635645	2558.385577
477.005719	2475.206538
477.375734	2452.521346
477.745691	2500.412308
478.115588	2462.603654
478.485427	2518.056346
478.855207	2472.685962
479.224928	2540.741538
479.594591	2490.330000
479.964194	2475.206538
480.333739	2528.138654
480.703226	2525.618077
481.072653	2490.330000
481.442022	2520.576923
481.811333	2507.974038
482.180584	2513.015192
482.549777	2477.727115
482.918912	2475.206538
483.287988	2465.124231
483.657005	2462.603654
484.025964	2500.412308
484.394864	2492.850577
484.763706	2407.150962
485.132489	2502.932885
485.501213	2530.659231
485.869879	2520.576923
486.238487	2500.412308
486.607036	2442.439038
486.975527	2485.288846
487.343959	2565.947308
487.712333	2439.918462
488.080648	2450.000769
488.448905	2439.918462
488.817104	2492.850577
489.185244	2513.015192
489.553326	2530.659231
489.921350	2555.865000
490.289315	2414.712692
490.657222	2530.659231
491.025070	2485.288846
491.392861	2460.083077
491.760593	2452.521346
492.128267	2563.426731
492.495883	2490.330000
492.863440	2472.685962
493.230939	2444.959615
493.598380	2515.535769
493.965763	2540.741538
494.333088	2545.782692
494.700354	2434.877308
495.067563	2492.850577
495.434713	2543.262115
495.801805	2545.782692
496.168839	2543.262115
496.535815	2472.685962
496.902733	2515.535769
497.269593	2475.206538
497.636395	2528.138654
498.003139	2470.165385
498.369825	2470.165385
498.736453	2477.727115
499.103023	2538.220962
499.469535	2543.262115
499.835989	2545.782692
500.202385	2460.083077
500.568723	2397.068654
500.935003	2457.562500
501.301226	2439.918462
501.667390	2543.262115
502.033497	2485.288846
502.399546	2507.974038
502.765537	2447.480192
503.131470	2414.712692
503.497345	2369.342308
503.863163	2558.385577
504.228923	2467.644808
504.594625	2487.809423
504.960269	2487.809423
505.325856	2480.247692
505.691385	2482.768269
506.056856	2523.097500
506.422270	2452.521346
506.787625	2487.809423
507.152924	2530.659231
507.518164	2525.618077
507.883347	2495.371154
508.248472	2439.918462
508.613540	2482.768269
508.978550	2424.795000
509.343503	2558.385577
509.708398	2513.015192
510.073236	2444.959615
510.438016	2520.576923
510.802738	2442.439038
511.167403	2497.891731
511.532010	2460.083077
511.896561	2397.068654
512.261053	2515.535769
512.625488	2591.153077
512.989866	2497.891731
513.354186	2570.988462
513.718449	2593.673654
514.082655	2442.439038
514.446803	2384.465769
514.810894	2523.097500
515.174927	2555.865000
515.538904	2450.000769
515.902822	2455.041923
516.266684	2538.220962
516.630488	2530.659231
516.994235	2457.562500
517.357925	2490.330000
517.721558	2548.303269
518.085133	2447.480192
518.448651	2520.576923
518.812112	2487.809423
519.175516	2515.535769
519.538863	2457.562500
519.902152	2482.768269
520.265385	2565.947308
520.628560	2487.809423
520.991678	2558.385577
521.354739	2553.344423
521.717743	2465.124231
522.080690	2502.932885
522.443580	2573.509038
522.806413	2467.644808
523.169189	2450.000769
523.531908	2432.356731
523.894569	2530.659231
524.257174	2545.782692
524.619722	2457.562500
524.982213	2475.206538
525.344647	2500.412308
525.707025	2470.165385
526.069345	2447.480192
526.431608	2507.974038
526.793815	2477.727115
527.155964	2485.288846
527.518057	2490.330000
527.880093	2482.768269
528.242072	2518.056346
528.603995	2487.809423
528.965860	2422.274423
529.327669	2450.000769
529.689421	2465.124231
530.051117	2533.179808
530.412755	2447.480192
530.774337	2545.782692
531.135862	2535.700385
531.497331	2518.056346
531.858743	2439.918462
532.220098	2502.932885
532.581396	2563.426731
532.942638	2492.850577
533.303824	2412.192115
533.664953	2460.083077
534.026025	2404.630385
534.387040	2520.576923
534.747999	2460.083077
535.108902	2475.206538
535.469748	2510.494615
535.830537	2502.932885
536.191270	2475.206538
536.551947	2550.823846
536.912567	2487.809423
537.273131	2460.083077
537.633638	2465.124231
537.994089	2518.056346
538.354483	2419.753846
538.714821	2528.138654
539.075103	2510.494615
539.435328	2467.644808
539.795497	2452.521346
540.155609	2550.823846
540.515665	2513.015192
540.875665	2465.124231
541.235609	2518.056346
541.595496	2525.618077
541.955328	2490.330000
542.315102	2485.288846
542.674821	2548.303269
543.034483	2447.480192
543.394090	2477.727115
543.753640	2455.041923
544.113134	2477.727115
544.472571	2487.809423
544.831953	2392.027500
545.191278	2462.603654
545.550548	2402.109808
545.909761	2507.974038
546.268918	2407.150962
546.628019	2515.535769
546.987064	2570.988462
547.346053	2480.247692
547.704986	2472.685962
548.063863	2457.562500
548.422684	2482.768269
548.781449	2439.918462
549.140158	2540.741538
549.498811	2450.000769
549.857408	2533.179808
550.215949	2414.712692
550.574434	2424.795000
550.932864	2450.000769
551.291237	2444.959615
551.649555	2485.288846
552.007817	2477.727115
552.366022	2507.974038
552.724173	2480.247692
553.082267	2492.850577
553.440305	2492.850577
553.798288	2523.097500
554.156215	2573.509038
554.514086	2550.823846
554.871902	2520.576923
555.229661	2450.000769
555.587365	2470.165385
555.945014	2409.671538
556.302606	2525.618077
556.660143	2485.288846
557.017625	2490.330000
557.375050	2465.124231
557.732421	2465.124231
558.089735	2462.603654
558.446994	2492.850577
558.804197	2525.618077
559.161345	2477.727115
559.518437	2548.303269
559.875474	2480.247692
560.232455	2515.535769
560.589381	2523.097500
560.946251	2482.768269
561.303065	2523.097500
561.659825	2465.124231
562.016528	2467.644808
562.373177	2515.535769
562.729770	2485.288846
563.086307	2455.041923
563.442789	2538.220962
563.799216	2518.056346
564.155587	2452.521346
564.511904	2523.097500
564.868164	2518.056346
565.224370	2558.385577
565.580520	2608.797115
565.936615	2424.795000
566.292654	2560.906154
566.648638	2548.303269
567.004567	2452.521346
567.360441	2412.192115
567.716260	2543.262115
568.072023	2465.124231
568.427732	2543.262115
568.783385	2515.535769
569.138982	2429.836154
569.494525	2450.000769
569.850013	2432.356731
570.205445	2490.330000
570.560823	2518.056346
570.916145	2525.618077
571.271412	2495.371154
571.626625	2495.371154
571.981782	2591.153077
572.336884	2442.439038
572.691931	2467.644808
573.046923	2482.768269
573.401860	2603.755962
573.756743	2596.194231
574.111570	2540.741538
574.466342	2487.809423
574.821059	2510.494615
575.175722	2596.194231
575.530330	2513.015192
575.884882	2470.165385
576.239380	2558.385577
576.593823	2490.330000
576.948211	2543.262115
577.302544	2495.371154
577.656823	2490.330000
578.011047	2467.644808
578.365216	2460.083077
578.719330	2510.494615
579.073389	2472.685962
579.427394	2414.712692
579.781344	2533.179808
580.135239	2510.494615
580.489080	2495.371154
580.842866	2515.535769
581.196597	2548.303269
581.550273	2545.782692
581.903895	2545.782692
582.257463	2513.015192
582.610975	2492.850577
582.964434	2472.685962
583.317837	2422.274423
583.671186	2487.809423
584.024481	2525.618077
584.377721	2535.700385
584.730906	2586.111923
585.084037	2455.041923
585.437113	2507.974038
585.790135	2432.356731
586.143103	2523.097500
586.496016	2558.385577
586.848874	2422.274423
587.201679	2513.015192
587.554428	2515.535769
587.907124	2455.041923
588.259765	2497.891731
588.612352	2470.165385
588.964884	2480.247692
589.317362	2467.644808
589.669786	2538.220962
590.022155	2482.768269
590.374470	2429.836154
590.726731	2490.330000
591.078937	2507.974038
591.431090	2533.179808
591.783188	2500.412308
592.135232	2530.659231
592.487222	2606.276538
592.839157	2518.056346
593.191038	2576.029615
593.542866	2450.000769
593.894639	2490.330000
594.246358	2518.056346
594.598022	2497.891731
594.949633	2437.397885
595.301190	2495.371154
595.652692	2530.659231
596.004141	2462.603654
596.355535	2452.521346
596.706876	2502.932885
597.058162	2447.480192
597.409395	2460.083077
597.760573	2535.700385
598.111698	2520.576923
598.462768	2429.836154
598.813785	2553.344423
599.164748	2495.371154
599.515657	2477.727115
599.866511	2510.494615
600.217312	2530.659231
600.568060	2510.494615
600.918753	2472.685962
601.269392	2523.097500
601.619978	2409.671538
601.970510	2525.618077
602.320988	2490.330000
602.671412	2520.576923
603.021783	2465.124231
603.372100	2540.741538
603.722363	2462.603654
604.072572	2470.165385
604.422728	2535.700385
604.772830	2502.932885
605.122878	2465.124231
605.472872	2439.918462
605.822813	2470.165385
606.172701	2548.303269
606.522534	2439.918462
606.872314	2502.932885
607.222041	2530.659231
607.571714	2455.041923
607.921333	2523.097500
608.270899	2540.741538
608.620411	2515.535769
608.969870	2495.371154
609.319276	2487.809423
609.668627	2540.741538
610.017926	2475.206538
610.367171	2397.068654
610.716362	2568.467885
611.065500	2518.056346
611.414585	2525.618077
611.763616	2492.850577
612.112594	2533.179808
612.461518	2427.315577
612.810389	2533.179808
613.159207	2452.521346
613.507971	2565.947308
613.856682	2495.371154
614.205340	2538.220962
614.553945	2465.124231
614.902496	2439.918462
615.250994	2472.685962
615.599439	2507.974038
615.947830	2548.303269
616.296169	2477.727115
616.644454	2530.659231
616.992686	2480.247692
617.340864	2482.768269
617.688990	2507.974038
618.037063	2487.809423
618.385082	2560.906154
618.733048	2515.535769
619.080961	2495.371154
619.428821	2472.685962
619.776628	2583.591346
620.124382	2495.371154
620.472083	2437.397885
620.819731	2457.562500
621.167326	2525.618077
621.514868	2540.741538
621.862357	2462.603654
622.209793	2477.727115
622.557176	2492.850577
622.904506	2543.262115
623.251783	2444.959615
623.599007	2500.412308
623.946179	2553.344423
624.293297	2550.823846
624.640363	2429.836154
624.987376	2523.097500
625.334336	2450.000769
625.681243	2621.400000
626.028097	2495.371154
626.374899	2465.124231
626.721647	2485.288846
627.068343	2455.041923
627.414987	2429.836154
627.761577	2507.974038
628.108115	2513.015192
628.454600	2502.932885
628.801032	2507.974038
629.147412	2510.494615
629.493739	2492.850577
629.840014	2485.288846
630.186236	2495.371154
630.532405	2457.562500
630.878521	2565.947308
631.224585	2565.947308
631.570597	2528.138654
631.916556	2513.015192
632.262462	2447.480192
632.608316	2477.727115
632.954117	2457.562500
633.299866	2507.974038
633.645562	2450.000769
633.991206	2502.932885
634.336797	2472.685962
634.682336	2447.480192
635.027823	2492.850577
635.373257	2525.618077
635.718639	2460.083077
636.063968	2565.947308
636.409245	2497.891731
636.754470	2555.865000
637.099642	2467.644808
637.444762	2465.124231
637.789829	2482.768269
638.134845	2593.673654
638.479808	2548.303269
638.824719	2518.056346
639.169577	2507.974038
639.514383	2510.494615
639.859137	2485.288846
640.203839	2518.056346
640.548489	2402.109808
640.893086	2538.220962
641.237632	2570.988462
641.582125	2482.768269
641.926566	2462.603654
642.270955	2500.412308
642.615292	2477.727115
642.959576	2409.671538
643.303809	2490.330000
643.647990	2470.165385
643.992118	2515.535769
644.336195	2553.344423
644.680219	2596.194231
645.024192	2505.453462
645.368112	2480.247692
645.711981	2523.097500
646.055797	2485.288846
646.399562	2492.850577
646.743274	2472.685962
647.086935	2520.576923
647.430544	2495.371154
647.774101	2507.974038
648.117606	2455.041923
648.461059	2545.782692
648.804460	2530.659231
649.147810	2447.480192
649.491108	2492.850577
649.834354	2538.220962
650.177548	2502.932885
650.520690	2565.947308
650.863781	2588.632500
651.206820	2500.412308
651.549807	2482.768269
651.892742	2545.782692
652.235626	2472.685962
652.578458	2507.974038
652.921238	2485.288846
653.263967	2480.247692
653.606644	2507.974038
653.949269	2545.782692
654.291843	2477.727115
654.634365	2563.426731
654.976836	2510.494615
655.319255	2472.685962
655.661622	2422.274423
656.003938	2407.150962
656.346203	2510.494615
656.688416	2455.041923
657.030577	2460.083077
657.372687	2490.330000
657.714746	2482.768269
658.056753	2429.836154
658.398708	2447.480192
658.740612	2465.124231
659.082465	2470.165385
659.424266	2576.029615
659.766016	2465.124231
660.107715	2563.426731
660.449362	2447.480192
660.790958	2495.371154
661.132503	2477.727115
661.473996	2487.809423
661.815438	2450.000769
662.156829	2502.932885
662.498168	2513.015192
662.839456	2412.192115
663.180693	2477.727115
663.521879	2490.330000
663.863013	2525.618077
664.204097	2540.741538
664.545129	2520.576923
664.886110	2497.891731
665.227040	2480.247692
665.567918	2528.138654
665.908746	2581.070769
666.249522	2490.330000
666.590248	2558.385577
666.930922	2535.700385
667.271545	2447.480192
667.612118	2495.371154
667.952639	2455.041923
668.293109	2487.809423
668.633528	2412.192115
668.973896	2548.303269
669.314213	2482.768269
669.654480	2462.603654
669.994695	2482.768269
670.334859	2515.535769
670.674973	2523.097500
671.015035	2475.206538
671.355047	2429.836154
671.695008	2470.165385
672.034918	2497.891731
672.374777	2586.111923
672.714585	2568.467885
673.054342	2510.494615
673.394049	2439.918462
673.733705	2558.385577
674.073310	2437.397885
674.412864	2482.768269
674.752368	2570.988462
675.091820	2485.288846
675.431223	2497.891731
675.770574	2457.562500
676.109875	2500.412308
676.449125	2485.288846
676.788324	2533.179808
677.127473	2457.562500
677.466571	2452.521346
677.805619	2439.918462
678.144616	2568.467885
678.483562	2550.823846
678.822458	2442.439038
679.161303	2505.453462
679.500098	2525.618077
679.838842	2492.850577
680.177535	2520.576923
680.516179	2520.576923
680.854771	2553.344423
681.193314	2487.809423
681.531805	2500.412308
681.870247	2485.288846
682.208638	2480.247692
682.546978	2475.206538
682.885268	2533.179808
683.223508	2530.659231
683.561697	2482.768269
683.899836	2485.288846
684.237925	2533.179808
684.575963	2480.247692
684.913951	2470.165385
685.251889	2495.371154
685.589776	2497.891731
685.927614	2455.041923
686.265401	2485.288846
686.603137	2515.535769
686.940824	2432.356731
687.278460	2477.727115
687.616046	2523.097500
687.953582	2543.262115
688.291068	2457.562500
688.628504	2510.494615
688.965889	2507.974038
689.303224	2510.494615
689.640510	2439.918462
689.977745	2502.932885
690.314930	2450.000769
690.652065	2548.303269
690.989150	2631.482308
691.326185	2490.330000
691.663170	2535.700385
692.000105	2565.947308
692.336990	2533.179808
692.673825	2490.330000
693.010610	2500.412308
693.347345	2482.768269
693.684030	2558.385577
694.020665	2505.453462
694.357251	2439.918462
694.693786	2394.548077
695.030272	2490.330000
695.366707	2467.644808
695.703093	2507.974038
696.039429	2485.288846
696.375716	2492.850577
696.711952	2480.247692
697.048139	2528.138654
697.384276	2422.274423
697.720363	2447.480192
698.056400	2530.659231
698.392388	2465.124231
698.728326	2467.644808
699.064214	2465.124231
699.400053	2553.344423
699.735842	2515.535769
700.071581	2462.603654
700.407270	2472.685962
700.742910	2497.891731
701.078501	2510.494615
701.414042	2492.850577
701.749533	2475.206538
702.084974	2475.206538
702.420366	2593.673654
702.755709	2520.576923
703.091002	2555.865000
703.426246	2462.603654
703.761440	2502.932885
704.096584	2540.741538
704.431679	2485.288846
704.766725	2437.397885
705.101721	2520.576923
705.436668	2470.165385
705.771565	2560.906154
706.106413	2447.480192
706.441212	2502.932885
706.775961	2490.330000
707.110661	2465.124231
707.445311	2450.000769
707.779913	2477.727115
708.114465	2424.795000
708.448967	2455.041923
708.783421	2447.480192
709.117825	2465.124231
709.452180	2523.097500
709.786485	2407.150962
710.120742	2412.192115
710.454949	2528.138654
710.789107	2447.480192
711.123216	2535.700385
711.457275	2472.685962
711.791286	2510.494615
712.125247	2523.097500
712.459159	2528.138654
712.793023	2482.768269
713.126837	2550.823846
713.460602	2490.330000
713.794318	2545.782692
714.127985	2528.138654
714.461602	2505.453462
714.795171	2475.206538
715.128691	2450.000769
715.462162	2447.480192
715.795584	2422.274423
716.128957	2538.220962
716.462281	2467.644808
716.795556	2399.589231
717.128782	2507.974038
717.461960	2470.165385
717.795088	2502.932885
718.128167	2457.562500
718.461198	2480.247692
718.794180	2563.426731
719.127113	2611.317692
719.459997	2429.836154
719.792833	2442.439038
720.125619	2404.630385
720.458357	2525.618077
720.791046	2520.576923
721.123686	2429.836154
721.456278	2470.165385
721.788821	2553.344423
722.121315	2497.891731
722.453761	2560.906154
722.786158	2354.218846
723.118506	2429.836154
723.450805	2439.918462
723.783056	2477.727115
724.115259	2434.877308
724.447412	2518.056346
724.779518	2429.836154
725.111574	2485.288846
725.443582	2497.891731
725.775542	2467.644808
726.107453	2507.974038
726.439315	2550.823846
726.771129	2477.727115
727.102895	2518.056346
727.434612	2442.439038
727.766281	2543.262115
728.097901	2465.124231
728.429473	2533.179808
728.760996	2472.685962
729.092471	2475.206538
729.423897	2550.823846
729.755276	2497.891731
730.086606	2490.330000
730.417887	2490.330000
730.749120	2528.138654
731.080305	2495.371154
731.411442	2543.262115
731.742530	2520.576923
732.073570	2530.659231
732.404562	2497.891731
732.735506	2407.150962
733.066401	2510.494615
733.397249	2465.124231
733.728048	2540.741538
734.058798	2467.644808
734.389501	2467.644808
734.720156	2455.041923
735.050762	2523.097500
735.381320	2465.124231
735.711831	2457.562500
736.042293	2386.986346
736.372707	2528.138654
736.703073	2374.383462
737.033391	2392.027500
737.363661	2533.179808
737.693883	2507.974038
738.024056	2518.056346
738.354182	2563.426731
738.684260	2475.206538
739.014290	2500.412308
739.344272	2482.768269
739.674207	2563.426731
740.004093	2460.083077
740.333931	2487.809423
740.663722	2535.700385
740.993464	2490.330000
741.323159	2460.083077
741.652806	2465.124231
741.982405	2462.603654
742.311956	2492.850577
742.641460	2485.288846
742.970915	2424.795000
743.300323	2513.015192
743.629683	2555.865000
743.958996	2525.618077
744.288260	2553.344423
744.617477	2452.521346
744.946647	2434.877308
745.275768	2563.426731
745.604842	2437.397885
745.933869	2535.700385
746.262847	2439.918462
746.591778	2467.644808
746.920662	2550.823846
747.249498	2467.644808
747.578286	2513.015192
747.907027	2460.083077
748.235720	2518.056346
748.564365	2359.260000
748.892963	2568.467885
749.221514	2505.453462
749.550017	2495.371154
749.878473	2528.138654
750.206881	2460.083077
750.535242	2447.480192
750.863555	2548.303269
751.191821	2467.644808
751.520039	2477.727115
751.848210	2490.330000
752.176334	2538.220962
752.504411	2518.056346
752.832440	2502.932885
753.160421	2487.809423
753.488356	2535.700385
753.816243	2497.891731
754.144082	2634.002885
754.471875	2419.753846
754.799620	2472.685962
755.127318	2417.233269
755.454969	2497.891731
755.782572	2475.206538
756.110129	2409.671538
756.437638	2475.206538
756.765100	2513.015192
757.092515	2427.315577
757.419882	2543.262115
757.747203	2576.029615
758.074477	2507.974038
758.401703	2500.412308
758.728882	2487.809423
759.056014	2500.412308
759.383099	2538.220962
759.710138	2437.397885
760.037129	2515.535769
760.364073	2528.138654
760.690970	2545.782692
761.017820	2482.768269
761.344623	2442.439038
761.671379	2513.015192
761.998088	2462.603654
762.324751	2502.932885
762.651366	2510.494615
762.977935	2419.753846
763.304456	2500.412308
763.630931	2465.124231
763.957359	2510.494615
764.283740	2530.659231
764.610074	2530.659231
764.936362	2480.247692
765.262602	2507.974038
765.588796	2565.947308
765.914943	2485.288846
766.241044	2520.576923
766.567097	2470.165385
766.893104	2477.727115
767.219064	2502.932885
767.544978	2507.974038
767.870845	2535.700385
768.196665	2470.165385
768.522438	2502.932885
768.848165	2520.576923
769.173846	2467.644808
769.499479	2538.220962
769.825066	2434.877308
770.150607	2525.618077
770.476101	2565.947308
770.801548	2462.603654
771.126949	2477.727115
771.452303	2518.056346
771.777611	2492.850577
772.102872	2528.138654
772.428087	2429.836154
772.753256	2452.521346
773.078378	2502.932885
773.403453	2439.918462
773.728482	2563.426731
774.053465	2455.041923
774.378401	2535.700385
774.703291	2490.330000
775.028135	2555.865000
775.352932	2515.535769
775.677683	2613.838269
776.002388	2492.850577
776.327046	2570.988462
776.651658	2543.262115
776.976224	2432.356731
777.300743	2475.206538
777.625216	2465.124231
777.949643	2490.330000
778.274024	2515.535769
778.598359	2455.041923
778.922647	2558.385577
779.246889	2558.385577
779.571086	2540.741538
779.895236	2497.891731
780.219339	2533.179808
780.543397	2558.385577
780.867409	2477.727115
781.191374	2470.165385
781.515294	2472.685962
781.839167	2545.782692
782.162995	2447.480192
782.486776	2487.809423
782.810511	2485.288846
783.134201	2480.247692
783.457844	2442.439038
783.781441	2437.397885
784.104993	2518.056346
784.428498	2523.097500
784.751958	2429.836154
785.075372	2434.877308
785.398739	2558.385577
785.722061	2417.233269
786.045337	2540.741538
786.368568	2525.618077
786.691752	2442.439038
787.014891	2528.138654
787.337983	2492.850577
787.661030	2450.000769
787.984031	2497.891731
788.306987	2465.124231
788.629897	2513.015192
788.952760	2485.288846
789.275579	2470.165385
789.598351	2482.768269
789.921078	2518.056346
790.243759	2540.741538
790.566395	2502.932885
790.888984	2525.618077
791.211529	2439.918462
791.534027	2558.385577
791.856480	2560.906154
792.178888	2495.371154
792.501249	2543.262115
792.823566	2470.165385
793.145836	2523.097500
793.468062	2465.124231
793.790241	2472.685962
794.112375	2540.741538
794.434464	2490.330000
794.756507	2434.877308
795.078505	2477.727115
795.400457	2510.494615
795.722364	2455.041923
796.044226	2475.206538
796.366042	2462.603654
796.687812	2477.727115
797.009538	2455.041923
797.331218	2578.550192
797.652852	2457.562500
797.974442	2505.453462
798.295986	2507.974038
798.617484	2482.768269
798.938938	2462.603654
799.260346	2502.932885
799.581709	2432.356731
799.903026	2558.385577
800.224299	2419.753846
800.545526	2480.247692
800.866708	2495.371154
801.187845	2515.535769
801.508936	2492.850577
801.829983	2510.494615
802.150984	2510.494615
802.471940	2507.974038
802.792851	2467.644808
803.113717	2626.441154
803.434538	2505.453462
803.755314	2606.276538
804.076045	2467.644808
804.396731	2533.179808
804.717372	2518.056346
805.037967	2497.891731
805.358518	2487.809423
805.679024	2513.015192
805.999485	2480.247692
806.319901	2442.439038
806.640272	2487.809423
806.960598	2472.685962
807.280879	2475.206538
807.601115	2565.947308
807.921306	2495.371154
808.241453	2533.179808
808.561554	2535.700385
808.881611	2472.685962
809.201623	2543.262115
809.521590	2603.755962
809.841513	2510.494615
810.161390	2482.768269
810.481223	2465.124231
810.801011	2475.206538
811.120755	2475.206538
811.440453	2500.412308
811.760107	2404.630385
812.079716	2457.562500
812.399281	2452.521346
812.718801	2432.356731
813.038276	2450.000769
813.357707	2543.262115
813.677093	2523.097500
813.996434	2465.124231
814.315731	2439.918462
814.634983	2525.618077
814.954191	2490.330000
815.273354	2450.000769
815.592473	2528.138654
815.911547	2560.906154
816.230577	2487.809423
816.549562	2500.412308
816.868502	2545.782692
817.187399	2417.233269
817.506250	2460.083077
817.825058	2523.097500
818.143821	2470.165385
818.462539	2492.850577
818.781213	2507.974038
819.099843	2525.618077
819.418429	2545.782692
819.736970	2550.823846
820.055466	2570.988462
820.373919	2487.809423
820.692327	2477.727115
821.010691	2482.768269
821.329011	2404.630385
821.647286	2520.576923
821.965517	2492.850577
822.283704	2507.974038
822.601847	2515.535769
822.919945	2507.974038
823.237999	2540.741538
823.556010	2480.247692
823.873976	2472.685962
824.191897	2518.056346
824.509775	2437.397885
824.827609	2450.000769
825.145398	2601.235385
825.463144	2535.700385
825.780845	2533.179808
826.098502	2442.439038
826.416116	2570.988462
826.733685	2510.494615
827.051210	2513.015192
827.368692	2485.288846
827.686129	2399.589231
828.003522	2475.206538
828.320872	2465.124231
828.638177	2520.576923
828.955439	2427.315577
829.272656	2565.947308
829.589830	2513.015192
829.906960	2553.344423
830.224046	2510.494615
830.541088	2472.685962
830.858086	2402.109808
831.175041	2540.741538
831.491952	2540.741538
831.808819	2485.288846
832.125642	2470.165385
832.442421	2465.124231
832.759157	2475.206538
833.075849	2576.029615
833.392497	2482.768269
833.709101	2485.288846
834.025662	2427.315577
834.342179	2553.344423
834.658653	2407.150962
834.975083	2570.988462
835.291469	2588.632500
835.607811	2518.056346
835.924110	2515.535769
836.240366	2457.562500
836.556578	2535.700385
836.872746	2492.850577
837.188871	2533.179808
837.504952	2507.974038
837.820990	2507.974038
838.136984	2417.233269
838.452935	2495.371154
838.768842	2460.083077
839.084706	2538.220962
839.400526	2492.850577
839.716303	2437.397885
840.032037	2452.521346
840.347727	2480.247692
840.663373	2518.056346
840.978977	2565.947308
841.294537	2447.480192
841.610054	2424.795000
841.925527	2530.659231
842.240957	2502.932885
842.556344	2518.056346
842.871687	2482.768269
843.186987	2558.385577
843.502244	2515.535769
843.817458	2460.083077
844.132629	2533.179808
844.447756	2505.453462
844.762840	2513.015192
845.077881	2402.109808
845.392879	2475.206538
845.707833	2439.918462
846.022745	2497.891731
846.337613	2591.153077
846.652438	2490.330000
846.967221	2482.768269
847.281960	2455.041923
847.596656	2528.138654
847.911309	2460.083077
848.225919	2460.083077
848.540485	2495.371154
848.855009	2513.015192
849.169490	2472.685962
849.483928	2475.206538
849.798323	2576.029615
850.112675	2513.015192
850.426984	2545.782692
850.741251	2535.700385
851.055474	2523.097500
851.369654	2467.644808
851.683792	2515.535769
851.997887	2457.562500
852.311938	2507.974038
852.625947	2505.453462
852.939914	2553.344423
853.253837	2543.262115
853.567718	2427.315577
853.881555	2472.685962
854.195350	2432.356731
854.509103	2510.494615
854.822812	2434.877308
855.136479	2513.015192
855.450103	2495.371154
855.763685	2495.371154
856.077224	2475.206538
856.390720	2518.056346
856.704173	2439.918462
857.017584	2447.480192
857.330953	2457.562500
857.644278	2487.809423
857.957561	2487.809423
858.270802	2555.865000
858.584000	2568.467885
858.897155	2543.262115
859.210268	2528.138654
859.523339	2578.550192
859.836367	2523.097500
860.149352	2533.179808
860.462295	2495.371154
860.775195	2528.138654
861.088054	2427.315577
861.400869	2550.823846
861.713642	2450.000769
862.026373	2487.809423
862.339062	2482.768269
862.651708	2477.727115
862.964312	2500.412308
863.276873	2535.700385
863.589392	2462.603654
863.901869	2545.782692
864.214303	2487.809423
864.526696	2510.494615
864.839045	2538.220962
865.151353	2576.029615
865.463619	2437.397885
865.775842	2482.768269
866.088023	2535.700385
866.400162	2487.809423
866.712258	2548.303269
867.024313	2412.192115
867.336325	2475.206538
867.648296	2442.439038
867.960224	2462.603654
868.272110	2502.932885
868.583954	2460.083077
868.895755	2477.727115
869.207515	2535.700385
869.519233	2570.988462
869.830909	2439.918462
870.142542	2530.659231
870.454134	2452.521346
870.765684	2533.179808
871.077191	2576.029615
871.388657	2596.194231
871.700081	2465.124231
872.011463	2555.865000
872.322803	2450.000769
872.634101	2462.603654
872.945357	2518.056346
873.256571	2528.138654
873.567744	2412.192115
873.878874	2490.330000
874.189963	2525.618077
874.501010	2502.932885
874.812015	2598.714808
875.122979	2510.494615
875.433900	2616.358846
875.744780	2543.262115
876.055618	2510.494615
876.366415	2518.056346
876.677169	2480.247692
876.987882	2553.344423
877.298554	2515.535769
877.609183	2525.618077
877.919771	2462.603654
878.230317	2510.494615
878.540822	2480.247692
878.851285	2477.727115
879.161707	2563.426731
879.472087	2520.576923
879.782425	2485.288846
880.092722	2560.906154
880.402977	2386.986346
880.713191	2460.083077
881.023363	2515.535769
881.333494	2507.974038
881.643583	2450.000769
881.953631	2502.932885
882.263637	2450.000769
882.573602	2412.192115
882.883526	2487.809423
883.193408	2495.371154
883.503248	2495.371154
883.813048	2545.782692
884.122806	2565.947308
884.432522	2422.274423
884.742197	2497.891731
885.051831	2553.344423
885.361424	2492.850577
885.670975	2573.509038
885.980485	2414.712692
886.289954	2548.303269
886.599382	2505.453462
886.908768	2525.618077
887.218113	2520.576923
887.527417	2533.179808
887.836680	2442.439038
888.145901	2507.974038
888.455082	2538.220962
888.764221	2510.494615
889.073319	2460.083077
889.382376	2495.371154
889.691392	2553.344423
890.000366	2502.932885
890.309300	2500.412308
890.618193	2465.124231
890.927044	2447.480192
891.235855	2500.412308
891.544625	2535.700385
891.853353	2581.070769
892.162041	2528.138654
892.470687	2492.850577
892.779293	2510.494615
893.087858	2472.685962
893.396381	2500.412308
893.704864	2467.644808
894.013306	2520.576923
894.321707	2429.836154
894.630068	2450.000769
894.938387	2460.083077
895.246665	2513.015192
895.554903	2525.618077
895.863100	2429.836154
896.171256	2455.041923
896.479371	2404.630385
896.787446	2495.371154
897.095480	2523.097500
897.403473	2470.165385
897.711425	2472.685962
898.019336	2497.891731
898.327207	2507.974038
898.635038	2500.412308
898.942827	2550.823846
899.250576	2540.741538
899.558284	2477.727115
899.865952	2442.439038
900.173579	2626.441154
900.481165	2419.753846
900.788711	2535.700385
901.096216	2487.809423
901.403681	2470.165385
901.711105	2497.891731
902.018489	2444.959615
902.325832	2523.097500
902.633135	2427.315577
902.940397	2470.165385
903.247619	2528.138654
903.554800	2502.932885
903.861941	2550.823846
904.169041	2472.685962
904.476101	2560.906154
904.783121	2482.768269
905.090100	2500.412308
905.397039	2505.453462
905.703938	2439.918462
906.010796	2419.753846
906.317614	2450.000769
906.624391	2465.124231
906.931129	2523.097500
907.237826	2500.412308
907.544483	2530.659231
907.851099	2434.877308
908.157675	2477.727115
908.464211	2455.041923
908.770707	2475.206538
909.077163	2465.124231
909.383578	2457.562500
909.689954	2502.932885
909.996289	2583.591346
910.302584	2482.768269
910.608839	2528.138654
910.915054	2482.768269
911.221229	2434.877308
911.527363	2434.877308
911.833458	2444.959615
912.139513	2432.356731
912.445527	2424.795000
912.751502	2457.562500
913.057436	2492.850577
913.363331	2553.344423
913.669186	2444.959615
913.975000	2397.068654
914.280775	2502.932885
914.586510	2450.000769
914.892205	2550.823846
915.197859	2492.850577
915.503475	2467.644808
915.809050	2545.782692
916.114585	2495.371154
916.420081	2429.836154
916.725536	2460.083077
917.030952	2533.179808
917.336328	2472.685962
917.641665	2518.056346
917.946961	2581.070769
918.252218	2465.124231
918.557435	2490.330000
918.862612	2480.247692
919.167750	2538.220962
919.472848	2495.371154
919.777906	2427.315577
920.082925	2480.247692
920.387904	2475.206538
920.692843	2513.015192
920.997743	2497.891731
921.302603	2502.932885
921.607423	2490.330000
921.912204	2407.150962
922.216946	2399.589231
922.521647	2422.274423
922.826310	2480.247692
923.130932	2570.988462
923.435516	2502.932885
923.740059	2520.576923
924.044564	2495.371154
924.349028	2480.247692
924.653454	2465.124231
924.957840	2450.000769
925.262186	2510.494615
925.566493	2497.891731
925.870761	2455.041923
926.174989	2513.015192
926.479178	2540.741538
926.783328	2540.741538
927.087438	2528.138654
927.391509	2412.192115
927.695541	2429.836154
927.999533	2490.330000
928.303486	2444.959615
928.607400	2548.303269
928.911275	2465.124231
929.215110	2515.535769
929.518906	2500.412308
929.822663	2497.891731
930.126381	2548.303269
930.430060	2487.809423
930.733699	2523.097500
931.037299	2495.371154
931.340861	2533.179808
931.644383	2492.850577
931.947866	2477.727115
932.251309	2465.124231
932.554714	2543.262115
932.858080	2465.124231
933.161407	2550.823846
933.464694	2573.509038
933.767943	2502.932885
934.071153	2505.453462
934.374323	2548.303269
934.677455	2470.165385
934.980548	2490.330000
935.283602	2530.659231
935.586617	2563.426731
935.889593	2497.891731
936.192530	2460.083077
936.495428	2414.712692
936.798287	2394.548077
937.101108	2530.659231
937.403890	2523.097500
937.706632	2525.618077
938.009336	2523.097500
938.312002	2467.644808
938.614628	2586.111923
938.917216	2419.753846
939.219765	2447.480192
939.522275	2444.959615
939.824747	2432.356731
940.127179	2548.303269
940.429573	2450.000769
940.731929	2472.685962
941.034246	2412.192115
941.336524	2394.548077
941.638763	2502.932885
941.940964	2450.000769
942.243126	2515.535769
942.545250	2470.165385
942.847335	2487.809423
943.149381	2450.000769
943.451389	2404.630385
943.753359	2568.467885
944.055290	2450.000769
944.357182	2518.056346
944.659036	2545.782692
944.960851	2432.356731
945.262628	2417.233269
945.564367	2485.288846
945.866067	2497.891731
946.167729	2507.974038
946.469352	2475.206538
946.770937	2528.138654
947.072484	2462.603654
947.373992	2518.056346
947.675462	2462.603654
947.976893	2452.521346
948.278286	2437.397885
948.579641	2434.877308
948.880958	2588.632500
949.182236	2475.206538
949.483476	2591.153077
949.784678	2533.179808
950.085841	2553.344423
950.386967	2417.233269
950.688054	2447.480192
950.989103	2465.124231
951.290114	2455.041923
951.591087	2485.288846
951.892021	2528.138654
952.192917	2528.138654
952.493776	2482.768269
952.794596	2437.397885
953.095378	2528.138654
953.396122	2518.056346
953.696828	2513.015192
953.997496	2505.453462
954.298126	2523.097500
954.598718	2447.480192
954.899272	2477.727115
955.199788	2510.494615
955.500266	2482.768269
955.800706	2545.782692
956.101108	2523.097500
956.401472	2533.179808
956.701798	2480.247692
957.002087	2480.247692
957.302337	2371.862885
957.602550	2510.494615
957.902724	2485.288846
958.202861	2434.877308
958.502960	2515.535769
958.803022	2455.041923
959.103045	2520.576923
959.403031	2457.562500
959.702979	2507.974038
960.002889	2513.015192
960.302762	2472.685962
960.602596	2465.124231
960.902393	2583.591346
961.202153	2472.685962
961.501875	2465.124231
961.801559	2505.453462
962.101205	2513.015192
962.400814	2495.371154
962.700385	2434.877308
962.999918	2568.467885
963.299414	2472.685962
963.598873	2525.618077
963.898293	2548.303269
964.197677	2538.220962
964.497022	2432.356731
964.796331	2530.659231
965.095601	2381.945192
965.394835	2497.891731
965.694030	2573.509038
965.993189	2555.865000
966.292309	2434.877308
966.591393	2414.712692
966.890439	2543.262115
967.189447	2545.782692
967.488419	2487.809423
967.787353	2518.056346
968.086249	2507.974038
968.385108	2480.247692
968.683930	2427.315577
968.982714	2457.562500
969.281462	2447.480192
969.580172	2492.850577
969.878844	2480.247692
970.177480	2528.138654
970.476078	2548.303269
970.774639	2432.356731
971.073162	2621.400000
971.371649	2550.823846
971.670098	2513.015192
971.968510	2452.521346
972.266885	2465.124231
972.565223	2480.247692
972.863524	2475.206538
973.161788	2530.659231
973.460014	2510.494615
973.758204	2447.480192
974.056356	2485.288846
974.354471	2482.768269
974.652550	2505.453462
974.950591	2550.823846
975.248595	2447.480192
975.546563	2467.644808
975.844493	2460.083077
976.142386	2492.850577
976.440243	2470.165385
976.738062	2487.809423
977.035845	2462.603654
977.333590	2465.124231
977.631299	2510.494615
977.928971	2520.576923
978.226606	2477.727115
978.524204	2404.630385
978.821765	2442.439038
979.119290	2404.630385
979.416777	2560.906154
979.714228	2543.262115
980.011642	2497.891731
980.309020	2495.371154
980.606360	2573.509038
980.903664	2434.877308
981.200931	2444.959615
981.498162	2422.274423
981.795356	2442.439038
982.092513	2394.548077
982.389633	2487.809423
982.686717	2452.521346
982.983764	2540.741538
983.280775	2450.000769
983.577749	2487.809423
983.874686	2492.850577
984.171587	2500.412308
984.468451	2535.700385
984.765279	2515.535769
985.062070	2492.850577
985.358824	2505.453462
985.655543	2455.041923
985.952224	2492.850577
986.248869	2518.056346
986.545478	2444.959615
986.842050	2523.097500
987.138586	2457.562500
987.435086	2525.618077
987.731549	2376.904038
988.027975	2487.809423
988.324366	2439.918462
988.620719	2487.809423
988.917037	2432.356731
989.213318	2518.056346
989.509563	2502.932885
989.805772	2480.247692
990.101944	2593.673654
990.398080	2495.371154
990.694180	2447.480192
990.990244	2525.618077
991.286271	2530.659231
991.582262	2455.041923
991.878217	2497.891731
992.174136	2497.891731
992.470019	2477.727115
992.765865	2495.371154
993.061676	2497.891731
993.357450	2397.068654
993.653188	2588.632500
993.948890	2497.891731
994.244556	2593.673654
994.540186	2477.727115
994.835780	2472.685962
995.131337	2497.891731
995.426859	2482.768269
995.722345	2480.247692
996.017795	2523.097500
996.313208	2485.288846
996.608586	2452.521346
996.903928	2510.494615
997.199234	2480.247692
997.494504	2550.823846
997.789738	2482.768269
998.084936	2444.959615
998.380099	2555.865000
998.675225	2520.576923
998.970316	2424.795000
999.265371	2515.535769
999.560390	2477.727115
999.855373	2497.891731
1000.150320	2505.453462
1000.445232	2538.220962
1000.740108	2412.192115
1001.034948	2528.138654
1001.329752	2543.262115
1001.624521	2482.768269
1001.919254	2513.015192
1002.213951	2565.947308
1002.508613	2392.027500
1002.803239	2480.247692
1003.097829	2414.712692
1003.392384	2495.371154
1003.686903	2513.015192
1003.981386	2525.618077
1004.275834	2444.959615
1004.570246	2442.439038
1004.864623	2412.192115
1005.158964	2424.795000
1005.453270	2467.644808
1005.747540	2528.138654
1006.041775	2429.836154
1006.335974	2455.041923
1006.630138	2507.974038
1006.924266	2447.480192
1007.218359	2462.603654
1007.512416	2495.371154
1007.806438	2563.426731
1008.100425	2457.562500
1008.394376	2432.356731
1008.688292	2520.576923
1008.982172	2447.480192
1009.276017	2545.782692
1009.569827	2477.727115
1009.863602	2439.918462
1010.157341	2414.712692
1010.451045	2518.056346
1010.744714	2507.974038
1011.038347	2588.632500
1011.331945	2409.671538
1011.625508	2427.315577
1011.919036	2452.521346
1012.212528	2533.179808
1012.505986	2563.426731
1012.799408	2525.618077
1013.092795	2487.809423
1013.386147	2500.412308
1013.679464	2500.412308
1013.972745	2434.877308
1014.265992	2563.426731
1014.559204	2452.521346
1014.852380	2550.823846
1015.145521	2444.959615
1015.438628	2487.809423
1015.731699	2399.589231
1016.024736	2510.494615
1016.317737	2540.741538
1016.610703	2507.974038
1016.903635	2417.233269
1017.196531	2470.165385
1017.489393	2475.206538
1017.782219	2560.906154
1018.075011	2467.644808
1018.367768	2442.439038
1018.660490	2465.124231
1018.953177	2465.124231
1019.245829	2465.124231
