Dividing Wavelength (nm)	Counts (n)	Blue Motor Position (mm): 0.000000	Red Motor Position (mm): 0.900000	
326.493990	2074.434808
326.888308	2074.434808
327.282561	2074.434808
327.676750	2071.914231
328.070874	2046.708462
328.464933	2109.722885
328.858929	2061.831923
329.252859	2029.064423
329.646726	2029.064423
330.040528	2046.708462
330.434265	2087.037692
330.827938	2150.052115
331.221547	2127.366923
331.615091	2137.449231
332.008571	2253.395769
332.401986	2162.655000
332.795338	2283.642692
333.188625	2202.984231
333.581847	2253.395769
333.975006	2316.410192
334.368100	2331.533654
334.761129	2281.122115
335.154095	2281.122115
335.546996	2407.150962
335.939833	2341.615962
336.332606	2374.383462
336.725315	2303.807308
337.117960	2419.753846
337.510540	2427.315577
337.903056	2344.136538
338.295508	2407.150962
338.687896	2341.615962
339.080220	2455.041923
339.472480	2568.467885
339.864676	2427.315577
340.256807	2467.644808
340.648875	2450.000769
341.040879	2533.179808
341.432818	2402.109808
341.824694	2497.891731
342.216506	2507.974038
342.608253	2525.618077
342.999937	2419.753846
343.391557	2510.494615
343.783113	2472.685962
344.174605	2462.603654
344.566033	2376.904038
344.957397	2439.918462
345.348697	2515.535769
345.739934	2525.618077
346.131106	2535.700385
346.522215	2487.809423
346.913260	2500.412308
347.304241	2533.179808
347.695159	2487.809423
348.086012	2407.150962
348.476802	2432.356731
348.867528	2364.301154
349.258191	2480.247692
349.648789	2452.521346
350.039324	2432.356731
350.429796	2409.671538
350.820203	2482.768269
351.210548	2450.000769
351.600828	2450.000769
351.991045	2349.177692
352.381198	2490.330000
352.771288	2404.630385
353.161314	2470.165385
353.551276	2465.124231
353.941175	2460.083077
354.331010	2485.288846
354.720782	2442.439038
355.110490	2424.795000
355.500135	2432.356731
355.889717	2399.589231
356.279235	2497.891731
356.668689	2450.000769
357.058080	2518.056346
357.447408	2455.041923
357.836672	2429.836154
358.225873	2407.150962
358.615010	2409.671538
359.004084	2457.562500
359.393095	2427.315577
359.782043	2535.700385
360.170927	2366.821731
360.559748	2495.371154
360.948505	2407.150962
361.337199	2482.768269
361.725830	2447.480192
362.114398	2412.192115
362.502903	2452.521346
362.891344	2371.862885
363.279722	2419.753846
363.668037	2472.685962
364.056289	2450.000769
364.444478	2414.712692
364.832603	2485.288846
365.220665	2404.630385
365.608665	2460.083077
365.996601	2414.712692
366.384474	2427.315577
366.772284	2437.397885
367.160031	2513.015192
367.547715	2500.412308
367.935336	2477.727115
368.322893	2381.945192
368.710388	2397.068654
369.097820	2505.453462
369.485189	2475.206538
369.872495	2502.932885
370.259738	2475.206538
370.646918	2482.768269
371.034035	2457.562500
371.421090	2442.439038
371.808081	2434.877308
372.195010	2477.727115
372.581875	2414.712692
372.968678	2432.356731
373.355418	2520.576923
373.742096	2492.850577
374.128710	2492.850577
374.515262	2467.644808
374.901751	2455.041923
375.288177	2530.659231
375.674540	2429.836154
376.060841	2490.330000
376.447079	2487.809423
376.833254	2437.397885
377.219367	2460.083077
377.605417	2465.124231
377.991404	2439.918462
378.377329	2502.932885
378.763191	2417.233269
379.148991	2490.330000
379.534727	2462.603654
379.920402	2470.165385
380.306013	2460.083077
380.691563	2457.562500
381.077049	2439.918462
381.462474	2389.506923
381.847835	2450.000769
382.233134	2450.000769
382.618371	2447.480192
383.003545	2429.836154
383.388657	2399.589231
383.773706	2455.041923
384.158693	2399.589231
384.543618	2482.768269
384.928480	2490.330000
385.313280	2490.330000
385.698017	2497.891731
386.082692	2344.136538
386.467305	2460.083077
386.851856	2525.618077
387.236344	2455.041923
387.620770	2487.809423
388.005133	2477.727115
388.389435	2419.753846
388.773674	2457.562500
389.157851	2482.768269
389.541965	2487.809423
389.926018	2528.138654
390.310008	2490.330000
390.693936	2467.644808
391.077802	2500.412308
391.461606	2467.644808
391.845348	2437.397885
392.229027	2485.288846
392.612645	2497.891731
392.996200	2424.795000
393.379694	2513.015192
393.763125	2397.068654
394.146494	2513.015192
394.529801	2573.509038
394.913047	2417.233269
395.296230	2485.288846
395.679351	2427.315577
396.062410	2530.659231
396.445408	2444.959615
396.828343	2523.097500
397.211217	2427.315577
397.594028	2472.685962
397.976778	2450.000769
398.359466	2477.727115
398.742092	2374.383462
399.124656	2518.056346
399.507158	2429.836154
399.889598	2470.165385
400.271977	2518.056346
400.654294	2402.109808
401.036549	2528.138654
401.418742	2414.712692
401.800874	2480.247692
402.182944	2467.644808
402.564952	2429.836154
402.946898	2427.315577
403.328783	2507.974038
403.710606	2470.165385
404.092367	2492.850577
404.474067	2409.671538
404.855705	2538.220962
405.237282	2472.685962
405.618797	2460.083077
406.000250	2409.671538
406.381642	2495.371154
406.762972	2386.986346
407.144240	2550.823846
407.525447	2470.165385
407.906593	2470.165385
408.287677	2472.685962
408.668700	2518.056346
409.049661	2465.124231
409.430560	2399.589231
409.811399	2485.288846
410.192176	2475.206538
410.572891	2457.562500
410.953545	2462.603654
411.334138	2500.412308
411.714669	2487.809423
412.095139	2437.397885
412.475547	2392.027500
412.855894	2460.083077
413.236180	2450.000769
413.616405	2467.644808
413.996568	2467.644808
414.376670	2389.506923
414.756711	2460.083077
415.136691	2510.494615
415.516609	2507.974038
415.896466	2513.015192
416.276262	2500.412308
416.655997	2394.548077
417.035670	2520.576923
417.415283	2502.932885
417.794834	2465.124231
418.174324	2414.712692
418.553753	2397.068654
418.933121	2530.659231
419.312428	2540.741538
419.691674	2482.768269
420.070859	2427.315577
420.449983	2513.015192
420.829045	2444.959615
421.208047	2490.330000
421.586988	2470.165385
421.965867	2422.274423
422.344686	2500.412308
422.723444	2467.644808
423.102141	2520.576923
423.480777	2510.494615
423.859352	2480.247692
424.237866	2515.535769
424.616319	2518.056346
424.994712	2444.959615
425.373044	2485.288846
425.751314	2495.371154
426.129524	2518.056346
426.507673	2482.768269
426.885762	2432.356731
427.263789	2442.439038
427.641756	2412.192115
428.019662	2513.015192
428.397508	2429.836154
428.775292	2414.712692
429.153016	2450.000769
429.530679	2460.083077
429.908282	2434.877308
430.285824	2520.576923
430.663305	2487.809423
431.040726	2470.165385
431.418086	2465.124231
431.795385	2528.138654
432.172624	2530.659231
432.549802	2482.768269
432.926920	2480.247692
433.303977	2533.179808
433.680974	2376.904038
434.057910	2485.288846
434.434786	2424.795000
434.811601	2480.247692
435.188355	2500.412308
435.565050	2462.603654
435.941683	2558.385577
436.318257	2447.480192
436.694770	2495.371154
437.071222	2500.412308
437.447614	2465.124231
437.823946	2447.480192
438.200218	2477.727115
438.576429	2518.056346
438.952580	2530.659231
439.328670	2543.262115
439.704700	2533.179808
440.080670	2528.138654
440.456580	2568.467885
440.832429	2470.165385
441.208218	2540.741538
441.583947	2465.124231
441.959616	2492.850577
442.335224	2472.685962
442.710773	2470.165385
443.086261	2500.412308
443.461689	2502.932885
443.837057	2591.153077
444.212365	2500.412308
444.587612	2591.153077
444.962800	2369.342308
445.337927	2480.247692
445.712995	2465.124231
446.088002	2485.288846
446.462949	2460.083077
446.837837	2545.782692
447.212664	2470.165385
447.587431	2593.673654
447.962139	2462.603654
448.336786	2490.330000
448.711374	2492.850577
449.085901	2444.959615
449.460369	2530.659231
449.834776	2424.795000
450.209124	2525.618077
450.583412	2565.947308
450.957640	2482.768269
451.331808	2525.618077
451.705917	2447.480192
452.079965	2497.891731
452.453954	2397.068654
452.827883	2475.206538
453.201752	2518.056346
453.575562	2497.891731
453.949311	2452.521346
454.323001	2452.521346
454.696632	2538.220962
455.070202	2558.385577
455.443713	2452.521346
455.817164	2495.371154
456.190556	2540.741538
456.563888	2497.891731
456.937160	2467.644808
457.310373	2520.576923
457.683526	2437.397885
458.056619	2540.741538
458.429653	2477.727115
458.802628	2533.179808
459.175542	2560.906154
459.548398	2477.727115
459.921194	2525.618077
460.293930	2543.262115
460.666607	2505.453462
461.039224	2475.206538
461.411782	2538.220962
461.784280	2538.220962
462.156719	2389.506923
462.529099	2321.451346
462.901419	2528.138654
463.273680	2472.685962
463.645882	2558.385577
464.018024	2495.371154
464.390106	2490.330000
464.762130	2513.015192
465.134094	2444.959615
465.505999	2477.727115
465.877845	2447.480192
466.249631	2540.741538
466.621358	2500.412308
466.993026	2573.509038
467.364634	2487.809423
467.736184	2528.138654
468.107674	2581.070769
468.479105	2565.947308
468.850477	2515.535769
469.221790	2507.974038
469.593043	2513.015192
469.964238	2555.865000
470.335373	2573.509038
470.706449	2482.768269
471.077467	2477.727115
471.448425	2444.959615
471.819324	2402.109808
472.190164	2515.535769
472.560945	2525.618077
472.931667	2492.850577
473.302330	2457.562500
473.672934	2550.823846
474.043479	2502.932885
474.413965	2543.262115
474.784393	2429.836154
475.154761	2492.850577
475.525070	2550.823846
475.895321	2470.165385
476.265513	2475.206538
476.635645	2414.712692
477.005719	2475.206538
477.375734	2500.412308
477.745691	2560.906154
478.115588	2548.303269
478.485427	2492.850577
478.855207	2417.233269
479.224928	2515.535769
479.594591	2480.247692
479.964194	2507.974038
480.333739	2384.465769
480.703226	2427.315577
481.072653	2467.644808
481.442022	2444.959615
481.811333	2462.603654
482.180584	2407.150962
482.549777	2492.850577
482.918912	2477.727115
483.287988	2518.056346
483.657005	2485.288846
484.025964	2548.303269
484.394864	2490.330000
484.763706	2492.850577
485.132489	2492.850577
485.501213	2553.344423
485.869879	2502.932885
486.238487	2576.029615
486.607036	2495.371154
486.975527	2510.494615
487.343959	2505.453462
487.712333	2515.535769
488.080648	2487.809423
488.448905	2487.809423
488.817104	2460.083077
489.185244	2558.385577
489.553326	2497.891731
489.921350	2442.439038
490.289315	2497.891731
490.657222	2540.741538
491.025070	2422.274423
491.392861	2507.974038
491.760593	2510.494615
492.128267	2447.480192
492.495883	2550.823846
492.863440	2510.494615
493.230939	2533.179808
493.598380	2535.700385
493.965763	2568.467885
494.333088	2530.659231
494.700354	2550.823846
495.067563	2525.618077
495.434713	2568.467885
495.801805	2518.056346
496.168839	2480.247692
496.535815	2515.535769
496.902733	2462.603654
497.269593	2528.138654
497.636395	2518.056346
498.003139	2535.700385
498.369825	2457.562500
498.736453	2530.659231
499.103023	2417.233269
499.469535	2578.550192
499.835989	2427.315577
500.202385	2482.768269
500.568723	2480.247692
500.935003	2538.220962
501.301226	2502.932885
501.667390	2513.015192
502.033497	2450.000769
502.399546	2485.288846
502.765537	2523.097500
503.131470	2515.535769
503.497345	2480.247692
503.863163	2470.165385
504.228923	2432.356731
504.594625	2505.453462
504.960269	2462.603654
505.325856	2439.918462
505.691385	2455.041923
506.056856	2540.741538
506.422270	2548.303269
506.787625	2520.576923
507.152924	2495.371154
507.518164	2497.891731
507.883347	2439.918462
508.248472	2452.521346
508.613540	2530.659231
508.978550	2578.550192
509.343503	2487.809423
509.708398	2535.700385
510.073236	2530.659231
510.438016	2460.083077
510.802738	2407.150962
511.167403	2634.002885
511.532010	2502.932885
511.896561	2505.453462
512.261053	2399.589231
512.625488	2553.344423
512.989866	2576.029615
513.354186	2475.206538
513.718449	2518.056346
514.082655	2545.782692
514.446803	2439.918462
514.810894	2462.603654
515.174927	2442.439038
515.538904	2497.891731
515.902822	2477.727115
516.266684	2429.836154
516.630488	2500.412308
516.994235	2439.918462
517.357925	2402.109808
517.721558	2442.439038
518.085133	2581.070769
518.448651	2540.741538
518.812112	2475.206538
519.175516	2576.029615
519.538863	2485.288846
519.902152	2505.453462
520.265385	2545.782692
520.628560	2457.562500
520.991678	2477.727115
521.354739	2482.768269
521.717743	2513.015192
522.080690	2437.397885
522.443580	2553.344423
522.806413	2472.685962
523.169189	2581.070769
523.531908	2500.412308
523.894569	2533.179808
524.257174	2444.959615
524.619722	2460.083077
524.982213	2550.823846
525.344647	2515.535769
525.707025	2485.288846
526.069345	2538.220962
526.431608	2434.877308
526.793815	2419.753846
527.155964	2583.591346
527.518057	2482.768269
527.880093	2518.056346
528.242072	2447.480192
528.603995	2505.453462
528.965860	2485.288846
529.327669	2530.659231
529.689421	2502.932885
530.051117	2447.480192
530.412755	2467.644808
530.774337	2528.138654
531.135862	2480.247692
531.497331	2515.535769
531.858743	2588.632500
532.220098	2432.356731
532.581396	2518.056346
532.942638	2495.371154
533.303824	2568.467885
533.664953	2563.426731
534.026025	2520.576923
534.387040	2457.562500
534.747999	2553.344423
535.108902	2452.521346
535.469748	2480.247692
535.830537	2470.165385
536.191270	2442.439038
536.551947	2450.000769
536.912567	2505.453462
537.273131	2399.589231
537.633638	2530.659231
537.994089	2424.795000
538.354483	2611.317692
538.714821	2523.097500
539.075103	2460.083077
539.435328	2495.371154
539.795497	2497.891731
540.155609	2424.795000
540.515665	2455.041923
540.875665	2565.947308
541.235609	2513.015192
541.595496	2513.015192
541.955328	2482.768269
542.315102	2457.562500
542.674821	2497.891731
543.034483	2525.618077
543.394090	2490.330000
543.753640	2485.288846
544.113134	2497.891731
544.472571	2528.138654
544.831953	2392.027500
545.191278	2596.194231
545.550548	2568.467885
545.909761	2548.303269
546.268918	2507.974038
546.628019	2465.124231
546.987064	2462.603654
547.346053	2502.932885
547.704986	2543.262115
548.063863	2462.603654
548.422684	2528.138654
548.781449	2404.630385
549.140158	2530.659231
549.498811	2500.412308
549.857408	2581.070769
550.215949	2533.179808
550.574434	2492.850577
550.932864	2439.918462
551.291237	2570.988462
551.649555	2424.795000
552.007817	2535.700385
552.366022	2530.659231
552.724173	2490.330000
553.082267	2555.865000
553.440305	2447.480192
553.798288	2502.932885
554.156215	2545.782692
554.514086	2444.959615
554.871902	2563.426731
555.229661	2533.179808
555.587365	2510.494615
555.945014	2548.303269
556.302606	2412.192115
556.660143	2480.247692
557.017625	2465.124231
557.375050	2520.576923
557.732421	2543.262115
558.089735	2505.453462
558.446994	2505.453462
558.804197	2568.467885
559.161345	2444.959615
559.518437	2520.576923
559.875474	2523.097500
560.232455	2507.974038
560.589381	2573.509038
560.946251	2427.315577
561.303065	2480.247692
561.659825	2455.041923
562.016528	2437.397885
562.373177	2505.453462
562.729770	2518.056346
563.086307	2480.247692
563.442789	2492.850577
563.799216	2553.344423
564.155587	2548.303269
564.511904	2538.220962
564.868164	2545.782692
565.224370	2495.371154
565.580520	2485.288846
565.936615	2528.138654
566.292654	2502.932885
566.648638	2472.685962
567.004567	2507.974038
567.360441	2533.179808
567.716260	2543.262115
568.072023	2515.535769
568.427732	2434.877308
568.783385	2432.356731
569.138982	2439.918462
569.494525	2500.412308
569.850013	2386.986346
570.205445	2492.850577
570.560823	2465.124231
570.916145	2490.330000
571.271412	2500.412308
571.626625	2513.015192
571.981782	2470.165385
572.336884	2432.356731
572.691931	2520.576923
573.046923	2495.371154
573.401860	2505.453462
573.756743	2485.288846
574.111570	2581.070769
574.466342	2530.659231
574.821059	2528.138654
575.175722	2528.138654
575.530330	2477.727115
575.884882	2545.782692
576.239380	2470.165385
576.593823	2558.385577
576.948211	2563.426731
577.302544	2492.850577
577.656823	2513.015192
578.011047	2495.371154
578.365216	2573.509038
578.719330	2530.659231
579.073389	2455.041923
579.427394	2540.741538
579.781344	2558.385577
580.135239	2505.453462
580.489080	2495.371154
580.842866	2543.262115
581.196597	2409.671538
581.550273	2462.603654
581.903895	2381.945192
582.257463	2472.685962
582.610975	2485.288846
582.964434	2560.906154
583.317837	2560.906154
583.671186	2515.535769
584.024481	2480.247692
584.377721	2497.891731
584.730906	2500.412308
585.084037	2596.194231
585.437113	2482.768269
585.790135	2520.576923
586.143103	2497.891731
586.496016	2495.371154
586.848874	2467.644808
587.201679	2485.288846
587.554428	2530.659231
587.907124	2437.397885
588.259765	2492.850577
588.612352	2432.356731
588.964884	2523.097500
589.317362	2520.576923
589.669786	2528.138654
590.022155	2525.618077
590.374470	2460.083077
590.726731	2505.453462
591.078937	2444.959615
591.431090	2507.974038
591.783188	2518.056346
592.135232	2450.000769
592.487222	2553.344423
592.839157	2543.262115
593.191038	2553.344423
593.542866	2487.809423
593.894639	2565.947308
594.246358	2490.330000
594.598022	2429.836154
594.949633	2465.124231
595.301190	2523.097500
595.652692	2457.562500
596.004141	2530.659231
596.355535	2565.947308
596.706876	2502.932885
597.058162	2535.700385
597.409395	2513.015192
597.760573	2460.083077
598.111698	2477.727115
598.462768	2545.782692
598.813785	2608.797115
599.164748	2480.247692
599.515657	2535.700385
599.866511	2492.850577
600.217312	2553.344423
600.568060	2533.179808
600.918753	2444.959615
601.269392	2533.179808
601.619978	2540.741538
601.970510	2475.206538
602.320988	2460.083077
602.671412	2558.385577
603.021783	2555.865000
603.372100	2480.247692
603.722363	2492.850577
604.072572	2490.330000
604.422728	2523.097500
604.772830	2432.356731
605.122878	2470.165385
605.472872	2515.535769
605.822813	2565.947308
606.172701	2470.165385
606.522534	2490.330000
606.872314	2439.918462
607.222041	2608.797115
607.571714	2432.356731
607.921333	2545.782692
608.270899	2450.000769
608.620411	2550.823846
608.969870	2477.727115
609.319276	2565.947308
609.668627	2477.727115
610.017926	2545.782692
610.367171	2510.494615
610.716362	2427.315577
611.065500	2558.385577
611.414585	2452.521346
611.763616	2523.097500
612.112594	2465.124231
612.461518	2427.315577
612.810389	2548.303269
613.159207	2439.918462
613.507971	2359.260000
613.856682	2507.974038
614.205340	2533.179808
614.553945	2482.768269
614.902496	2439.918462
615.250994	2525.618077
615.599439	2472.685962
615.947830	2490.330000
616.296169	2434.877308
616.644454	2475.206538
616.992686	2523.097500
617.340864	2500.412308
617.688990	2495.371154
618.037063	2523.097500
618.385082	2518.056346
618.733048	2424.795000
619.080961	2515.535769
619.428821	2533.179808
619.776628	2444.959615
620.124382	2482.768269
620.472083	2543.262115
620.819731	2452.521346
621.167326	2480.247692
621.514868	2518.056346
621.862357	2495.371154
622.209793	2434.877308
622.557176	2530.659231
622.904506	2530.659231
623.251783	2477.727115
623.599007	2397.068654
623.946179	2497.891731
624.293297	2439.918462
624.640363	2455.041923
624.987376	2472.685962
625.334336	2507.974038
625.681243	2507.974038
626.028097	2540.741538
626.374899	2507.974038
626.721647	2550.823846
627.068343	2502.932885
627.414987	2497.891731
627.761577	2470.165385
628.108115	2447.480192
628.454600	2530.659231
628.801032	2505.453462
629.147412	2533.179808
629.493739	2540.741538
629.840014	2523.097500
630.186236	2540.741538
630.532405	2482.768269
630.878521	2475.206538
631.224585	2510.494615
631.570597	2460.083077
631.916556	2480.247692
632.262462	2485.288846
632.608316	2573.509038
632.954117	2570.988462
633.299866	2505.453462
633.645562	2455.041923
633.991206	2467.644808
634.336797	2480.247692
634.682336	2424.795000
635.027823	2487.809423
635.373257	2598.714808
635.718639	2442.439038
636.063968	2490.330000
636.409245	2442.439038
636.754470	2432.356731
637.099642	2568.467885
637.444762	2460.083077
637.789829	2555.865000
638.134845	2434.877308
638.479808	2510.494615
638.824719	2467.644808
639.169577	2576.029615
639.514383	2513.015192
639.859137	2543.262115
640.203839	2455.041923
640.548489	2397.068654
640.893086	2558.385577
641.237632	2429.836154
641.582125	2520.576923
641.926566	2492.850577
642.270955	2487.809423
642.615292	2538.220962
642.959576	2500.412308
643.303809	2510.494615
643.647990	2480.247692
643.992118	2482.768269
644.336195	2518.056346
644.680219	2530.659231
645.024192	2565.947308
645.368112	2510.494615
645.711981	2515.535769
646.055797	2407.150962
646.399562	2505.453462
646.743274	2467.644808
647.086935	2495.371154
647.430544	2502.932885
647.774101	2477.727115
648.117606	2452.521346
648.461059	2543.262115
648.804460	2583.591346
649.147810	2540.741538
649.491108	2462.603654
649.834354	2510.494615
650.177548	2480.247692
650.520690	2434.877308
650.863781	2450.000769
651.206820	2611.317692
651.549807	2525.618077
651.892742	2530.659231
652.235626	2427.315577
652.578458	2399.589231
652.921238	2510.494615
653.263967	2442.439038
653.606644	2475.206538
653.949269	2462.603654
654.291843	2495.371154
654.634365	2545.782692
654.976836	2480.247692
655.319255	2548.303269
655.661622	2470.165385
656.003938	2507.974038
656.346203	2513.015192
656.688416	2576.029615
657.030577	2477.727115
657.372687	2465.124231
657.714746	2447.480192
658.056753	2470.165385
658.398708	2427.315577
658.740612	2538.220962
659.082465	2548.303269
659.424266	2528.138654
659.766016	2510.494615
660.107715	2492.850577
660.449362	2497.891731
660.790958	2533.179808
661.132503	2442.439038
661.473996	2505.453462
661.815438	2470.165385
662.156829	2548.303269
662.498168	2555.865000
662.839456	2555.865000
663.180693	2533.179808
663.521879	2490.330000
663.863013	2502.932885
664.204097	2513.015192
664.545129	2427.315577
664.886110	2490.330000
665.227040	2515.535769
665.567918	2500.412308
665.908746	2424.795000
666.249522	2497.891731
666.590248	2510.494615
666.930922	2598.714808
667.271545	2419.753846
667.612118	2533.179808
667.952639	2538.220962
668.293109	2434.877308
668.633528	2407.150962
668.973896	2515.535769
669.314213	2515.535769
669.654480	2553.344423
669.994695	2487.809423
670.334859	2523.097500
670.674973	2513.015192
671.015035	2533.179808
671.355047	2490.330000
671.695008	2507.974038
672.034918	2500.412308
672.374777	2515.535769
672.714585	2480.247692
673.054342	2490.330000
673.394049	2472.685962
673.733705	2434.877308
674.073310	2427.315577
674.412864	2525.618077
674.752368	2530.659231
675.091820	2475.206538
675.431223	2497.891731
675.770574	2502.932885
676.109875	2563.426731
676.449125	2525.618077
676.788324	2457.562500
677.127473	2533.179808
677.466571	2444.959615
677.805619	2550.823846
678.144616	2457.562500
678.483562	2502.932885
678.822458	2576.029615
679.161303	2462.603654
679.500098	2565.947308
679.838842	2573.509038
680.177535	2540.741538
680.516179	2558.385577
680.854771	2470.165385
681.193314	2452.521346
681.531805	2570.988462
681.870247	2520.576923
682.208638	2513.015192
682.546978	2404.630385
682.885268	2586.111923
683.223508	2515.535769
683.561697	2510.494615
683.899836	2515.535769
684.237925	2462.603654
684.575963	2538.220962
684.913951	2558.385577
685.251889	2510.494615
685.589776	2523.097500
685.927614	2560.906154
686.265401	2513.015192
686.603137	2573.509038
686.940824	2490.330000
687.278460	2520.576923
687.616046	2444.959615
687.953582	2555.865000
688.291068	2505.453462
688.628504	2545.782692
688.965889	2520.576923
689.303224	2528.138654
689.640510	2447.480192
689.977745	2392.027500
690.314930	2543.262115
690.652065	2520.576923
690.989150	2452.521346
691.326185	2477.727115
691.663170	2450.000769
692.000105	2480.247692
692.336990	2586.111923
692.673825	2505.453462
693.010610	2533.179808
693.347345	2429.836154
693.684030	2485.288846
694.020665	2447.480192
694.357251	2457.562500
694.693786	2475.206538
695.030272	2470.165385
695.366707	2533.179808
695.703093	2452.521346
696.039429	2538.220962
696.375716	2422.274423
696.711952	2394.548077
697.048139	2475.206538
697.384276	2535.700385
697.720363	2513.015192
698.056400	2560.906154
698.392388	2578.550192
698.728326	2533.179808
699.064214	2548.303269
699.400053	2535.700385
699.735842	2475.206538
700.071581	2492.850577
700.407270	2545.782692
700.742910	2482.768269
701.078501	2548.303269
701.414042	2613.838269
701.749533	2530.659231
702.084974	2588.632500
702.420366	2480.247692
702.755709	2502.932885
703.091002	2530.659231
703.426246	2500.412308
703.761440	2467.644808
704.096584	2490.330000
704.431679	2465.124231
704.766725	2520.576923
705.101721	2530.659231
705.436668	2553.344423
705.771565	2515.535769
706.106413	2528.138654
706.441212	2601.235385
706.775961	2465.124231
707.110661	2540.741538
707.445311	2402.109808
707.779913	2518.056346
708.114465	2480.247692
708.448967	2462.603654
708.783421	2510.494615
709.117825	2414.712692
709.452180	2497.891731
709.786485	2455.041923
710.120742	2475.206538
710.454949	2540.741538
710.789107	2457.562500
711.123216	2462.603654
711.457275	2437.397885
711.791286	2502.932885
712.125247	2409.671538
712.459159	2518.056346
712.793023	2520.576923
713.126837	2553.344423
713.460602	2540.741538
713.794318	2495.371154
714.127985	2467.644808
714.461602	2439.918462
714.795171	2485.288846
715.128691	2394.548077
715.462162	2518.056346
715.795584	2487.809423
716.128957	2591.153077
716.462281	2573.509038
716.795556	2452.521346
717.128782	2533.179808
717.461960	2477.727115
717.795088	2591.153077
718.128167	2444.959615
718.461198	2460.083077
718.794180	2450.000769
719.127113	2472.685962
719.459997	2505.453462
719.792833	2487.809423
720.125619	2545.782692
720.458357	2535.700385
720.791046	2540.741538
721.123686	2482.768269
721.456278	2533.179808
721.788821	2457.562500
722.121315	2487.809423
722.453761	2485.288846
722.786158	2550.823846
723.118506	2465.124231
723.450805	2523.097500
723.783056	2472.685962
724.115259	2513.015192
724.447412	2545.782692
724.779518	2482.768269
725.111574	2515.535769
725.443582	2510.494615
725.775542	2500.412308
726.107453	2568.467885
726.439315	2450.000769
726.771129	2482.768269
727.102895	2490.330000
727.434612	2591.153077
727.766281	2518.056346
728.097901	2480.247692
728.429473	2530.659231
728.760996	2460.083077
729.092471	2510.494615
729.423897	2492.850577
729.755276	2500.412308
730.086606	2510.494615
730.417887	2515.535769
730.749120	2480.247692
731.080305	2525.618077
731.411442	2520.576923
731.742530	2490.330000
732.073570	2326.492500
732.404562	2560.906154
732.735506	2573.509038
733.066401	2434.877308
733.397249	2505.453462
733.728048	2507.974038
734.058798	2565.947308
734.389501	2439.918462
734.720156	2467.644808
735.050762	2482.768269
735.381320	2427.315577
735.711831	2407.150962
736.042293	2500.412308
736.372707	2497.891731
736.703073	2465.124231
737.033391	2578.550192
737.363661	2497.891731
737.693883	2570.988462
738.024056	2477.727115
738.354182	2422.274423
738.684260	2553.344423
739.014290	2518.056346
739.344272	2475.206538
739.674207	2457.562500
740.004093	2444.959615
740.333931	2485.288846
740.663722	2513.015192
740.993464	2442.439038
741.323159	2528.138654
741.652806	2462.603654
741.982405	2427.315577
742.311956	2570.988462
742.641460	2480.247692
742.970915	2487.809423
743.300323	2565.947308
743.629683	2497.891731
743.958996	2606.276538
744.288260	2470.165385
744.617477	2518.056346
744.946647	2492.850577
745.275768	2467.644808
745.604842	2472.685962
745.933869	2535.700385
746.262847	2477.727115
746.591778	2550.823846
746.920662	2452.521346
747.249498	2555.865000
747.578286	2518.056346
747.907027	2482.768269
748.235720	2510.494615
748.564365	2444.959615
748.892963	2578.550192
749.221514	2472.685962
749.550017	2500.412308
749.878473	2465.124231
750.206881	2467.644808
750.535242	2472.685962
750.863555	2490.330000
751.191821	2515.535769
751.520039	2472.685962
751.848210	2477.727115
752.176334	2490.330000
752.504411	2500.412308
752.832440	2513.015192
753.160421	2450.000769
753.488356	2507.974038
753.816243	2394.548077
754.144082	2530.659231
754.471875	2485.288846
754.799620	2530.659231
755.127318	2437.397885
755.454969	2583.591346
755.782572	2434.877308
756.110129	2513.015192
756.437638	2455.041923
756.765100	2472.685962
757.092515	2555.865000
757.419882	2492.850577
757.747203	2515.535769
758.074477	2422.274423
758.401703	2485.288846
758.728882	2487.809423
759.056014	2419.753846
759.383099	2482.768269
759.710138	2455.041923
760.037129	2412.192115
760.364073	2507.974038
760.690970	2510.494615
761.017820	2470.165385
761.344623	2507.974038
761.671379	2525.618077
761.998088	2502.932885
762.324751	2510.494615
762.651366	2500.412308
762.977935	2482.768269
763.304456	2442.439038
763.630931	2490.330000
763.957359	2500.412308
764.283740	2510.494615
764.610074	2500.412308
764.936362	2510.494615
765.262602	2480.247692
765.588796	2510.494615
765.914943	2455.041923
766.241044	2525.618077
766.567097	2490.330000
766.893104	2525.618077
767.219064	2475.206538
767.544978	2603.755962
767.870845	2442.439038
768.196665	2565.947308
768.522438	2538.220962
768.848165	2482.768269
769.173846	2565.947308
769.499479	2399.589231
769.825066	2543.262115
770.150607	2457.562500
770.476101	2525.618077
770.801548	2417.233269
771.126949	2525.618077
771.452303	2515.535769
771.777611	2477.727115
772.102872	2487.809423
772.428087	2447.480192
772.753256	2447.480192
773.078378	2543.262115
773.403453	2482.768269
773.728482	2386.986346
774.053465	2518.056346
774.378401	2427.315577
774.703291	2515.535769
775.028135	2510.494615
775.352932	2528.138654
775.677683	2482.768269
776.002388	2477.727115
776.327046	2568.467885
776.651658	2500.412308
776.976224	2397.068654
777.300743	2455.041923
777.625216	2543.262115
777.949643	2523.097500
778.274024	2455.041923
778.598359	2497.891731
778.922647	2477.727115
779.246889	2565.947308
779.571086	2555.865000
779.895236	2467.644808
780.219339	2472.685962
780.543397	2452.521346
780.867409	2477.727115
781.191374	2371.862885
781.515294	2422.274423
781.839167	2475.206538
782.162995	2470.165385
782.486776	2507.974038
782.810511	2500.412308
783.134201	2409.671538
783.457844	2538.220962
783.781441	2535.700385
784.104993	2518.056346
784.428498	2505.453462
784.751958	2465.124231
785.075372	2543.262115
785.398739	2487.809423
785.722061	2472.685962
786.045337	2543.262115
786.368568	2548.303269
786.691752	2475.206538
787.014891	2457.562500
787.337983	2439.918462
787.661030	2510.494615
787.984031	2507.974038
788.306987	2528.138654
788.629897	2457.562500
788.952760	2495.371154
789.275579	2545.782692
789.598351	2452.521346
789.921078	2502.932885
790.243759	2467.644808
790.566395	2457.562500
790.888984	2583.591346
791.211529	2510.494615
791.534027	2495.371154
791.856480	2518.056346
792.178888	2482.768269
792.501249	2505.453462
792.823566	2510.494615
793.145836	2518.056346
793.468062	2477.727115
793.790241	2500.412308
794.112375	2412.192115
794.434464	2510.494615
794.756507	2472.685962
795.078505	2497.891731
795.400457	2480.247692
795.722364	2500.412308
796.044226	2434.877308
796.366042	2596.194231
796.687812	2513.015192
797.009538	2480.247692
797.331218	2485.288846
797.652852	2482.768269
797.974442	2457.562500
798.295986	2560.906154
798.617484	2505.453462
798.938938	2533.179808
799.260346	2475.206538
799.581709	2487.809423
799.903026	2439.918462
800.224299	2533.179808
800.545526	2475.206538
800.866708	2588.632500
801.187845	2472.685962
801.508936	2540.741538
801.829983	2565.947308
802.150984	2492.850577
802.471940	2538.220962
802.792851	2485.288846
803.113717	2586.111923
803.434538	2553.344423
803.755314	2495.371154
804.076045	2402.109808
804.396731	2437.397885
804.717372	2548.303269
805.037967	2550.823846
805.358518	2513.015192
805.679024	2460.083077
805.999485	2452.521346
806.319901	2553.344423
806.640272	2485.288846
806.960598	2485.288846
807.280879	2470.165385
807.601115	2485.288846
807.921306	2439.918462
808.241453	2507.974038
808.561554	2502.932885
808.881611	2515.535769
809.201623	2467.644808
809.521590	2460.083077
809.841513	2427.315577
810.161390	2439.918462
810.481223	2492.850577
810.801011	2457.562500
811.120755	2581.070769
811.440453	2482.768269
811.760107	2525.618077
812.079716	2485.288846
812.399281	2492.850577
812.718801	2550.823846
813.038276	2434.877308
813.357707	2538.220962
813.677093	2452.521346
813.996434	2520.576923
814.315731	2465.124231
814.634983	2407.150962
814.954191	2502.932885
815.273354	2581.070769
815.592473	2550.823846
815.911547	2502.932885
816.230577	2487.809423
816.549562	2444.959615
816.868502	2475.206538
817.187399	2500.412308
817.506250	2515.535769
817.825058	2548.303269
818.143821	2518.056346
818.462539	2558.385577
818.781213	2515.535769
819.099843	2442.439038
819.418429	2487.809423
819.736970	2523.097500
820.055466	2548.303269
820.373919	2492.850577
820.692327	2515.535769
821.010691	2563.426731
821.329011	2505.453462
821.647286	2523.097500
821.965517	2475.206538
822.283704	2513.015192
822.601847	2500.412308
822.919945	2538.220962
823.237999	2450.000769
823.556010	2553.344423
823.873976	2470.165385
824.191897	2520.576923
824.509775	2497.891731
824.827609	2465.124231
825.145398	2460.083077
825.463144	2586.111923
825.780845	2475.206538
826.098502	2452.521346
826.416116	2548.303269
826.733685	2480.247692
827.051210	2533.179808
827.368692	2472.685962
827.686129	2510.494615
828.003522	2533.179808
828.320872	2470.165385
828.638177	2520.576923
828.955439	2540.741538
829.272656	2530.659231
829.589830	2545.782692
829.906960	2414.712692
830.224046	2505.453462
830.541088	2485.288846
830.858086	2389.506923
831.175041	2477.727115
831.491952	2472.685962
831.808819	2533.179808
832.125642	2467.644808
832.442421	2545.782692
832.759157	2487.809423
833.075849	2475.206538
833.392497	2515.535769
833.709101	2462.603654
834.025662	2467.644808
834.342179	2452.521346
834.658653	2487.809423
834.975083	2487.809423
835.291469	2485.288846
835.607811	2487.809423
835.924110	2424.795000
836.240366	2487.809423
836.556578	2573.509038
836.872746	2472.685962
837.188871	2573.509038
837.504952	2457.562500
837.820990	2472.685962
838.136984	2485.288846
838.452935	2570.988462
838.768842	2465.124231
839.084706	2497.891731
839.400526	2520.576923
839.716303	2502.932885
840.032037	2434.877308
840.347727	2497.891731
840.663373	2432.356731
840.978977	2505.453462
841.294537	2540.741538
841.610054	2462.603654
841.925527	2477.727115
842.240957	2460.083077
842.556344	2507.974038
842.871687	2455.041923
843.186987	2525.618077
843.502244	2462.603654
843.817458	2550.823846
844.132629	2482.768269
844.447756	2533.179808
844.762840	2518.056346
845.077881	2470.165385
845.392879	2530.659231
845.707833	2450.000769
846.022745	2424.795000
846.337613	2477.727115
846.652438	2540.741538
846.967221	2535.700385
847.281960	2470.165385
847.596656	2507.974038
847.911309	2487.809423
848.225919	2570.988462
848.540485	2538.220962
848.855009	2576.029615
849.169490	2477.727115
849.483928	2432.356731
849.798323	2465.124231
850.112675	2432.356731
850.426984	2543.262115
850.741251	2472.685962
851.055474	2550.823846
851.369654	2417.233269
851.683792	2540.741538
851.997887	2475.206538
852.311938	2455.041923
852.625947	2591.153077
852.939914	2422.274423
853.253837	2470.165385
853.567718	2427.315577
853.881555	2528.138654
854.195350	2500.412308
854.509103	2530.659231
854.822812	2565.947308
855.136479	2467.644808
855.450103	2467.644808
855.763685	2565.947308
856.077224	2500.412308
856.390720	2482.768269
856.704173	2497.891731
857.017584	2553.344423
857.330953	2447.480192
857.644278	2470.165385
857.957561	2535.700385
858.270802	2543.262115
858.584000	2424.795000
858.897155	2502.932885
859.210268	2444.959615
859.523339	2558.385577
859.836367	2480.247692
860.149352	2502.932885
860.462295	2520.576923
860.775195	2523.097500
861.088054	2497.891731
861.400869	2500.412308
861.713642	2424.795000
862.026373	2480.247692
862.339062	2480.247692
862.651708	2558.385577
862.964312	2550.823846
863.276873	2583.591346
863.589392	2475.206538
863.901869	2545.782692
864.214303	2492.850577
864.526696	2581.070769
864.839045	2540.741538
865.151353	2492.850577
865.463619	2613.838269
865.775842	2460.083077
866.088023	2550.823846
866.400162	2535.700385
866.712258	2505.453462
867.024313	2510.494615
867.336325	2520.576923
867.648296	2535.700385
867.960224	2502.932885
868.272110	2528.138654
868.583954	2439.918462
868.895755	2581.070769
869.207515	2457.562500
869.519233	2475.206538
869.830909	2548.303269
870.142542	2424.795000
870.454134	2505.453462
870.765684	2563.426731
871.077191	2477.727115
871.388657	2513.015192
871.700081	2482.768269
872.011463	2447.480192
872.322803	2485.288846
872.634101	2407.150962
872.945357	2535.700385
873.256571	2520.576923
873.567744	2533.179808
873.878874	2427.315577
874.189963	2482.768269
874.501010	2507.974038
874.812015	2485.288846
875.122979	2560.906154
875.433900	2553.344423
875.744780	2485.288846
876.055618	2507.974038
876.366415	2432.356731
876.677169	2480.247692
876.987882	2535.700385
877.298554	2548.303269
877.609183	2422.274423
877.919771	2495.371154
878.230317	2399.589231
878.540822	2457.562500
878.851285	2487.809423
879.161707	2490.330000
879.472087	2452.521346
879.782425	2576.029615
880.092722	2533.179808
880.402977	2502.932885
880.713191	2414.712692
881.023363	2485.288846
881.333494	2422.274423
881.643583	2475.206538
881.953631	2495.371154
882.263637	2513.015192
882.573602	2457.562500
882.883526	2480.247692
883.193408	2518.056346
883.503248	2482.768269
883.813048	2525.618077
884.122806	2543.262115
884.432522	2485.288846
884.742197	2507.974038
885.051831	2450.000769
885.361424	2462.603654
885.670975	2596.194231
885.980485	2467.644808
886.289954	2523.097500
886.599382	2545.782692
886.908768	2434.877308
887.218113	2487.809423
887.527417	2417.233269
887.836680	2540.741538
888.145901	2528.138654
888.455082	2538.220962
888.764221	2538.220962
889.073319	2497.891731
889.382376	2475.206538
889.691392	2553.344423
890.000366	2462.603654
890.309300	2513.015192
890.618193	2563.426731
890.927044	2583.591346
891.235855	2510.494615
891.544625	2565.947308
891.853353	2495.371154
892.162041	2480.247692
892.470687	2495.371154
892.779293	2490.330000
893.087858	2497.891731
893.396381	2487.809423
893.704864	2444.959615
894.013306	2513.015192
894.321707	2525.618077
894.630068	2513.015192
894.938387	2487.809423
895.246665	2507.974038
895.554903	2369.342308
895.863100	2538.220962
896.171256	2424.795000
896.479371	2492.850577
896.787446	2462.603654
897.095480	2480.247692
897.403473	2417.233269
897.711425	2507.974038
898.019336	2455.041923
898.327207	2540.741538
898.635038	2369.342308
898.942827	2477.727115
899.250576	2497.891731
899.558284	2543.262115
899.865952	2570.988462
900.173579	2525.618077
900.481165	2492.850577
900.788711	2482.768269
901.096216	2505.453462
901.403681	2550.823846
901.711105	2543.262115
902.018489	2444.959615
902.325832	2545.782692
902.633135	2447.480192
902.940397	2555.865000
903.247619	2444.959615
903.554800	2533.179808
903.861941	2613.838269
904.169041	2472.685962
904.476101	2482.768269
904.783121	2513.015192
905.090100	2490.330000
905.397039	2570.988462
905.703938	2485.288846
906.010796	2520.576923
906.317614	2525.618077
906.624391	2530.659231
906.931129	2495.371154
907.237826	2538.220962
907.544483	2545.782692
907.851099	2467.644808
908.157675	2505.453462
908.464211	2518.056346
908.770707	2407.150962
909.077163	2583.591346
909.383578	2513.015192
909.689954	2497.891731
909.996289	2518.056346
910.302584	2492.850577
910.608839	2490.330000
910.915054	2500.412308
911.221229	2518.056346
911.527363	2518.056346
911.833458	2465.124231
912.139513	2475.206538
912.445527	2480.247692
912.751502	2518.056346
913.057436	2553.344423
913.363331	2452.521346
913.669186	2523.097500
913.975000	2364.301154
914.280775	2492.850577
914.586510	2465.124231
914.892205	2455.041923
915.197859	2586.111923
915.503475	2598.714808
915.809050	2480.247692
916.114585	2543.262115
916.420081	2538.220962
916.725536	2573.509038
917.030952	2558.385577
917.336328	2510.494615
917.641665	2450.000769
917.946961	2492.850577
918.252218	2510.494615
918.557435	2452.521346
918.862612	2565.947308
919.167750	2550.823846
919.472848	2495.371154
919.777906	2500.412308
920.082925	2475.206538
920.387904	2513.015192
920.692843	2450.000769
920.997743	2457.562500
921.302603	2439.918462
921.607423	2487.809423
921.912204	2450.000769
922.216946	2475.206538
922.521647	2452.521346
922.826310	2490.330000
923.130932	2467.644808
923.435516	2434.877308
923.740059	2422.274423
924.044564	2591.153077
924.349028	2505.453462
924.653454	2533.179808
924.957840	2548.303269
925.262186	2495.371154
925.566493	2439.918462
925.870761	2578.550192
926.174989	2490.330000
926.479178	2452.521346
926.783328	2523.097500
927.087438	2500.412308
927.391509	2477.727115
927.695541	2505.453462
927.999533	2495.371154
928.303486	2570.988462
928.607400	2429.836154
928.911275	2543.262115
929.215110	2432.356731
929.518906	2457.562500
929.822663	2455.041923
930.126381	2510.494615
930.430060	2525.618077
930.733699	2450.000769
931.037299	2528.138654
931.340861	2487.809423
931.644383	2500.412308
931.947866	2497.891731
932.251309	2555.865000
932.554714	2548.303269
932.858080	2482.768269
933.161407	2505.453462
933.464694	2432.356731
933.767943	2437.397885
934.071153	2462.603654
934.374323	2439.918462
934.677455	2502.932885
934.980548	2500.412308
935.283602	2472.685962
935.586617	2399.589231
935.889593	2465.124231
936.192530	2550.823846
936.495428	2439.918462
936.798287	2455.041923
937.101108	2485.288846
937.403890	2513.015192
937.706632	2550.823846
938.009336	2485.288846
938.312002	2477.727115
938.614628	2437.397885
938.917216	2444.959615
939.219765	2540.741538
939.522275	2422.274423
939.824747	2518.056346
940.127179	2563.426731
940.429573	2553.344423
940.731929	2540.741538
941.034246	2475.206538
941.336524	2371.862885
941.638763	2485.288846
941.940964	2576.029615
942.243126	2475.206538
942.545250	2412.192115
942.847335	2485.288846
943.149381	2487.809423
943.451389	2497.891731
943.753359	2502.932885
944.055290	2535.700385
944.357182	2452.521346
944.659036	2507.974038
944.960851	2513.015192
945.262628	2500.412308
945.564367	2467.644808
945.866067	2500.412308
946.167729	2402.109808
946.469352	2475.206538
946.770937	2434.877308
947.072484	2497.891731
947.373992	2520.576923
947.675462	2621.400000
947.976893	2507.974038
948.278286	2513.015192
948.579641	2507.974038
948.880958	2510.494615
949.182236	2480.247692
949.483476	2447.480192
949.784678	2434.877308
950.085841	2482.768269
950.386967	2450.000769
950.688054	2515.535769
950.989103	2543.262115
951.290114	2472.685962
951.591087	2530.659231
951.892021	2606.276538
952.192917	2507.974038
952.493776	2465.124231
952.794596	2565.947308
953.095378	2545.782692
953.396122	2543.262115
953.696828	2422.274423
953.997496	2492.850577
954.298126	2513.015192
954.598718	2447.480192
954.899272	2465.124231
955.199788	2480.247692
955.500266	2500.412308
955.800706	2455.041923
956.101108	2477.727115
956.401472	2533.179808
956.701798	2525.618077
957.002087	2470.165385
957.302337	2538.220962
957.602550	2497.891731
957.902724	2434.877308
958.202861	2462.603654
958.502960	2389.506923
958.803022	2472.685962
959.103045	2492.850577
959.403031	2407.150962
959.702979	2475.206538
960.002889	2500.412308
960.302762	2520.576923
960.602596	2510.494615
960.902393	2528.138654
961.202153	2462.603654
961.501875	2429.836154
961.801559	2495.371154
962.101205	2500.412308
962.400814	2518.056346
962.700385	2470.165385
962.999918	2465.124231
963.299414	2427.315577
963.598873	2581.070769
963.898293	2422.274423
964.197677	2404.630385
964.497022	2502.932885
964.796331	2482.768269
965.095601	2500.412308
965.394835	2520.576923
965.694030	2477.727115
965.993189	2490.330000
966.292309	2480.247692
966.591393	2485.288846
966.890439	2510.494615
967.189447	2482.768269
967.488419	2419.753846
967.787353	2495.371154
968.086249	2376.904038
968.385108	2555.865000
968.683930	2586.111923
968.982714	2591.153077
969.281462	2543.262115
969.580172	2402.109808
969.878844	2497.891731
970.177480	2518.056346
970.476078	2530.659231
970.774639	2535.700385
971.073162	2515.535769
971.371649	2457.562500
971.670098	2432.356731
971.968510	2515.535769
972.266885	2432.356731
972.565223	2507.974038
972.863524	2518.056346
973.161788	2465.124231
973.460014	2507.974038
973.758204	2525.618077
974.056356	2502.932885
974.354471	2472.685962
974.652550	2392.027500
974.950591	2523.097500
975.248595	2477.727115
975.546563	2510.494615
975.844493	2439.918462
976.142386	2520.576923
976.440243	2460.083077
976.738062	2502.932885
977.035845	2434.877308
977.333590	2475.206538
977.631299	2434.877308
977.928971	2540.741538
978.226606	2450.000769
978.524204	2518.056346
978.821765	2502.932885
979.119290	2502.932885
979.416777	2455.041923
979.714228	2510.494615
980.011642	2457.562500
980.309020	2525.618077
980.606360	2490.330000
980.903664	2533.179808
981.200931	2510.494615
981.498162	2558.385577
981.795356	2482.768269
982.092513	2535.700385
982.389633	2475.206538
982.686717	2450.000769
982.983764	2578.550192
983.280775	2555.865000
983.577749	2513.015192
983.874686	2513.015192
984.171587	2540.741538
984.468451	2432.356731
984.765279	2563.426731
985.062070	2475.206538
985.358824	2444.959615
985.655543	2394.548077
985.952224	2444.959615
986.248869	2424.795000
986.545478	2513.015192
986.842050	2497.891731
987.138586	2497.891731
987.435086	2422.274423
987.731549	2462.603654
988.027975	2480.247692
988.324366	2528.138654
988.620719	2472.685962
988.917037	2465.124231
989.213318	2495.371154
989.509563	2515.535769
989.805772	2518.056346
990.101944	2535.700385
990.398080	2553.344423
990.694180	2462.603654
990.990244	2477.727115
991.286271	2497.891731
991.582262	2462.603654
991.878217	2480.247692
992.174136	2510.494615
992.470019	2487.809423
992.765865	2407.150962
993.061676	2510.494615
993.357450	2525.618077
993.653188	2444.959615
993.948890	2558.385577
994.244556	2492.850577
994.540186	2490.330000
994.835780	2482.768269
995.131337	2518.056346
995.426859	2402.109808
995.722345	2535.700385
996.017795	2470.165385
996.313208	2535.700385
996.608586	2437.397885
996.903928	2530.659231
997.199234	2502.932885
997.494504	2515.535769
997.789738	2452.521346
998.084936	2417.233269
998.380099	2570.988462
998.675225	2520.576923
998.970316	2482.768269
999.265371	2419.753846
999.560390	2497.891731
999.855373	2404.630385
1000.150320	2485.288846
1000.445232	2470.165385
1000.740108	2419.753846
1001.034948	2452.521346
1001.329752	2472.685962
1001.624521	2472.685962
1001.919254	2404.630385
1002.213951	2550.823846
1002.508613	2480.247692
1002.803239	2540.741538
1003.097829	2545.782692
1003.392384	2518.056346
1003.686903	2500.412308
1003.981386	2485.288846
1004.275834	2455.041923
1004.570246	2563.426731
1004.864623	2533.179808
1005.158964	2475.206538
1005.453270	2482.768269
1005.747540	2447.480192
1006.041775	2540.741538
1006.335974	2439.918462
1006.630138	2492.850577
1006.924266	2570.988462
1007.218359	2593.673654
1007.512416	2429.836154
1007.806438	2505.453462
1008.100425	2424.795000
1008.394376	2510.494615
1008.688292	2475.206538
1008.982172	2465.124231
1009.276017	2513.015192
1009.569827	2482.768269
1009.863602	2439.918462
1010.157341	2467.644808
1010.451045	2497.891731
1010.744714	2465.124231
1011.038347	2434.877308
1011.331945	2510.494615
1011.625508	2467.644808
1011.919036	2457.562500
1012.212528	2553.344423
1012.505986	2452.521346
1012.799408	2455.041923
1013.092795	2543.262115
1013.386147	2457.562500
1013.679464	2434.877308
1013.972745	2485.288846
1014.265992	2432.356731
1014.559204	2419.753846
1014.852380	2437.397885
1015.145521	2427.315577
1015.438628	2467.644808
1015.731699	2434.877308
1016.024736	2439.918462
1016.317737	2472.685962
1016.610703	2412.192115
1016.903635	2553.344423
1017.196531	2472.685962
1017.489393	2394.548077
1017.782219	2500.412308
1018.075011	2455.041923
1018.367768	2475.206538
1018.660490	2475.206538
1018.953177	2475.206538
1019.245829	2475.206538
