Dividing Wavelength (nm)	Counts (n)	Blue Motor Position (mm): 0.000000	Red Motor Position (mm): 35.200000	
326.493990	2128.833899
326.888308	2128.833899
327.282561	2128.833899
327.676750	2093.487849
328.070874	2095.685792
328.464933	2096.933477
328.858929	2102.519076
329.252859	2112.787906
329.646726	2125.204268
330.040528	2136.662811
330.434265	2153.883392
330.827938	2172.255878
331.221547	2188.571572
331.615091	2207.518749
332.008571	2229.377192
332.401986	2248.394945
332.795338	2266.986720
333.188625	2289.606377
333.581847	2304.381999
333.975006	2326.837819
334.368100	2342.848524
334.761129	2359.645648
335.154095	2375.928575
335.546996	2397.703839
335.939833	2417.560944
336.332606	2431.204827
336.725315	2442.870057
337.117960	2452.886830
337.510540	2462.041565
337.903056	2470.556074
338.295508	2479.143680
338.687896	2487.023003
339.080220	2496.933912
339.472480	2500.404746
339.864676	2505.599655
340.256807	2509.130983
340.648875	2515.666839
341.040879	2515.268588
341.432818	2516.511233
341.824694	2520.690349
342.216506	2520.410565
342.608253	2520.100534
342.999937	2522.616070
343.391557	2517.872344
343.783113	2518.575585
344.174605	2517.675739
344.566033	2516.939731
344.957397	2514.436798
345.348697	2513.022754
345.739934	2511.197856
346.131106	2511.759945
346.522215	2511.679287
346.913260	2505.506394
347.304241	2507.709378
347.695159	2503.288286
348.086012	2501.135713
348.476802	2498.320229
348.867528	2499.245281
349.258191	2496.790239
349.648789	2497.448109
350.039324	2491.670947
350.429796	2496.008860
350.820203	2492.669095
351.210548	2491.670947
351.600828	2487.103662
351.991045	2492.641369
352.381198	2488.986533
352.771288	2489.961996
353.161314	2489.049547
353.551276	2488.651296
353.941175	2488.253045
354.331010	2491.222284
354.720782	2485.515698
355.110490	2490.685401
355.500135	2489.548621
355.889717	2490.050216
356.279235	2492.747233
356.668689	2491.499548
357.058080	2488.195071
357.447408	2489.830926
357.836672	2485.435040
358.225873	2490.284630
358.615010	2487.842191
359.004084	2492.845536
359.393095	2491.368478
359.782043	2493.395022
360.170927	2495.555156
360.559748	2496.719663
360.948505	2496.114724
361.337199	2495.532471
361.725830	2496.810403
362.114398	2497.944663
362.502903	2498.395846
362.891344	2497.745537
363.279722	2499.504900
363.668037	2501.009684
364.056289	2502.070847
364.444478	2502.290138
364.832603	2502.680827
365.220665	2502.761485
365.608665	2506.224758
365.996601	2505.012361
366.384474	2503.996568
366.772284	2507.119563
367.160031	2506.292814
367.547715	2511.109636
367.935336	2510.928155
368.322893	2517.151459
368.710388	2517.479134
369.097820	2525.071112
369.485189	2526.840557
369.872495	2532.461443
370.259738	2541.396888
370.646918	2547.022816
371.034035	2553.727551
371.421090	2564.296330
371.808081	2573.279666
372.195010	2584.234093
372.581875	2596.663058
372.968678	2611.753752
373.355418	2624.089456
373.742096	2641.126035
374.128710	2653.640699
374.515262	2669.288441
374.901751	2684.858045
375.288177	2696.551001
375.674540	2721.088817
376.060841	2735.874522
376.447079	2756.167686
376.833254	2781.149124
377.219367	2789.772018
377.605417	2828.417503
377.991404	2836.783298
378.377329	2861.091742
378.763191	2875.022971
379.148991	2915.332037
379.534727	2938.233999
379.920402	2965.920016
380.306013	2978.285966
380.691563	3029.937628
381.077049	3048.680638
381.462474	3067.597568
381.847835	3107.891511
382.233134	3130.364975
382.618371	3127.914974
383.003545	3196.414172
383.388657	3206.284752
383.773706	3238.452354
384.158693	3255.428440
384.543618	3281.050104
384.928480	3316.388593
385.313280	3363.760315
385.698017	3360.828884
386.082692	3414.383582
386.467305	3418.451793
386.851856	3451.297431
387.236344	3474.080926
387.620770	3503.911954
388.005133	3533.957231
388.389435	3557.567475
388.773674	3570.230853
389.157851	3611.643932
389.541965	3627.079945
389.926018	3590.115685
390.310008	3662.783917
390.693936	3680.266639
391.077802	3723.058473
391.461606	3714.085220
391.845348	3775.017646
392.229027	3776.671145
392.612645	3786.266981
392.996200	3866.827140
393.379694	3906.233840
393.763125	3970.324549
394.146494	3939.220630
394.529801	4003.119775
394.913047	4046.382958
395.296230	4011.528420
395.679351	4067.308787
396.062410	4088.958022
396.445408	4071.306422
396.828343	4104.673820
397.211217	4130.355978
397.594028	4048.054100
397.976778	4120.951705
398.359466	4138.936022
398.742092	4170.317204
399.124656	4091.957509
399.507158	4175.897762
399.889598	4197.967933
400.271977	4264.133078
400.654294	4230.964806
401.036549	4237.167946
401.418742	4209.968400
401.800874	4309.203513
402.182944	4335.906505
402.564952	4397.038058
402.946898	4383.928537
403.328783	4381.153382
403.710606	4294.304383
404.092367	4488.013240
404.474067	4450.847334
404.855705	4459.218170
405.237282	4386.489443
405.618797	4498.186289
406.000250	4533.935631
406.381642	4611.430769
406.762972	4574.816868
407.144240	4583.442283
407.525447	4584.236264
407.906593	4642.524606
408.287677	4685.399619
408.668700	4615.181387
409.049661	4665.111496
409.430560	4708.684709
409.811399	4635.706445
410.192176	4792.861896
410.572891	4734.618925
410.953545	4834.479141
411.334138	4714.300554
411.714669	4787.248571
412.095139	4679.526675
412.475547	4824.595959
412.855894	4800.665602
413.236180	4812.625739
413.616405	4762.529273
413.996568	4849.774002
414.376670	4796.438594
414.756711	4749.034104
415.136691	4781.438641
415.516609	4858.127194
415.896466	4894.161362
416.276262	4930.041774
416.655997	4912.009567
417.035670	5092.152679
417.415283	5184.708264
417.794834	5128.552330
418.174324	5083.915434
418.553753	4989.897914
418.933121	5171.576058
419.312428	5238.620883
419.691674	5179.372202
420.070859	5309.585206
420.449983	5216.749838
420.829045	5330.596735
421.208047	5239.742540
421.586988	5311.054702
421.965867	5323.821425
422.344686	5456.315551
422.723444	5308.067819
423.102141	5131.612311
423.480777	5427.651550
423.859352	5197.585891
424.237866	5456.532320
424.616319	5443.221153
424.994712	5556.821035
425.373044	5437.670843
425.751314	5578.840795
426.129524	5380.998192
426.507673	5572.587243
426.885762	5658.165871
427.263789	5588.494604
427.641756	5472.911029
428.019662	5591.196663
428.397508	5599.040698
428.775292	5545.357451
429.153016	5647.690353
429.530679	5570.043981
429.908282	5652.217310
430.285824	5525.699472
430.663305	5799.741636
431.040726	5540.694384
431.418086	5537.722623
431.795385	5639.140557
432.172624	5657.762579
432.549802	5644.945445
432.926920	5661.107384
433.303977	5669.087531
433.680974	5711.312236
434.057910	5730.942489
434.434786	5735.464404
434.811601	5697.219690
435.188355	5940.735147
435.565050	5806.842101
435.941683	5788.356190
436.318257	6004.692266
436.694770	5989.031922
437.071222	6022.172467
437.447614	5951.276200
437.823946	5861.682293
438.200218	6020.435789
438.576429	5884.664913
438.952580	5985.898844
439.328670	6030.467686
439.704700	5939.255568
440.080670	5925.215955
440.456580	6197.334919
440.832429	6074.794551
441.208218	5923.902734
441.583947	6078.429223
441.959616	6083.810655
442.335224	6009.751064
442.710773	6145.721065
443.086261	6175.426064
443.461689	5973.767308
443.837057	6120.056551
444.212365	6270.230004
444.587612	6166.036915
444.962800	6317.047199
445.337927	6301.248223
445.712995	5909.381691
446.088002	6489.058930
446.462949	6321.861501
446.837837	6249.359627
447.212664	6416.126037
447.587431	6560.744138
447.962139	7104.114988
448.336786	8030.605968
448.711374	7776.539376
449.085901	6849.594692
449.460369	6767.045798
449.834776	6701.175561
450.209124	7092.658966
450.583412	7242.572799
450.957640	7387.400107
451.331808	7157.594068
451.705917	6706.342743
452.079965	6632.580580
452.453954	6841.435584
452.827883	6719.117027
453.201752	6814.599002
453.575562	6609.129133
453.949311	6813.008518
454.323001	6702.599687
454.696632	6773.874040
455.070202	6918.366113
455.443713	7071.889412
455.817164	7169.748290
456.190556	7249.892554
456.563888	7327.155798
456.937160	7373.448714
457.310373	7029.921806
457.683526	7049.413427
458.056619	6941.497447
458.429653	6932.488905
458.802628	6868.637650
459.175542	6972.503064
459.548398	7330.598907
459.921194	7494.827096
460.293930	7498.683579
460.666607	8024.687653
461.039224	8330.965476
461.411782	8454.284702
461.784280	8477.829411
462.156719	8375.161272
462.529099	8248.784586
462.901419	7832.818817
463.273680	7728.136737
463.645882	7747.603153
464.018024	7606.972604
464.390106	7770.782378
464.762130	8164.136051
465.134094	8633.704408
465.505999	9653.764245
465.877845	10869.251972
466.249631	11519.550736
466.621358	11143.997378
466.993026	10513.840544
467.364634	10254.873950
467.736184	9888.364422
468.107674	9561.473321
468.479105	9588.824101
468.850477	9354.836425
469.221790	9124.964851
469.593043	8795.018811
469.964238	8661.602154
470.335373	8663.449737
470.706449	8728.105055
471.077467	8717.117860
471.448425	10023.162355
471.819324	11093.401837
472.190164	11115.499735
472.560945	9871.358089
472.931667	9086.752904
473.302330	8946.540772
473.672934	8591.068850
474.043479	8947.904404
474.413965	8892.764263
474.784393	8774.372765
475.154761	8926.401362
475.525070	9019.791258
475.895321	8845.911779
476.265513	9018.994756
476.635645	9184.994911
477.005719	9183.719499
477.375734	9299.688722
477.745691	9539.829127
478.115588	9672.340897
478.485427	9914.611189
478.855207	10451.136152
479.224928	11261.511715
479.594591	11896.883622
479.964194	11713.849408
480.333739	11641.886937
480.703226	11564.074207
481.072653	11650.663586
481.442022	11895.956050
481.811333	12082.025038
482.180584	11885.861139
482.549777	11596.950092
482.918912	11424.613206
483.287988	11444.772781
483.657005	11453.753596
484.025964	11133.030347
484.394864	11268.937334
484.763706	11241.127809
485.132489	10991.676393
485.501213	10956.123656
485.869879	11037.603826
486.238487	10872.783301
486.607036	10983.819755
486.975527	10759.069993
487.343959	10953.613161
487.712333	11003.437405
488.080648	10928.803123
488.448905	10973.573610
488.817104	10909.835781
489.185244	11178.163798
489.553326	11328.717857
489.921350	11870.906556
490.289315	12939.333744
490.657222	13272.203653
491.025070	13185.803317
491.392861	13052.169890
491.760593	12677.954958
492.128267	12329.006289
492.495883	11999.130825
492.863440	11667.185968
493.230939	11327.639050
493.598380	11258.625654
493.965763	11127.785027
494.333088	11029.109481
494.700354	10947.470515
495.067563	11011.619198
495.434713	10842.458240
495.801805	10964.522218
496.168839	10892.852134
496.535815	10828.244706
496.902733	10824.529376
497.269593	10762.177865
497.636395	10858.373162
498.003139	10840.930770
498.369825	10709.656603
498.736453	10859.209994
499.103023	10792.991918
499.469535	10819.359673
499.835989	10805.972889
500.202385	10767.463514
500.568723	10628.443615
500.935003	10849.120124
501.301226	10647.342901
501.667390	10904.595502
502.033497	10996.024389
502.399546	10858.768893
502.765537	10769.996694
503.131470	10840.817344
503.497345	11009.297747
503.863163	10625.318099
504.228923	10932.818402
504.594625	10995.842907
504.960269	10739.936294
505.325856	10961.401744
505.691385	10752.022460
506.056856	10904.351006
506.422270	10922.413460
506.787625	10809.448764
507.152924	10928.800602
507.518164	10907.637838
507.883347	10817.905300
508.248472	10739.618701
508.613540	10961.285798
508.978550	10847.222130
509.343503	10811.767695
509.708398	10935.495254
510.073236	11033.240707
510.438016	11031.420850
510.802738	10984.351597
511.167403	11025.628565
511.532010	10918.010012
511.896561	11141.154167
512.261053	11208.960207
512.625488	11067.344113
512.989866	11051.835003
513.354186	11028.688545
513.718449	10928.223390
514.082655	11104.535225
514.446803	10998.522280
514.810894	11107.756523
515.174927	10971.098403
515.538904	10985.253963
515.902822	11121.367638
516.266684	10999.638896
516.630488	10929.871847
516.994235	10980.164919
517.357925	11023.768379
517.721558	11102.440626
518.085133	11106.357602
518.448651	11103.897519
518.812112	10983.169446
519.175516	10977.495628
519.538863	11083.223747
519.902152	10988.724798
520.265385	11118.789088
520.628560	11023.440704
520.991678	10982.481329
521.354739	11029.061590
521.717743	10945.877511
522.080690	10921.069993
522.443580	11021.308296
522.806413	10953.834972
523.169189	10971.736109
523.531908	11001.229380
523.894569	10813.910185
524.257174	10793.894284
524.619722	10876.501152
524.982213	10816.138375
525.344647	10835.836684
525.707025	10765.666343
526.069345	10834.157980
526.431608	10724.096988
526.793815	10804.732765
527.155964	10582.485936
527.518057	10605.024935
527.880093	10532.860817
528.242072	10577.021325
528.603995	10448.658425
528.965860	10355.369352
529.327669	10373.015911
529.689421	10294.399117
530.051117	10243.997661
530.412755	10298.784921
530.774337	10178.137506
531.135862	10120.421336
531.497331	10114.364390
531.858743	9943.663359
532.220098	10059.526718
532.581396	9913.570191
532.942638	9863.188899
533.303824	9802.589189
533.664953	9764.720041
534.026025	9659.644751
534.387040	9708.997647
534.747999	9669.772429
535.108902	9673.936422
535.469748	9437.029918
535.830537	9489.031940
536.191270	9429.029607
536.551947	9406.631760
536.912567	9363.290440
537.273131	9262.232949
537.633638	9211.670176
537.994089	9160.958689
538.354483	9068.819000
538.714821	9145.608376
539.075103	9113.178633
539.435328	9037.140389
539.795497	8871.392292
540.155609	8938.754710
540.515665	8964.139440
540.875665	8718.229435
541.235609	8723.041216
541.595496	8681.723919
541.955328	8740.274401
542.315102	8612.955019
542.674821	8537.136065
543.034483	8491.395156
543.394090	8448.371428
543.753640	8347.243362
544.113134	8452.439639
544.472571	8302.881208
544.831953	8355.344496
545.191278	8169.623347
545.550548	8146.005541
545.909761	8194.360289
546.268918	8121.414793
546.628019	8127.265052
546.987064	7985.197775
547.346053	7891.613795
547.704986	7896.314671
548.063863	7845.396496
548.422684	7803.035680
548.781449	7680.981784
549.140158	7696.261521
549.498811	7570.320895
549.857408	7438.787109
550.215949	7511.462904
550.574434	7375.896194
550.932864	7374.343519
551.291237	7371.860751
551.649555	7273.258302
552.007817	7245.652944
552.366022	7176.866399
552.724173	7110.144208
553.082267	7067.352373
553.440305	7066.311375
553.798288	6937.519977
554.156215	6948.353416
554.514086	6883.582151
554.871902	6764.184943
555.229661	6733.212093
555.587365	6672.103227
555.945014	6584.019145
556.302606	6576.558238
556.660143	6492.411298
557.017625	6507.058370
557.375050	6410.976498
557.732421	6431.395692
558.089735	6339.825653
558.446994	6295.133304
558.804197	6262.154075
559.161345	6208.138112
559.518437	6106.475683
559.875474	6085.338125
560.232455	6051.317898
560.589381	5991.378579
560.946251	5922.241674
561.303065	5942.509633
561.659825	5851.433627
562.016528	5780.920488
562.373177	5700.650195
562.729770	5684.939439
563.086307	5613.344972
563.442789	5608.311380
563.799216	5497.973125
564.155587	5481.105425
564.511904	5416.099746
564.868164	5369.834556
565.224370	5337.361964
565.580520	5250.323922
565.936615	5232.684925
566.292654	5130.228514
566.648638	5137.928877
567.004567	5079.650618
567.360441	5033.584554
567.716260	4959.585456
568.072023	4950.408036
568.427732	4888.338829
568.783385	4844.700081
569.138982	4803.715500
569.494525	4777.816572
569.850013	4705.138257
570.205445	4687.088406
570.560823	4630.471207
570.916145	4567.827309
571.271412	4551.042787
571.626625	4504.744830
571.981782	4463.861072
572.336884	4417.847941
572.691931	4390.666039
573.046923	4336.208975
573.401860	4301.488028
573.756743	4247.797218
574.111570	4225.144794
574.466342	4197.700752
574.821059	4164.542563
575.175722	4113.450468
575.530330	4079.480653
575.884882	4053.407806
576.239380	4007.187987
576.593823	3971.015187
576.948211	3949.154223
577.302544	3903.945156
577.656823	3870.373592
578.011047	3850.982793
578.365216	3821.353412
578.719330	3783.985859
579.073389	3753.804471
579.427394	3727.177096
579.781344	3699.659958
580.135239	3661.624452
580.489080	3644.550064
580.842866	3603.976337
581.196597	3579.617482
581.550273	3568.771439
581.903895	3539.366389
582.257463	3532.286088
582.610975	3492.627331
582.964434	3477.743324
583.317837	3444.822069
583.671186	3428.581992
584.024481	3406.327818
584.377721	3379.886967
584.730906	3357.471476
585.084037	3339.971110
585.437113	3321.157524
585.790135	3301.648259
586.143103	3273.793363
586.496016	3255.493975
586.848874	3240.378075
587.201679	3228.917012
587.554428	3198.433154
587.907124	3190.563913
588.259765	3170.278310
588.612352	3156.969664
588.964884	3136.991571
589.317362	3124.804582
589.669786	3109.950822
590.022155	3106.636263
590.374470	3087.280753
590.726731	3077.281625
591.078937	3048.158879
591.431090	3043.377344
591.783188	3022.874972
592.135232	3005.742610
592.487222	2998.261538
592.839157	2993.638800
593.191038	2976.705564
593.542866	2962.018163
593.894639	2945.044598
594.246358	2939.398505
594.598022	2929.903492
594.949633	2914.265833
595.301190	2902.499780
595.652692	2896.846126
596.004141	2890.673233
596.355535	2874.632281
596.706876	2863.808924
597.058162	2851.395082
597.409395	2846.144721
597.760573	2843.893846
598.111698	2831.386743
598.462768	2824.167811
598.813785	2815.751604
599.164748	2805.316416
599.515657	2801.185190
599.866511	2790.843263
600.217312	2789.605660
600.568060	2778.681479
600.918753	2774.368772
601.269392	2770.666045
601.619978	2758.758839
601.970510	2757.337234
602.320988	2754.514188
602.671412	2750.864392
603.021783	2745.858527
603.372100	2737.691857
603.722363	2734.004253
604.072572	2730.576269
604.422728	2727.266751
604.772830	2717.315514
605.122878	2712.065152
605.472872	2713.025492
605.822813	2702.769264
606.172701	2701.571990
606.522534	2701.970241
606.872314	2699.404294
607.222041	2698.025538
607.571714	2692.389528
607.921333	2688.384332
608.270899	2685.699917
608.620411	2686.279650
608.969870	2682.876871
609.319276	2677.301355
609.668627	2676.945954
610.017926	2681.656912
610.367171	2679.000224
610.716362	2676.373783
611.065500	2674.921930
611.414585	2670.281548
611.763616	2669.273317
612.112594	2665.842812
612.461518	2662.145126
612.810389	2660.363078
613.159207	2659.450629
613.507971	2654.074239
613.856682	2657.950886
614.205340	2653.038282
614.553945	2653.328148
614.902496	2648.740698
615.250994	2652.612304
615.599439	2647.901346
615.947830	2645.279946
616.296169	2646.832621
616.644454	2645.075779
616.992686	2641.811632
617.340864	2644.853968
617.688990	2640.107722
618.037063	2640.979842
618.385082	2637.458596
618.733048	2635.968935
619.080961	2637.514048
619.428821	2638.386168
619.776628	2636.634367
620.124382	2635.878194
620.472083	2633.405508
620.819731	2635.182515
621.167326	2629.551546
621.514868	2629.201186
621.862357	2629.269241
622.209793	2624.833026
622.557176	2625.276647
622.904506	2622.672891
623.251783	2619.254989
623.599007	2617.949330
623.946179	2615.338012
624.293297	2617.183075
624.640363	2614.665018
624.987376	2615.927827
625.334336	2617.132663
625.681243	2614.297014
626.028097	2610.566560
626.374899	2613.278701
626.721647	2613.336674
627.068343	2612.794750
627.414987	2609.326437
627.761577	2609.535644
628.108115	2608.998762
628.454600	2607.143617
628.801032	2606.296703
629.147412	2605.963987
629.493739	2607.657815
629.840014	2604.224789
630.186236	2605.170005
630.532405	2604.978441
630.878521	2605.452310
631.224585	2605.346446
631.570597	2603.140941
631.916556	2601.905858
632.262462	2601.081629
632.608316	2603.529110
632.954117	2601.401743
633.299866	2599.465940
633.645562	2598.828234
633.991206	2599.145826
634.336797	2597.799838
634.682336	2600.574993
635.027823	2598.039293
635.373257	2594.777667
635.718639	2594.868407
636.063968	2592.680547
636.409245	2591.619384
636.754470	2593.734148
637.099642	2592.841863
637.444762	2591.783221
637.789829	2589.970926
638.134845	2590.666606
638.479808	2588.887078
638.824719	2591.314394
639.169577	2587.994794
639.514383	2590.283478
639.859137	2587.281471
640.203839	2590.165011
640.548489	2586.827767
640.893086	2587.712489
641.237632	2582.615883
641.582125	2586.865576
641.926566	2582.933476
642.270955	2586.270719
642.615292	2587.914136
642.959576	2584.602097
643.303809	2586.716862
643.647990	2589.076122
643.992118	2589.587799
644.336195	2588.400607
644.680219	2586.298446
645.024192	2585.201995
645.368112	2588.876996
645.711981	2588.231728
646.055797	2586.648806
646.399562	2587.268868
646.743274	2588.390525
647.086935	2588.123343
647.430544	2592.241966
647.774101	2589.673498
648.117606	2589.260124
648.461059	2588.569486
648.804460	2588.972778
649.147810	2589.744074
649.491108	2588.415730
649.834354	2585.557396
650.177548	2584.816347
650.520690	2586.742067
650.863781	2583.835842
651.206820	2588.282140
651.549807	2581.756366
651.892742	2581.191757
652.235626	2582.134453
652.578458	2582.739391
652.921238	2580.145718
653.263967	2582.918352
653.606644	2581.655543
653.949269	2580.334761
654.291843	2579.838207
654.634365	2579.626479
654.976836	2579.994483
655.319255	2580.236458
655.661622	2583.629155
656.003938	2580.639751
656.346203	2577.350398
656.688416	2580.985070
657.030577	2580.317117
657.372687	2579.923907
657.714746	2578.013309
658.056753	2581.902560
658.398708	2573.330077
658.740612	2576.183371
659.082465	2574.245047
659.424266	2575.437280
659.766016	2572.710016
660.107715	2578.479616
660.449362	2577.070614
660.790958	2576.304358
661.132503	2579.452559
661.473996	2578.099009
661.815438	2580.007086
662.156829	2578.214956
662.498168	2580.029771
662.839456	2578.761921
663.180693	2577.592373
663.521879	2579.694534
663.863013	2575.316292
664.204097	2578.048597
664.545129	2580.123032
664.886110	2581.143866
665.227040	2578.850141
665.567918	2579.192939
665.908746	2580.803588
666.249522	2579.356777
666.590248	2578.530028
666.930922	2579.205542
667.271545	2580.223855
667.612118	2581.983218
667.952639	2578.414081
668.293109	2580.102868
668.633528	2577.627661
668.973896	2576.624472
669.314213	2576.309399
669.654480	2580.065059
669.994695	2578.635892
670.334859	2578.298135
670.674973	2580.024730
671.015035	2578.880388
671.355047	2581.562282
671.695008	2579.747466
672.034918	2575.349060
672.374777	2578.383834
672.714585	2579.447518
673.054342	2581.910121
673.394049	2577.216807
673.733705	2579.066911
674.073310	2580.271746
674.412864	2581.045563
674.752368	2577.950295
675.091820	2581.590008
675.431223	2578.202353
675.770574	2578.696386
676.109875	2571.850499
676.449125	2571.905952
676.788324	2572.518452
677.127473	2572.039542
677.466571	2570.539799
677.805619	2578.230079
678.144616	2576.816035
678.483562	2575.593556
678.822458	2575.447362
679.161303	2575.026426
679.500098	2574.761765
679.838842	2575.417115
680.177535	2571.711867
680.516179	2575.901066
680.854771	2573.728329
681.193314	2574.877712
681.531805	2577.894842
681.870247	2579.122363
682.208638	2578.865264
682.546978	2581.647981
682.885268	2578.535069
683.223508	2577.249575
683.561697	2577.864595
683.899836	2577.940213
684.237925	2576.258988
684.575963	2576.616910
684.913951	2576.039698
685.251889	2577.708320
685.589776	2574.918041
685.927614	2578.381314
686.265401	2577.058011
686.603137	2579.109760
686.940824	2579.044225
687.278460	2578.333423
687.616046	2578.870306
687.953582	2577.652867
688.291068	2579.639082
688.628504	2580.717888
688.965889	2581.411047
689.303224	2578.943402
689.640510	2576.735377
689.977745	2578.386355
690.314930	2578.487178
690.652065	2575.512897
690.989150	2572.836044
691.326185	2573.251940
691.663170	2572.715057
692.000105	2575.916189
692.336990	2571.542988
692.673825	2572.750345
693.010610	2568.931671
693.347345	2566.847154
693.684030	2569.370251
694.020665	2566.801783
694.357251	2562.804148
694.693786	2564.818089
695.030272	2566.902606
695.366707	2567.535271
695.703093	2562.610064
696.039429	2565.914540
696.375716	2568.994685
696.711952	2566.990827
697.048139	2565.377657
697.384276	2566.048131
697.720363	2563.882955
698.056400	2568.485529
698.392388	2566.758933
698.728326	2568.031825
699.064214	2565.387740
699.400053	2566.063254
699.735842	2564.641649
700.071581	2566.027966
700.407270	2564.230795
700.742910	2563.756926
701.078501	2562.305074
701.414042	2563.015877
701.749533	2562.872204
702.084974	2560.633932
702.420366	2564.021587
702.755709	2561.357337
703.091002	2559.776935
703.426246	2563.799776
703.761440	2561.443037
704.096584	2563.497307
704.431679	2561.745506
704.766725	2563.913202
705.101721	2562.562173
705.436668	2561.402707
705.771565	2563.421690
706.106413	2561.737944
706.441212	2560.828016
706.775961	2563.129303
707.110661	2562.990671
707.445311	2563.956052
707.779913	2561.846329
708.114465	2566.932853
708.448967	2565.712894
708.783421	2566.017884
709.117825	2563.570404
709.452180	2563.146947
709.786485	2564.266083
710.120742	2566.242215
710.454949	2566.194324
710.789107	2566.693398
711.123216	2563.124262
711.457275	2568.170457
711.791286	2566.337997
712.125247	2566.950497
712.459159	2570.083574
712.793023	2567.298337
713.126837	2564.896227
713.460602	2568.016701
713.794318	2568.815724
714.127985	2568.503173
714.461602	2563.913202
714.795171	2568.430076
715.128691	2566.262380
715.462162	2565.549057
715.795584	2563.630897
716.128957	2564.790363
716.462281	2563.330949
716.795556	2564.424879
717.128782	2562.320197
717.461960	2560.517985
717.795088	2558.423386
718.128167	2561.775753
718.461198	2560.414641
718.794180	2563.487225
719.127113	2558.872048
719.459997	2560.381874
719.792833	2560.031514
720.125619	2561.523695
720.458357	2560.016390
720.791046	2558.093190
721.123686	2558.556976
721.456278	2561.876576
721.788821	2559.852553
722.121315	2558.383056
722.453761	2557.994887
722.786158	2556.971533
723.118506	2556.555638
723.450805	2556.152346
723.783056	2555.547407
724.115259	2558.831719
724.447412	2558.178890
724.779518	2560.654096
725.111574	2557.606719
725.443582	2558.062943
725.775542	2559.229970
726.107453	2558.650237
726.439315	2559.393808
726.771129	2565.460836
727.102895	2559.537481
727.434612	2560.785166
727.766281	2562.264745
728.097901	2559.325752
728.429473	2557.546225
728.760996	2558.829198
729.092471	2555.204609
729.423897	2559.290464
729.755276	2558.793910
730.086606	2561.826164
730.417887	2561.271638
730.749120	2562.612584
731.080305	2563.368758
731.411442	2561.564024
731.742530	2563.855229
732.073570	2564.868501
732.404562	2560.795248
732.735506	2563.633418
733.066401	2561.357337
733.397249	2562.297512
733.728048	2561.924467
734.058798	2562.796587
734.389501	2558.138560
734.720156	2560.371792
735.050762	2556.984136
735.381320	2558.385577
735.711831	2559.965979
736.042293	2556.976574
736.372707	2557.495813
736.703073	2556.197716
737.033391	2556.142263
737.363661	2556.225443
737.693883	2556.671585
738.024056	2560.686864
738.354182	2556.570762
738.684260	2559.202244
739.014290	2559.411452
739.344272	2558.544373
739.674207	2558.705690
740.004093	2559.660989
740.333931	2557.531101
740.663722	2558.798952
740.993464	2558.264589
741.323159	2560.475135
741.652806	2556.112017
741.982405	2559.126627
742.311956	2559.177038
742.641460	2556.500185
742.970915	2558.635114
743.300323	2556.487582
743.629683	2557.495813
743.958996	2554.592109
744.288260	2554.128323
744.617477	2555.406255
744.946647	2551.181768
745.275768	2552.832746
745.604842	2549.727395
745.933869	2551.181768
746.262847	2551.146480
746.591778	2552.000956
746.920662	2556.371636
747.249498	2552.999104
747.578286	2554.766028
747.907027	2553.699824
748.235720	2555.461708
748.564365	2556.681667
748.892963	2554.740823
749.221514	2555.885165
749.550017	2555.267623
749.878473	2555.139074
750.206881	2554.546738
750.535242	2552.973898
750.863555	2556.190154
751.191821	2553.687222
751.520039	2553.808209
751.848210	2556.729558
752.176334	2555.887685
752.504411	2554.120761
752.832440	2554.471121
753.160421	2552.195040
753.488356	2555.277706
753.816243	2553.374670
754.144082	2551.784186
754.471875	2553.296532
754.799620	2554.647561
755.127318	2550.067673
755.454969	2551.496840
755.782572	2555.043292
756.110129	2551.905174
756.437638	2550.818805
756.765100	2553.175544
757.092515	2554.115720
757.419882	2552.454659
757.747203	2552.245452
758.074477	2551.239741
758.401703	2554.163611
758.728882	2552.817622
759.056014	2553.651933
759.383099	2551.038095
759.710138	2554.801317
760.037129	2554.151008
760.364073	2558.130999
760.690970	2553.236038
761.017820	2557.596636
761.344623	2554.486244
761.671379	2556.555638
761.998088	2554.637479
762.324751	2557.440361
762.651366	2559.086297
762.977935	2569.665159
763.304456	2576.899214
763.630931	2579.429874
763.957359	2574.066086
764.283740	2571.782443
764.610074	2564.780281
764.936362	2563.409087
765.262602	2560.187789
765.588796	2558.254507
765.914943	2555.680998
766.241044	2555.519681
766.567097	2553.606563
766.893104	2552.116902
767.219064	2552.371480
767.544978	2550.037426
767.870845	2550.765873
768.196665	2549.520708
768.522438	2550.596994
768.848165	2548.986346
769.173846	2548.530121
769.499479	2546.029709
769.825066	2547.022816
770.150607	2550.007179
770.476101	2545.127342
770.801548	2546.193546
771.126949	2547.461397
771.452303	2549.603887
771.777611	2548.303269
772.102872	2545.984338
772.428087	2548.197405
772.753256	2547.468958
773.078378	2546.332178
773.403453	2549.487940
773.728482	2546.024668
774.053465	2542.122815
774.378401	2544.797147
774.703291	2545.984338
775.028135	2544.577857
775.352932	2544.232538
775.677683	2546.760676
776.002388	2546.664894
776.327046	2546.763197
776.651658	2546.806047
776.976224	2543.249513
777.300743	2546.064997
777.625216	2546.216232
777.949643	2541.354039
778.274024	2545.938968
778.598359	2542.586601
778.922647	2539.705581
779.246889	2542.284132
779.571086	2537.404295
779.895236	2544.192208
780.219339	2544.517363
780.543397	2545.817980
780.867409	2542.619368
781.191374	2545.903680
781.515294	2545.094575
781.839167	2545.258412
782.162995	2546.760676
782.486776	2547.955430
782.810511	2545.197918
783.134201	2542.828576
783.457844	2544.300593
783.781441	2542.314378
784.104993	2543.839327
784.428498	2545.018957
784.751958	2544.240099
785.075372	2545.631458
785.398739	2543.302445
785.722061	2546.624565
786.045337	2542.374872
786.368568	2545.969215
786.691752	2543.272198
787.014891	2542.279090
787.337983	2545.500388
787.661030	2549.271171
787.984031	2548.499874
788.306987	2548.646068
788.629897	2547.741181
788.952760	2547.539534
789.275579	2549.160265
789.598351	2548.658671
789.921078	2545.747404
790.243759	2547.214380
790.566395	2546.962322
790.888984	2546.780841
791.211529	2543.748587
791.534027	2545.013916
791.856480	2543.015099
792.178888	2544.313196
792.501249	2545.795295
792.823566	2545.288659
793.145836	2543.872095
793.468062	2543.912424
793.790241	2543.216745
794.112375	2546.569112
794.434464	2546.795964
794.756507	2545.278577
795.078505	2544.214893
795.400457	2543.685572
795.722364	2540.668442
796.044226	2542.513504
796.366042	2543.534338
796.687812	2543.131045
797.009538	2544.983669
797.331218	2546.811088
797.652852	2546.435522
797.974442	2543.902342
798.295986	2545.281098
798.617484	2546.672456
798.938938	2543.872095
799.260346	2544.895449
799.581709	2547.244627
799.903026	2542.576518
800.224299	2546.233876
800.545526	2543.158772
800.866708	2542.284132
801.187845	2540.691127
801.508936	2542.647095
801.829983	2541.714481
802.150984	2541.749769
802.471940	2545.858310
802.792851	2542.498381
803.113717	2545.220604
803.434538	2541.679193
803.755314	2542.296734
804.076045	2541.991745
804.396731	2542.999975
804.717372	2543.546941
805.037967	2542.679862
805.358518	2541.414533
805.679024	2545.641540
805.999485	2542.369831
806.319901	2542.205994
806.640272	2541.903524
806.960598	2542.294214
807.280879	2544.802188
807.601115	2542.579039
807.921306	2543.075593
808.241453	2544.509801
808.561554	2545.220604
808.881611	2543.181457
809.201623	2542.299255
809.521590	2545.702034
809.841513	2544.726571
810.161390	2543.032743
810.481223	2540.983514
810.801011	2542.687424
811.120755	2541.051569
811.440453	2542.042156
811.760107	2543.937630
812.079716	2541.873278
812.399281	2538.142824
812.718801	2539.236754
813.038276	2537.739531
813.357707	2540.817156
813.677093	2541.727084
813.996434	2544.174564
814.315731	2542.697506
814.634983	2541.280942
814.954191	2541.588452
815.273354	2542.843700
815.592473	2539.687937
815.911547	2542.999975
816.230577	2543.425953
816.549562	2545.356715
816.868502	2541.454862
817.187399	2545.129863
817.506250	2544.754297
817.825058	2546.904349
818.143821	2544.184647
818.462539	2547.683207
818.781213	2544.829914
819.099843	2546.947199
819.418429	2551.698486
819.736970	2552.721841
820.055466	2554.468600
820.373919	2559.068653
820.692327	2562.252142
821.010691	2568.485529
821.329011	2585.547314
821.647286	2620.984105
821.965517	2656.844353
822.283704	2679.549710
822.601847	2687.660926
822.919945	2669.900941
823.237999	2649.864875
823.556010	2628.984416
823.873976	2611.612600
824.191897	2597.504931
824.509775	2582.404154
824.827609	2578.988773
825.145398	2572.846127
825.463144	2573.690520
825.780845	2571.711867
826.098502	2577.234451
826.416116	2587.964547
826.733685	2599.009715
827.051210	2602.057093
827.368692	2600.630446
827.686129	2587.258786
828.003522	2577.126066
828.320872	2565.743141
828.638177	2559.729044
828.955439	2554.743343
829.272656	2552.563044
829.589830	2548.572971
829.906960	2548.136911
830.224046	2549.187992
830.541088	2546.359904
830.858086	2544.933258
831.175041	2543.083154
831.491952	2544.340922
831.808819	2546.052394
832.125642	2546.848896
832.442421	2549.727395
832.759157	2556.084290
833.075849	2559.713921
833.392497	2570.234809
833.709101	2572.082392
834.025662	2573.745973
834.342179	2569.201373
834.658653	2561.133006
834.975083	2556.790052
835.291469	2560.404559
835.607811	2548.152035
835.924110	2546.523742
836.240366	2545.124822
836.556578	2544.018288
836.872746	2546.001982
837.188871	2542.700027
837.504952	2543.882177
837.820990	2542.604245
838.136984	2540.670962
838.452935	2539.483771
838.768842	2543.473844
839.084706	2541.815304
839.400526	2545.528114
839.716303	2549.109854
840.032037	2553.359547
840.347727	2553.167983
840.663373	2550.670091
840.978977	2543.511652
841.294537	2545.117260
841.610054	2544.098947
841.925527	2541.762372
842.240957	2540.509645
842.556344	2537.994110
842.871687	2535.707946
843.186987	2537.958822
843.502244	2535.166022
843.817458	2537.321116
844.132629	2538.185673
844.447756	2538.629295
844.762840	2535.140817
845.077881	2537.235416
845.392879	2534.513193
845.707833	2534.578728
846.022745	2530.815507
846.337613	2537.409336
846.652438	2536.990920
846.967221	2539.677855
847.281960	2536.585107
847.596656	2535.768440
847.911309	2536.408667
848.225919	2535.060158
848.540485	2535.047555
848.855009	2539.390509
849.169490	2533.013450
849.483928	2536.506969
849.798323	2536.335570
850.112675	2537.777340
850.426984	2538.946888
850.741251	2536.133924
851.055474	2536.602751
851.369654	2536.930426
851.683792	2538.016795
851.997887	2534.543440
852.311938	2536.489325
852.625947	2535.844057
852.939914	2537.215251
853.253837	2537.381609
853.567718	2535.561753
853.881555	2533.789787
854.195350	2536.630477
854.509103	2535.844057
854.822812	2538.838503
855.136479	2535.501259
855.450103	2536.925385
855.763685	2536.575025
856.077224	2534.666948
856.390720	2536.378420
856.704173	2535.765920
857.017584	2534.520755
857.330953	2536.169212
857.644278	2536.678368
857.957561	2541.412012
858.270802	2539.783719
858.584000	2535.839016
858.897155	2536.398584
859.210268	2534.281300
859.523339	2534.873635
859.836367	2534.001516
860.149352	2537.369007
860.462295	2538.336908
860.775195	2533.237781
861.088054	2534.177956
861.400869	2532.166536
861.713642	2533.545291
862.026373	2534.445137
862.339062	2533.726773
862.651708	2536.799356
862.964312	2534.114942
863.276873	2535.662576
863.589392	2537.149716
863.901869	2537.605941
864.214303	2537.835313
864.526696	2537.051414
864.839045	2539.309851
865.151353	2537.222813
865.463619	2535.536547
865.775842	2538.122659
866.088023	2538.530993
866.400162	2538.692309
866.712258	2534.800539
867.024313	2538.052083
867.336325	2537.333718
867.648296	2537.351363
867.960224	2535.231557
868.272110	2539.415715
868.583954	2536.774150
868.895755	2539.466127
869.207515	2537.910931
869.519233	2537.174922
869.830909	2538.394881
870.142542	2538.795653
870.454134	2539.589635
870.765684	2540.829759
871.077191	2536.033101
871.388657	2538.233564
871.700081	2536.426311
872.011463	2537.769778
872.322803	2539.947557
872.634101	2538.898997
872.945357	2539.287166
873.256571	2540.721374
873.567744	2540.741538
873.878874	2540.025695
874.189963	2540.426466
874.501010	2540.086188
874.812015	2537.386651
875.122979	2540.000489
875.433900	2536.529654
875.744780	2540.665921
876.055618	2539.761034
876.366415	2539.584594
876.677169	2539.120807
876.987882	2537.719367
877.298554	2537.646270
877.609183	2539.330015
877.919771	2534.440096
878.230317	2540.847403
878.540822	2545.472661
878.851285	2542.589121
879.161707	2545.208001
879.472087	2549.964329
879.782425	2554.846687
880.092722	2560.021431
880.402977	2570.446537
880.713191	2589.340782
881.023363	2609.092023
881.333494	2621.344547
881.643583	2625.647172
881.953631	2625.248921
882.263637	2619.083590
882.573602	2611.189143
882.883526	2600.627926
883.193408	2592.720876
883.503248	2582.716706
883.813048	2577.431056
884.122806	2570.723801
884.432522	2567.678944
884.742197	2558.332645
885.051831	2557.014383
885.361424	2552.615976
885.670975	2552.464742
885.980485	2550.390307
886.289954	2547.854607
886.599382	2545.734801
886.908768	2547.342929
887.218113	2542.057280
887.527417	2544.887887
887.836680	2542.425284
888.145901	2543.804039
888.455082	2542.107691
888.764221	2541.225489
889.073319	2541.535520
889.382376	2538.135262
889.691392	2540.156765
890.000366	2538.525951
890.309300	2537.495035
890.618193	2540.194573
890.927044	2542.352187
891.235855	2542.531148
891.544625	2539.488812
891.853353	2540.991076
892.162041	2539.324974
892.470687	2541.069213
892.779293	2542.334543
893.087858	2546.193546
893.396381	2542.127856
893.704864	2547.232024
894.013306	2550.894422
894.321707	2561.173335
894.630068	2562.310115
894.938387	2570.431414
895.246665	2567.638615
895.554903	2564.641649
895.863100	2559.751730
896.171256	2556.666543
896.479371	2557.528581
896.787446	2551.816953
897.095480	2549.987015
897.403473	2547.176571
897.711425	2543.241951
898.019336	2545.898639
898.327207	2545.414688
898.635038	2542.611807
898.942827	2542.122815
899.250576	2543.315047
899.558284	2541.681714
899.865952	2544.086344
900.173579	2541.159954
900.481165	2539.866898
900.788711	2541.837989
901.096216	2538.024357
901.403681	2539.294727
901.711105	2540.330684
902.018489	2540.713812
902.325832	2542.115253
902.633135	2539.146013
902.940397	2542.447969
903.247619	2543.972918
903.554800	2549.528270
903.861941	2559.983623
904.169041	2573.965263
904.476101	2579.160172
904.783121	2579.936510
905.090100	2574.615572
905.397039	2568.548543
905.703938	2560.346586
906.010796	2554.879454
906.317614	2551.154042
906.624391	2546.027188
906.931129	2543.360418
907.237826	2543.126004
907.544483	2541.492670
907.851099	2540.277752
908.157675	2537.240457
908.464211	2538.311702
908.770707	2534.750127
909.077163	2535.178625
909.383578	2534.182997
909.689954	2535.271887
909.996289	2532.259797
910.302584	2536.141486
910.608839	2535.672658
910.915054	2534.487987
911.221229	2535.690302
911.527363	2535.765920
911.833458	2536.108718
912.139513	2536.017977
912.445527	2535.493697
912.751502	2534.545960
913.057436	2536.287679
913.363331	2537.603420
913.669186	2537.842875
913.975000	2542.977290
914.280775	2541.974101
914.586510	2546.062476
914.892205	2548.305790
915.197859	2553.132695
915.503475	2562.269786
915.809050	2569.904613
916.114585	2572.909141
916.420081	2574.580284
916.725536	2576.105233
917.030952	2569.967628
917.336328	2567.562997
917.641665	2561.253993
917.946961	2557.526060
918.252218	2552.409289
918.557435	2551.179248
918.862612	2549.377035
919.167750	2547.506767
919.472848	2544.421581
919.777906	2542.770603
920.082925	2543.420912
920.387904	2539.511497
920.692843	2541.074255
920.997743	2538.251208
921.302603	2542.508463
921.607423	2541.049049
921.912204	2539.700540
922.216946	2538.125180
922.521647	2537.381609
922.826310	2538.099974
923.130932	2537.177443
923.435516	2535.266845
923.740059	2539.508976
924.044564	2535.060158
924.349028	2536.713657
924.653454	2531.601927
924.957840	2535.604603
925.262186	2530.918850
925.566493	2534.311547
925.870761	2529.769467
926.174989	2533.590662
926.479178	2533.000847
926.783328	2533.862884
927.087438	2533.305837
927.391509	2534.649304
927.695541	2531.977493
927.999533	2533.706608
928.303486	2532.469005
928.607400	2531.886752
928.911275	2533.903213
929.215110	2532.905065
929.518906	2531.927081
929.822663	2533.119314
930.126381	2532.375744
930.430060	2531.367513
930.733699	2532.968079
931.037299	2533.900693
931.340861	2533.807431
931.644383	2531.284334
931.947866	2534.024201
932.251309	2533.197452
932.554714	2531.826258
932.858080	2531.455733
933.161407	2532.519417
933.464694	2531.798532
933.767943	2531.039838
934.071153	2533.386495
934.374323	2529.035979
934.677455	2534.951773
934.980548	2532.799201
935.283602	2529.746782
935.586617	2533.487318
935.889593	2531.816176
936.192530	2532.978162
936.495428	2531.140661
936.798287	2532.620240
937.101108	2532.408511
937.403890	2533.149561
937.706632	2533.404139
938.009336	2533.028573
938.312002	2538.190715
938.614628	2533.933460
938.917216	2532.655528
939.219765	2537.018646
939.522275	2536.096115
939.824747	2536.479243
940.127179	2534.538399
940.429573	2531.528830
940.731929	2530.946577
941.034246	2527.679909
941.336524	2531.874149
941.638763	2535.501259
941.940964	2533.326001
942.243126	2531.841381
942.545250	2533.951104
942.847335	2534.097298
943.149381	2532.874818
943.451389	2530.797862
943.753359	2531.889272
944.055290	2532.547143
944.357182	2531.060003
944.659036	2531.521268
944.960851	2532.963038
945.262628	2532.388347
945.564367	2533.240302
945.866067	2532.451361
946.167729	2533.013450
946.469352	2534.210724
946.770937	2534.576207
947.072484	2533.215096
947.373992	2533.575538
947.675462	2531.740558
947.976893	2531.826258
948.278286	2531.115455
948.579641	2533.386495
948.880958	2531.296937
949.182236	2535.355066
949.483476	2532.458923
949.784678	2531.193593
950.085841	2531.705270
950.386967	2533.653676
950.688054	2529.862728
950.989103	2530.628984
951.290114	2529.358613
951.591087	2533.585621
951.892021	2530.873480
952.192917	2530.578572
952.493776	2535.168543
952.794596	2532.826927
953.095378	2530.576052
953.396122	2530.147554
953.696828	2531.617050
953.997496	2533.749458
954.298126	2530.752492
954.598718	2530.369364
954.899272	2531.702750
955.199788	2532.950435
955.500266	2532.811803
955.800706	2531.889272
956.101108	2525.098838
956.401472	2529.255269
956.701798	2524.877027
957.002087	2528.098325
957.302337	2528.209230
957.602550	2530.939015
957.902724	2529.706453
958.202861	2529.638397
958.502960	2529.809796
958.803022	2531.843902
959.103045	2530.755013
959.403031	2527.657224
959.702979	2529.935825
960.002889	2532.771474
960.302762	2531.455733
960.602596	2530.631504
960.902393	2530.573531
961.202153	2529.497245
961.501875	2528.042872
961.801559	2530.513037
962.101205	2529.164529
962.400814	2528.985568
962.700385	2529.648479
962.999918	2528.483973
963.299414	2530.896165
963.598873	2529.530012
963.898293	2527.329549
964.197677	2528.983047
964.497022	2524.670340
964.796331	2528.645290
965.095601	2527.009435
965.394835	2529.056144
965.694030	2528.095804
965.993189	2529.706453
966.292309	2529.280475
966.591393	2531.450692
966.890439	2529.754344
967.189447	2529.409025
967.488419	2528.405835
967.787353	2527.415248
968.086249	2527.964734
968.385108	2528.073119
968.683930	2528.163860
968.982714	2531.420445
969.281462	2528.922553
969.580172	2528.652852
969.878844	2528.335259
970.177480	2528.690660
970.476078	2530.432379
970.774639	2530.182842
971.073162	2527.594209
971.371649	2529.096473
971.670098	2527.006915
971.968510	2524.428365
972.266885	2523.652027
972.565223	2528.925074
972.863524	2527.047244
973.161788	2527.929446
973.460014	2529.840043
973.758204	2528.962883
974.056356	2530.881042
974.354471	2526.964065
974.652550	2528.136133
974.950591	2527.695032
975.248595	2530.853315
975.546563	2528.710825
975.844493	2527.168232
976.142386	2528.007584
976.440243	2528.189065
976.738062	2529.686288
977.035845	2528.269724
977.333590	2531.387678
977.631299	2528.115969
977.928971	2529.479601
978.226606	2528.879703
978.524204	2528.360465
978.821765	2527.826102
979.119290	2532.632843
979.416777	2528.937677
979.714228	2526.759898
980.011642	2528.736031
980.309020	2529.968593
980.606360	2530.162677
980.903664	2530.913809
981.200931	2531.652338
981.498162	2528.516740
981.795356	2528.907430
982.092513	2531.233922
982.389633	2526.033972
982.686717	2532.763912
982.983764	2530.066895
983.280775	2529.018335
983.577749	2530.528161
983.874686	2529.537574
984.171587	2528.030269
984.468451	2530.392050
984.765279	2529.411545
985.062070	2527.022038
985.358824	2530.422297
985.655543	2530.873480
985.952224	2528.393232
986.248869	2528.075639
986.545478	2523.929290
986.842050	2527.914322
987.138586	2525.774353
987.435086	2525.552542
987.731549	2523.304187
988.027975	2526.517923
988.324366	2525.628159
988.620719	2527.589168
988.917037	2529.003212
989.213318	2526.102028
989.509563	2527.339631
989.805772	2527.760567
990.101944	2528.015146
990.398080	2529.842564
990.694180	2528.244518
990.990244	2526.414579
991.286271	2527.135464
991.582262	2525.340813
991.878217	2528.249559
992.174136	2527.019518
992.470019	2529.721576
992.765865	2530.061854
993.061676	2529.003212
993.357450	2527.437933
993.653188	2527.294261
993.948890	2527.569003
994.244556	2529.875331
994.540186	2525.902902
994.835780	2528.022707
995.131337	2527.926925
995.426859	2528.143695
995.722345	2526.928777
996.017795	2526.628828
996.313208	2528.252080
996.608586	2527.969775
996.903928	2529.240146
997.199234	2527.221164
997.494504	2526.094466
997.789738	2528.345341
998.084936	2528.914992
998.380099	2528.441123
998.675225	2525.532377
998.970316	2525.698735
999.265371	2530.243336
999.560390	2527.929446
999.855373	2528.037831
1000.150320	2528.128572
1000.445232	2525.731503
1000.740108	2527.168232
1001.034948	2526.903571
1001.329752	2526.843077
1001.624521	2527.626977
1001.919254	2522.051461
1002.213951	2526.217974
1002.508613	2527.269055
1002.803239	2526.376771
1003.097829	2522.253107
1003.392384	2528.224353
1003.686903	2528.000022
1003.981386	2529.449354
1004.275834	2528.962882
1004.570246	2529.892975
1004.864623	2526.931297
1005.158964	2528.501617
1005.453270	2524.861904
1005.747540	2529.477080
1006.041775	2525.318128
1006.335974	2523.999867
1006.630138	2524.304856
1006.924266	2525.421472
1007.218359	2526.543129
1007.512416	2525.915505
1007.806438	2527.319466
1008.100425	2526.369209
1008.394376	2528.272244
1008.688292	2526.545649
1008.982172	2526.369209
1009.276017	2526.223015
1009.569827	2527.727800
1009.863602	2527.737882
1010.157341	2527.937008
1010.451045	2530.379447
1010.744714	2526.023890
1011.038347	2528.357944
1011.331945	2525.998684
1011.625508	2528.337779
1011.919036	2526.722090
1012.212528	2528.506658
1012.505986	2526.467511
1012.799408	2525.360978
1013.092795	2528.461288
1013.386147	2528.499096
1013.679464	2526.810310
1013.972745	2524.022552
1014.265992	2526.588499
1014.559204	2524.234280
1014.852380	2526.916174
1015.145521	2524.410721
1015.438628	2524.135978
1015.731699	2525.393746
1016.024736	2525.580268
1016.317737	2527.208561
1016.610703	2525.960875
1016.903635	2526.233098
1017.196531	2522.139681
1017.489393	2526.492717
1017.782219	2520.576923
1018.075011	2525.582789
1018.367768	2525.882738
1018.660490	2527.183355
1018.953177	2527.183355
1019.245829	2527.183355
