Dividing Wavelength (nm)	Counts (n)	Blue Motor Position (mm): 0.000000	Red Motor Position (mm): 45.000000	
326.493990	2125.506737
326.888308	2125.506737
327.282561	2125.506737
327.676750	2096.898189
328.070874	2091.521799
328.464933	2095.877356
328.858929	2099.882552
329.252859	2112.669439
329.646726	2121.917436
330.040528	2136.791360
330.434265	2155.257107
330.827938	2171.431649
331.221547	2188.624504
331.615091	2210.392206
332.008571	2229.241081
332.401986	2249.675398
332.795338	2266.669127
333.188625	2286.521191
333.581847	2305.596917
333.975006	2322.499906
334.368100	2342.558657
334.761129	2358.289578
335.154095	2373.962525
335.546996	2398.265928
335.939833	2422.024886
336.332606	2435.623398
336.725315	2448.342230
337.117960	2458.827830
337.510540	2466.777729
337.903056	2477.152424
338.295508	2485.170379
338.687896	2493.165649
339.080220	2502.635457
339.472480	2509.446055
339.864676	2510.252640
340.256807	2517.547190
340.648875	2521.522139
341.040879	2520.670184
341.432818	2526.467511
341.824694	2524.849301
342.216506	2526.026410
342.608253	2528.612522
342.999937	2525.728982
343.391557	2524.128416
343.783113	2527.390043
344.174605	2524.723272
344.566033	2523.157994
344.957397	2523.301667
345.348697	2519.112468
345.739934	2518.189937
346.131106	2515.016530
346.522215	2514.900584
346.913260	2512.261540
347.304241	2510.935716
347.695159	2504.399860
348.086012	2506.706188
348.476802	2504.377175
348.867528	2505.161075
349.258191	2504.094871
349.648789	2500.596310
350.039324	2499.961124
350.429796	2499.767040
350.820203	2498.337873
351.210548	2497.238901
351.600828	2495.414004
351.991045	2493.483242
352.381198	2495.640856
352.771288	2496.286123
353.161314	2496.507934
353.551276	2493.914260
353.941175	2497.790908
354.331010	2493.962151
354.720782	2495.726555
355.110490	2495.338386
355.500135	2492.301091
355.889717	2495.277893
356.279235	2495.028355
356.668689	2493.667244
357.058080	2495.814775
357.447408	2495.471977
357.836672	2495.164467
358.225873	2497.236381
358.615010	2492.802686
359.004084	2496.699498
359.393095	2500.145127
359.782043	2501.107987
360.170927	2499.724190
360.559748	2500.200579
360.948505	2501.193687
361.337199	2502.978255
361.725830	2503.195025
362.114398	2503.439521
362.502903	2502.401043
362.891344	2505.529079
363.279722	2503.696619
363.668037	2506.938081
364.056289	2504.936743
364.444478	2506.935561
364.832603	2508.400016
365.220665	2507.646363
365.608665	2509.998062
365.996601	2510.171982
366.384474	2510.318175
366.772284	2511.069307
367.160031	2513.400841
367.547715	2516.198681
367.935336	2516.896881
368.322893	2520.095493
368.710388	2522.921060
369.097820	2531.662420
369.485189	2534.344314
369.872495	2540.108874
370.259738	2546.266643
370.646918	2555.227294
371.034035	2561.024621
371.421090	2570.842268
371.808081	2582.220152
372.195010	2592.741040
372.581875	2605.548092
372.968678	2618.912191
373.355418	2627.968623
373.742096	2643.361787
374.128710	2660.451298
374.515262	2670.619306
374.901751	2687.902902
375.288177	2705.126004
375.674540	2725.598129
376.060841	2742.269225
376.447079	2764.180600
376.833254	2786.785134
377.219367	2798.427679
377.605417	2833.768688
377.991404	2843.556088
378.377329	2867.410828
378.763191	2881.200905
379.148991	2922.122471
379.534727	2942.370265
379.920402	2970.888073
380.306013	2984.042964
380.691563	3033.763864
381.077049	3056.731361
381.462474	3074.471181
381.847835	3114.712192
382.233134	3134.876807
382.618371	3132.452012
383.003545	3205.652087
383.388657	3212.331616
383.773706	3244.279928
384.158693	3256.338368
384.543618	3282.847276
384.928480	3322.017041
385.313280	3365.043289
385.698017	3367.677292
386.082692	3419.192843
386.467305	3424.387752
386.851856	3457.878658
387.236344	3479.686689
387.620770	3514.637009
388.005133	3533.992519
388.389435	3558.137125
388.773674	3573.381575
389.157851	3618.809932
389.541965	3632.829381
389.926018	3597.569031
390.310008	3669.186183
390.693936	3688.524049
391.077802	3726.761201
391.461606	3717.248544
391.845348	3779.920168
392.229027	3779.448820
392.612645	3790.420892
392.996200	3868.929301
393.379694	3907.743665
393.763125	3973.692040
394.146494	3942.164664
394.529801	4002.719004
394.913047	4055.189853
395.296230	4022.175337
395.679351	4074.784818
396.062410	4096.176955
396.445408	4079.974686
396.828343	4109.417545
397.211217	4134.280516
397.594028	4052.835635
397.976778	4122.416161
398.359466	4147.004388
398.742092	4175.859953
399.124656	4100.131740
399.507158	4180.011343
399.889598	4207.326835
400.271977	4267.432513
400.654294	4237.006629
401.036549	4244.969131
401.418742	4218.248495
401.800874	4316.717353
402.182944	4341.744162
402.564952	4403.798245
402.946898	4390.713930
403.328783	4384.425091
403.710606	4302.103048
404.092367	4489.760000
404.474067	4455.207932
404.855705	4464.801248
405.237282	4391.218045
405.618797	4503.754243
406.000250	4535.710117
406.381642	4616.272797
406.762972	4580.145368
407.144240	4589.829425
407.525447	4589.337912
407.906593	4651.399557
408.287677	4691.731308
408.668700	4619.673055
409.049661	4672.297660
409.430560	4716.402715
409.811399	4637.521261
410.192176	4804.728772
410.572891	4739.244183
410.953545	4845.637735
411.334138	4722.333633
411.714669	4789.466679
412.095139	4687.153941
412.475547	4831.207432
412.855894	4810.667251
413.236180	4813.313857
413.616405	4768.117392
413.996568	4861.431670
414.376670	4802.828257
414.756711	4759.043315
415.136691	4791.377276
415.516609	4864.534501
415.896466	4904.231067
416.276262	4941.517961
416.655997	4917.181791
417.035670	5101.040233
417.415283	5192.678328
417.794834	5133.502743
418.174324	5087.343418
418.553753	4998.858565
418.933121	5178.858005
419.312428	5246.805197
419.691674	5186.265980
420.070859	5313.358510
420.449983	5222.816866
420.829045	5340.542932
421.208047	5245.938118
421.586988	5319.899407
421.965867	5327.718237
422.344686	5464.610769
422.723444	5317.731711
423.102141	5134.052229
423.480777	5435.425009
423.859352	5204.630904
424.237866	5462.082631
424.616319	5456.328153
424.994712	5566.565585
425.373044	5442.946411
425.751314	5583.405560
426.129524	5386.130086
426.507673	5578.762657
426.885762	5667.721378
427.263789	5594.470892
427.641756	5476.013859
428.019662	5601.505822
428.397508	5603.199650
428.775292	5552.974634
429.153016	5653.923740
429.530679	5573.534980
429.908282	5663.196943
430.285824	5533.321696
430.663305	5806.146422
431.040726	5540.429723
431.418086	5545.793511
431.795385	5646.513244
432.172624	5660.436911
432.549802	5653.107073
432.926920	5668.038971
433.303977	5678.784190
433.680974	5717.958997
434.057910	5729.498198
434.434786	5736.150001
434.811601	5707.249066
435.188355	5946.471980
435.565050	5818.424152
435.941683	5795.678466
436.318257	6006.176886
436.694770	5996.011399
437.071222	6030.618920
437.447614	5959.571418
437.823946	5873.410538
438.200218	6028.385689
438.576429	5895.833590
438.952580	5991.862529
439.328670	6038.193254
439.704700	5943.802689
440.080670	5930.453714
440.456580	6203.132246
440.832429	6085.774184
441.208218	5931.250216
441.583947	6087.437765
441.959616	6091.369865
442.335224	6017.758937
442.710773	6153.507128
443.086261	6182.060223
443.461689	5972.610363
443.837057	6125.584176
444.212365	6282.197703
444.587612	6173.545714
444.962800	6326.287634
445.337927	6303.688142
445.712995	5919.600110
446.088002	6494.992368
446.462949	6324.737480
446.837837	6251.623105
447.212664	6425.671462
447.587431	6571.353246
447.962139	7109.370391
448.336786	8036.705764
448.711374	7777.499716
449.085901	6855.815476
449.460369	6775.724144
449.834776	6708.258382
450.209124	7105.329906
450.583412	7252.271979
450.957640	7401.054073
451.331808	7160.732187
451.705917	6718.285237
452.079965	6637.389841
452.453954	6845.473548
452.827883	6724.127934
453.201752	6821.583520
453.575562	6617.391584
453.949311	6824.071330
454.323001	6713.513785
454.696632	6786.328211
455.070202	6929.809532
455.443713	7080.199754
455.817164	7184.549118
456.190556	7259.140551
456.563888	7330.969431
456.937160	7381.519602
457.310373	7037.294493
457.683526	7063.899183
458.056619	6950.211081
458.429653	6940.048115
458.802628	6880.769187
459.175542	6985.869683
459.548398	7338.493353
459.921194	7500.306830
460.293930	7502.214907
460.666607	8031.520937
461.039224	8338.330602
461.411782	8470.328174
461.784280	8482.215215
462.156719	8380.164617
462.529099	8256.999146
462.901419	7847.445725
463.273680	7736.633602
463.645882	7748.664316
464.018024	7617.647248
464.390106	7782.918956
464.762130	8174.425046
465.134094	8640.515007
465.505999	9662.061984
465.877845	10885.459282
466.249631	11533.613035
466.621358	11154.709829
466.993026	10520.106698
467.364634	10261.543397
467.736184	9902.134333
468.107674	9567.610926
468.479105	9601.542932
468.850477	9364.407055
469.221790	9139.725349
469.593043	8810.621182
469.964238	8665.188935
470.335373	8681.751646
470.706449	8744.398064
471.077467	8722.509374
471.448425	10032.629642
471.819324	11112.911102
472.190164	11139.132664
472.560945	9880.971569
472.931667	9091.922608
473.302330	8962.120458
473.672934	8600.826003
474.043479	8963.063154
474.413965	8904.800018
474.784393	8784.324003
475.154761	8938.520296
475.525070	9023.161269
475.895321	8855.114406
476.265513	9028.182258
476.635645	9197.426396
477.005719	9197.199544
477.375734	9307.994023
477.745691	9549.911435
478.115588	9687.575264
478.485427	9928.522253
478.855207	10463.865065
479.224928	11277.456884
479.594591	11904.906618
479.964194	11723.906510
480.333739	11661.802015
480.703226	11574.826988
481.072653	11666.908704
481.442022	11905.829150
481.811333	12091.424270
482.180584	11901.062739
482.549777	11611.251845
482.918912	11431.799371
483.287988	11455.888525
483.657005	11467.273971
484.025964	11151.962401
484.394864	11276.088211
484.763706	11251.822617
485.132489	11009.544763
485.501213	10968.358536
485.869879	11046.995495
486.238487	10888.032791
486.607036	10991.910807
486.975527	10776.255287
487.343959	10974.513785
487.712333	11015.949549
488.080648	10937.458784
488.448905	10989.062555
488.817104	10929.897053
489.185244	11192.705006
489.553326	11345.953562
489.921350	11892.570915
490.289315	12943.119650
490.657222	13293.777271
491.025070	13189.236343
491.392861	13073.914907
491.760593	12693.547247
492.128267	12347.623270
492.495883	12020.618743
492.863440	11682.770695
493.230939	11348.932884
493.598380	11275.006884
493.965763	11143.727676
494.333088	11045.208406
494.700354	10968.250152
495.067563	11022.866012
495.434713	10855.247647
495.801805	10983.436628
496.168839	10909.840823
496.535815	10843.592499
496.902733	10841.782725
497.269593	10773.200348
497.636395	10875.833199
498.003139	10854.945178
498.369825	10727.711496
498.736453	10890.281146
499.103023	10819.218520
499.469535	10847.693478
499.835989	10834.861221
500.202385	10791.978646
500.568723	10645.018929
500.935003	10867.104441
501.301226	10678.764413
501.667390	10934.610532
502.033497	11028.106292
502.399546	10887.158151
502.765537	10796.263626
503.131470	10868.848680
503.497345	11048.379292
503.863163	10656.502677
504.228923	10975.249794
504.594625	11028.496981
504.960269	10777.676892
505.325856	10998.512198
505.691385	10796.510643
506.056856	10945.060844
506.422270	10975.890020
506.787625	10863.182423
507.152924	10978.468570
507.518164	10958.780344
507.883347	10884.544312
508.248472	10802.943155
508.613540	11032.907991
508.978550	10912.343755
509.343503	10894.311548
509.708398	11012.100628
510.073236	11130.885336
510.438016	11125.229162
510.802738	11071.964330
511.167403	11124.961981
511.532010	11023.571774
511.896561	11261.277301
512.261053	11323.961529
512.625488	11197.446211
512.989866	11176.656493
513.354186	11167.393373
513.718449	11068.047354
514.082655	11263.694534
514.446803	11162.543782
514.810894	11283.899479
515.174927	11148.234467
515.538904	11168.545276
515.902822	11330.257930
516.266684	11215.082688
516.630488	11152.471557
516.994235	11212.148736
517.357925	11274.215422
517.721558	11364.714216
518.085133	11372.704445
518.448651	11389.708257
518.812112	11267.881213
519.175516	11284.496856
519.538863	11404.211657
519.902152	11318.149078
520.265385	11483.778708
520.628560	11396.768393
520.991678	11368.119516
521.354739	11436.437233
521.717743	11372.326359
522.080690	11345.623367
522.443580	11479.957514
522.806413	11435.292891
523.169189	11468.007459
523.531908	11515.474963
523.894569	11338.306132
524.257174	11343.687564
524.619722	11466.943775
524.982213	11414.629201
525.344647	11464.748353
525.707025	11410.495455
526.069345	11512.296516
526.431608	11421.580952
526.793815	11535.937007
527.155964	11328.478402
527.518057	11374.738551
527.880093	11328.952271
528.242072	11392.059955
528.603995	11302.239197
528.965860	11220.844727
529.327669	11275.508478
529.689421	11226.137938
530.051117	11200.639782
530.412755	11304.192644
530.774337	11188.601507
531.135862	11175.295381
531.497331	11197.967971
531.858743	11045.263859
532.220098	11210.447347
532.581396	11083.939591
532.942638	11061.274563
533.303824	11027.365242
533.664953	11039.811851
534.026025	10952.592328
534.387040	11051.252750
534.747999	11059.739532
535.108902	11113.377409
535.469748	10869.433454
535.830537	10972.857766
536.191270	10961.507608
536.551947	10976.086625
536.912567	10973.911367
537.273131	10901.258258
537.633638	10878.073992
537.994089	10865.874399
538.354483	10821.658439
538.714821	10960.854779
539.075103	10969.381891
539.435328	10934.320666
539.795497	10759.947154
540.155609	10917.803325
540.515665	11008.597026
540.875665	10738.928063
541.235609	10809.264762
541.595496	10814.673920
541.955328	10963.657660
542.315102	10850.546771
542.674821	10793.846393
543.034483	10799.419389
543.394090	10798.257403
543.753640	10729.624614
544.113134	10952.713315
544.472571	10805.504061
544.831953	10950.979158
545.191278	10753.338201
545.550548	10779.774012
545.909761	10919.209807
546.268918	10896.065870
546.628019	10982.859415
546.987064	10844.270534
547.346053	10764.297670
547.704986	10858.657988
548.063863	10848.288334
548.422684	10844.177273
548.781449	10759.024623
549.140158	10865.816426
549.498811	10731.406662
549.857408	10593.394993
550.215949	10821.723974
550.574434	10672.926756
550.932864	10772.555080
551.291237	10827.392751
551.649555	10780.973807
552.007817	10785.283993
552.366022	10753.933058
552.724173	10742.751778
553.082267	10730.925231
553.440305	10861.105468
553.798288	10667.479790
554.156215	10822.916207
554.514086	10797.841507
554.871902	10649.278704
555.229661	10682.928406
555.587365	10660.344036
555.945014	10552.002078
556.302606	10680.307006
556.660143	10570.674512
557.017625	10726.778882
557.375050	10627.805909
557.732421	10764.464028
558.089735	10673.173773
558.446994	10674.524802
558.804197	10710.190966
559.161345	10713.487880
559.518437	10567.312063
559.875474	10654.372790
560.232455	10683.747593
560.589381	10631.183482
560.946251	10628.310024
561.303065	10736.329348
561.659825	10668.677064
562.016528	10598.849521
562.373177	10476.039452
562.729770	10596.654099
563.086307	10508.265028
563.442789	10609.279668
563.799216	10480.490791
564.155587	10529.866372
564.511904	10481.403239
564.868164	10474.968207
565.224370	10488.158386
565.580520	10406.869780
565.936615	10416.831100
566.292654	10285.640112
566.648638	10414.015615
567.004567	10379.493794
567.360441	10360.828922
567.716260	10266.387946
568.072023	10368.254541
568.427732	10319.166306
568.783385	10224.548889
569.138982	10288.906780
569.494525	10308.259769
569.850013	10186.286532
570.205445	10272.565880
570.560823	10162.497327
570.916145	10082.544627
571.271412	10153.955091
571.626625	10100.929715
571.981782	10077.085057
572.336884	10046.739831
572.691931	10059.191481
573.046923	9999.554631
573.401860	9958.754053
573.756743	9896.205936
574.111570	9937.989540
574.466342	9923.438249
574.821059	9946.859450
575.175722	9842.857926
575.530330	9850.336477
575.884882	9845.789357
576.239380	9773.085836
576.593823	9749.694882
576.948211	9763.111913
577.302544	9644.551536
577.656823	9664.779166
578.011047	9660.481582
578.365216	9632.054516
578.719330	9555.043329
579.073389	9566.358199
579.427394	9515.349284
579.781344	9489.523453
580.135239	9443.099467
580.489080	9446.832441
580.842866	9352.754428
581.196597	9355.234676
581.550273	9394.038958
581.903895	9367.827478
582.257463	9432.339124
582.610975	9314.227410
582.964434	9339.775978
583.317837	9259.450232
583.671186	9239.371317
584.024481	9235.219926
584.377721	9156.025920
584.730906	9129.254873
585.084037	9163.466663
585.437113	9100.812683
585.790135	9116.722564
586.143103	9021.159931
586.496016	8991.729675
586.848874	9052.243686
587.201679	9037.183239
587.554428	8923.905991
587.907124	8968.613464
588.259765	8943.044732
588.612352	8948.242161
588.964884	8820.640475
589.317362	8839.489349
589.669786	8838.292075
590.022155	8886.304025
590.374470	8902.062672
590.726731	8837.694699
591.078937	8690.765229
591.431090	8802.847723
591.783188	8677.920369
592.135232	8665.138523
592.487222	8668.206065
592.839157	8727.278306
593.191038	8656.273654
593.542866	8597.103111
593.894639	8502.778081
594.246358	8550.958909
594.598022	8566.979696
594.949633	8466.559911
595.301190	8437.525386
595.652692	8466.625446
596.004141	8579.443949
596.355535	8357.202161
596.706876	8333.072678
597.058162	8271.389120
597.409395	8344.548865
597.760573	8410.900532
598.111698	8320.784866
598.462768	8300.040518
598.813785	8267.343594
599.164748	8235.203717
599.515657	8222.978919
599.866511	8137.896845
600.217312	8260.780011
600.568060	8120.557797
600.918753	8228.229281
601.269392	8190.360133
601.619978	8101.464426
601.970510	8168.247112
602.320988	8159.987181
602.671412	8223.011687
603.021783	8154.441912
603.372100	8136.785271
603.722363	8133.107749
604.072572	8110.906508
604.422728	8124.275647
604.772830	8053.964154
605.122878	8056.666213
605.472872	8053.563382
605.822813	8082.086231
606.172701	8030.825258
606.522534	8104.209335
606.872314	8103.445600
607.222041	8076.354439
607.571714	8131.366030
607.921333	8090.762057
608.270899	8095.523427
608.620411	8180.416457
608.969870	8082.844925
609.319276	8077.181188
609.668627	8098.288499
610.017926	8130.120865
610.367171	8180.880243
610.716362	8155.979464
611.065500	8141.783575
611.414585	8168.272318
611.763616	8158.663878
612.112594	8137.060014
612.461518	8155.389649
612.810389	8213.821663
613.159207	8154.615832
613.507971	8105.149510
613.856682	8223.437664
614.205340	8178.720109
614.553945	8256.396728
614.902496	8151.477714
615.250994	8208.137762
615.599439	8190.458436
615.947830	8207.414357
616.296169	8172.622833
616.644454	8192.411883
616.992686	8185.349226
617.340864	8246.362311
617.688990	8151.777662
618.037063	8244.199656
618.385082	8189.969444
618.733048	8272.460365
619.080961	8208.011733
619.428821	8236.204386
619.776628	8233.802277
620.124382	8186.145729
620.472083	8163.460536
620.819731	8198.249539
621.167326	8089.448836
621.514868	8096.866894
621.862357	7985.225501
622.209793	8002.476329
622.557176	7941.175899
622.904506	7908.151300
623.251783	7841.479520
623.599007	7799.063251
623.946179	7808.107081
624.293297	7757.773681
624.640363	7678.801485
624.987376	7651.899368
625.334336	7602.899352
625.681243	7550.766260
626.028097	7539.330402
626.374899	7522.427413
626.721647	7513.287801
627.068343	7445.282636
627.414987	7415.675939
627.761577	7370.890329
628.108115	7407.693272
628.454600	7297.425594
628.801032	7350.821495
629.147412	7311.255999
629.493739	7297.443238
629.840014	7234.239771
630.186236	7290.158770
630.532405	7181.950403
630.878521	7228.145016
631.224585	7183.495517
631.570597	7107.479958
631.916556	7133.255377
632.262462	7134.946685
632.608316	7091.736434
632.954117	7074.336892
633.299866	7057.247380
633.645562	7050.855197
633.991206	6972.203115
634.336797	6914.242449
634.682336	6869.721498
635.027823	6837.755542
635.373257	6827.385888
635.718639	6760.462051
636.063968	6774.650378
636.409245	6669.587691
636.754470	6666.880591
637.099642	6626.266535
637.444762	6568.951137
637.789829	6580.142498
638.134845	6521.040010
638.479808	6504.056363
638.824719	6511.318145
639.169577	6439.960612
639.514383	6458.020546
639.859137	6391.560494
640.203839	6398.625672
640.548489	6383.061109
640.893086	6361.250557
641.237632	6330.295352
641.582125	6351.314443
641.926566	6317.183311
642.270955	6335.691907
642.615292	6330.716288
642.959576	6347.894020
643.303809	6336.369942
643.647990	6339.528225
643.992118	6328.316699
644.336195	6279.833402
644.680219	6300.643285
645.024192	6292.887470
645.368112	6390.564867
645.711981	6405.393421
646.055797	6484.733620
646.399562	6440.469769
646.743274	6566.543986
647.086935	6619.483663
647.430544	6614.855883
647.774101	6634.392875
648.117606	6638.395551
648.461059	6632.658718
648.804460	6590.000474
649.147810	6499.274829
649.491108	6473.080993
649.834354	6447.648372
650.177548	6363.408171
650.520690	6280.934894
650.863781	6251.718887
651.206820	6271.931393
651.549807	6196.538417
651.892742	6135.477441
652.235626	6135.666484
652.578458	6126.973014
652.921238	6030.805443
653.263967	6072.120219
653.606644	6012.236353
653.949269	6009.768708
654.291843	5953.476663
654.634365	6001.039950
654.976836	5958.207786
655.319255	5954.222754
655.661622	5930.002531
656.003938	5930.627634
656.346203	5887.069544
656.688416	5919.705974
657.030577	5873.181165
657.372687	5844.305436
657.714746	5827.677190
658.056753	5876.364654
658.398708	5812.515920
658.740612	5806.123737
659.082465	5847.725859
659.424266	5840.869889
659.766016	5841.520198
660.107715	5814.418955
660.449362	5825.811963
660.790958	5822.459596
661.132503	5809.224046
661.473996	5844.960786
661.815438	5828.133414
662.156829	5830.603580
662.498168	5818.751827
662.839456	5797.170647
663.180693	5827.021840
663.521879	5832.030226
663.863013	5821.579914
664.204097	5837.235218
664.545129	5876.803234
664.886110	5871.225197
665.227040	5902.992028
665.567918	5872.452718
665.908746	5897.045987
666.249522	5893.232354
666.590248	5880.964707
666.930922	5906.178038
667.271545	5918.891828
667.612118	5920.280665
667.952639	5892.912241
668.293109	5909.653913
668.633528	5868.883581
668.973896	5870.854673
669.314213	5864.825453
669.654480	5839.783521
669.994695	5837.877965
670.334859	5824.781047
670.674973	5815.366692
671.015035	5820.576725
671.355047	5813.216640
671.695008	5799.696265
672.034918	5772.350526
672.374777	5778.709942
672.714585	5762.442138
673.054342	5766.308703
673.394049	5760.919710
673.733705	5787.330315
674.073310	5768.433550
674.412864	5732.011213
674.752368	5720.298092
675.091820	5726.413012
675.431223	5659.282487
675.770574	5660.169730
676.109875	5609.112924
676.449125	5617.103152
676.788324	5587.047793
677.127473	5524.774420
677.466571	5521.452299
677.805619	5502.613507
678.144616	5490.227392
678.483562	5469.213343
678.822458	5433.975677
679.161303	5430.736736
679.500098	5418.184263
679.838842	5403.133898
680.177535	5399.660543
680.516179	5419.590745
680.854771	5423.353966
681.193314	5503.220967
681.531805	5600.512715
681.870247	5740.908850
682.208638	5842.712431
682.546978	5856.099215
682.885268	5828.577036
683.223508	5742.401031
683.561697	5689.287434
683.899836	5659.405995
684.237925	5613.813800
684.575963	5573.509775
684.913951	5541.397625
685.251889	5587.887145
685.589776	5556.606786
685.927614	5528.772055
686.265401	5592.467034
686.603137	5577.204940
686.940824	5636.945134
687.278460	5662.430687
687.616046	5663.224669
687.953582	5728.510132
688.291068	5703.541297
688.628504	5757.350573
688.965889	5724.855295
689.303224	5666.365308
689.640510	5620.246312
689.977745	5547.290733
690.314930	5453.290858
690.652065	5402.506274
690.989150	5316.552081
691.326185	5240.168518
691.663170	5180.705588
692.000105	5112.034990
692.336990	5041.325245
692.673825	5010.397767
693.010610	4948.658755
693.347345	4882.642325
693.684030	4863.017113
694.020665	4823.814580
694.357251	4736.910129
694.693786	4747.368003
695.030272	4714.287951
695.366707	4680.436603
695.703093	4650.116583
696.039429	4666.316331
696.375716	4642.262466
696.711952	4617.971666
697.048139	4608.154019
697.384276	4582.459258
697.720363	4594.311010
698.056400	4596.844190
698.392388	4552.373652
698.728326	4530.487482
699.064214	4510.900079
699.400053	4505.483359
699.735842	4465.101196
700.071581	4449.733239
700.407270	4414.656890
700.742910	4400.087956
701.078501	4352.015513
701.414042	4346.306406
701.749533	4310.980520
702.084974	4260.430350
702.420366	4301.850991
702.755709	4250.859719
703.091002	4196.843756
703.426246	4237.800610
703.761440	4201.350548
704.096584	4169.142616
704.431679	4181.478319
704.766725	4162.677336
705.101721	4147.848782
705.436668	4173.846012
705.771565	4133.665495
706.106413	4156.257426
706.441212	4173.099921
706.775961	4182.476468
707.110661	4170.972554
707.445311	4192.019372
707.779913	4200.143191
708.114465	4213.807239
708.448967	4233.021597
708.783421	4281.368783
709.117825	4317.773475
709.452180	4322.272705
709.786485	4360.973643
710.120742	4439.446764
710.454949	4423.388169
710.789107	4479.521417
711.123216	4542.094739
711.457275	4536.307494
711.791286	4587.886060
712.125247	4597.716310
712.459159	4524.707799
712.793023	4591.840845
713.126837	4530.041340
713.460602	4522.247716
713.794318	4466.623625
714.127985	4467.674705
714.461602	4383.742014
714.795171	4368.880693
715.128691	4301.830826
715.462162	4247.898042
715.795584	4201.431206
716.128957	4185.072662
716.462281	4150.339112
716.795556	4119.401551
717.128782	4075.798090
717.461960	4017.149307
717.795088	4027.256820
718.128167	3987.386334
718.461198	3938.900517
718.794180	3941.136268
719.127113	3909.687030
719.459997	3891.369998
719.792833	3852.268288
720.125619	3851.645705
720.458357	3811.170281
720.791046	3809.327739
721.123686	3790.594812
721.456278	3753.025613
721.788821	3764.683281
722.121315	3738.933067
722.453761	3714.659911
722.786158	3720.396744
723.118506	3737.367789
723.450805	3704.229764
723.783056	3725.758011
724.115259	3724.298597
724.447412	3724.220459
724.779518	3728.046695
725.111574	3726.579719
725.443582	3748.249119
725.775542	3734.446440
726.107453	3771.314919
726.439315	3769.482459
726.771129	3790.768731
727.102895	3814.981393
727.434612	3850.758462
727.766281	3857.808516
728.097901	3866.398642
728.429473	3867.641286
728.760996	3868.319322
729.092471	3864.301522
729.423897	3848.936085
729.755276	3845.515662
730.086606	3847.942978
730.417887	3888.935120
730.749120	3933.637552
731.080305	3974.357472
731.411442	4000.803365
731.742530	3980.114470
732.073570	3981.331908
732.404562	4014.369110
732.735506	4005.395856
733.066401	3976.701609
733.397249	3931.232922
733.728048	3865.405535
734.058798	3782.743214
734.389501	3721.636868
734.720156	3682.691434
735.050762	3638.646873
735.381320	3623.397382
735.711831	3592.371601
736.042293	3566.253383
736.372707	3576.572625
736.703073	3553.481620
737.033391	3552.972463
737.363661	3562.180131
737.693883	3578.364755
738.024056	3587.816919
738.354182	3587.383379
738.684260	3632.675626
739.014290	3647.599962
739.344272	3649.434942
739.674207	3676.740352
740.004093	3680.803522
740.333931	3677.947708
740.663722	3670.774146
740.993464	3665.647293
741.323159	3648.525014
741.652806	3620.788585
741.982405	3596.956531
742.311956	3565.038465
742.641460	3561.325655
742.970915	3538.126265
743.300323	3506.387161
743.629683	3485.728512
743.958996	3467.988692
744.288260	3444.244857
744.617477	3417.468768
744.946647	3409.760844
745.275768	3382.831000
745.604842	3372.821789
745.933869	3346.743901
746.262847	3335.822241
746.591778	3355.760004
746.920662	3335.635718
747.249498	3319.476299
747.578286	3343.237778
747.907027	3359.104810
748.235720	3367.785677
748.564365	3377.474774
748.892963	3369.625698
749.221514	3360.619677
749.550017	3345.319775
749.878473	3341.470854
750.206881	3312.784168
750.535242	3307.911893
750.863555	3310.757624
751.191821	3304.118424
751.520039	3291.737350
751.848210	3279.852830
752.176334	3296.029893
752.504411	3296.886889
752.832440	3272.109618
753.160421	3261.936569
753.488356	3263.829523
753.816243	3261.770211
754.144082	3236.483784
754.471875	3229.602609
754.799620	3236.965214
755.127318	3232.753330
755.454969	3229.101014
755.782572	3232.153433
756.110129	3217.702965
756.437638	3213.405381
756.765100	3216.535938
757.092515	3217.400496
757.419882	3223.565827
757.747203	3208.505380
758.074477	3212.492932
758.401703	3219.053994
758.728882	3233.449009
759.056014	3237.537385
759.383099	3239.740369
759.710138	3240.914958
760.037129	3257.880961
760.364073	3266.133330
760.690970	3256.865169
761.017820	3245.323447
761.344623	3259.262237
761.671379	3284.934313
761.998088	3317.243068
762.324751	3409.765885
762.651366	3601.523816
762.977935	3966.669712
763.304456	4276.564563
763.630931	4322.181964
763.957359	4062.716296
764.283740	3815.835869
764.610074	3657.939369
764.936362	3507.549147
765.262602	3399.418917
765.588796	3317.694252
765.914943	3254.654623
766.241044	3194.271682
766.567097	3166.900737
766.893104	3135.789256
767.219064	3112.249588
767.544978	3091.812751
767.870845	3060.393759
768.196665	3043.803322
768.522438	3041.670914
768.848165	3033.468957
769.173846	3009.324350
769.499479	3002.390243
769.825066	2991.405569
770.150607	2975.909062
770.476101	2977.020636
770.801548	2976.670276
771.126949	2949.647171
771.452303	2941.188115
771.777611	2938.735593
772.102872	2936.865325
772.428087	2923.120619
772.753256	2915.211049
773.078378	2909.849782
773.403453	2888.447563
773.728482	2876.253012
774.053465	2884.936400
774.378401	2880.023795
774.703291	2864.570138
775.028135	2859.690301
775.352932	2856.970599
775.677683	2848.597242
776.002388	2844.975173
776.327046	2848.239320
776.651658	2839.445027
776.976224	2830.103769
777.300743	2830.131496
777.625216	2823.300732
777.949643	2819.381235
778.274024	2820.921307
778.598359	2812.590801
778.922647	2813.326809
779.246889	2811.373362
779.571086	2802.321970
779.895236	2801.407001
780.219339	2806.627116
780.543397	2811.073413
780.867409	2811.204483
781.191374	2810.357570
781.515294	2804.439255
781.839167	2809.734987
782.162995	2804.439255
782.486776	2806.107877
782.810511	2806.569142
783.134201	2797.694191
783.457844	2798.717545
783.781441	2793.240332
784.104993	2781.602828
784.428498	2781.708692
784.751958	2786.429733
785.075372	2782.515277
785.398739	2775.049328
785.722061	2781.544855
786.045337	2787.455608
786.368568	2783.024433
786.691752	2778.936058
787.014891	2805.107208
787.337983	2823.522543
787.661030	2853.141842
787.984031	2896.614233
788.306987	2919.206163
788.629897	2917.910587
788.952760	2902.860222
789.275579	2889.256668
789.598351	2850.863241
789.921078	2821.342244
790.243759	2810.261788
790.566395	2798.445323
790.888984	2783.901594
791.211529	2774.227620
791.534027	2765.667741
791.856480	2757.848911
792.178888	2751.759197
792.501249	2747.091089
792.823566	2745.856006
793.145836	2742.377610
793.468062	2738.213617
793.790241	2735.594737
794.112375	2742.929616
794.434464	2746.009761
794.756507	2751.154259
795.078505	2756.185330
795.400457	2768.311826
795.722364	2786.805299
796.044226	2805.639050
796.366042	2808.482260
796.687812	2800.401291
797.009538	2806.705254
797.331218	2799.025056
797.652852	2790.873510
797.974442	2778.391613
798.295986	2774.847682
798.617484	2770.507248
798.938938	2761.554159
799.260346	2750.942530
799.581709	2748.058990
799.903026	2743.658063
800.224299	2740.769482
800.545526	2734.402505
800.866708	2726.515619
801.187845	2720.551934
801.508936	2721.494630
801.829983	2720.133519
802.150984	2713.333002
802.471940	2708.617003
802.792851	2709.801674
803.113717	2709.226982
803.434538	2709.325285
803.755314	2705.123483
804.076045	2702.786908
804.396731	2701.791280
804.717372	2703.651466
805.037967	2701.153574
805.358518	2703.137268
805.679024	2707.467620
805.999485	2709.655480
806.319901	2711.566078
806.640272	2706.983669
806.960598	2709.100953
807.280879	2712.473485
807.601115	2715.291490
807.921306	2710.540203
808.241453	2710.449462
808.561554	2710.076417
808.881611	2710.920810
809.201623	2710.078937
809.521590	2705.352856
809.841513	2703.996785
810.161390	2704.984851
810.481223	2700.377237
810.801011	2696.578727
811.120755	2692.513037
811.440453	2693.420444
811.760107	2689.390042
812.079716	2687.348375
812.399281	2680.457117
812.718801	2681.208249
813.038276	2675.443690
813.357707	2678.193639
813.677093	2680.426870
813.996434	2676.746828
814.315731	2677.593742
814.634983	2676.000737
814.954191	2672.655932
815.273354	2681.876202
815.592473	2681.417457
815.911547	2685.682273
816.230577	2688.555731
816.549562	2695.449509
816.868502	2694.998326
817.187399	2698.532174
817.506250	2704.674820
817.825058	2702.731456
818.143821	2709.161447
818.462539	2715.382231
818.781213	2731.685323
819.099843	2748.605956
819.418429	2783.732716
819.736970	2818.413333
820.055466	2858.835826
820.373919	2906.951118
820.692327	2979.538693
821.010691	3080.157603
821.329011	3356.939634
821.647286	3974.672544
821.965517	4889.997369
822.283704	5381.212441
822.601847	5349.216237
822.919945	4877.573445
823.237999	4454.620637
823.556010	4062.189496
823.873976	3723.557548
824.191897	3483.623830
824.509775	3309.819969
824.827609	3165.607681
825.145398	3102.767178
825.463144	3097.778956
825.780845	3137.883856
826.098502	3208.157540
826.416116	3379.435783
826.733685	3577.414498
827.051210	3619.089717
827.368692	3526.335006
827.686129	3343.464630
828.003522	3163.203051
828.320872	3024.248686
828.638177	2925.069025
828.955439	2852.950278
829.272656	2807.290027
829.589830	2771.245777
829.906960	2749.972108
830.224046	2726.833212
830.541088	2710.966180
830.858086	2702.209696
831.175041	2694.249714
831.491952	2693.153263
831.808819	2695.792307
832.125642	2706.724049
832.442421	2725.918243
832.759157	2779.377159
833.075849	2878.438352
833.392497	3022.955630
833.709101	3125.926239
834.025662	3097.388267
834.342179	3009.437776
834.658653	2910.903383
834.975083	2831.258193
835.291469	2784.937551
835.607811	2736.786970
835.924110	2708.606920
836.240366	2685.909125
836.556578	2665.023625
836.872746	2654.880823
837.188871	2644.090233
837.504952	2637.569501
837.820990	2630.733696
838.136984	2629.624642
838.452935	2624.391925
838.768842	2625.054837
839.084706	2632.528347
839.400526	2671.541837
839.716303	2740.898031
840.032037	2781.474279
840.347727	2772.006992
840.663373	2733.782443
840.978977	2694.050589
841.294537	2659.453150
841.610054	2639.071765
841.925527	2626.000053
842.240957	2617.011676
842.556344	2607.667897
842.871687	2602.092381
843.186987	2592.751123
843.502244	2589.320617
843.817458	2590.253231
844.132629	2583.059504
844.447756	2582.346181
844.762840	2577.642785
845.077881	2575.986766
845.392879	2575.984245
845.707833	2575.845613
846.022745	2569.718091
846.337613	2575.938875
846.652438	2573.410736
846.967221	2573.569532
847.281960	2575.187743
847.596656	2571.802608
847.911309	2569.259346
848.225919	2573.085582
848.540485	2570.239850
848.855009	2570.721280
849.169490	2567.807493
849.483928	2566.983265
849.798323	2570.683472
850.112675	2566.166598
850.426984	2568.989644
850.741251	2569.342525
851.055474	2565.420507
851.369654	2568.243553
851.683792	2566.796742
851.997887	2567.983934
852.311938	2567.217678
852.625947	2569.382854
852.939914	2565.919581
853.253837	2569.677762
853.567718	2565.826320
853.881555	2567.434448
854.195350	2568.281362
854.509103	2567.918399
854.822812	2566.461505
855.136479	2570.055848
855.450103	2567.232802
855.763685	2566.133830
856.077224	2568.024263
856.390720	2565.932184
856.704173	2569.035014
857.017584	2568.193142
857.330953	2569.198852
857.644278	2566.496793
857.957561	2569.385375
858.270802	2568.069633
858.584000	2567.787329
858.897155	2570.436455
859.210268	2566.096022
859.523339	2566.930333
859.836367	2565.607030
860.149352	2565.216340
860.462295	2565.642318
860.775195	2562.622667
861.088054	2562.801628
861.400869	2559.660989
861.713642	2559.313149
862.026373	2563.527554
862.339062	2564.606361
862.651708	2566.103583
862.964312	2566.002760
863.276873	2568.019222
863.589392	2564.926474
863.901869	2570.108780
864.214303	2571.190108
864.526696	2572.624316
864.839045	2573.209090
865.151353	2574.935685
865.463619	2574.587845
865.775842	2574.212279
866.088023	2575.543144
866.400162	2572.253791
866.712258	2576.765624
867.024313	2572.367217
867.336325	2570.955694
867.648296	2571.003585
867.960224	2572.747824
868.272110	2573.350242
868.583954	2573.118349
868.895755	2570.943091
869.207515	2572.692372
869.519233	2574.411405
869.830909	2574.003072
870.142542	2571.502659
870.454134	2571.656414
870.765684	2574.071127
871.077191	2574.839903
871.388657	2577.143710
871.700081	2578.096488
872.011463	2579.528176
872.322803	2576.153124
872.634101	2579.205542
872.945357	2583.603949
873.256571	2583.596387
873.567744	2581.521953
873.878874	2585.017993
874.189963	2587.062181
874.501010	2588.128385
874.812015	2587.304156
875.122979	2587.669640
875.433900	2582.515060
875.744780	2584.040009
876.055618	2584.622262
876.366415	2584.395410
876.677169	2585.945565
876.987882	2583.056984
877.298554	2580.327199
877.609183	2586.018662
877.919771	2583.636717
878.230317	2586.779876
878.540822	2593.645927
878.851285	2597.636001
879.161707	2605.850561
879.472087	2620.699280
879.782425	2643.008906
880.092722	2688.217974
880.402977	2769.627567
880.713191	2917.096441
881.023363	3105.751541
881.333494	3231.578741
881.643583	3298.091725
881.953631	3263.716097
882.263637	3158.320693
882.573602	3048.065618
882.883526	2969.479070
883.193408	2902.993813
883.503248	2847.127746
883.813048	2794.278809
884.122806	2752.283477
884.432522	2712.067672
884.742197	2688.200330
885.051831	2668.393636
885.361424	2649.832108
885.670975	2636.326857
885.980485	2629.309570
886.289954	2617.813219
886.599382	2615.766511
886.908768	2610.213680
887.218113	2602.568770
887.527417	2597.046186
887.836680	2591.213571
888.145901	2587.407500
888.455082	2584.241655
888.764221	2583.460276
889.073319	2578.751838
889.382376	2577.148752
889.691392	2577.305027
890.000366	2578.729153
890.309300	2578.900552
890.618193	2581.605132
890.927044	2583.208218
891.235855	2582.837694
891.544625	2581.748804
891.853353	2581.529514
892.162041	2585.564958
892.470687	2592.307501
892.779293	2595.614498
893.087858	2601.852926
893.396381	2611.189143
893.704864	2628.316463
894.013306	2656.214208
894.321707	2695.522606
894.630068	2720.942624
894.938387	2725.497306
895.246665	2717.978425
895.554903	2696.014118
895.863100	2677.124915
896.171256	2655.750422
896.479371	2634.234778
896.787446	2619.895216
897.095480	2609.843155
897.403473	2603.962649
897.711425	2594.654158
898.019336	2594.838160
898.327207	2588.514033
898.635038	2589.156780
898.942827	2585.723754
899.250576	2583.145204
899.558284	2578.887950
899.865952	2580.102868
900.173579	2575.326374
900.481165	2577.839390
900.788711	2573.647670
901.096216	2568.225909
901.403681	2570.106260
901.711105	2567.931002
902.018489	2570.890159
902.325832	2571.084243
902.633135	2570.270097
902.940397	2577.683114
903.247619	2592.141143
903.554800	2621.941924
903.861941	2675.877229
904.169041	2734.881414
904.476101	2761.221443
904.783121	2756.762542
905.090100	2729.686505
905.397039	2691.570341
905.703938	2658.654127
906.010796	2635.696712
906.317614	2614.705348
906.624391	2600.040631
906.931129	2589.605443
907.237826	2581.045563
907.544483	2574.101374
907.851099	2570.416291
908.157675	2567.268090
908.464211	2560.946483
908.770707	2556.290977
909.077163	2559.045968
909.383578	2554.534135
909.689954	2555.464228
909.996289	2551.277550
910.302584	2554.881975
910.608839	2553.987170
910.915054	2554.342572
911.221229	2550.473486
911.527363	2556.253169
911.833458	2553.689742
912.139513	2557.793241
912.445527	2558.967830
912.751502	2558.463715
913.057436	2561.044786
913.363331	2561.092677
913.669186	2564.248439
913.975000	2571.663976
914.280775	2578.502301
914.586510	2590.107037
914.892205	2604.557505
915.197859	2631.021042
915.503475	2664.426248
915.809050	2691.835002
916.114585	2704.821014
916.420081	2709.544575
916.725536	2707.422249
917.030952	2692.359282
917.336328	2670.369768
917.641665	2653.502068
917.946961	2636.999851
918.252218	2621.493261
918.557435	2608.300562
918.862612	2600.418718
919.167750	2594.507965
919.472848	2586.328693
919.777906	2581.574885
920.082925	2577.287383
920.387904	2572.992320
920.692843	2567.810014
920.997743	2568.228430
921.302603	2564.976886
921.607423	2563.235167
921.912204	2561.541339
922.216946	2558.720814
922.521647	2557.271482
922.826310	2555.872562
923.130932	2558.284754
923.435516	2553.939279
923.740059	2553.097407
924.044564	2550.919628
924.349028	2548.237734
924.653454	2544.897970
924.957840	2543.284801
925.262186	2544.867723
925.566493	2545.195398
925.870761	2539.955118
926.174989	2543.894780
926.479178	2545.676828
926.783328	2543.630120
927.087438	2544.565254
927.391509	2543.390665
927.695541	2545.671787
927.999533	2542.057280
928.303486	2543.294883
928.607400	2543.138607
928.911275	2542.889070
929.215110	2539.980324
929.518906	2541.601055
929.822663	2541.989224
930.126381	2541.467465
930.430060	2542.432846
930.733699	2540.534851
931.037299	2543.075593
931.340861	2545.729760
931.644383	2543.627599
931.947866	2543.204142
932.251309	2541.089378
932.554714	2542.115253
932.858080	2546.271684
933.161407	2541.777496
933.464694	2541.694317
933.767943	2539.637526
934.071153	2541.001158
934.374323	2539.183822
934.677455	2539.105684
934.980548	2539.471168
935.283602	2542.669780
935.586617	2538.442772
935.889593	2541.454862
936.192530	2541.417053
936.495428	2540.350849
936.798287	2540.993596
937.101108	2539.143493
937.403890	2541.419574
937.706632	2544.819832
938.009336	2543.090716
938.312002	2546.642209
938.614628	2547.519370
938.917216	2547.801674
939.219765	2548.015923
939.522275	2546.304452
939.824747	2548.290666
940.127179	2543.688093
940.429573	2543.297403
940.731929	2545.449976
941.034246	2540.761703
941.336524	2543.078113
941.638763	2546.803526
941.940964	2544.908052
942.243126	2543.068031
942.545250	2544.645912
942.847335	2542.100129
943.149381	2543.728422
943.451389	2544.645912
943.753359	2543.549461
944.055290	2542.566436
944.357182	2539.138452
944.659036	2543.272198
944.960851	2543.488967
945.262628	2538.672145
945.564367	2541.858154
945.866067	2540.003009
946.167729	2539.350180
946.469352	2541.653987
946.770937	2542.785726
947.072484	2542.720191
947.373992	2542.815973
947.675462	2541.762372
947.976893	2537.724408
948.278286	2540.693648
948.579641	2542.437887
948.880958	2538.659542
949.182236	2538.946888
949.483476	2539.551826
949.784678	2540.716333
950.085841	2538.856147
950.386967	2538.611651
950.688054	2540.764224
950.989103	2538.909079
951.290114	2537.091743
951.591087	2544.325799
951.892021	2538.243647
952.192917	2542.105171
952.493776	2542.493339
952.794596	2541.469985
953.095378	2541.853113
953.396122	2541.951415
953.696828	2542.291693
953.997496	2542.725232
954.298126	2538.241126
954.598718	2539.849254
954.899272	2540.998637
955.199788	2538.004192
955.500266	2539.907227
955.800706	2539.408153
956.101108	2532.259797
956.401472	2534.591331
956.701798	2534.440096
957.002087	2534.125024
957.302337	2535.667617
957.602550	2535.022349
957.902724	2531.564118
958.202861	2535.203831
958.502960	2534.505631
958.803022	2534.735004
959.103045	2532.733666
959.403031	2535.080323
959.702979	2532.529499
960.002889	2535.849099
960.302762	2534.510672
960.602596	2533.754499
960.902393	2533.673841
961.202153	2535.571835
961.501875	2534.321629
961.801559	2534.551002
962.101205	2532.411032
962.400814	2533.963707
962.700385	2533.525127
962.999918	2533.162164
963.299414	2531.619571
963.598873	2537.001002
963.898293	2532.133768
964.197677	2531.947246
964.497022	2530.457585
964.796331	2533.835158
965.095601	2533.565456
965.394835	2534.157792
965.694030	2532.872297
965.993189	2533.164684
966.292309	2532.718542
966.591393	2532.111083
966.890439	2530.170239
967.189447	2531.833820
967.488419	2533.368851
967.787353	2531.599406
968.086249	2532.481608
968.385108	2531.879190
968.683930	2533.295754
968.982714	2533.845240
969.281462	2536.464119
969.580172	2534.551002
969.878844	2532.847092
970.177480	2531.075126
970.476078	2532.232071
970.774639	2535.191228
971.073162	2530.996988
971.371649	2532.254756
971.670098	2529.212420
971.968510	2530.397091
972.266885	2528.758716
972.565223	2535.037473
972.863524	2530.863398
973.161788	2534.419932
973.460014	2532.191742
973.758204	2532.501772
974.056356	2529.204858
974.354471	2531.180990
974.652550	2532.229550
974.950591	2533.212575
975.248595	2536.232226
975.546563	2534.452699
975.844493	2529.335928
976.142386	2531.869108
976.440243	2533.734335
976.738062	2530.271062
977.035845	2531.712832
977.333590	2531.158305
977.631299	2529.593027
977.928971	2531.952287
978.226606	2530.482790
978.524204	2529.489683
978.821765	2533.237781
979.119290	2533.262987
979.416777	2533.464633
979.714228	2532.937832
980.011642	2534.291382
980.309020	2533.900693
980.606360	2531.382636
980.903664	2528.983047
981.200931	2533.421783
981.498162	2530.820548
981.795356	2529.686288
982.092513	2535.448327
982.389633	2533.865405
982.686717	2536.363296
982.983764	2535.284489
983.280775	2538.687268
983.577749	2538.004192
983.874686	2536.698533
984.171587	2534.750127
984.468451	2533.096629
984.765279	2534.082174
985.062070	2535.410518
985.358824	2533.573018
985.655543	2532.345497
985.952224	2531.831299
986.248869	2533.908254
986.545478	2527.664785
986.842050	2528.917512
987.138586	2527.500948
987.435086	2526.278468
987.731549	2526.661596
988.027975	2529.361134
988.324366	2532.320291
988.620719	2533.194931
988.917037	2530.361803
989.213318	2530.964221
989.509563	2529.199817
989.805772	2532.123686
990.101944	2525.943231
990.398080	2529.567821
990.694180	2528.935156
990.990244	2532.516896
991.286271	2530.523120
991.582262	2529.827440
991.878217	2528.841895
992.174136	2529.109076
992.470019	2529.151926
992.765865	2530.056813
993.061676	2528.574714
993.357450	2533.038655
993.653188	2531.828778
993.948890	2532.060672
994.244556	2529.502286
994.540186	2529.640918
994.835780	2529.472039
995.131337	2530.145033
995.426859	2530.737369
995.722345	2529.706453
996.017795	2531.922040
996.313208	2531.765764
996.608586	2531.536392
996.903928	2530.029087
997.199234	2533.005888
997.494504	2530.573531
997.789738	2531.175949
998.084936	2530.432379
998.380099	2530.296268
998.675225	2529.840043
998.970316	2531.364992
999.265371	2531.425486
999.560390	2526.994312
999.855373	2529.988757
1000.150320	2530.939015
1000.445232	2528.418438
1000.740108	2529.335928
1001.034948	2530.079498
1001.329752	2529.981196
1001.624521	2529.073788
1001.919254	2525.429034
1002.213951	2526.301153
1002.508613	2522.671522
1002.803239	2527.115300
1003.097829	2524.297295
1003.392384	2525.776873
1003.686903	2526.202851
1003.981386	2530.876000
1004.275834	2528.398273
1004.570246	2529.749302
1004.864623	2528.108407
1005.158964	2530.805424
1005.453270	2529.963552
1005.747540	2530.084539
1006.041775	2527.858870
1006.335974	2527.453057
1006.630138	2527.475742
1006.924266	2528.519261
1007.218359	2530.107224
1007.512416	2528.650331
1007.806438	2529.993798
1008.100425	2526.701925
1008.394376	2527.742923
1008.688292	2529.187214
1008.982172	2528.410876
1009.276017	2529.663603
1009.569827	2527.480783
1009.863602	2528.103366
1010.157341	2526.434744
1010.451045	2528.496576
1010.744714	2526.061698
1011.038347	2530.923891
1011.331945	2526.570855
1011.625508	2530.490352
1011.919036	2527.853829
1012.212528	2530.200486
1012.505986	2530.056813
1012.799408	2528.879703
1013.092795	2527.934487
1013.386147	2528.753675
1013.679464	2528.115969
1013.972745	2526.812830
1014.265992	2526.129754
1014.559204	2528.070598
1014.852380	2528.884745
1015.145521	2526.278468
1015.438628	2528.466329
1015.731699	2529.207378
1016.024736	2529.744261
1016.317737	2527.004394
1016.610703	2527.410207
1016.903635	2524.975330
1017.196531	2523.460463
1017.489393	2523.689836
1017.782219	2524.352747
1018.075011	2525.822244
1018.367768	2525.229908
1018.660490	2527.034641
1018.953177	2527.034641
1019.245829	2527.034641
