Dividing Wavelength (nm)	Counts (n)	Blue Motor Position (mm): 37.500000	Red Motor Position (mm): 0.000000	
326.493990	2240.399675
326.888308	2240.399675
327.282561	2240.399675
327.676750	2199.047090
328.070874	2196.486183
328.464933	2196.564321
328.858929	2198.653880
329.252859	2203.571525
329.646726	2212.902701
330.040528	2227.456512
330.434265	2238.113511
330.827938	2257.753847
331.221547	2274.883688
331.615091	2290.234001
332.008571	2311.134625
332.401986	2329.557522
332.795338	2346.223576
333.188625	2369.102853
333.581847	2387.130019
333.975006	2404.317833
334.368100	2423.645617
334.761129	2443.724533
335.154095	2460.982923
335.546996	2487.053250
335.939833	2528.370547
336.332606	2540.514687
336.725315	2557.049671
337.117960	2568.326732
337.510540	2576.715212
337.903056	2588.327510
338.295508	2596.264807
338.687896	2610.538834
339.080220	2616.096706
339.472480	2623.401338
339.864676	2627.020887
340.256807	2632.394757
340.648875	2636.311733
341.040879	2637.695530
341.432818	2638.234933
341.824694	2645.350522
342.216506	2644.309524
342.608253	2643.812970
342.999937	2644.990079
343.391557	2647.924031
343.783113	2645.826911
344.174605	2642.567805
344.566033	2642.880357
344.957397	2641.773823
345.348697	2639.865747
345.739934	2639.885911
346.131106	2640.823566
346.522215	2632.971969
346.913260	2632.026752
347.304241	2632.034314
347.695159	2629.579272
348.086012	2628.140023
348.476802	2627.653551
348.867528	2621.591564
349.258191	2621.863786
349.648789	2621.740278
350.039324	2617.818260
350.429796	2619.852366
350.820203	2620.724485
351.210548	2618.100565
351.600828	2615.721140
351.991045	2615.718620
352.381198	2617.087293
352.771288	2615.766511
353.161314	2611.582353
353.551276	2611.247116
353.941175	2610.385079
354.331010	2611.453803
354.720782	2610.538834
355.110490	2610.100254
355.500135	2615.214504
355.889717	2611.053032
356.279235	2609.815428
356.668689	2612.693927
357.058080	2612.048660
357.447408	2610.947167
357.836672	2613.182919
358.225873	2609.633947
358.615010	2613.356839
359.004084	2610.954729
359.393095	2616.457149
359.782043	2614.614607
360.170927	2615.781634
360.559748	2615.053187
360.948505	2615.325410
361.337199	2617.972015
361.725830	2617.752725
362.114398	2617.520832
362.502903	2616.835235
362.891344	2619.471759
363.279722	2618.529063
363.668037	2618.327417
364.056289	2619.333127
364.444478	2621.702469
364.832603	2622.718262
365.220665	2622.766153
365.608665	2620.091821
365.996601	2625.057357
366.384474	2622.161214
366.772284	2624.893520
367.160031	2623.602984
367.547715	2626.839405
367.935336	2627.552728
368.322893	2623.802110
368.710388	2621.977212
369.097820	2621.644496
369.485189	2619.943107
369.872495	2625.647172
370.259738	2627.250259
370.646918	2630.063223
371.034035	2629.811165
371.421090	2625.916874
371.808081	2629.778398
372.195010	2630.000208
372.581875	2630.527009
372.968678	2630.395939
373.355418	2631.421814
373.742096	2632.339304
374.128710	2632.019191
374.515262	2631.719242
374.901751	2632.314098
375.288177	2635.744603
375.674540	2632.775364
376.060841	2635.434572
376.447079	2633.229067
376.833254	2636.173101
377.219367	2636.102525
377.605417	2637.340128
377.991404	2635.537916
378.377329	2640.188380
378.763191	2638.252577
379.148991	2638.124028
379.534727	2640.001858
379.920402	2639.349028
380.306013	2639.591004
380.691563	2642.041004
381.077049	2641.269708
381.462474	2641.683082
381.847835	2641.035294
382.233134	2643.870943
382.618371	2645.733650
383.003545	2643.041673
383.388657	2644.836324
383.773706	2647.780358
384.158693	2647.157776
384.543618	2646.273053
384.928480	2648.047539
385.313280	2647.195584
385.698017	2649.648106
386.082692	2649.834628
386.467305	2648.365132
386.851856	2651.044505
387.236344	2652.362767
387.620770	2650.245482
388.005133	2646.293218
388.389435	2649.270019
388.773674	2645.345481
389.157851	2654.774959
389.541965	2656.073056
389.926018	2655.584064
390.310008	2655.904177
390.693936	2658.376863
391.077802	2659.206133
391.461606	2657.792090
391.845348	2656.599857
392.229027	2659.319559
392.612645	2658.858294
392.996200	2663.407935
393.379694	2662.934067
393.763125	2665.174859
394.146494	2668.139058
394.529801	2673.210459
394.913047	2671.660304
395.296230	2680.996521
395.679351	2685.142870
396.062410	2691.492203
396.445408	2700.397401
396.828343	2711.210676
397.211217	2729.386557
397.594028	2739.667990
397.976778	2762.045672
398.359466	2787.082562
398.742092	2813.462920
399.124656	2840.796057
399.507158	2880.064124
399.889598	2924.905188
400.271977	2985.288129
400.654294	3032.947197
401.036549	3091.480034
401.418742	3133.694657
401.800874	3226.530025
402.182944	3299.152888
402.564952	3393.450191
402.946898	3478.176864
403.328783	3504.426152
403.710606	3578.974735
404.092367	3751.157865
404.474067	3841.026515
404.855705	3883.299110
405.237282	3935.028910
405.618797	4115.497177
406.000250	4195.580947
406.381642	4362.175958
406.762972	4455.734732
407.144240	4569.657248
407.525447	4646.968383
407.906593	4743.385491
408.287677	4918.404271
408.668700	4953.893994
409.049661	5111.437613
409.430560	5198.150500
409.811399	5181.595351
410.192176	5440.526657
410.572891	5519.350138
410.953545	5747.691722
411.334138	5626.207476
411.714669	5826.381613
412.095139	5736.429785
412.475547	5987.753989
412.855894	6105.066680
413.236180	6312.124513
413.616405	6112.842660
413.996568	6350.170101
414.376670	6418.863384
414.756711	6381.636983
415.136691	6517.763260
415.516609	6727.795374
415.896466	6773.730368
416.276262	6984.929508
416.655997	7003.609503
417.035670	7222.587144
417.415283	7558.310346
417.794834	7636.281873
418.174324	7538.312089
418.553753	7487.320818
418.933121	7816.699728
419.312428	7934.065351
419.691674	7740.858089
420.070859	8220.085297
420.449983	7931.408663
420.829045	8294.422152
421.208047	8097.146678
421.586988	8391.610557
421.965867	8417.529649
422.344686	8549.154176
422.723444	8574.637209
423.102141	7968.597255
423.480777	8717.011996
423.859352	8237.850323
424.237866	8867.543371
424.616319	8740.551664
424.994712	9145.315989
425.373044	8725.846618
425.751314	9182.229838
426.129524	9048.712358
426.507673	9179.293366
426.885762	9334.170215
427.263789	9245.042615
427.641756	9163.766612
428.019662	9269.086398
428.397508	9505.229167
428.775292	9204.219351
429.153016	9578.182225
429.530679	9412.141741
429.908282	9459.463052
430.285824	9174.287500
430.663305	9853.824956
431.040726	9305.448241
431.418086	9297.382394
431.795385	9619.925500
432.172624	9699.016162
432.549802	9620.122105
432.926920	9704.697543
433.303977	9584.526517
433.680974	9789.910687
434.057910	9872.109221
434.434786	9936.346124
434.811601	9785.066138
435.188355	10345.985244
435.565050	10079.139327
435.941683	10003.146453
436.318257	10497.091310
436.694770	10623.689807
437.071222	10700.829543
437.447614	10544.478156
437.823946	10438.175345
438.200218	10580.489639
438.576429	10385.157530
438.952580	10630.046702
439.328670	10685.862357
439.704700	10464.381783
440.080670	10454.420463
440.456580	11019.125476
440.832429	10773.399473
441.208218	10368.705725
441.583947	10695.957268
441.959616	10849.039466
442.335224	10646.715277
442.710773	10796.722371
443.086261	10995.941210
443.461689	10285.912334
443.837057	10928.230952
444.212365	11206.868128
444.587612	10847.844713
444.962800	11082.628891
445.337927	10848.379075
445.712995	10438.566035
446.088002	11516.082422
446.462949	11181.957266
446.837837	11158.619244
447.212664	11138.792386
447.587431	11654.691468
447.962139	12378.737271
448.336786	14642.885822
448.711374	15191.534759
449.085901	13042.841235
449.460369	12649.056543
449.834776	12096.520876
450.209124	12977.333961
450.583412	13381.374880
450.957640	14336.968442
451.331808	13475.112616
451.705917	12469.311683
452.079965	11774.083635
452.453954	12670.904904
452.827883	12302.452011
453.201752	12594.307092
453.575562	12114.853032
453.949311	12530.395344
454.323001	12492.044766
454.696632	12723.242163
455.070202	13009.206657
455.443713	13244.401689
455.817164	13710.506774
456.190556	13701.480588
456.563888	14061.353437
456.937160	14239.011261
457.310373	13574.246906
457.683526	13653.554338
458.056619	13199.789998
458.429653	13353.918236
458.802628	12780.766770
459.175542	13155.584120
459.548398	14107.941261
459.921194	14441.143886
460.293930	14508.589483
460.666607	15388.306118
461.039224	16434.653051
461.411782	17132.459649
461.784280	16992.481930
462.156719	17048.347997
462.529099	16728.083493
462.901419	15672.052503
463.273680	15462.083404
463.645882	15320.666436
464.018024	15060.195058
464.390106	15281.216886
464.762130	15997.106103
465.134094	16770.270389
465.505999	18779.981822
465.877845	22033.991177
466.249631	24869.234403
466.621358	24539.369022
466.993026	23109.165949
467.364634	22535.480121
467.736184	21063.329607
468.107674	20263.827813
468.479105	20389.929756
468.850477	19852.686429
469.221790	19451.075346
469.593043	18767.852806
469.964238	18210.956541
470.335373	17854.667952
470.706449	18303.023133
471.077467	17868.440384
471.448425	19711.677794
471.819324	23756.929013
472.190164	25754.123261
472.560945	22169.356240
472.931667	19810.890222
473.302330	19173.005300
473.672934	18727.919306
474.043479	19038.535041
474.413965	18847.213171
474.784393	18465.368452
475.154761	19173.098561
475.525070	19145.800713
475.895321	18828.485284
476.265513	19417.526467
476.635645	19999.532720
477.005719	19783.277302
477.375734	19962.492842
477.745691	20461.458688
478.115588	20977.156123
478.485427	21506.172287
478.855207	22573.324063
479.224928	24352.826165
479.594591	26567.818424
479.964194	26579.728150
480.333739	26793.518443
480.703226	26358.797062
481.072653	26045.005400
481.442022	26628.844112
481.811333	27544.443679
482.180584	27445.286703
482.549777	26504.751069
482.918912	26157.743244
483.287988	26288.725023
483.657005	25948.149711
484.025964	25707.356477
484.394864	25599.027122
484.763706	25293.331553
485.132489	24731.736932
485.501213	24900.499639
485.869879	24813.204498
486.238487	24635.476099
486.607036	24769.354022
486.975527	24493.055941
487.343959	24804.410206
487.712333	24748.138326
488.080648	24414.345886
488.448905	24886.969182
488.817104	24650.264324
489.185244	25339.574057
489.553326	25286.815861
489.921350	26294.328266
490.289315	28594.261447
490.657222	30364.815501
491.025070	30865.523065
491.392861	30639.664250
491.760593	29783.819999
492.128267	28894.280677
492.495883	27834.718359
492.863440	26962.634031
493.230939	26086.973005
493.598380	25937.749810
493.965763	25527.987182
494.333088	25077.189561
494.700354	25016.045406
495.067563	24888.983123
495.434713	24628.279852
495.801805	24785.077381
496.168839	24605.329999
496.535815	24434.381952
496.902733	24653.576362
497.269593	24329.263812
497.636395	24513.938921
498.003139	24472.485513
498.369825	24215.976482
498.736453	24420.952318
499.103023	24301.292969
499.469535	24297.383555
499.835989	24515.138716
500.202385	24540.120153
500.568723	24056.968407
500.935003	24277.067705
501.301226	23917.300719
501.667390	24758.540747
502.033497	24986.307639
502.399546	24715.224632
502.765537	24276.321614
503.131470	24656.961497
503.497345	24797.425687
503.863163	24019.749568
504.228923	24613.708397
504.594625	24819.546270
504.960269	24360.299675
505.325856	24849.951989
505.691385	24250.533591
506.056856	24859.666293
506.422270	24824.675644
506.787625	24380.308015
507.152924	24810.411699
507.518164	24831.849206
507.883347	24648.835157
508.248472	24322.455733
508.613540	25115.661126
508.978550	24918.602423
509.343503	24900.320678
509.708398	25139.069724
510.073236	25299.035618
510.438016	25516.314390
510.802738	25180.167731
511.167403	25433.974704
511.532010	25156.103783
511.896561	25919.861276
512.261053	25890.423458
512.625488	25709.652722
512.989866	25598.293634
513.354186	25448.273937
513.718449	25566.441103
514.082655	25944.782220
514.446803	25679.047877
514.810894	26150.249568
515.174927	25647.699462
515.538904	25664.897358
515.902822	26173.534658
516.266684	25913.897591
516.630488	25812.063763
516.994235	25773.650170
517.357925	26104.806087
517.721558	26270.644925
518.085133	26383.133232
518.448651	26276.671625
518.812112	26030.474274
519.175516	26239.026808
519.538863	26394.251497
519.902152	26176.035070
520.265385	26446.273684
520.628560	26247.644661
520.991678	26239.571253
521.354739	26304.529041
521.717743	26367.122527
522.080690	26166.734142
522.443580	26488.969737
522.806413	26487.343964
523.169189	26584.003048
523.531908	26628.503834
523.894569	26245.693734
524.257174	26340.255698
524.619722	26493.355540
524.982213	26195.161208
525.344647	26237.577477
525.707025	26388.764201
526.069345	26360.659768
526.431608	26313.691338
526.793815	26503.629412
527.155964	25971.757434
527.518057	26144.069114
527.880093	26084.954023
528.242072	26290.756608
528.603995	26013.573805
528.965860	25800.527082
529.327669	25850.747057
529.689421	25848.977612
530.051117	25684.504926
530.412755	25859.712749
530.774337	25642.030685
531.135862	25519.941500
531.497331	25724.866925
531.858743	25280.269923
532.220098	25754.929846
532.581396	25448.324348
532.942638	25364.394178
533.303824	25473.247813
533.664953	25490.480997
534.026025	25138.794981
534.387040	25383.971499
534.747999	25440.543327
535.108902	25601.381341
535.469748	25090.208341
535.830537	25273.388748
536.191270	25400.216617
536.551947	25266.232830
536.912567	24896.333125
537.273131	25280.935355
537.633638	24969.507994
537.994089	25179.388873
538.354483	24715.827050
538.714821	25207.702513
539.075103	25252.621715
539.435328	25028.421438
539.795497	24596.049235
540.155609	24987.119265
540.515665	25283.428206
540.875665	24504.380893
541.235609	24828.769061
541.595496	24771.304948
541.955328	25131.903724
542.315102	25047.580344
542.674821	24595.451858
543.034483	24457.515807
543.394090	24640.343333
543.753640	24430.354070
544.113134	25060.788167
544.472571	24651.930425
544.831953	24960.524658
545.191278	24592.565797
545.550548	24495.135417
545.909761	24692.403329
546.268918	24928.541057
546.628019	24897.366562
546.987064	24592.588483
547.346053	24351.044117
547.704986	24463.585356
548.063863	24610.429126
548.422684	24630.402178
548.781449	24141.027127
549.140158	24559.470622
549.498811	24134.072855
549.857408	23893.440938
550.215949	24304.269771
550.574434	23972.009841
550.932864	24196.799933
551.291237	24357.542164
551.649555	24212.702252
552.007817	24281.178766
552.366022	24130.937257
552.724173	24167.641899
553.082267	24122.425269
553.440305	24595.890438
553.798288	23853.527603
554.156215	24351.195351
554.514086	24460.205262
554.871902	23839.908925
555.229661	24120.335711
555.587365	23980.733558
555.945014	23862.558830
556.302606	24101.824594
556.660143	24056.975969
557.017625	24310.598939
557.375050	23825.584487
557.732421	24216.009249
558.089735	24029.297514
558.446994	24083.381533
558.804197	24126.521207
559.161345	24047.813672
559.518437	23809.634276
559.875474	24007.708772
560.232455	24175.811088
560.589381	23996.898018
560.946251	23987.682789
561.303065	24292.874243
561.659825	24390.317226
562.016528	23992.860054
562.373177	23735.393203
562.729770	24095.623975
563.086307	23960.236227
563.442789	24126.228820
563.799216	23963.381907
564.155587	23969.874913
564.511904	23948.117293
564.868164	23884.167736
565.224370	23854.190514
565.580520	23792.995948
565.936615	23916.327777
566.292654	23594.366924
566.648638	23867.471434
567.004567	23697.738305
567.360441	23654.366738
567.716260	23378.091342
568.072023	23691.842675
568.427732	23473.250683
568.783385	23243.754674
569.138982	23484.605882
569.494525	23511.399614
569.850013	23262.696810
570.205445	23356.830276
570.560823	23169.564013
570.916145	22926.252723
571.271412	23116.568883
571.626625	22862.598073
571.981782	22994.139421
572.336884	22787.681486
572.691931	22930.648609
573.046923	22652.132421
573.401860	22550.729611
573.756743	22554.896125
574.111570	22453.952060
574.466342	22380.941029
574.821059	22479.241008
575.175722	22171.241632
575.530330	22155.402327
575.884882	22170.891272
576.239380	22071.585582
576.593823	21973.189821
576.948211	21943.870470
577.302544	21797.291360
577.656823	21670.818892
578.011047	21773.401332
578.365216	21642.051548
578.719330	21506.608347
579.073389	21415.512177
579.427394	21556.472920
579.781344	21320.539359
580.135239	21213.369469
580.489080	21165.334835
580.842866	20942.319230
581.196597	21142.616875
581.550273	21125.953341
581.903895	20988.065180
582.257463	21312.982669
582.610975	20840.445072
582.964434	21162.141264
583.317837	20850.602997
583.671186	20938.344280
584.024481	20914.953326
584.377721	20679.221410
584.730906	20756.141856
585.084037	20758.392732
585.437113	20677.071358
585.790135	20881.943851
586.143103	20333.002526
586.496016	20360.040755
586.848874	20589.859397
587.201679	20521.841628
587.554428	20197.443378
587.907124	20538.686644
588.259765	20314.236831
588.612352	20378.861903
588.964884	19944.962229
589.317362	20113.704772
589.669786	20179.025523
590.022155	20187.673622
590.374470	20405.156561
590.726731	20186.877120
591.078937	19973.384255
591.431090	20058.131092
591.783188	19815.011365
592.135232	19782.357291
592.487222	19878.116529
592.839157	19894.901051
593.191038	19774.019223
593.542866	19665.011833
593.894639	19378.555827
594.246358	19600.739642
594.598022	19492.871552
594.949633	19240.876874
595.301190	19218.174038
595.652692	19390.929339
596.004141	19611.283215
596.355535	18947.648079
596.706876	18971.074321
597.058162	18854.217854
597.409395	19087.603112
597.760573	19151.943359
598.111698	18938.236244
598.462768	18868.572539
598.813785	18842.562706
599.164748	18631.935737
599.515657	18692.336322
599.866511	18483.917378
600.217312	18847.765177
600.568060	18358.790898
600.918753	18673.341254
601.269392	18570.133711
601.619978	18362.004633
601.970510	18554.289365
602.320988	18510.441408
602.671412	18709.395586
603.021783	18637.904463
603.372100	18340.534359
603.722363	18493.949274
604.072572	18435.739070
604.422728	18582.416482
604.772830	18340.297425
605.122878	18295.267318
605.472872	18280.920194
605.822813	18264.702802
606.172701	18243.575327
606.522534	18429.818235
606.872314	18452.664744
607.222041	18292.721536
607.571714	18500.790119
607.921333	18327.339139
608.270899	18405.819822
608.620411	18593.103729
608.969870	18359.176546
609.319276	18353.487604
609.668627	18387.185197
610.017926	18516.969703
610.367171	18629.306775
610.716362	18680.229991
611.065500	18502.173916
611.414585	18643.117016
611.763616	18620.071381
612.112594	18562.307320
612.461518	18529.227268
612.810389	18714.507316
613.159207	18585.146267
613.507971	18490.586824
613.856682	18757.246218
614.205340	18682.957255
614.553945	18832.613989
614.902496	18577.735771
615.250994	18806.173137
615.599439	18748.840094
615.947830	18735.009689
616.296169	18804.718764
616.644454	18760.903576
616.992686	18727.926868
617.340864	18948.081618
617.688990	18704.011634
618.037063	18871.526656
618.385082	18732.305110
618.733048	19008.663684
619.080961	18870.457931
619.428821	18915.051978
619.776628	18793.807187
620.124382	18727.800839
620.472083	18777.163817
620.819731	18789.718811
621.167326	18485.346545
621.514868	18504.059308
621.862357	18294.566598
622.209793	18293.954098
622.557176	18128.195918
622.904506	17956.756358
623.251783	17880.277013
623.599007	17627.800905
623.946179	17575.859376
624.293297	17508.658275
624.640363	17256.393895
624.987376	17281.440868
625.334336	17080.016525
625.681243	16928.681087
626.028097	16935.358095
626.374899	16857.941095
626.721647	16724.305148
627.068343	16557.150569
627.414987	16493.891650
627.761577	16468.302753
628.108115	16497.269223
628.454600	16227.867441
628.801032	16324.637430
629.147412	16257.408602
629.493739	16272.491735
629.840014	16084.991058
630.186236	16176.971952
630.532405	15942.651559
630.878521	16144.804349
631.224585	16044.687033
631.570597	15863.293715
631.916556	15893.064249
632.262462	15870.686567
632.608316	15779.320695
632.954117	15732.521143
633.299866	15727.182561
633.645562	15636.401463
633.991206	15403.701801
634.336797	15273.171205
634.682336	15244.474437
635.027823	15120.867865
635.373257	14991.814326
635.718639	14906.190328
636.063968	14850.732595
636.409245	14594.364716
636.754470	14622.847235
637.099642	14476.182426
637.444762	14246.028547
637.789829	14289.160659
638.134845	14124.599754
638.479808	14155.459177
638.824719	14091.426441
639.169577	13938.200570
639.514383	13988.319721
639.859137	13816.310511
640.203839	13905.647319
640.548489	13747.823915
640.893086	13726.373806
641.237632	13612.710910
641.582125	13760.580555
641.926566	13581.281836
642.270955	13599.513169
642.615292	13555.057754
642.959576	13563.300040
643.303809	13594.068723
643.647990	13526.141695
643.992118	13585.884410
644.336195	13354.283720
644.680219	13570.249271
645.024192	13487.569307
645.368112	13731.228437
645.711981	13780.299028
646.055797	13972.530827
646.399562	13940.600159
646.743274	14210.400192
647.086935	14479.585205
647.430544	14445.597745
647.774101	14483.948323
648.117606	14632.158246
648.461059	14603.242188
648.804460	14581.517335
649.147810	14305.284790
649.491108	14217.921594
649.834354	14227.744282
650.177548	13920.183486
650.520690	13731.810690
650.863781	13649.856652
651.206820	13695.862222
651.549807	13528.324515
651.892742	13322.274913
652.235626	13260.913989
652.578458	13262.804421
652.921238	12958.570787
653.263967	13158.197958
653.606644	12983.378305
653.949269	12964.539513
654.291843	12762.532917
654.634365	12928.890993
654.976836	12770.634051
655.319255	12775.513888
655.661622	12729.329357
656.003938	12652.214826
656.346203	12582.339393
656.688416	12657.928974
657.030577	12622.590486
657.372687	12526.490970
657.714746	12511.536387
658.056753	12702.313813
658.398708	12512.194258
658.740612	12512.416068
659.082465	12619.399435
659.424266	12589.785177
659.766016	12612.732509
660.107715	12519.889579
660.449362	12596.467227
660.790958	12550.867469
661.132503	12499.087258
661.473996	12568.841703
661.815438	12578.671953
662.156829	12597.901435
662.498168	12576.642889
662.839456	12575.894278
663.180693	12601.425201
663.521879	12690.940970
663.863013	12662.110611
664.204097	12627.850930
664.545129	12764.451076
664.886110	12737.748084
665.227040	12822.842761
665.567918	12831.009430
665.908746	12851.771422
666.249522	12837.003362
666.590248	12899.044842
666.930922	13005.231707
667.271545	12990.037669
667.612118	13070.625554
667.952639	12969.505049
668.293109	12991.103873
668.633528	12942.040843
668.973896	12922.161053
669.314213	12991.418945
669.654480	12729.268863
669.994695	12813.632572
670.334859	12839.445801
670.674973	12782.329528
671.015035	12812.299187
671.355047	12756.914551
671.695008	12719.239487
672.034918	12741.874268
672.374777	12778.583950
672.714585	12691.407277
673.054342	12731.867578
673.394049	12682.572655
673.733705	12771.294442
674.073310	12682.953262
674.412864	12701.497146
674.752368	12554.318139
675.091820	12582.205802
675.431223	12566.563102
675.770574	12434.996548
676.109875	12349.576717
676.449125	12307.964513
676.788324	12256.564908
677.127473	12089.211203
677.466571	12079.287692
677.805619	11970.938172
678.144616	11904.646999
678.483562	11869.510157
678.822458	11737.885630
679.161303	11714.875283
679.500098	11706.093593
679.838842	11657.600214
680.177535	11693.485667
680.516179	11751.292578
680.854771	11696.749814
681.193314	11911.369378
681.531805	12077.490520
681.870247	12504.385510
682.208638	12930.504163
682.546978	13225.386457
682.885268	13262.864915
683.223508	12963.919451
683.561697	12807.192498
683.899836	12703.432949
684.237925	12503.709996
684.575963	12420.641863
684.913951	12341.783093
685.251889	12292.087398
685.589776	12394.919375
685.927614	12310.538022
686.265401	12282.736058
686.603137	12330.604334
686.940824	12482.968168
687.278460	12611.525153
687.616046	12657.182883
687.953582	12814.814723
688.291068	12750.378695
688.628504	12982.493582
688.965889	12994.526817
689.303224	12957.638173
689.640510	12843.962675
689.977745	12518.999815
690.314930	12301.012761
690.652065	12215.464381
690.989150	11920.161150
691.326185	11692.432066
691.663170	11485.555715
692.000105	11250.590055
692.336990	11131.001283
692.673825	10870.855059
693.010610	10760.935220
693.347345	10546.088805
693.684030	10357.831956
694.020665	10293.370722
694.357251	10095.165155
694.693786	10024.657057
695.030272	9874.680209
695.366707	9751.600438
695.703093	9688.719606
696.039429	9691.285553
696.375716	9597.353733
696.711952	9464.642838
697.048139	9520.471096
697.384276	9471.299682
697.720363	9493.384977
698.056400	9427.207229
698.392388	9375.699240
698.728326	9338.745062
699.064214	9274.845916
699.400053	9315.805291
699.735842	9131.538515
700.071581	9096.507537
700.407270	9013.998972
700.742910	8941.098846
701.078501	8838.266870
701.414042	8715.865134
701.749533	8657.614601
702.084974	8519.247531
702.420366	8629.369016
702.755709	8509.719750
703.091002	8375.791416
703.426246	8405.032629
703.761440	8354.106893
704.096584	8313.762538
704.431679	8254.919670
704.766725	8233.721618
705.101721	8187.169083
705.436668	8230.049138
705.771565	8121.389587
706.106413	8205.423101
706.441212	8248.666119
706.775961	8205.481074
707.110661	8251.007735
707.445311	8386.400524
707.779913	8279.371787
708.114465	8408.397599
708.448967	8451.285215
708.783421	8599.785005
709.117825	8783.968602
709.452180	8817.784662
709.786485	8900.656190
710.120742	9189.683184
710.454949	9189.836939
710.789107	9297.117734
711.123216	9511.429787
711.457275	9690.415954
711.791286	9837.063119
712.125247	9837.128654
712.459159	9821.725409
712.793023	10060.144259
713.126837	9637.632553
713.460602	9793.661305
713.794318	9620.280901
714.127985	9647.301486
714.461602	9312.052152
714.795171	9262.661447
715.128691	9008.625102
715.462162	8768.225078
715.795584	8711.870019
716.128957	8549.658291
716.462281	8387.401193
716.795556	8437.911034
717.128782	8225.383550
717.461960	7967.919220
717.795088	8039.077627
718.128167	7947.510108
718.461198	7779.367463
718.794180	7724.265131
719.127113	7715.861527
719.459997	7551.971095
719.792833	7323.810993
720.125619	7397.288331
720.458357	7246.227635
720.791046	7241.940134
721.123686	7235.747076
721.456278	7070.722385
721.788821	7088.278203
722.121315	6984.604353
722.453761	7058.973976
722.786158	6997.441652
723.118506	7005.555389
723.450805	6975.817622
723.783056	7038.343053
724.115259	6952.812317
724.447412	6948.935669
724.779518	6995.737742
725.111574	7001.247723
725.443582	7077.104485
725.775542	7059.977165
726.107453	7249.685867
726.439315	7161.465674
726.771129	7230.894966
727.102895	7407.007675
727.434612	7514.099427
727.766281	7554.534522
728.097901	7618.209336
728.429473	7626.340718
728.760996	7609.407482
729.092471	7575.979591
729.423897	7517.976074
729.755276	7522.119903
730.086606	7441.806760
730.417887	7542.957512
730.749120	7760.687467
731.080305	7949.887012
731.411442	8061.977068
731.742530	8053.492806
732.073570	8160.637490
732.404562	8251.078311
732.735506	8097.426462
733.066401	8232.688182
733.397249	8166.064292
733.728048	7920.033299
734.058798	7593.537929
734.389501	7358.136209
734.720156	7178.960999
735.050762	6956.013449
735.381320	6866.003648
735.711831	6802.422095
736.042293	6697.959305
736.372707	6713.481017
736.703073	6583.751964
737.033391	6620.839733
737.363661	6630.259129
737.693883	6666.560478
738.024056	6749.747078
738.354182	6785.703108
738.684260	6824.414128
739.014290	6946.160514
739.344272	7054.933491
739.674207	7082.344765
740.004093	7154.017370
740.333931	7167.978845
740.663722	7177.695669
740.993464	7254.598471
741.323159	7237.163641
741.652806	6985.594940
741.982405	7010.946903
742.311956	7057.363327
742.641460	6882.082408
742.970915	6690.891607
743.300323	6683.176121
743.629683	6635.900180
743.958996	6501.117370
744.288260	6417.091418
744.617477	6356.050607
744.946647	6358.929106
745.275768	6193.259146
745.604842	6149.562425
745.933869	6132.341843
746.262847	6091.427838
746.591778	6076.478297
746.920662	6038.783069
747.249498	6031.765783
747.578286	6085.204534
747.907027	6152.766078
748.235720	6214.104317
748.564365	6188.429721
748.892963	6224.874743
749.221514	6374.239090
749.550017	6191.280493
749.878473	6074.068625
750.206881	6133.372759
750.535242	6083.142702
750.863555	6004.460373
751.191821	6018.371437
751.520039	6023.334453
751.848210	5926.022540
752.176334	5949.612619
752.504411	5998.746225
752.832440	5927.476913
753.160421	5856.361355
753.488356	5905.893212
753.816243	5933.869096
754.144082	5788.036077
754.471875	5759.956850
754.799620	5800.084434
755.127318	5813.400642
755.454969	5769.862717
755.782572	5736.422223
756.110129	5781.195231
756.437638	5753.990644
756.765100	5700.745977
757.092515	5702.376790
757.419882	5756.816211
757.747203	5733.400051
758.074477	5796.747190
758.401703	5779.181290
758.728882	5731.474330
759.056014	5797.833559
759.383099	5918.932157
759.710138	5929.301810
760.037129	5914.934522
760.364073	5921.147744
760.690970	6002.844683
761.017820	5982.458257
761.344623	5940.155414
761.671379	6047.605088
761.998088	6173.253327
762.324751	6418.883548
762.651366	7043.772376
762.977935	8389.420175
763.304456	10049.704030
763.630931	10925.922103
763.957359	10494.159879
764.283740	9540.555053
764.610074	8681.267695
764.936362	7678.466248
765.262602	7086.017245
765.588796	6545.129164
765.914943	6217.784360
766.241044	6048.202465
766.567097	5833.840000
766.893104	5579.894396
767.219064	5400.300770
767.544978	5341.281461
767.870845	5259.584522
768.196665	5151.300537
768.522438	5082.166153
768.848165	5048.801277
769.173846	4980.042459
769.499479	4937.638793
769.825066	4884.787336
770.150607	4821.082275
770.476101	4799.722906
770.801548	4794.341474
771.126949	4716.450606
771.452303	4660.271988
771.777611	4623.045587
772.102872	4639.880521
772.428087	4601.393832
772.753256	4560.600815
773.078378	4515.913506
773.403453	4442.720994
773.728482	4429.195578
774.053465	4384.767889
774.378401	4376.132393
774.703291	4369.669633
775.028135	4296.338489
775.352932	4247.633381
775.677683	4238.304726
776.002388	4255.986573
776.327046	4263.702059
776.651658	4193.133467
776.976224	4130.963437
777.300743	4132.790855
777.625216	4156.441428
777.949643	4146.618740
778.274024	4105.951752
778.598359	4060.147828
778.922647	4088.574895
779.246889	4079.805808
779.571086	4074.626022
779.895236	4056.248496
780.219339	4044.981517
780.543397	4039.574879
780.867409	4091.342488
781.191374	4102.722893
781.515294	4038.478428
781.839167	4032.292933
782.162995	4056.261099
782.486776	4043.005385
782.810511	4053.690110
783.134201	4046.209038
783.457844	3999.956451
783.781441	3943.263635
784.104993	3952.010037
784.428498	3969.351606
784.751958	3966.800782
785.075372	3945.602731
785.398739	3909.616454
785.722061	3920.659101
786.045337	3966.904126
786.368568	3995.061491
786.691752	3904.963469
787.014891	3958.941624
787.337983	4090.488013
787.661030	4253.196294
787.984031	4413.013474
788.306987	4583.396912
788.629897	4668.121064
788.952760	4623.330413
789.275579	4552.824835
789.598351	4484.071058
789.921078	4340.032690
790.243759	4138.378974
790.566395	4126.791882
790.888984	4120.356849
791.211529	4006.804859
791.534027	3951.054738
791.856480	3936.193417
792.178888	3872.372409
792.501249	3827.796006
792.823566	3842.251515
793.145836	3866.683467
793.468062	3811.855878
793.790241	3770.442799
794.112375	3801.924805
794.434464	3865.297150
794.756507	3891.065008
795.078505	3864.674567
795.400457	3905.820465
795.722364	4048.709450
796.044226	4149.222496
796.366042	4226.581523
796.687812	4203.850960
797.009538	4206.495045
797.331218	4166.314528
797.652852	4140.342504
797.974442	4117.732929
798.295986	4116.565902
798.617484	4033.938869
798.938938	3950.046508
799.260346	3991.893126
799.581709	3985.327023
799.903026	3910.886825
800.224299	3873.373078
800.545526	3863.999053
800.866708	3829.651151
801.187845	3771.085546
801.508936	3807.452430
801.829983	3794.408444
802.150984	3719.118812
802.471940	3715.625292
802.792851	3722.713154
803.113717	3723.754153
803.434538	3721.044533
803.755314	3661.727796
804.076045	3640.474291
804.396731	3663.910615
804.717372	3685.663194
805.037967	3672.977131
805.358518	3658.478772
805.679024	3689.393648
805.999485	3702.825803
806.319901	3705.777398
806.640272	3724.132239
806.960598	3733.876790
807.280879	3706.541133
807.601115	3720.505129
807.921306	3741.219230
808.241453	3781.311527
808.561554	3750.482350
808.881611	3686.580684
809.201623	3723.131570
809.521590	3735.058940
809.841513	3707.491390
810.161390	3738.759147
810.481223	3714.831310
810.801011	3664.150070
811.120755	3655.769152
811.440453	3694.225594
811.760107	3693.401365
812.079716	3642.962101
812.399281	3618.028554
812.718801	3640.630567
813.038276	3614.789612
813.357707	3609.151082
813.677093	3626.646406
813.996434	3574.261256
814.315731	3586.183585
814.634983	3585.432453
814.954191	3603.263014
815.273354	3631.112868
815.592473	3625.897795
815.911547	3634.160246
816.230577	3679.381917
816.549562	3729.891757
816.868502	3771.030093
817.187399	3792.838125
817.506250	3790.592291
817.825058	3765.265534
818.143821	3859.494782
818.462539	3963.513950
818.781213	4006.908202
819.099843	4071.238367
819.418429	4324.952078
819.736970	4567.824788
820.055466	4820.963808
820.373919	5195.161096
820.692327	5605.808447
821.010691	6073.670374
821.329011	7512.322420
821.647286	10352.657211
821.965517	15025.360685
822.283704	19049.393687
822.601847	21116.722988
822.919945	19230.454289
823.237999	16607.189062
823.556010	14105.294655
823.873976	11960.099691
824.191897	9851.271612
824.509775	8503.428390
824.827609	7375.371914
825.145398	6839.976170
825.463144	6721.899744
825.780845	6833.631878
826.098502	7042.265071
826.416116	7963.654404
826.733685	9316.816042
827.051210	10421.108519
827.368692	10412.407487
827.686129	9105.609340
828.003522	7594.417611
828.320872	6574.062867
828.638177	5861.447879
828.955439	5292.225993
829.272656	4786.537768
829.589830	4510.847147
829.906960	4333.280064
830.224046	4146.013802
830.541088	4021.121736
830.858086	3972.764467
831.175041	3895.632293
831.491952	3880.690313
831.808819	3889.638361
832.125642	3971.418479
832.442421	4123.310965
832.759157	4407.009460
833.075849	4980.269311
833.392497	5862.652715
833.709101	6645.105327
834.025662	6971.678835
834.342179	6579.363640
834.658653	5900.370628
834.975083	5243.263786
835.291469	4659.321730
835.607811	4258.925566
835.924110	4113.952063
836.240366	3912.799942
836.556578	3707.093139
836.872746	3597.289247
837.188871	3556.070252
837.504952	3488.939727
837.820990	3402.438568
838.136984	3362.008514
838.452935	3385.462483
838.768842	3382.132801
839.084706	3408.064496
839.400526	3568.642890
839.716303	3922.579781
840.032037	4463.135146
840.347727	4712.997416
840.663373	4417.628650
840.978977	4027.289587
841.294537	3719.857341
841.610054	3490.207577
841.925527	3385.936351
842.240957	3313.285762
842.556344	3259.776435
842.871687	3198.014739
843.186987	3149.115546
843.502244	3110.913682
843.817458	3075.839855
844.132629	3046.674259
844.447756	3053.888150
844.762840	3039.599000
845.077881	3008.230420
845.392879	2987.869199
845.707833	2987.503716
846.022745	2986.324086
846.337613	2983.869044
846.652438	2974.739514
846.967221	2969.232054
847.281960	2955.867955
847.596656	2954.506843
847.911309	2953.579271
848.225919	2944.898404
848.540485	2941.911520
848.855009	2940.416818
849.169490	2931.846857
849.483928	2923.289498
849.798323	2920.121133
850.112675	2917.880340
850.426984	2930.546239
850.741251	2927.093049
851.055474	2913.917993
851.369654	2910.021181
851.683792	2915.631985
851.997887	2927.453491
852.311938	2926.258738
852.625947	2916.201636
852.939914	2918.427305
853.253837	2922.314035
853.567718	2907.495563
853.881555	2907.291396
854.195350	2920.781524
854.509103	2917.156934
854.822812	2911.462951
855.136479	2906.502456
855.450103	2910.472364
855.763685	2902.015829
856.077224	2898.844943
856.390720	2912.824063
856.704173	2919.569127
857.017584	2914.570823
857.330953	2910.119484
857.644278	2921.772111
857.957561	2930.130344
858.270802	2932.834923
858.584000	2931.861980
858.897155	2918.218097
859.210268	2916.433529
859.523339	2916.821698
859.836367	2916.304979
860.149352	2909.096129
860.462295	2907.530851
860.775195	2914.361615
861.088054	2915.480751
861.400869	2896.498286
861.713642	2895.348903
862.026373	2906.953639
862.339062	2913.892787
862.651708	2917.829928
862.964312	2921.051226
863.276873	2911.016809
863.589392	2922.876123
863.901869	2936.197373
864.214303	2958.433902
864.526696	2972.400419
864.839045	2968.485963
865.151353	2969.889924
865.463619	2967.271045
865.775842	2971.155254
866.088023	2988.625373
866.400162	2995.677947
866.712258	2965.688123
867.024313	2954.668160
867.336325	2964.309367
867.648296	2985.903149
867.960224	2975.755307
868.272110	2965.032773
868.583954	2968.748103
868.895755	2979.228662
869.207515	2970.366313
869.519233	2975.498208
869.830909	2988.292656
870.142542	2992.769201
870.454134	2994.606702
870.765684	2993.318687
871.077191	2995.045282
871.388657	3004.588186
871.700081	3020.014117
872.011463	3031.979296
872.322803	3031.611291
872.634101	3028.369829
872.945357	3045.424053
873.256571	3072.648804
873.567744	3064.353586
873.878874	3058.926783
874.189963	3084.850917
874.501010	3082.494178
874.812015	3070.057651
875.122979	3071.703588
875.433900	3071.882549
875.744780	3079.761872
876.055618	3085.554158
876.366415	3078.395720
876.677169	3091.442226
876.987882	3087.580702
877.298554	3080.480237
877.609183	3108.113322
877.919771	3130.438071
878.230317	3159.694408
878.540822	3208.308775
878.851285	3247.750762
879.161707	3296.730613
879.472087	3406.058117
879.782425	3640.736431
880.092722	4093.742078
880.402977	4633.016990
880.713191	5278.967758
881.023363	6475.561241
881.333494	7775.558871
881.643583	8310.367321
881.953631	8000.916092
882.263637	7340.469486
882.573602	6730.898204
882.883526	6144.750643
883.193408	5570.348971
883.503248	5115.369713
883.813048	4806.634328
884.122806	4482.979648
884.432522	4162.732788
884.742197	3921.506015
885.051831	3730.148856
885.361424	3597.022066
885.670975	3521.361908
885.980485	3435.064916
886.289954	3354.706403
886.599382	3309.661173
886.908768	3273.886625
887.218113	3228.503637
887.527417	3168.302178
887.836680	3119.395424
888.145901	3113.277984
888.455082	3101.572424
888.764221	3051.428067
889.073319	3021.891947
889.382376	3018.153931
889.691392	3023.857997
890.000366	3023.724406
890.309300	3010.440966
890.618193	3025.647606
890.927044	3039.667055
891.235855	3039.034390
891.544625	3022.779190
891.853353	3038.293341
892.162041	3055.350085
892.470687	3097.146291
892.779293	3147.192346
893.087858	3200.550439
893.396381	3272.785132
893.704864	3401.097621
894.013306	3649.399654
894.321707	3960.401038
894.630068	4162.561389
894.938387	4151.375069
895.246665	4109.392340
895.554903	3980.805108
895.863100	3778.546454
896.171256	3605.218982
896.479371	3461.977116
896.787446	3337.609330
897.095480	3233.053278
897.403473	3170.099349
897.711425	3135.242291
898.019336	3125.112092
898.327207	3091.664037
898.635038	3056.685991
898.942827	3042.737118
899.250576	3030.766898
899.558284	2997.293637
899.865952	2975.500728
900.173579	2955.502471
900.481165	2950.801595
900.788711	2937.213165
901.096216	2912.115781
901.403681	2900.843761
901.711105	2906.343659
902.018489	2905.564801
902.325832	2905.597569
902.633135	2916.806574
902.940397	2950.438632
903.247619	3040.035059
903.554800	3241.298086
903.861941	3602.159001
904.169041	4037.656720
904.476101	4336.153522
904.783121	4277.308133
905.090100	4022.114843
905.397039	3740.389960
905.703938	3485.698265
906.010796	3301.779329
906.317614	3189.258254
906.624391	3088.611618
906.931129	3018.143849
907.237826	2957.087914
907.544483	2908.962539
907.851099	2877.377189
908.157675	2856.494210
908.464211	2836.649707
908.770707	2821.485917
909.077163	2806.763227
909.383578	2793.431896
909.689954	2785.608025
909.996289	2783.674742
910.302584	2783.420164
910.608839	2781.935544
910.915054	2775.555964
911.221229	2769.677979
911.527363	2772.193514
911.833458	2781.864968
912.139513	2786.487706
912.445527	2787.901750
912.751502	2794.987092
913.057436	2805.601241
913.363331	2819.532470
913.669186	2843.876202
913.975000	2875.615306
914.280775	2944.046449
914.586510	3011.285359
914.892205	3092.422730
915.197859	3228.377608
915.503475	3432.405707
915.809050	3652.593225
916.114585	3797.833908
916.420081	3812.891835
916.725536	3748.526383
917.030952	3625.623052
917.336328	3494.086745
917.641665	3361.832074
917.946961	3258.470776
918.252218	3184.196936
918.557435	3105.433948
918.862612	3042.969011
919.167750	2996.270282
919.472848	2954.610187
919.777906	2926.825868
920.082925	2900.374933
920.387904	2869.903679
920.692843	2855.140660
920.997743	2840.249091
921.302603	2829.067812
921.607423	2817.846204
921.912204	2805.150058
922.216946	2791.264199
922.521647	2782.573250
922.826310	2777.411109
923.130932	2768.097577
923.435516	2757.354878
923.740059	2753.770618
924.044564	2742.032291
924.349028	2738.846282
924.653454	2730.777915
924.957840	2725.207440
925.262186	2719.495813
925.566493	2717.204608
925.870761	2712.148331
926.174989	2709.093392
926.479178	2705.183977
926.783328	2699.636187
927.087438	2699.885724
927.391509	2696.059488
927.695541	2693.407842
927.999533	2689.468180
928.303486	2689.571523
928.607400	2686.887109
928.911275	2685.447860
929.215110	2683.401151
929.518906	2682.077848
929.822663	2682.193795
930.126381	2682.138342
930.430060	2682.339988
930.733699	2685.752849
931.037299	2683.771676
931.340861	2688.462470
931.644383	2687.900381
931.947866	2686.367870
932.251309	2682.834021
932.554714	2681.573733
932.858080	2682.007272
933.161407	2680.454597
933.464694	2677.195491
933.767943	2676.482167
934.071153	2677.190450
934.374323	2677.989472
934.677455	2676.940912
934.980548	2676.308248
935.283602	2672.943277
935.586617	2674.420336
935.889593	2676.409071
936.192530	2676.192301
936.495428	2676.189781
936.798287	2677.213135
937.101108	2679.695903
937.403890	2685.256296
937.706632	2688.205371
938.009336	2697.634849
938.312002	2706.091385
938.614628	2713.587580
938.917216	2718.409444
939.219765	2719.914228
939.522275	2720.171327
939.824747	2716.345092
940.127179	2715.692262
940.429573	2713.002807
940.731929	2708.120449
941.034246	2703.961497
941.336524	2702.446630
941.638763	2700.883873
941.940964	2698.141485
942.243126	2694.970599
942.545250	2694.930270
942.847335	2692.911288
943.149381	2689.309383
943.451389	2687.124043
943.753359	2683.935513
944.055290	2681.916531
944.357182	2680.565502
944.659036	2682.395441
944.960851	2677.760100
945.262628	2676.963598
945.564367	2674.523679
945.866067	2677.311437
946.167729	2679.398475
946.469352	2677.061900
946.770937	2679.017868
947.072484	2674.795902
947.373992	2674.748011
947.675462	2674.700120
947.976893	2668.449089
948.278286	2669.117042
948.579641	2667.418173
948.880958	2666.583862
949.182236	2670.742814
949.483476	2666.384736
949.784678	2668.045797
950.085841	2670.558812
950.386967	2670.457989
950.688054	2672.187104
950.989103	2672.114008
951.290114	2669.994202
951.591087	2672.323216
951.892021	2674.944616
952.192917	2677.757579
952.493776	2680.724298
952.794596	2678.919565
953.095378	2680.873012
953.396122	2681.382169
953.696828	2678.259174
953.997496	2676.358659
954.298126	2671.783812
954.598718	2674.402692
954.899272	2667.894562
955.199788	2666.722494
955.500266	2665.096722
955.800706	2663.319715
956.101108	2658.553304
956.401472	2659.773263
956.701798	2658.802841
957.002087	2652.544248
957.302337	2653.620535
957.602550	2654.497696
957.902724	2650.729433
958.202861	2647.518218
958.502960	2645.721047
958.803022	2648.496202
959.103045	2646.144504
959.403031	2648.261788
959.702979	2645.269863
960.002889	2645.625265
960.302762	2641.191570
960.602596	2645.302631
960.902393	2646.751963
961.202153	2639.815335
961.501875	2642.784575
961.801559	2643.439925
962.101205	2644.059987
962.400814	2643.018988
962.700385	2644.385141
962.999918	2636.195787
963.299414	2637.587145
963.598873	2640.531179
963.898293	2637.186373
964.197677	2640.047228
964.497022	2640.682413
964.796331	2640.644605
965.095601	2640.637043
965.394835	2641.559574
965.694030	2641.642753
965.993189	2639.487660
966.292309	2640.269039
966.591393	2638.338277
966.890439	2639.626292
967.189447	2641.753659
967.488419	2639.066724
967.787353	2639.527989
968.086249	2638.174439
968.385108	2640.032105
968.683930	2639.089409
968.982714	2642.535037
969.281462	2639.747279
969.580172	2637.950108
969.878844	2639.318781
970.177480	2640.412712
970.476078	2637.514048
970.774639	2640.158133
971.073162	2639.795170
971.371649	2640.016981
971.670098	2637.995478
971.968510	2639.018833
972.266885	2640.979842
972.565223	2640.173257
972.863524	2642.376241
973.161788	2640.387506
973.460014	2639.011271
973.758204	2642.726601
974.056356	2639.863226
974.354471	2640.377424
974.652550	2639.341467
974.950591	2640.664769
975.248595	2640.465644
975.546563	2641.231899
975.844493	2640.931951
976.142386	2638.827269
976.440243	2640.747948
976.738062	2641.650315
977.035845	2636.641929
977.333590	2636.631846
977.631299	2638.013122
977.928971	2636.011784
978.226606	2632.939201
978.524204	2635.253091
978.821765	2634.456588
979.119290	2636.871301
979.416777	2637.808956
979.714228	2640.508494
980.011642	2637.004892
980.309020	2637.922382
980.606360	2635.535395
980.903664	2635.706795
981.200931	2636.435241
981.498162	2637.481281
981.795356	2639.147382
982.092513	2641.892290
982.389633	2643.248361
982.686717	2648.420585
982.983764	2652.594660
983.280775	2654.235556
983.577749	2653.111378
983.874686	2653.706234
984.171587	2651.624238
984.468451	2650.769762
984.765279	2650.535349
985.062070	2646.729277
985.358824	2645.801705
985.655543	2642.724081
985.952224	2640.803401
986.248869	2640.604276
986.545478	2641.627630
986.842050	2637.377937
987.138586	2639.228041
987.435086	2635.633698
987.731549	2638.343318
988.027975	2633.266876
988.324366	2635.487504
988.620719	2632.109931
988.917037	2636.054634
989.213318	2633.304685
989.509563	2635.923564
989.805772	2634.867442
990.101944	2636.425159
990.398080	2634.746455
990.694180	2633.846609
990.990244	2636.566311
991.286271	2633.337452
991.582262	2635.323667
991.878217	2634.938019
992.174136	2635.744603
992.470019	2632.926598
992.765865	2631.714201
993.061676	2630.027935
993.357450	2630.496762
993.653188	2628.815537
993.948890	2633.503810
994.244556	2635.749644
994.540186	2636.404994
994.835780	2635.807618
995.131337	2636.641929
995.426859	2633.498769
995.722345	2636.407515
996.017795	2638.542444
996.313208	2636.697381
996.608586	2639.386837
996.903928	2641.264667
997.199234	2637.125879
997.494504	2641.373052
997.789738	2638.174439
998.084936	2635.878194
998.380099	2639.038997
998.675225	2637.710653
998.970316	2635.608492
999.265371	2634.030611
999.560390	2635.726959
999.855373	2634.053296
1000.150320	2634.224695
1000.445232	2634.595220
1000.740108	2633.171094
1001.034948	2633.239150
1001.329752	2634.088584
1001.624521	2633.196300
1001.919254	2632.619088
1002.213951	2630.766464
1002.508613	2631.351238
1002.803239	2631.530199
1003.097829	2631.043727
1003.392384	2633.100518
1003.686903	2632.944242
1003.981386	2630.116155
1004.275834	2632.137658
1004.570246	2631.106742
1004.864623	2630.952987
1005.158964	2631.880559
1005.453270	2633.430714
1005.747540	2631.822586
1006.041775	2632.503141
1006.335974	2632.079684
1006.630138	2632.790487
1006.924266	2633.355096
1007.218359	2632.833337
1007.512416	2631.242853
1007.806438	2629.286885
1008.100425	2629.218830
1008.394376	2627.575413
1008.688292	2631.699077
1008.982172	2631.159674
1009.276017	2631.210085
1009.569827	2632.102370
1009.863602	2631.845271
1010.157341	2628.742441
1010.451045	2630.292595
1010.744714	2630.721093
1011.038347	2631.222688
1011.331945	2629.526340
1011.625508	2632.026752
1011.919036	2629.551546
1012.212528	2631.560446
1012.505986	2632.412401
1012.799408	2632.576238
1013.092795	2632.077164
1013.386147	2630.388377
1013.679464	2631.353758
1013.972745	2628.039200
1014.265992	2629.662451
1014.559204	2631.663789
1014.852380	2627.391411
1015.145521	2629.463326
1015.438628	2631.159674
1015.731699	2631.179838
1016.024736	2633.413070
1016.317737	2629.400311
1016.610703	2630.219499
1016.903635	2633.554222
1017.196531	2632.540950
1017.489393	2629.440640
1017.782219	2631.073974
1018.075011	2631.724283
1018.367768	2629.120527
1018.660490	2630.093470
1018.953177	2630.093470
1019.245829	2630.093470
