Dividing Wavelength (nm)	Counts (n)	Blue Motor Position (mm): 0.000000	Red Motor Position (mm): 43.700000	
326.493990	2129.753909
326.888308	2129.753909
327.282561	2129.753909
327.676750	2097.336770
328.070874	2093.465163
328.464933	2096.792325
328.858929	2104.926227
329.252859	2111.648605
329.646726	2125.718466
330.040528	2136.375465
330.434265	2154.500934
330.827938	2170.514159
331.221547	2190.777077
331.615091	2209.129397
332.008571	2227.509444
332.401986	2246.970819
332.795338	2267.647111
333.188625	2285.288629
333.581847	2306.048101
333.975006	2323.472849
334.368100	2343.138390
334.761129	2358.821420
335.154095	2378.451673
335.546996	2395.543705
335.939833	2420.981367
336.332606	2435.177256
336.725315	2447.361725
337.117960	2456.224074
337.510540	2465.101546
337.903056	2477.661580
338.295508	2483.221973
338.687896	2493.316884
339.080220	2500.923985
339.472480	2507.197701
339.864676	2512.291787
340.256807	2514.716582
340.648875	2522.013652
341.040879	2523.394928
341.432818	2522.180010
341.824694	2526.401976
342.216506	2525.945752
342.608253	2523.667150
342.999937	2524.395597
343.391557	2524.461132
343.783113	2522.724455
344.174605	2522.968951
344.566033	2521.048271
344.957397	2520.806296
345.348697	2518.389062
345.739934	2517.012827
346.131106	2516.317148
346.522215	2511.565861
346.913260	2512.090141
347.304241	2508.306755
347.695159	2508.435304
348.086012	2506.784326
348.476802	2502.665703
348.867528	2502.121259
349.258191	2501.909530
349.648789	2501.851557
350.039324	2497.874087
350.429796	2499.598161
350.820203	2497.735455
351.210548	2497.377533
351.600828	2496.157574
351.991045	2492.263283
352.381198	2493.636997
352.771288	2493.833602
353.161314	2495.643376
353.551276	2494.350320
353.941175	2494.859477
354.331010	2493.125320
354.720782	2491.986019
355.110490	2494.249497
355.500135	2494.536843
355.889717	2494.201606
356.279235	2493.042141
356.668689	2495.625732
357.058080	2494.544405
357.447408	2491.517192
357.836672	2490.546770
358.225873	2495.005670
358.615010	2492.792604
359.004084	2495.751761
359.393095	2494.345279
359.782043	2497.954745
360.170927	2496.956597
360.559748	2498.922647
360.948505	2499.157060
361.337199	2504.183091
361.725830	2500.535816
362.114398	2505.173678
362.502903	2503.953718
362.891344	2503.646208
363.279722	2502.438852
363.668037	2503.633605
364.056289	2504.510766
364.444478	2507.109481
364.832603	2505.203924
365.220665	2507.142248
365.608665	2506.088647
365.996601	2508.132835
366.384474	2507.946312
366.772284	2511.656601
367.160031	2512.904287
367.547715	2515.986953
367.935336	2516.357477
368.322893	2520.491223
368.710388	2522.376615
369.097820	2530.452543
369.485189	2533.878008
369.872495	2538.536034
370.259738	2542.717671
370.646918	2551.804351
371.034035	2559.643345
371.421090	2568.593913
371.808081	2580.695203
372.195010	2589.819692
372.581875	2601.958790
372.968678	2614.793568
373.355418	2624.563324
373.742096	2644.866571
374.128710	2657.139260
374.515262	2673.459996
374.901751	2687.890299
375.288177	2698.567462
375.674540	2723.410269
376.060841	2740.824935
376.447079	2758.758839
376.833254	2782.888322
377.219367	2795.342493
377.605417	2833.940087
377.991404	2841.847137
378.377329	2863.105683
378.763191	2879.980945
379.148991	2917.502253
379.534727	2943.373455
379.920402	2972.929740
380.306013	2985.537666
380.691563	3033.952907
381.077049	3053.827656
381.462474	3075.572673
381.847835	3113.663632
382.233134	3132.620891
382.618371	3131.952938
383.003545	3202.234184
383.388657	3209.503528
383.773706	3247.274373
384.158693	3259.794079
384.543618	3285.488840
384.928480	3317.784992
385.313280	3365.128989
385.698017	3362.759646
386.082692	3421.332813
386.467305	3422.865324
386.851856	3457.646765
387.236344	3480.261381
387.620770	3511.917306
388.005133	3536.326573
388.389435	3563.384967
388.773674	3574.742686
389.157851	3620.168523
389.541965	3631.644710
389.926018	3599.651027
390.310008	3670.474198
390.693936	3686.046322
391.077802	3725.710120
391.461606	3718.372721
391.845348	3778.062503
392.229027	3778.314561
392.612645	3795.227632
392.996200	3871.102038
393.379694	3911.587545
393.763125	3975.670693
394.146494	3941.622740
394.529801	4003.419724
394.913047	4053.964853
395.296230	4016.703164
395.679351	4072.962441
396.062410	4095.725772
396.445408	4079.450406
396.828343	4114.635140
397.211217	4136.349910
397.594028	4053.347312
397.976778	4119.209987
398.359466	4149.126714
398.742092	4176.994213
399.124656	4097.044033
399.507158	4180.941436
399.889598	4205.983368
400.271977	4264.559055
400.654294	4237.477977
401.036549	4247.875356
401.418742	4214.933937
401.800874	4318.423784
402.182944	4339.526054
402.564952	4405.529881
402.946898	4390.338364
403.328783	4389.337695
403.710606	4298.806134
404.092367	4492.817460
404.474067	4459.026606
404.855705	4464.042554
405.237282	4395.944127
405.618797	4501.153008
406.000250	4541.212537
406.381642	4618.364876
406.762972	4583.333898
407.144240	4591.561061
407.525447	4588.755659
407.906593	4650.655987
408.287677	4693.044529
408.668700	4622.150783
409.049661	4674.399822
409.430560	4711.875759
409.811399	4642.343124
410.192176	4804.748937
410.572891	4741.253083
410.953545	4847.250905
411.334138	4727.042071
411.714669	4794.167555
412.095139	4686.622099
412.475547	4827.376156
412.855894	4812.376202
413.236180	4821.261236
413.616405	4774.993526
413.996568	4859.009396
414.376670	4801.411693
414.756711	4758.178757
415.136691	4791.601607
415.516609	4870.967013
415.896466	4904.309204
416.276262	4935.614770
416.655997	4921.239920
417.035670	5100.273978
417.415283	5193.396692
417.794834	5136.837467
418.174324	5090.257205
418.553753	4994.744984
418.933121	5182.202810
419.312428	5247.417697
419.691674	5189.482236
420.070859	5316.166433
420.449983	5223.575560
420.829045	5346.158777
421.208047	5250.250825
421.586988	5320.806815
421.965867	5329.240665
422.344686	5465.082117
422.723444	5317.119211
423.102141	5139.045492
423.480777	5436.685297
423.859352	5203.078228
424.237866	5464.946006
424.616319	5457.913596
424.994712	5566.797478
425.373044	5443.377429
425.751314	5586.644501
426.129524	5389.459768
426.507673	5582.961938
426.885762	5665.727602
427.263789	5598.307210
427.641756	5482.700950
428.019662	5598.435760
428.397508	5606.650320
428.775292	5553.987906
429.153016	5652.552546
429.530679	5581.880611
429.908282	5662.876829
430.285824	5531.118712
430.663305	5807.568027
431.040726	5543.245207
431.418086	5543.023397
431.795385	5653.023894
432.172624	5662.617210
432.549802	5655.115973
432.926920	5671.474517
433.303977	5680.165467
433.680974	5716.776846
434.057910	5735.406430
434.434786	5739.651082
434.811601	5708.012800
435.188355	5944.828564
435.565050	5821.587476
435.941683	5801.206091
436.318257	6011.845663
436.694770	5997.798488
437.071222	6037.542945
437.447614	5963.775741
437.823946	5880.488318
438.200218	6030.313930
438.576429	5893.746552
438.952580	5992.475030
439.328670	6039.655188
439.704700	5951.019101
440.080670	5934.282470
440.456580	6199.593356
440.832429	6088.440955
441.208218	5931.850113
441.583947	6091.916830
441.959616	6088.481284
442.335224	6021.164236
442.710773	6158.278580
443.086261	6186.456109
443.461689	5978.569007
443.837057	6127.167099
444.212365	6283.649555
444.587612	6172.217370
444.962800	6328.364590
445.337927	6308.189892
445.712995	5918.271766
446.088002	6500.146948
446.462949	6329.229148
446.837837	6259.406646
447.212664	6431.143634
447.587431	6573.634368
447.962139	7120.468491
448.336786	8043.264305
448.711374	7787.884492
449.085901	6856.836309
449.460369	6780.934176
449.834776	6711.537653
450.209124	7106.620441
450.583412	7252.506392
450.957640	7403.080617
451.331808	7171.343815
451.705917	6720.047120
452.079965	6642.473845
452.453954	6853.544436
452.827883	6725.300003
453.201752	6822.415311
453.575562	6620.829651
453.949311	6828.386558
454.323001	6711.726696
454.696632	6788.853829
455.070202	6929.005468
455.443713	7082.004487
455.817164	7183.745054
456.190556	7265.757065
456.563888	7341.276070
456.937160	7383.740230
457.310373	7045.859414
457.683526	7065.151910
458.056619	6952.406504
458.429653	6943.221522
458.802628	6879.745833
459.175542	6987.147616
459.548398	7344.169693
459.921194	7503.185329
460.293930	7506.083993
460.666607	8038.719705
461.039224	8352.592026
461.411782	8476.874112
461.784280	8493.623346
462.156719	8383.484217
462.529099	8258.146008
462.901419	7847.178544
463.273680	7741.989828
463.645882	7760.669823
464.018024	7625.806355
464.390106	7790.122765
464.762130	8177.285901
465.134094	8643.368300
465.505999	9666.409979
465.877845	10891.564119
466.249631	11546.478059
466.621358	11162.117805
466.993026	10531.799654
467.364634	10276.485377
467.736184	9910.157330
468.107674	9576.604344
468.479105	9606.054765
468.850477	9375.079178
469.221790	9146.712388
469.593043	8814.039084
469.964238	8678.971449
470.335373	8684.602418
470.706449	8744.297241
471.077467	8729.788801
471.448425	10038.996619
471.819324	11115.199786
472.190164	11144.282203
472.560945	9889.055060
472.931667	9098.531560
473.302330	8961.124830
473.672934	8608.012168
474.043479	8963.731107
474.413965	8903.126355
474.784393	8787.394066
475.154761	8948.494219
475.525070	9027.587402
475.895321	8857.892082
476.265513	9035.559987
476.635645	9208.214465
477.005719	9206.649187
477.375734	9321.927773
477.745691	9556.051560
478.115588	9681.293986
478.485427	9931.544425
478.855207	10473.770932
479.224928	11277.900506
479.594591	11912.087742
479.964194	11736.181720
480.333739	11666.109681
480.703226	11592.443300
481.072653	11676.557473
481.442022	11912.407855
481.811333	12107.994542
482.180584	11915.457753
482.549777	11621.200562
482.918912	11444.530805
483.287988	11467.347067
483.657005	11475.854015
484.025964	11155.345015
484.394864	11292.003134
484.763706	11254.670869
485.132489	11015.405105
485.501213	10978.856739
485.869879	11050.025229
486.238487	10896.348174
486.607036	11004.208702
486.975527	10781.402305
487.343959	10969.139915
487.712333	11022.382062
488.080648	10950.283479
488.448905	10996.157979
488.817104	10931.928638
489.185244	11197.529390
489.553326	11358.226251
489.921350	11890.829196
490.289315	12951.737503
490.657222	13298.634422
491.025070	13208.561606
491.392861	13081.453953
491.760593	12701.303062
492.128267	12350.221985
492.495883	12026.431194
492.863440	11688.467199
493.230939	11348.204437
493.598380	11283.221444
493.965763	11150.452575
494.333088	11053.561598
494.700354	10968.466921
495.067563	11036.124247
495.434713	10866.507064
495.801805	10989.322175
496.168839	10914.367779
496.535815	10848.883190
496.902733	10846.995278
497.269593	10781.130083
497.636395	10885.219827
498.003139	10868.432785
498.369825	10740.775646
498.736453	10896.824563
499.103023	10822.137348
499.469535	10846.710453
499.835989	10840.910605
500.202385	10801.672784
500.568723	10652.986472
500.935003	10880.435772
501.301226	10687.283963
501.667390	10939.250914
502.033497	11040.194979
502.399546	10897.404296
502.765537	10809.978085
503.131470	10876.904444
503.497345	11055.056300
503.863163	10663.976188
504.228923	10976.091666
504.594625	11037.334124
504.960269	10783.975814
505.325856	11008.100473
505.691385	10798.816971
506.056856	10951.253901
506.422270	10988.530713
506.787625	10867.623680
507.152924	10988.286218
507.518164	10964.948196
507.883347	10890.780220
508.248472	10804.642024
508.613540	11038.677591
508.978550	10921.682493
509.343503	10894.412371
509.708398	11022.243430
510.073236	11129.627568
510.438016	11126.597835
510.802738	11075.513303
511.167403	11133.602518
511.532010	11037.485358
511.896561	11264.160841
512.261053	11339.337048
512.625488	11211.241329
512.989866	11189.667711
513.354186	11176.769919
513.718449	11076.841647
514.082655	11267.767787
514.446803	11164.809781
514.810894	11286.397371
515.174927	11159.899697
515.538904	11177.014415
515.902822	11336.246821
516.266684	11223.100643
516.630488	11163.995635
516.994235	11216.209386
517.357925	11278.873449
517.721558	11372.091945
518.085133	11382.665765
518.448651	11395.341747
518.812112	11274.611153
519.175516	11292.781992
519.538863	11411.811196
519.902152	11331.956799
520.265385	11489.631488
520.628560	11400.793754
520.991678	11379.290713
521.354739	11443.620877
521.717743	11370.693025
522.080690	11356.245078
522.443580	11483.972793
522.806413	11441.775815
523.169189	11470.810340
523.531908	11527.041891
523.894569	11346.374499
524.257174	11349.492452
524.619722	11477.752009
524.982213	11414.939232
525.344647	11475.392749
525.707025	11420.580283
526.069345	11515.661486
526.431608	11433.672160
526.793815	11543.854139
527.155964	11334.132057
527.518057	11385.168698
527.880093	11335.203302
528.242072	11407.095197
528.603995	11307.053499
528.965860	11234.309649
529.327669	11277.766915
529.689421	11224.033257
530.051117	11197.282374
530.412755	11304.623662
530.774337	11197.932682
531.135862	11178.914930
531.497331	11197.705831
531.858743	11052.429859
532.220098	11216.620240
532.581396	11087.894376
532.942638	11067.172713
533.303824	11029.850531
533.664953	11045.657069
534.026025	10965.149842
534.387040	11054.227030
534.747999	11061.534183
535.108902	11121.428132
535.469748	10870.141736
535.830537	10977.750206
536.191270	10953.461927
536.551947	10986.748666
536.912567	10978.730710
537.273131	10906.775801
537.633638	10883.520958
537.994089	10876.163394
538.354483	10818.424539
538.714821	10965.006169
539.075103	10975.441358
539.435328	10930.648185
539.795497	10770.894020
540.155609	10926.385889
540.515665	11011.725062
540.875665	10752.047666
541.235609	10817.081071
541.595496	10815.057048
541.955328	10968.103958
542.315102	10840.353558
542.674821	10805.856942
543.034483	10802.882661
543.394090	10809.587396
543.753640	10726.148738
544.113134	10956.075765
544.472571	10806.666047
544.831953	10950.704416
545.191278	10756.138562
545.550548	10787.817173
545.909761	10926.716085
546.268918	10895.057639
546.628019	10981.578962
546.987064	10843.816831
547.346053	10767.967630
547.704986	10868.135357
548.063863	10852.343942
548.422684	10844.877993
548.781449	10762.855900
549.140158	10861.496157
549.498811	10744.768240
549.857408	10594.718296
550.215949	10823.289252
550.574434	10674.345841
550.932864	10771.607343
551.291237	10827.969963
551.649555	10777.752509
552.007817	10793.198605
552.366022	10751.442727
552.724173	10750.268139
553.082267	10730.917670
553.440305	10864.014213
553.798288	10671.157311
554.156215	10819.445372
554.514086	10805.083125
554.871902	10651.784157
555.229661	10683.004023
555.587365	10670.633031
555.945014	10562.303676
556.302606	10682.086533
556.660143	10579.093239
557.017625	10733.934800
557.375050	10634.639193
557.732421	10763.997721
558.089735	10682.956132
558.446994	10674.544967
558.804197	10720.255629
559.161345	10722.072965
559.518437	10559.904087
559.875474	10647.113528
560.232455	10679.470174
560.589381	10633.628442
560.946251	10624.032605
561.303065	10738.129040
561.659825	10677.254587
562.016528	10605.428227
562.373177	10484.022119
562.729770	10606.522157
563.086307	10511.206541
563.442789	10611.606161
563.799216	10481.466254
564.155587	10533.652278
564.511904	10489.146452
564.868164	10473.476025
565.224370	10494.966464
565.580520	10413.577035
565.936615	10424.352501
566.292654	10287.719588
566.648638	10420.095247
567.004567	10382.521007
567.360441	10366.316218
567.716260	10280.556108
568.072023	10364.355209
568.427732	10319.133538
568.783385	10227.591226
569.138982	10298.759715
569.494525	10311.034925
569.850013	10188.880205
570.205445	10278.753896
570.560823	10171.692391
570.916145	10085.602086
571.271412	10163.230814
571.626625	10102.265620
571.981782	10076.835520
572.336884	10058.200895
572.691931	10052.509432
573.046923	10000.091514
573.401860	9961.630031
573.756743	9897.123426
574.111570	9935.045506
574.466342	9923.712992
574.821059	9949.115367
575.175722	9847.647022
575.530330	9851.453093
575.884882	9839.518161
576.239380	9773.947873
576.593823	9752.326364
576.948211	9771.394529
577.302544	9650.878184
577.656823	9662.213219
578.011047	9662.251027
578.365216	9639.129775
578.719330	9562.690760
579.073389	9571.512779
579.427394	9511.003809
579.781344	9492.432198
580.135239	9444.110218
580.489080	9456.942475
580.842866	9356.696611
581.196597	9358.934883
581.550273	9403.196214
581.903895	9368.006439
582.257463	9427.247559
582.610975	9310.070979
582.964434	9343.763530
583.317837	9256.717927
583.671186	9241.304599
584.024481	9237.251511
584.377721	9157.802927
584.730906	9137.860122
585.084037	9169.354731
585.437113	9100.545501
585.790135	9118.446639
586.143103	9018.762863
586.496016	8990.842432
586.848874	9051.313593
587.201679	9038.098208
587.554428	8921.662678
587.907124	8971.804514
588.259765	8946.112274
588.612352	8941.250081
588.964884	8827.569541
589.317362	8831.312598
589.669786	8837.543464
590.022155	8887.130774
590.374470	8898.332218
590.726731	8841.457920
591.078937	8692.181793
591.431090	8804.223958
591.783188	8674.250409
592.135232	8667.908637
592.487222	8668.163215
592.839157	8723.321000
593.191038	8651.915577
593.542866	8602.517310
593.894639	8497.956218
594.246358	8550.989156
594.598022	8563.216475
594.949633	8463.767112
595.301190	8439.390613
595.652692	8468.523441
596.004141	8582.055267
596.355535	8354.817695
596.706876	8336.649377
597.058162	8262.448633
597.409395	8341.466199
597.760573	8408.503463
598.111698	8316.792272
598.462768	8299.334756
598.813785	8265.327132
599.164748	8235.324705
599.515657	8225.229794
599.866511	8133.926937
600.217312	8261.947038
600.568060	8112.139070
600.918753	8217.063125
601.269392	8191.093621
601.619978	8103.579190
601.970510	8168.935229
602.320988	8163.074888
602.671412	8223.150318
603.021783	8155.918970
603.372100	8129.737738
603.722363	8132.281000
604.072572	8109.847865
604.422728	8122.637272
604.772830	8045.820170
605.122878	8050.584061
605.472872	8050.493320
605.822813	8075.404182
606.172701	8030.318622
606.522534	8094.295906
606.872314	8102.114735
607.222041	8070.509221
607.571714	8120.943445
607.921333	8080.863751
608.270899	8090.716686
608.620411	8171.586876
608.969870	8079.709327
609.319276	8075.343688
609.668627	8085.224349
610.017926	8126.581975
610.367171	8171.544027
610.716362	8143.888257
611.065500	8134.098336
611.414585	8161.126482
611.763616	8153.078280
612.112594	8134.247050
612.461518	8151.812950
612.810389	8209.004841
613.159207	8147.785068
613.507971	8100.466278
613.856682	8215.729740
614.205340	8167.637132
614.553945	8243.877023
614.902496	8147.117116
615.250994	8194.461112
615.599439	8180.187085
615.947830	8193.909106
616.296169	8165.741658
616.644454	8178.142897
616.992686	8178.770521
617.340864	8235.226403
617.688990	8134.708315
618.037063	8230.263387
618.385082	8175.057711
618.733048	8258.932428
619.080961	8201.138120
619.428821	8217.186633
619.776628	8218.393990
620.124382	8170.160230
620.472083	8159.994743
620.819731	8180.081221
621.167326	8072.941578
621.514868	8086.293074
621.862357	7969.237482
622.209793	7991.413517
622.557176	7918.137826
622.904506	7895.762664
623.251783	7822.529822
623.599007	7782.760160
623.946179	7782.316538
624.293297	7734.387768
624.640363	7657.195100
624.987376	7634.870350
625.334336	7588.786642
625.681243	7531.763630
626.028097	7523.314656
626.374899	7496.357086
626.721647	7492.488001
627.068343	7424.263545
627.414987	7388.105869
627.761577	7349.997267
628.108115	7384.927422
628.454600	7276.290556
628.801032	7327.458268
629.147412	7290.062988
629.493739	7273.717047
629.840014	7209.467541
630.186236	7264.083402
630.532405	7140.219732
630.878521	7193.116559
631.224585	7152.507544
631.570597	7070.742549
631.916556	7103.058866
632.262462	7104.891325
632.608316	7057.633029
632.954117	7033.853906
633.299866	7018.206164
633.645562	7006.684607
633.991206	6927.271311
634.336797	6878.195678
634.682336	6828.971331
635.027823	6798.613503
635.373257	6792.317102
635.718639	6723.674230
636.063968	6734.369038
636.409245	6627.549509
636.754470	6624.776874
637.099642	6582.963024
637.444762	6525.791298
637.789829	6534.779675
638.134845	6474.416899
638.479808	6462.292924
638.824719	6462.285362
639.169577	6388.709722
639.514383	6407.384676
639.859137	6337.700807
640.203839	6343.871179
640.548489	6327.852913
640.893086	6309.041847
641.237632	6269.473831
641.582125	6293.429394
641.926566	6256.573518
642.270955	6272.619511
642.615292	6265.350167
642.959576	6280.690398
643.303809	6266.383603
643.647990	6271.437360
643.992118	6262.748931
644.336195	6208.619542
644.680219	6228.048149
645.024192	6217.736469
645.368112	6306.264171
645.711981	6322.055586
646.055797	6392.142748
646.399562	6354.024063
646.743274	6464.747966
647.086935	6514.909967
647.430544	6507.471745
647.774101	6526.633171
648.117606	6531.906217
648.461059	6515.741758
648.804460	6479.092569
649.147810	6389.937243
649.491108	6356.925247
649.834354	6329.335012
650.177548	6247.179328
650.520690	6160.703375
650.863781	6142.918184
651.206820	6155.906717
651.549807	6076.440488
651.892742	6011.296178
652.235626	6014.590572
652.578458	5999.784703
652.921238	5911.188944
653.263967	5946.645900
653.606644	5884.536364
653.949269	5886.162136
654.291843	5825.963198
654.634365	5864.016347
654.976836	5813.453574
655.319255	5817.854502
655.661622	5791.864833
656.003938	5782.548781
656.346203	5744.916567
656.688416	5767.412716
657.030577	5722.606941
657.372687	5692.833886
657.714746	5673.594322
658.056753	5713.300971
658.398708	5652.126569
658.740612	5642.712214
659.082465	5681.214027
659.424266	5671.532491
659.766016	5668.144835
660.107715	5635.768025
660.449362	5646.747658
660.790958	5637.824815
661.132503	5629.040605
661.473996	5651.272093
661.815438	5639.319517
662.156829	5635.518487
662.498168	5622.287979
662.839456	5596.999031
663.180693	5627.528259
663.521879	5624.806036
663.863013	5611.078974
664.204097	5612.646772
664.545129	5654.942053
664.886110	5643.090301
665.227040	5664.389176
665.567918	5633.403723
665.908746	5652.852495
666.249522	5656.905583
666.590248	5637.855062
666.930922	5659.831972
667.271545	5665.278939
667.612118	5663.827087
667.952639	5639.672398
668.293109	5648.282689
668.633528	5604.359116
668.973896	5608.966730
669.314213	5596.121870
669.654480	5562.368825
669.994695	5566.106840
670.334859	5556.289193
670.674973	5531.884967
671.015035	5540.270927
671.355047	5522.740314
671.695008	5505.106358
672.034918	5484.180528
672.374777	5487.114480
672.714585	5468.058918
673.054342	5462.838804
673.394049	5457.248164
673.733705	5477.942101
674.073310	5453.999140
674.412864	5426.930665
674.752368	5405.357047
675.091820	5406.793776
675.431223	5346.516699
675.770574	5343.141647
676.109875	5293.017454
676.449125	5295.379235
676.788324	5263.705665
677.127473	5208.552921
677.466571	5199.541859
677.805619	5181.799518
678.144616	5161.153472
678.483562	5139.985667
678.822458	5114.321153
679.161303	5099.207774
679.500098	5088.336526
679.838842	5069.359102
680.177535	5064.973298
680.516179	5077.820679
680.854771	5079.564918
681.193314	5142.533971
681.531805	5228.722578
681.870247	5341.667109
682.208638	5420.573770
682.546978	5429.494092
682.885268	5408.464918
683.223508	5323.904604
683.561697	5277.747799
683.899836	5250.407101
684.237925	5204.469587
684.575963	5169.466335
684.913951	5135.131036
685.251889	5167.870810
685.589776	5146.158560
685.927614	5117.335763
686.265401	5162.658257
686.603137	5146.483715
686.940824	5196.701169
687.278460	5210.924784
687.616046	5208.867993
687.953582	5258.906487
688.291068	5243.457871
688.628504	5273.992139
688.965889	5243.223457
689.303224	5200.855079
689.640510	5147.239888
689.977745	5080.860494
690.314930	4999.697918
690.652065	4950.040032
690.989150	4882.203745
691.326185	4810.765554
691.663170	4757.231020
692.000105	4698.025189
692.336990	4638.320283
692.673825	4607.866673
693.010610	4549.855595
693.347345	4501.664685
693.684030	4469.396259
694.020665	4439.121610
694.357251	4369.493193
694.693786	4371.978482
695.030272	4342.429758
695.366707	4306.806445
695.703093	4282.941623
696.039429	4291.330103
696.375716	4266.449488
696.711952	4245.669852
697.048139	4237.414962
697.384276	4216.544585
697.720363	4221.573136
698.056400	4214.954101
698.392388	4175.945653
698.728326	4163.599867
699.064214	4145.759223
699.400053	4132.380001
699.735842	4098.818519
700.071581	4084.312599
700.407270	4056.495512
700.742910	4040.066392
701.078501	4001.975433
701.414042	3986.685614
701.749533	3963.398004
702.084974	3918.430911
702.420366	3951.924337
702.755709	3906.052358
703.091002	3869.297305
703.426246	3887.508474
703.761440	3862.978219
704.096584	3841.069364
704.431679	3840.466947
704.766725	3828.985719
705.101721	3812.362514
705.436668	3827.039833
705.771565	3794.161428
706.106413	3815.977021
706.441212	3820.337619
706.775961	3824.683094
707.110661	3814.673883
707.445311	3832.824557
707.779913	3833.666430
708.114465	3847.002802
708.448967	3865.259341
708.783421	3897.411820
709.117825	3926.063218
709.452180	3924.868465
709.786485	3955.231334
710.120742	4010.971372
710.454949	4003.102131
710.789107	4040.888100
711.123216	4082.384358
711.457275	4083.947116
711.791286	4124.054536
712.125247	4120.210656
712.459159	4078.235488
712.793023	4127.714413
713.126837	4068.130495
713.460602	4058.491809
713.794318	4023.483516
714.127985	4016.279707
714.461602	3942.457051
714.795171	3934.413890
715.128691	3882.585787
715.462162	3834.185669
715.795584	3795.454484
716.128957	3777.694499
716.462281	3754.762290
716.795556	3725.425295
717.128782	3691.437836
717.461960	3651.050632
717.795088	3646.100219
718.128167	3618.094089
718.461198	3581.608738
718.794180	3578.301741
719.127113	3552.977504
719.459997	3538.000236
719.792833	3507.478570
720.125619	3505.724249
720.458357	3468.959114
720.791046	3472.737459
721.123686	3453.371866
721.456278	3430.724483
721.788821	3431.147939
722.121315	3416.321906
722.453761	3402.741038
722.786158	3397.982188
723.118506	3410.869898
723.450805	3388.502298
723.783056	3402.451171
724.115259	3396.631159
724.447412	3396.303484
724.779518	3398.166190
725.111574	3395.310377
725.443582	3412.467944
725.775542	3399.658372
726.107453	3428.992846
726.439315	3419.646547
726.771129	3438.966769
727.102895	3458.554172
727.434612	3479.805156
727.766281	3485.839417
728.097901	3496.864421
728.429473	3487.379490
728.760996	3483.954026
729.092471	3484.662308
729.423897	3469.743013
729.755276	3464.275882
730.086606	3464.406952
730.417887	3491.576251
730.749120	3524.101775
731.080305	3542.738921
731.411442	3564.693146
731.742530	3550.542627
732.073570	3551.099675
732.404562	3570.089701
732.735506	3563.674833
733.066401	3544.178170
733.397249	3504.552181
733.728048	3454.667443
734.058798	3393.984553
734.389501	3350.401258
734.720156	3321.028975
735.050762	3292.987557
735.381320	3276.142541
735.711831	3255.191506
736.042293	3238.064185
736.372707	3242.049217
736.703073	3222.781927
737.033391	3226.628328
737.363661	3234.106880
737.693883	3240.806573
738.024056	3244.453848
738.354182	3246.218252
738.684260	3275.056172
739.014290	3288.687452
739.344272	3284.692338
739.674207	3304.559525
740.004093	3308.620175
740.333931	3306.402067
740.663722	3303.435348
740.993464	3295.399749
741.323159	3286.209725
741.652806	3262.087804
741.982405	3243.375041
742.311956	3226.759398
742.641460	3218.098696
742.970915	3196.041127
743.300323	3175.538754
743.629683	3160.924449
743.958996	3144.011378
744.288260	3131.400932
744.617477	3108.262036
744.946647	3101.401025
745.275768	3081.375042
745.604842	3076.548137
745.933869	3058.236145
746.262847	3051.478479
746.591778	3057.616083
746.920662	3044.491439
747.249498	3038.691592
747.578286	3051.675084
747.907027	3061.588513
748.235720	3070.266859
748.564365	3073.639391
748.892963	3062.863925
749.221514	3062.677402
749.550017	3053.769683
749.878473	3042.563198
750.206881	3028.067360
750.535242	3025.012421
750.863555	3021.196268
751.191821	3017.085207
751.520039	3015.333406
751.848210	3004.873011
752.176334	3012.394413
752.504411	3010.781244
752.832440	2994.596619
753.160421	2987.828870
753.488356	2986.785351
753.816243	2986.775269
754.144082	2969.857157
754.471875	2967.891107
754.799620	2966.131744
755.127318	2964.614357
755.454969	2965.118472
755.782572	2963.008749
756.110129	2960.730148
756.437638	2950.297480
756.765100	2952.203036
757.092515	2955.144549
757.419882	2955.943572
757.747203	2946.864454
758.074477	2947.177006
758.401703	2954.743778
758.728882	2961.531691
759.056014	2959.333748
759.383099	2964.362299
759.710138	2966.406487
760.037129	2972.271869
760.364073	2978.147334
760.690970	2972.965028
761.017820	2966.116621
761.344623	2971.190542
761.671379	2985.023468
761.998088	2997.948987
762.324751	3053.361350
762.651366	3176.990607
762.977935	3409.904517
763.304456	3596.296139
763.630931	3611.719550
763.957359	3453.742391
764.283740	3292.659882
764.610074	3195.073225
764.936362	3103.989658
765.262602	3042.848023
765.588796	2990.528408
765.914943	2951.799744
766.241044	2917.277922
766.567097	2905.307702
766.893104	2881.871378
767.219064	2869.618854
767.544978	2855.745598
767.870845	2837.857064
768.196665	2827.734427
768.522438	2823.494817
768.848165	2818.125988
769.173846	2806.433031
769.499479	2800.537402
769.825066	2792.053140
770.150607	2784.902263
770.476101	2782.603497
770.801548	2781.582663
771.126949	2766.242432
771.452303	2762.791762
771.777611	2758.882348
772.102872	2758.214395
772.428087	2750.198960
772.753256	2745.982035
773.078378	2738.871487
773.403453	2729.794890
773.728482	2723.674929
774.053465	2727.105434
774.378401	2721.925649
774.703291	2712.450800
775.028135	2711.354349
775.352932	2709.995758
775.677683	2702.030735
776.002388	2701.614840
776.327046	2702.449151
776.651658	2697.904551
776.976224	2693.901875
777.300743	2692.177800
777.625216	2689.049764
777.949643	2687.005576
778.274024	2690.380629
778.598359	2679.937878
778.922647	2683.058353
779.246889	2682.234124
779.571086	2675.632733
779.895236	2678.854030
780.219339	2681.425019
780.543397	2682.143383
780.867409	2685.009279
781.191374	2683.058353
781.515294	2678.506191
781.839167	2677.445028
782.162995	2677.807991
782.486776	2678.019719
782.810511	2673.596107
783.134201	2670.581497
783.457844	2669.472443
783.781441	2667.055210
784.104993	2662.223264
784.428498	2660.395846
784.751958	2662.699653
785.075372	2661.991371
785.398739	2657.804692
785.722061	2659.528767
786.045337	2662.308963
786.368568	2660.685712
786.691752	2657.887872
787.014891	2671.357835
787.337983	2680.873012
787.661030	2699.454706
787.984031	2722.480176
788.306987	2735.758575
788.629897	2729.772205
788.952760	2723.087635
789.275579	2710.152034
789.598351	2689.916843
789.921078	2676.361180
790.243759	2670.820952
790.566395	2662.593789
790.888984	2657.824857
791.211529	2649.237252
791.534027	2644.808598
791.856480	2642.345994
792.178888	2641.952784
792.501249	2635.721918
792.823566	2635.510190
793.145836	2633.776033
793.468062	2633.123203
793.790241	2632.971969
794.112375	2632.707308
794.434464	2636.868781
794.756507	2640.538741
795.078505	2642.875315
795.400457	2645.398413
795.722364	2654.439722
796.044226	2665.522699
796.366042	2668.209634
796.687812	2660.206802
797.009538	2668.181908
797.331218	2660.534477
797.652852	2654.616163
797.974442	2651.016779
798.295986	2647.268681
798.617484	2644.932106
798.938938	2641.637712
799.260346	2638.953298
799.581709	2632.361989
799.903026	2630.993316
800.224299	2630.917698
800.545526	2626.841926
800.866708	2622.088117
801.187845	2624.102058
801.508936	2620.225411
801.829983	2621.732716
802.150984	2620.094341
802.471940	2614.609566
802.792851	2616.023609
803.113717	2611.582353
803.434538	2615.774072
803.755314	2615.249792
804.076045	2610.342229
804.396731	2613.876078
804.717372	2610.884153
805.037967	2610.485902
805.358518	2611.279884
805.679024	2615.637961
805.999485	2612.842641
806.319901	2617.601491
806.640272	2614.652416
806.960598	2615.625358
807.280879	2618.380349
807.601115	2617.402365
807.921306	2611.955398
808.241453	2614.105450
808.561554	2614.213835
808.881611	2615.222066
809.201623	2611.973042
809.521590	2611.327775
809.841513	2608.557661
810.161390	2611.869699
810.481223	2609.875922
810.801011	2607.120932
811.120755	2604.491970
811.440453	2607.115891
811.760107	2602.455344
812.079716	2598.737493
812.399281	2595.070053
812.718801	2599.007195
813.038276	2593.585434
813.357707	2595.856473
813.677093	2596.509303
813.996434	2596.925198
814.315731	2595.314549
814.634983	2595.223809
814.954191	2594.717173
815.273354	2598.089705
815.592473	2597.925867
815.911547	2598.377050
816.230577	2599.823862
816.549562	2603.577001
816.868502	2602.299068
817.187399	2604.186980
817.506250	2610.531272
817.825058	2604.809563
818.143821	2607.378031
818.462539	2612.575460
818.781213	2616.164762
819.099843	2625.536267
819.418429	2639.943884
819.736970	2657.338386
820.055466	2669.013698
820.373919	2692.288705
820.692327	2716.670246
821.010691	2758.491658
821.329011	2886.592419
821.647286	3194.130530
821.965517	3665.780883
822.283704	3919.897887
822.601847	3881.053276
822.919945	3620.859162
823.237999	3396.033782
823.556010	3203.749051
823.873976	3052.438818
824.191897	2943.360852
824.509775	2867.269676
824.827609	2805.069399
825.145398	2774.172167
825.463144	2771.946498
825.780845	2785.184568
826.098502	2818.342757
826.416116	2898.809655
826.733685	2983.932058
827.051210	2998.732886
827.368692	2955.983901
827.686129	2875.950543
828.003522	2796.033131
828.320872	2737.959039
828.638177	2698.743903
828.955439	2666.697288
829.272656	2647.346819
829.589830	2631.280662
829.906960	2626.763788
830.224046	2614.753239
830.541088	2607.350304
830.858086	2601.774788
831.175041	2599.856629
831.491952	2601.091712
831.808819	2602.132710
832.125642	2604.494491
832.442421	2615.960595
832.759157	2635.134624
833.075849	2678.753207
833.392497	2734.783112
833.709101	2776.123094
834.025662	2766.013060
834.342179	2729.343707
834.658653	2686.214115
834.975083	2660.453819
835.291469	2640.132928
835.607811	2619.499485
835.924110	2606.170674
836.240366	2597.285641
836.556578	2589.930597
836.872746	2585.771645
837.188871	2584.420616
837.504952	2577.325192
837.820990	2571.669017
838.136984	2572.077351
838.452935	2571.742114
838.768842	2571.326219
839.084706	2578.419122
839.400526	2591.231215
839.716303	2619.532253
840.032037	2641.204173
840.347727	2633.965076
840.663373	2619.809516
840.978977	2599.634818
841.294537	2588.577047
841.610054	2578.015830
841.925527	2573.032649
842.240957	2566.655590
842.556344	2569.324881
842.871687	2563.794735
843.186987	2562.819272
843.502244	2558.075546
843.817458	2557.299208
844.132629	2557.246276
844.447756	2556.462377
844.762840	2549.389638
845.077881	2552.585729
845.392879	2551.365770
845.707833	2553.218394
846.022745	2548.933413
846.337613	2554.811399
846.652438	2551.149001
846.967221	2551.174206
847.281960	2550.758311
847.596656	2551.998435
847.911309	2549.346788
848.225919	2551.895091
848.540485	2551.264947
848.855009	2548.076417
849.169490	2549.515667
849.483928	2548.837632
849.798323	2549.717313
850.112675	2547.869730
850.426984	2547.862168
850.741251	2549.808054
851.055474	2548.275543
851.369654	2549.936603
851.683792	2548.787220
851.997887	2549.072045
852.311938	2550.919628
852.625947	2547.428629
852.939914	2548.860317
853.253837	2552.197561
853.567718	2547.842004
853.881555	2552.469783
854.195350	2544.981149
854.509103	2547.700851
854.822812	2551.527087
855.136479	2551.305276
855.450103	2548.880481
855.763685	2547.899977
856.077224	2547.254709
856.390720	2546.294369
856.704173	2548.673794
857.017584	2550.070194
857.330953	2549.132539
857.644278	2551.741336
857.957561	2553.019269
858.270802	2548.270502
858.584000	2548.567930
858.897155	2549.598846
859.210268	2547.214380
859.523339	2550.710420
859.836367	2546.937117
860.149352	2547.801674
860.462295	2551.731254
860.775195	2545.374359
861.088054	2546.027188
861.400869	2546.821170
861.713642	2546.155738
862.026373	2546.954761
862.339062	2547.526932
862.651708	2548.502395
862.964312	2549.555996
863.276873	2546.332178
863.589392	2551.174206
863.901869	2551.083466
864.214303	2550.163455
864.526696	2549.072045
864.839045	2550.667570
865.151353	2553.697304
865.463619	2550.261758
865.775842	2552.767211
866.088023	2549.571119
866.400162	2552.310987
866.712258	2549.840821
867.024313	2551.527087
867.336325	2547.998279
867.648296	2551.010369
867.960224	2550.193702
868.272110	2550.773435
868.583954	2550.259237
868.895755	2549.961809
869.207515	2552.880637
869.519233	2553.372149
869.830909	2551.912735
870.142542	2554.166131
870.454134	2554.483724
870.765684	2554.680329
871.077191	2551.660678
871.388657	2553.122612
871.700081	2550.397869
872.011463	2555.350802
872.322803	2556.868190
872.634101	2554.647561
872.945357	2560.056719
873.256571	2555.499516
873.567744	2555.827191
873.878874	2559.918088
874.189963	2555.907850
874.501010	2558.335165
874.812015	2557.762994
875.122979	2558.010011
875.433900	2557.533622
875.744780	2556.439692
876.055618	2557.710062
876.366415	2556.855587
876.677169	2555.965823
876.987882	2557.463046
877.298554	2552.253013
877.609183	2558.128478
877.919771	2555.169321
878.230317	2558.224260
878.540822	2563.575445
878.851285	2566.426217
879.161707	2568.866136
879.472087	2575.565829
879.782425	2585.610328
880.092722	2604.217227
880.402977	2639.442290
880.713191	2704.803370
881.023363	2790.999539
881.333494	2848.193950
881.643583	2872.799822
881.953631	2852.960361
882.263637	2810.544092
882.573602	2767.873246
882.883526	2734.158009
883.193408	2702.514686
883.503248	2675.844462
883.813048	2653.839825
884.122806	2635.288379
884.432522	2621.188272
884.742197	2607.032712
885.051831	2596.005187
885.361424	2589.048395
885.670975	2585.290215
885.980485	2578.943402
886.289954	2574.902917
886.599382	2572.457958
886.908768	2572.518452
887.218113	2563.078891
887.527417	2565.322205
887.836680	2562.562173
888.145901	2560.797769
888.455082	2558.330124
888.764221	2557.851215
889.073319	2557.485731
889.382376	2556.096893
889.691392	2555.257541
890.000366	2556.376677
890.309300	2555.746533
890.618193	2556.774928
890.927044	2558.720814
891.235855	2556.364074
891.544625	2557.216029
891.853353	2557.284085
892.162041	2559.955896
892.470687	2561.122923
892.779293	2563.202399
893.087858	2566.017884
893.396381	2569.846640
893.704864	2576.490881
894.013306	2591.437902
894.321707	2610.558999
894.630068	2621.717593
894.938387	2628.485342
895.246665	2622.362860
895.554903	2613.860954
895.863100	2603.468616
896.171256	2591.793303
896.479371	2582.751994
896.787446	2579.916345
897.095480	2571.117011
897.403473	2567.227761
897.711425	2563.522513
898.019336	2563.756926
898.327207	2563.913202
898.635038	2566.466547
898.942827	2561.130485
899.250576	2559.781977
899.558284	2558.360371
899.865952	2554.239228
900.173579	2554.602191
900.481165	2552.810061
900.788711	2552.787376
901.096216	2553.374670
901.403681	2552.132026
901.711105	2552.114382
902.018489	2552.742005
902.325832	2555.645710
902.633135	2553.135215
902.940397	2554.861810
903.247619	2562.720969
903.554800	2575.938875
903.861941	2605.296034
904.169041	2633.123203
904.476101	2646.076448
904.783121	2645.784061
905.090100	2630.516927
905.397039	2614.589401
905.703938	2599.798656
906.010796	2587.641913
906.317614	2574.527352
906.624391	2569.748338
906.931129	2566.464026
907.237826	2560.240722
907.544483	2555.552448
907.851099	2553.427602
908.157675	2551.995914
908.464211	2548.699000
908.770707	2545.321427
909.077163	2544.088865
909.383578	2545.109698
909.689954	2545.472661
909.996289	2542.291693
910.302584	2544.363607
910.608839	2547.680687
910.915054	2547.519370
911.221229	2544.270346
911.527363	2545.331509
911.833458	2543.509132
912.139513	2548.646068
912.445527	2545.898639
912.751502	2549.765204
913.057436	2548.933413
913.363331	2549.654298
913.669186	2550.324772
913.975000	2555.013045
914.280775	2556.222922
914.586510	2563.028480
914.892205	2574.045921
915.197859	2585.680904
915.503475	2599.516351
915.809050	2613.513115
916.114585	2620.729527
916.420081	2627.046092
916.725536	2621.936883
917.030952	2616.368928
917.336328	2608.797115
917.641665	2599.476022
917.946961	2586.996646
918.252218	2583.732498
918.557435	2574.847465
918.862612	2570.711198
919.167750	2565.778429
919.472848	2561.909343
919.777906	2559.736606
920.082925	2558.118396
920.387904	2557.145453
920.692843	2553.495658
920.997743	2549.664381
921.302603	2550.652447
921.607423	2549.102292
921.912204	2548.618341
922.216946	2547.088351
922.521647	2546.972405
922.826310	2547.257230
923.130932	2546.846376
923.435516	2544.235058
923.740059	2545.848227
924.044564	2544.285470
924.349028	2543.436035
924.653454	2541.883360
924.957840	2540.539892
925.262186	2539.755993
925.566493	2542.211035
925.870761	2538.394881
926.174989	2541.192722
926.479178	2540.454193
926.783328	2541.969059
927.087438	2540.131559
927.391509	2541.689275
927.695541	2537.550488
927.999533	2539.430838
928.303486	2540.900335
928.607400	2539.443441
928.911275	2536.839685
929.215110	2537.603420
929.518906	2537.409336
929.822663	2538.740200
930.126381	2537.968904
930.430060	2538.828421
930.733699	2537.308513
931.037299	2539.322454
931.340861	2539.640046
931.644383	2541.200283
931.947866	2539.602238
932.251309	2539.471168
932.554714	2538.193235
932.858080	2540.383617
933.161407	2538.651980
933.464694	2539.118287
933.767943	2539.745911
934.071153	2543.327650
934.374323	2537.457227
934.677455	2537.363965
934.980548	2536.857329
935.283602	2536.418749
935.586617	2536.169212
935.889593	2538.281455
936.192530	2537.754655
936.495428	2539.082999
936.798287	2539.503935
937.101108	2538.717515
937.403890	2538.452855
937.706632	2539.856816
938.009336	2540.050900
938.312002	2540.862526
938.614628	2539.740869
938.917216	2543.042825
939.219765	2544.877805
939.522275	2543.181457
939.824747	2543.521735
940.127179	2537.830272
940.429573	2537.159799
940.731929	2537.270704
941.034246	2537.134593
941.336524	2537.069058
941.638763	2540.567619
941.940964	2540.600386
942.243126	2539.269522
942.545250	2540.416384
942.847335	2538.105015
943.149381	2540.575180
943.451389	2539.115766
943.753359	2540.151723
944.055290	2540.232382
944.357182	2538.573842
944.659036	2536.474202
944.960851	2538.286497
945.262628	2536.174253
945.564367	2537.169881
945.866067	2538.530993
946.167729	2539.952598
946.469352	2538.921682
946.770937	2538.442772
947.072484	2539.337577
947.373992	2542.324461
947.675462	2539.471168
947.976893	2539.244316
948.278286	2538.291538
948.579641	2538.500746
948.880958	2537.910931
949.182236	2538.089892
949.483476	2537.081661
949.784678	2536.033101
950.085841	2538.614172
950.386967	2537.489994
950.688054	2540.408822
950.989103	2539.135931
951.290114	2538.505787
951.591087	2538.815818
951.892021	2537.847916
952.192917	2537.525282
952.493776	2535.259284
952.794596	2537.588297
953.095378	2536.302802
953.396122	2538.339429
953.696828	2534.994623
953.997496	2538.916641
954.298126	2537.868081
954.598718	2539.221631
954.899272	2538.392361
955.199788	2537.542926
955.500266	2535.692823
955.800706	2536.774150
956.101108	2531.796011
956.401472	2532.506814
956.701798	2530.765095
957.002087	2533.739376
957.302337	2531.823737
957.602550	2534.074612
957.902724	2533.575538
958.202861	2534.616537
958.502960	2533.036135
958.803022	2537.421939
959.103045	2534.881197
959.403031	2535.546629
959.702979	2535.254243
960.002889	2535.660055
960.302762	2531.891793
960.602596	2533.600744
960.902393	2535.904551
961.202153	2533.116793
961.501875	2532.801721
961.801559	2530.999509
962.101205	2533.744417
962.400814	2532.474046
962.700385	2531.838861
962.999918	2534.374561
963.299414	2535.211393
963.598873	2535.743234
963.898293	2531.826258
964.197677	2534.301464
964.497022	2532.032945
964.796331	2533.542771
965.095601	2530.996988
965.394835	2533.078985
965.694030	2532.234591
965.993189	2535.937319
966.292309	2530.402132
966.591393	2534.407329
966.890439	2532.337935
967.189447	2530.553367
967.488419	2530.480270
967.787353	2532.947915
968.086249	2532.829448
968.385108	2533.759540
968.683930	2532.627801
968.982714	2531.405322
969.281462	2532.547143
969.580172	2529.938346
969.878844	2529.842564
970.177480	2532.874818
970.476078	2532.027904
970.774639	2533.101670
971.073162	2532.060672
971.371649	2529.285516
971.670098	2529.154446
971.968510	2531.024714
972.266885	2526.548170
972.565223	2533.361289
972.863524	2533.336083
973.161788	2532.968079
973.460014	2532.902544
973.758204	2533.870446
974.056356	2530.381967
974.354471	2533.038655
974.652550	2531.876669
974.950591	2530.818027
975.248595	2534.377082
975.546563	2534.976979
975.844493	2530.565969
976.142386	2529.653521
976.440243	2530.296268
976.738062	2532.857174
977.035845	2533.615868
977.333590	2533.958666
977.631299	2526.906092
977.928971	2531.254087
978.226606	2530.709642
978.524204	2530.364323
978.821765	2530.810465
979.119290	2532.592513
979.416777	2530.495393
979.714228	2531.236443
980.011642	2530.271062
980.309020	2534.903882
980.606360	2532.645445
980.903664	2532.232071
981.200931	2531.160826
981.498162	2530.394570
981.795356	2532.032945
982.092513	2533.245343
982.389633	2532.680733
982.686717	2533.976310
982.983764	2535.244160
983.280775	2537.885725
983.577749	2535.685261
983.874686	2535.889428
984.171587	2534.447658
984.468451	2533.661238
984.765279	2532.773995
985.062070	2532.479087
985.358824	2533.386495
985.655543	2531.054961
985.952224	2531.833820
986.248869	2532.678213
986.545478	2527.914323
986.842050	2527.087573
987.138586	2527.954652
987.435086	2527.231246
987.731549	2529.456916
988.027975	2529.628315
988.324366	2531.150743
988.620719	2528.438603
988.917037	2528.715866
989.213318	2528.998171
989.509563	2530.016484
989.805772	2530.964221
990.101944	2531.606968
990.398080	2530.795342
990.694180	2529.242667
990.990244	2530.571011
991.286271	2528.047913
991.582262	2528.791483
991.878217	2530.717204
992.174136	2530.039169
992.470019	2531.430527
992.765865	2530.097142
993.061676	2530.709642
993.357450	2528.892306
993.653188	2533.189890
993.948890	2531.060002
994.244556	2530.553367
994.540186	2530.114786
994.835780	2526.593540
995.131337	2528.627646
995.426859	2529.524971
995.722345	2530.971782
996.017795	2531.017153
996.313208	2531.914478
996.608586	2529.512368
996.903928	2529.890455
997.199234	2532.516896
997.494504	2529.426669
997.789738	2529.741741
998.084936	2527.919364
998.380099	2527.372398
998.675225	2530.220650
998.970316	2530.127389
999.265371	2529.136802
999.560390	2528.834333
999.855373	2527.899199
1000.150320	2529.149405
1000.445232	2529.245187
1000.740108	2530.177801
1001.034948	2528.844415
1001.329752	2527.301822
1001.624521	2528.874662
1001.919254	2526.893489
1002.213951	2527.390043
1002.508613	2525.759229
1002.803239	2528.254600
1003.097829	2523.241173
1003.392384	2527.994981
1003.686903	2527.228726
1003.981386	2526.419620
1004.275834	2528.927594
1004.570246	2530.034128
1004.864623	2529.290558
1005.158964	2527.760567
1005.453270	2528.214271
1005.747540	2528.219312
1006.041775	2526.938859
1006.335974	2527.226205
1006.630138	2527.521113
1006.924266	2528.635207
1007.218359	2528.436082
1007.512416	2528.287368
1007.806438	2525.197141
1008.100425	2528.690660
1008.394376	2527.437933
1008.688292	2524.264527
1008.982172	2527.755526
1009.276017	2527.357275
1009.569827	2525.280320
1009.863602	2526.850639
1010.157341	2530.490352
1010.451045	2528.131092
1010.744714	2530.114786
1011.038347	2530.097142
1011.331945	2528.312574
1011.625508	2527.531195
1011.919036	2529.716535
1012.212528	2527.632018
1012.505986	2528.456247
1012.799408	2528.521782
1013.092795	2527.314425
1013.386147	2527.082532
1013.679464	2529.151926
1013.972745	2526.953983
1014.265992	2526.434744
1014.559204	2527.697553
1014.852380	2525.439116
1015.145521	2527.316946
1015.438628	2526.916174
1015.731699	2529.020856
1016.024736	2526.926256
1016.317737	2528.519261
1016.610703	2528.736031
1016.903635	2524.829136
1017.196531	2523.321831
1017.489393	2526.268386
1017.782219	2523.989784
1018.075011	2526.991791
1018.367768	2527.974816
1018.660490	2527.775691
1018.953177	2527.775691
1019.245829	2527.775691
