Dividing Wavelength (nm)	Counts (n)	Blue Motor Position (mm): 0.000000	Red Motor Position (mm): 47.000000	
326.493990	2138.291103
326.888308	2138.291103
327.282561	2138.291103
327.676750	2111.136928
328.070874	2112.198091
328.464933	2117.589605
328.858929	2128.450771
329.252859	2139.158182
329.646726	2153.316263
330.040528	2169.019457
330.434265	2187.084432
330.827938	2206.092102
331.221547	2224.391491
331.615091	2245.632392
332.008571	2267.495877
332.401986	2286.616973
332.795338	2305.828810
333.188625	2324.559218
333.581847	2342.651919
333.975006	2366.027749
334.368100	2381.257075
334.761129	2400.010167
335.154095	2416.172106
335.546996	2440.296548
335.939833	2471.244192
336.332606	2485.351861
336.725315	2498.438696
337.117960	2504.069665
337.510540	2514.308248
337.903056	2521.595236
338.295508	2528.592358
338.687896	2532.542102
339.080220	2544.194729
339.472480	2550.889381
339.864676	2553.344423
340.256807	2555.617983
340.648875	2556.729558
341.040879	2560.197872
341.432818	2560.049158
341.824694	2561.286761
342.216506	2564.281206
342.608253	2562.058058
342.999937	2561.102759
343.391557	2562.670558
343.783113	2560.593602
344.174605	2557.077398
344.566033	2555.817109
344.957397	2555.280226
345.348697	2550.750749
345.739934	2549.878630
346.131106	2550.193702
346.522215	2550.680173
346.913260	2548.068856
347.304241	2542.914276
347.695159	2540.907897
348.086012	2540.323123
348.476802	2538.919161
348.867528	2538.533513
349.258191	2536.781712
349.648789	2534.356917
350.039324	2535.987730
350.429796	2536.098636
350.820203	2534.984541
351.210548	2531.170908
351.600828	2532.562266
351.991045	2531.357431
352.381198	2529.537574
352.771288	2531.322143
353.161314	2530.313912
353.551276	2531.087729
353.941175	2530.341638
354.331010	2529.595547
354.720782	2531.390198
355.110490	2532.826927
355.500135	2531.596885
355.889717	2530.518078
356.279235	2533.126876
356.668689	2532.194262
357.058080	2532.718542
357.447408	2529.207378
357.836672	2530.989426
358.225873	2530.573531
358.615010	2527.125382
359.004084	2534.467823
359.393095	2536.630477
359.782043	2536.862371
360.170927	2534.735004
360.559748	2537.139634
360.948505	2536.103677
361.337199	2539.264480
361.725830	2537.585776
362.114398	2540.199614
362.502903	2536.912782
362.891344	2540.174409
363.279722	2539.612320
363.668037	2542.445448
364.056289	2541.996786
364.444478	2544.769420
364.832603	2540.008051
365.220665	2543.914945
365.608665	2543.960315
365.996601	2543.088196
366.384474	2543.529297
366.772284	2546.803526
367.160031	2543.836807
367.547715	2546.281767
367.935336	2541.787578
368.322893	2544.056097
368.710388	2543.156251
369.097820	2549.296377
369.485189	2546.339740
369.872495	2547.196736
370.259738	2545.835624
370.646918	2545.996941
371.034035	2545.996941
371.421090	2546.314534
371.808081	2548.739329
372.195010	2547.201777
372.581875	2548.724206
372.968678	2552.799978
373.355418	2547.842004
373.742096	2555.938097
374.128710	2551.043136
374.515262	2553.964485
374.901751	2555.716286
375.288177	2558.325083
375.674540	2559.935732
376.060841	2557.100083
376.447079	2558.683005
376.833254	2561.342214
377.219367	2561.732903
377.605417	2563.620815
377.991404	2568.220868
378.377329	2567.270611
378.763191	2571.903431
379.148991	2580.107909
379.534727	2579.724781
379.920402	2585.517067
380.306013	2589.045875
380.691563	2595.463263
381.077049	2598.603902
381.462474	2602.392329
381.847835	2605.742176
382.233134	2611.791561
382.618371	2613.881119
383.003545	2623.161883
383.388657	2631.472225
383.773706	2636.142854
384.158693	2639.464975
384.543618	2647.878661
384.928480	2655.367295
385.313280	2663.866680
385.698017	2669.376661
386.082692	2678.917045
386.467305	2683.454083
386.851856	2694.232070
387.236344	2702.038297
387.620770	2709.448793
388.005133	2718.742160
388.389435	2731.410580
388.773674	2737.568349
389.157851	2743.930285
389.541965	2755.968561
389.926018	2759.394025
390.310008	2771.586055
390.693936	2780.932355
391.077802	2789.688839
391.461606	2798.715025
391.845348	2807.090902
392.229027	2818.307469
392.612645	2832.528564
392.996200	2838.116683
393.379694	2854.162676
393.763125	2870.662373
394.146494	2879.171840
394.529801	2888.150135
394.913047	2907.160326
395.296230	2908.229051
395.679351	2912.050246
396.062410	2934.019594
396.445408	2927.589602
396.828343	2940.366407
397.211217	2945.117694
397.594028	2943.375976
397.976778	2956.321659
398.359466	2970.910758
398.742092	2966.950932
399.124656	2982.961636
399.507158	2994.946979
399.889598	3000.930829
400.271977	3014.796523
400.654294	3021.944879
401.036549	3035.452651
401.418742	3041.466747
401.800874	3064.630849
402.182944	3070.251736
402.564952	3099.437496
402.946898	3088.220928
403.328783	3097.330293
403.710606	3114.843262
404.092367	3137.891417
404.474067	3163.681960
404.855705	3152.387255
405.237282	3156.629386
405.618797	3186.359591
406.000250	3211.293138
406.381642	3241.073754
406.762972	3242.734814
407.144240	3229.960531
407.525447	3253.326279
407.906593	3254.523553
408.287677	3271.907972
408.668700	3294.928401
409.049661	3289.884726
409.430560	3305.570277
409.811399	3309.882984
410.192176	3330.647496
410.572891	3342.355576
410.953545	3376.572408
411.334138	3342.262315
411.714669	3399.378588
412.095139	3345.380268
412.475547	3394.239132
412.855894	3383.561968
413.236180	3416.422729
413.616405	3395.786766
413.996568	3421.458842
414.376670	3421.642844
414.756711	3419.016403
415.136691	3445.361473
415.516609	3465.339565
415.896466	3473.523879
416.276262	3500.604957
416.655997	3529.674771
417.035670	3538.544681
417.415283	3604.180504
417.794834	3624.551807
418.174324	3609.907255
418.553753	3610.761730
418.933121	3655.451559
419.312428	3643.383037
419.691674	3640.499497
420.070859	3676.768078
420.449983	3658.307373
420.829045	3706.616750
421.208047	3689.587732
421.586988	3736.919126
421.965867	3764.305194
422.344686	3777.399591
422.723444	3816.297134
423.102141	3717.321640
423.480777	3820.808967
423.859352	3785.851086
424.237866	3885.204666
424.616319	3870.504662
424.994712	3932.488169
425.373044	3921.574071
425.751314	3982.602279
426.129524	3917.972166
426.507673	4018.792723
426.885762	3995.157273
427.263789	4017.000592
427.641756	4020.690717
428.019662	4047.638205
428.397508	4052.480233
428.775292	4094.871296
429.153016	4096.040844
429.530679	4106.523923
429.908282	4119.409112
430.285824	4097.245679
430.663305	4173.208306
431.040726	4127.580823
431.418086	4118.597487
431.795385	4190.938044
432.172624	4228.577819
432.549802	4192.735216
432.926920	4214.883525
433.303977	4207.341959
433.680974	4249.861571
434.057910	4269.854787
434.434786	4275.682361
434.811601	4270.946197
435.188355	4376.112228
435.565050	4348.302703
435.941683	4341.822299
436.318257	4434.151032
436.694770	4435.554993
437.071222	4496.225280
437.447614	4431.005352
437.823946	4437.165642
438.200218	4449.617292
438.576429	4434.314870
438.952580	4457.867140
439.328670	4462.323520
439.704700	4505.276672
440.080670	4469.945745
440.456580	4528.566803
440.832429	4562.841607
441.208218	4467.057164
441.583947	4521.373076
441.959616	4535.087535
442.335224	4562.282039
442.710773	4583.530503
443.086261	4631.129077
443.461689	4588.211214
443.837057	4598.759829
444.212365	4678.878887
444.587612	4683.236964
444.962800	4645.075430
445.337927	4688.275597
445.712995	4573.964913
446.088002	4767.361219
446.462949	4788.110608
446.837837	4805.729441
447.212664	4794.220487
447.587431	5020.477554
447.962139	5316.811700
448.336786	5651.728318
448.711374	5641.411596
449.085901	5287.651146
449.460369	5227.807608
449.834776	5155.835055
450.209124	5391.007402
450.583412	5401.719854
450.957640	5526.637126
451.331808	5389.021188
451.705917	5239.782869
452.079965	5227.878185
452.453954	5267.995687
452.827883	5235.243310
453.201752	5237.595009
453.575562	5266.367394
453.949311	5402.276902
454.323001	5405.984671
454.696632	5398.082662
455.070202	5555.036466
455.443713	5585.164922
455.817164	5677.019787
456.190556	5751.966621
456.563888	5724.867898
456.937160	5800.341533
457.310373	5645.646166
457.683526	5698.434608
458.056619	5692.448238
458.429653	5675.988871
458.802628	5723.874791
459.175542	5750.857567
459.548398	5892.907200
459.921194	6071.777421
460.293930	6135.704293
460.666607	6384.205451
461.039224	6601.146466
461.411782	6727.311423
461.784280	6645.521222
462.156719	6654.781822
462.529099	6613.409072
462.901419	6468.254088
463.273680	6338.572926
463.645882	6327.936092
464.018024	6331.180074
464.390106	6392.689713
464.762130	6649.894423
465.134094	7032.691920
465.505999	7663.554515
465.877845	8370.823359
466.249631	8724.475424
466.621358	8661.645003
466.993026	8463.247873
467.364634	8242.203359
467.736184	7973.116649
468.107674	7819.663926
468.479105	7729.061789
468.850477	7664.008219
469.221790	7491.696539
469.593043	7267.607169
469.964238	7171.547982
470.335373	7141.285936
470.706449	7296.608927
471.077467	7474.896894
471.448425	8128.611040
471.819324	8716.661636
472.190164	8759.251824
472.560945	8283.366901
472.931667	7811.293090
473.302330	7616.386959
473.672934	7495.056468
474.043479	7567.835607
474.413965	7472.041081
474.784393	7422.794049
475.154761	7572.750732
475.525070	7588.438802
475.895321	7542.531535
476.265513	7640.579457
476.635645	7802.892007
477.005719	7790.301726
477.375734	7879.797330
477.745691	7994.889393
478.115588	8189.515740
478.485427	8424.685567
478.855207	8891.869458
479.224928	9327.543618
479.594591	9709.146361
479.964194	9717.459224
480.333739	9807.968100
480.703226	9808.071444
481.072653	9905.718594
481.442022	10015.507363
481.811333	10167.760291
482.180584	10014.156333
482.549777	9956.377149
482.918912	9891.618486
483.287988	9876.558039
483.657005	9783.430284
484.025964	9701.201503
484.394864	9771.243294
484.763706	9727.670081
485.132489	9635.865628
485.501213	9635.923602
485.869879	9692.530718
486.238487	9626.748702
486.607036	9697.571872
486.975527	9645.741249
487.343959	9699.605977
487.712333	9747.691023
488.080648	9783.861302
488.448905	9892.974557
488.817104	9892.949351
489.185244	10060.446729
489.553326	10270.720817
489.921350	10735.517722
490.289315	11368.661440
490.657222	11654.822538
491.025070	11827.935761
491.392861	11755.098650
491.760593	11597.008065
492.128267	11346.268634
492.495883	11111.716349
492.863440	10874.111645
493.230939	10649.409774
493.598380	10472.644235
493.965763	10446.982241
494.333088	10310.130037
494.700354	10239.949614
495.067563	10211.686385
495.434713	10214.085974
495.801805	10264.313511
496.168839	10224.556451
496.535815	10195.184168
496.902733	10235.057174
497.269593	10198.493686
497.636395	10204.190189
498.003139	10309.396550
498.369825	10237.887782
498.736453	10328.363891
499.103023	10274.718452
499.469535	10283.104412
499.835989	10327.280043
500.202385	10303.962186
500.568723	10319.952726
500.935003	10382.397498
501.301226	10347.714360
501.667390	10516.840030
502.033497	10621.663263
502.399546	10541.773577
502.765537	10454.743097
503.131470	10550.469568
503.497345	10643.781325
503.863163	10420.201111
504.228923	10555.021730
504.594625	10673.118320
504.960269	10574.594009
505.325856	10724.903573
505.691385	10609.771181
506.056856	10675.946408
506.422270	10773.825451
506.787625	10714.483508
507.152924	10766.679615
507.518164	10832.786786
507.883347	10691.994921
508.248472	10763.982598
508.613540	10877.587520
508.978550	10948.219127
509.343503	10938.804772
509.708398	10987.431742
510.073236	11115.721546
510.438016	11130.116560
510.802738	11035.766325
511.167403	11165.437405
511.532010	11223.327495
511.896561	11321.014974
512.261053	11520.508555
512.625488	11433.858682
512.989866	11429.608990
513.354186	11398.220245
513.718449	11419.564491
514.082655	11544.418748
514.446803	11503.214877
514.810894	11614.558842
515.174927	11609.124478
515.538904	11596.574526
515.902822	11759.116449
516.266684	11625.561160
516.630488	11726.212838
516.994235	11719.813093
517.357925	11832.823160
517.721558	11893.138045
518.085133	11962.985752
518.448651	11988.947694
518.812112	11942.412803
519.175516	11953.957045
519.538863	12039.646578
519.902152	12059.150803
520.265385	12153.261583
520.628560	12184.703260
520.991678	12127.486164
521.354739	12176.181189
521.717743	12253.595668
522.080690	12222.663148
522.443580	12359.086854
522.806413	12366.421733
523.169189	12360.901669
523.531908	12419.303436
523.894569	12382.497972
524.257174	12403.227197
524.619722	12499.833348
524.982213	12483.013539
525.344647	12478.610091
525.707025	12472.291004
526.069345	12576.032909
526.431608	12564.803739
526.793815	12645.157211
527.155964	12535.907845
527.518057	12573.403948
527.880093	12533.382227
528.242072	12655.052996
528.603995	12580.010380
528.965860	12586.311822
529.327669	12621.342800
529.689421	12562.691496
530.051117	12575.334710
530.412755	12612.641769
530.774337	12615.386677
531.135862	12580.224629
531.497331	12640.380718
531.858743	12599.996034
532.220098	12675.633507
532.581396	12604.253289
532.942638	12529.515662
533.303824	12595.658121
533.664953	12580.574989
534.026025	12538.196529
534.387040	12638.671767
534.747999	12621.652831
535.108902	12659.353100
535.469748	12535.464224
535.830537	12563.203173
536.191270	12602.448556
536.551947	12530.425591
536.912567	12587.844333
537.273131	12624.082667
537.633638	12504.786282
537.994089	12555.959035
538.354483	12469.228503
538.714821	12597.793050
539.075103	12686.613140
539.435328	12623.334056
539.795497	12600.817742
540.155609	12596.114346
540.515665	12700.040253
540.875665	12559.082030
541.235609	12660.094150
541.595496	12615.976492
541.955328	12800.200418
542.315102	12636.511632
542.674821	12568.793813
543.034483	12584.693612
543.394090	12593.472781
543.753640	12560.148234
544.113134	12803.104123
544.472571	12572.972929
544.831953	12840.953106
545.191278	12662.967607
545.550548	12592.131834
545.909761	12710.477962
546.268918	12757.073347
546.628019	12821.713542
546.987064	12710.344371
547.346053	12563.293914
547.704986	12759.518307
548.063863	12637.381231
548.422684	12692.107997
548.781449	12657.162719
549.140158	12747.618663
549.498811	12690.890559
549.857408	12564.193760
550.215949	12767.800922
550.574434	12732.686765
550.932864	12668.563288
551.291237	12872.498126
551.649555	12764.352773
552.007817	12821.280003
552.366022	12754.499838
552.724173	12796.139769
553.082267	12873.723126
553.440305	12972.721306
553.798288	12787.148871
554.156215	12859.360879
554.514086	12913.795258
554.871902	12852.494828
555.229661	12882.958520
555.587365	12821.748830
555.945014	12835.581756
556.302606	12824.511382
556.660143	12894.490160
557.017625	12912.918097
557.375050	12878.703786
557.732421	12985.856032
558.089735	12966.450110
558.446994	12945.320114
558.804197	13056.469994
559.161345	13053.929253
559.518437	12867.199873
559.875474	12962.470119
560.232455	12995.792146
560.589381	13043.000031
560.946251	12990.181342
561.303065	13160.375737
561.659825	13107.178961
562.016528	13017.292667
562.373177	12952.851598
562.729770	13084.100559
563.086307	12961.774440
563.442789	13076.238879
563.799216	13110.725413
564.155587	13052.434551
564.511904	13085.023090
564.868164	13082.706680
565.224370	13156.166373
565.580520	13096.615223
565.936615	13159.362465
566.292654	13101.628651
566.648638	13170.863857
567.004567	13169.989217
567.360441	13167.909741
567.716260	13142.552738
568.072023	13222.848236
568.427732	13199.928630
568.783385	13100.995986
569.138982	13218.923698
569.494525	13219.679871
569.850013	13173.220597
570.205445	13159.533864
570.560823	13169.782530
570.916145	13120.782515
571.271412	13136.611738
571.626625	13082.603336
571.981782	13084.365219
572.336884	13035.644988
572.691931	13112.968726
573.046923	13019.969520
573.401860	12990.234274
573.756743	12989.470539
574.111570	13015.757636
574.466342	12990.647649
574.821059	13045.608828
575.175722	12918.087801
575.530330	12937.834000
575.884882	12872.175492
576.239380	12868.949154
576.593823	12851.879807
576.948211	12847.055423
577.302544	12725.127555
577.656823	12741.944844
578.011047	12793.500725
578.365216	12740.477868
578.719330	12674.882375
579.073389	12656.497287
579.427394	12661.984583
579.781344	12645.628559
580.135239	12581.648755
580.489080	12596.666352
580.842866	12481.029845
581.196597	12570.364132
581.550273	12560.478429
581.903895	12525.036597
582.257463	12639.150676
582.610975	12485.501348
582.964434	12556.614385
583.317837	12473.853762
583.671186	12425.378027
584.024481	12487.525371
584.377721	12375.757949
584.730906	12437.524687
585.084037	12457.056638
585.437113	12382.825647
585.790135	12399.723595
586.143103	12307.397383
586.496016	12327.254488
586.848874	12330.596773
587.201679	12334.884274
587.554428	12208.353833
587.907124	12256.978283
588.259765	12200.282946
588.612352	12258.120104
588.964884	12124.330401
589.317362	12182.918691
589.669786	12175.664471
590.022155	12125.643622
590.374470	12228.881412
590.726731	12108.786003
591.078937	11992.408446
591.431090	12022.665452
591.783188	11953.483177
592.135232	11873.979140
592.487222	11947.607712
592.839157	11946.889348
593.191038	11885.412477
593.542866	11831.550268
593.894639	11692.379134
594.246358	11764.215576
594.598022	11758.317426
594.949633	11668.413489
595.301190	11651.921354
595.652692	11613.590941
596.004141	11690.634895
596.355535	11480.421300
596.706876	11458.341046
597.058162	11433.052098
597.409395	11519.961590
597.760573	11552.703884
598.111698	11446.103645
598.462768	11440.457553
598.813785	11450.045828
599.164748	11317.660086
599.515657	11394.857796
599.866511	11273.711307
600.217312	11409.824982
600.568060	11171.731285
600.918753	11335.417551
601.269392	11329.811788
601.619978	11228.633309
601.970510	11269.375915
602.320988	11315.535240
602.671412	11384.437731
603.021783	11311.998871
603.372100	11244.031514
603.722363	11260.919379
604.072572	11264.105388
604.422728	11274.507809
604.772830	11211.087573
605.122878	11215.909437
605.472872	11192.805829
605.822813	11248.165260
606.172701	11210.084384
606.522534	11253.120714
606.872314	11301.167952
607.222041	11235.080945
607.571714	11308.946452
607.921333	11175.101297
608.270899	11227.678011
608.620411	11287.665221
608.969870	11229.679349
609.319276	11216.307688
609.668627	11240.963972
610.017926	11320.087402
610.367171	11347.478511
610.716362	11338.633807
611.065500	11315.167236
611.414585	11335.150370
611.763616	11396.065152
612.112594	11353.200221
612.461518	11380.450178
612.810389	11432.764752
613.159207	11370.483817
613.507971	11371.381142
613.856682	11471.097686
614.205340	11427.426170
614.553945	11566.710730
614.902496	11434.458580
615.250994	11497.989721
615.599439	11492.406643
615.947830	11525.577436
616.296169	11489.029070
616.644454	11504.429795
616.992686	11520.984944
617.340864	11614.485745
617.688990	11499.653302
618.037063	11632.618776
618.385082	11606.881165
618.733048	11647.611167
619.080961	11637.894343
619.428821	11614.619336
619.776628	11627.479319
620.124382	11575.063922
620.472083	11591.200656
620.819731	11614.498348
621.167326	11541.832636
621.514868	11520.780778
621.862357	11421.689337
622.209793	11408.993191
622.557176	11334.232880
622.904506	11272.602253
623.251783	11190.381034
623.599007	11131.770059
623.946179	11082.641494
624.293297	11062.847403
624.640363	10918.584704
624.987376	10899.859338
625.334336	10836.633186
625.681243	10761.651064
626.028097	10735.537887
626.374899	10694.848214
626.721647	10670.738896
627.068343	10628.163831
627.414987	10566.760056
627.761577	10498.820426
628.108115	10546.469412
628.454600	10420.453169
628.801032	10443.854205
629.147412	10426.850393
629.493739	10393.835877
629.840014	10322.508591
630.186236	10361.491833
630.532405	10255.264640
630.878521	10294.194950
631.224585	10244.516900
631.570597	10173.542495
631.916556	10180.889976
632.262462	10166.484879
632.608316	10148.140120
632.954117	10116.610224
633.299866	10106.406928
633.645562	10089.577036
633.991206	9981.063679
634.336797	9888.157734
634.682336	9875.985868
635.027823	9821.843876
635.373257	9778.406774
635.718639	9703.633859
636.063968	9680.857926
636.409245	9569.478673
636.754470	9552.681549
637.099642	9505.367799
637.444762	9405.346266
637.789829	9412.781968
638.134845	9333.771963
638.479808	9315.112133
638.824719	9287.791599
639.169577	9201.149288
639.514383	9197.464205
639.859137	9126.288153
640.203839	9165.120162
640.548489	9083.019930
640.893086	9088.487061
641.237632	9021.411989
641.582125	9034.256849
641.926566	9020.199591
642.270955	9004.587138
642.615292	8990.913008
642.959576	8980.951688
643.303809	8963.600037
643.647990	8980.704672
643.992118	8953.651319
644.336195	8942.109598
644.680219	8936.259339
645.024192	8970.453485
645.368112	9042.249598
645.711981	9020.519705
646.055797	9160.782249
646.399562	9117.304817
646.743274	9280.239951
647.086935	9345.545578
647.430544	9331.856325
647.774101	9342.825876
648.117606	9369.201193
648.461059	9434.496738
648.804460	9362.355306
649.147810	9249.872040
649.491108	9210.999703
649.834354	9151.481320
650.177548	9003.924226
650.520690	8922.229807
650.863781	8914.042974
651.206820	8884.867296
651.549807	8791.880692
651.892742	8706.259215
652.235626	8661.758429
652.578458	8624.032955
652.921238	8516.477417
653.263967	8554.170124
653.606644	8487.614290
653.949269	8471.585942
654.291843	8396.167760
654.634365	8461.934653
654.976836	8384.799958
655.319255	8379.899956
655.661622	8368.166671
656.003938	8331.870363
656.346203	8294.553222
656.688416	8322.244280
657.030577	8279.825491
657.372687	8239.516424
657.714746	8281.753732
658.056753	8290.921070
658.398708	8191.799383
658.740612	8178.213473
659.082465	8232.804128
659.424266	8186.947272
659.766016	8197.342131
660.107715	8170.568563
660.449362	8192.512706
660.790958	8190.881893
661.132503	8177.911004
661.473996	8174.659460
661.815438	8196.021349
662.156829	8222.676450
662.498168	8173.184922
662.839456	8171.181063
663.180693	8185.802930
663.521879	8205.604582
663.863013	8194.703087
664.204097	8186.528856
664.545129	8261.947038
664.886110	8247.093279
665.227040	8257.213395
665.567918	8267.094057
665.908746	8272.898945
666.249522	8299.135630
666.590248	8296.945249
666.930922	8308.464286
667.271545	8301.930950
667.612118	8315.118609
667.952639	8286.492417
668.293109	8281.801623
668.633528	8261.979806
668.973896	8248.474555
669.314213	8245.464986
669.654480	8211.086837
669.994695	8206.940488
670.334859	8187.582457
670.674973	8159.467943
671.015035	8184.187240
671.355047	8178.268926
671.695008	8161.557501
672.034918	8141.158472
672.374777	8137.710322
672.714585	8118.710214
673.054342	8151.616345
673.394049	8121.752550
673.733705	8158.321080
674.073310	8112.524718
674.412864	8124.948642
674.752368	8054.425420
675.091820	8116.187116
675.431223	8038.964201
675.770574	7990.243970
676.109875	7961.297664
676.449125	7916.680932
676.788324	7904.982935
677.127473	7821.367836
677.466571	7807.910476
677.805619	7756.031962
678.144616	7752.813185
678.483562	7729.931388
678.822458	7674.992893
679.161303	7659.874473
679.500098	7639.009137
679.838842	7623.739482
680.177535	7634.411605
680.516179	7667.103488
680.854771	7683.613266
681.193314	7802.644991
681.531805	7955.306253
681.870247	8071.522493
682.208638	8227.820948
682.546978	8304.990931
682.885268	8332.530754
683.223508	8268.916434
683.561697	8214.323258
683.899836	8184.096500
684.237925	8103.296886
684.575963	8069.407729
684.913951	7990.846387
685.251889	8008.911362
685.589776	7999.116400
685.927614	7985.477559
686.265401	8004.820466
686.603137	8002.413315
686.940824	8076.780417
687.278460	8128.648848
687.616046	8137.768296
687.953582	8248.925738
688.291068	8235.012153
688.628504	8287.611553
688.965889	8303.687792
689.303224	8257.120134
689.640510	8210.431487
689.977745	8105.414170
690.314930	7987.236921
690.652065	7906.762462
690.989150	7794.982437
691.326185	7647.543811
691.663170	7533.714557
692.000105	7414.939931
692.336990	7302.401212
692.673825	7230.663073
693.010610	7137.449617
693.347345	7044.095010
693.684030	6930.545540
694.020665	6887.889817
694.357251	6772.575943
694.693786	6762.352483
695.030272	6716.909002
695.366707	6627.267204
695.703093	6571.315438
696.039429	6566.919552
696.375716	6514.068095
696.711952	6508.006107
697.048139	6481.668599
697.384276	6446.783814
697.720363	6464.014478
698.056400	6442.145953
698.392388	6407.732516
698.728326	6401.393265
699.064214	6378.997939
699.400053	6372.850252
699.735842	6318.289844
700.071581	6267.225476
700.407270	6230.351956
700.742910	6192.434918
701.078501	6154.429659
701.414042	6112.814934
701.749533	6054.700512
702.084974	6001.533983
702.420366	6037.502616
702.755709	5966.122398
703.091002	5918.130613
703.426246	5915.148771
703.761440	5900.937758
704.096584	5857.329257
704.431679	5846.911712
704.766725	5831.253888
705.101721	5821.910110
705.436668	5839.097924
705.771565	5782.145488
706.106413	5838.689590
706.441212	5832.516698
706.775961	5857.198187
707.110661	5864.636409
707.445311	5920.346200
707.779913	5887.407301
708.114465	5929.508498
708.448967	5973.999201
708.783421	6085.401139
709.117825	6124.941429
709.452180	6159.213714
709.786485	6219.894083
710.120742	6354.873497
710.454949	6350.863259
710.789107	6427.692965
711.123216	6544.609925
711.457275	6579.961017
711.791286	6686.868766
712.125247	6702.748401
712.459159	6672.168762
712.793023	6802.497712
713.126837	6637.024358
713.460602	6691.398243
713.794318	6643.729092
714.127985	6594.161947
714.461602	6450.796573
714.795171	6455.048786
715.128691	6292.375792
715.462162	6198.222162
715.795584	6130.567357
716.128957	6089.731490
716.462281	6022.734556
716.795556	5985.263659
717.128782	5897.918107
717.461960	5802.846987
717.795088	5793.777951
718.128167	5722.644749
718.461198	5648.176825
718.794180	5619.412001
719.127113	5556.253905
719.459997	5525.470099
719.792833	5460.199760
720.125619	5457.149862
720.458357	5396.472013
720.791046	5365.242065
721.123686	5340.116954
721.456278	5290.597700
721.788821	5283.207369
722.121315	5246.515330
722.453761	5254.659314
722.786158	5235.623918
723.118506	5233.914966
723.450805	5215.431576
723.783056	5239.170369
724.115259	5221.730498
724.447412	5204.434299
724.779518	5250.626391
725.111574	5256.035549
725.443582	5288.777844
725.775542	5278.750989
726.107453	5366.310790
726.439315	5340.484959
726.771129	5410.332666
727.102895	5469.039423
727.434612	5514.180435
727.766281	5538.040216
728.097901	5593.016519
728.429473	5614.895127
728.760996	5624.566581
729.092471	5648.133975
729.423897	5639.022089
729.755276	5609.548983
730.086606	5621.708247
730.417887	5709.502461
730.749120	5795.197036
731.080305	5838.404765
731.411442	5913.838071
731.742530	5931.913128
732.073570	5951.200583
732.404562	6018.689030
732.735506	6015.729872
733.066401	5996.432335
733.397249	5932.918838
733.728048	5832.579712
734.058798	5689.862126
734.389501	5569.673457
734.720156	5487.187577
735.050762	5379.405187
735.381320	5305.945493
735.711831	5248.630094
736.042293	5170.751829
736.372707	5168.571530
736.703073	5119.589159
737.033391	5152.472605
737.363661	5135.922497
737.693883	5142.057582
738.024056	5168.077497
738.354182	5193.111867
738.684260	5234.328341
739.014290	5278.183859
739.344272	5312.695598
739.674207	5363.833063
740.004093	5396.345984
740.333931	5403.993415
740.663722	5424.594090
740.993464	5430.719092
741.323159	5413.904323
741.652806	5372.584506
741.982405	5339.612839
742.311956	5289.297082
742.641460	5277.261328
742.970915	5226.723760
743.300323	5166.295449
743.629683	5128.590139
743.958996	5079.635494
744.288260	5034.030696
744.617477	4976.080112
744.946647	4962.219459
745.275768	4912.117952
745.604842	4874.994895
745.933869	4838.965768
746.262847	4835.280685
746.591778	4822.390454
746.920662	4798.797854
747.249498	4793.252585
747.578286	4808.411335
747.907027	4826.788861
748.235720	4871.471128
748.564365	4880.018405
748.892963	4868.030541
749.221514	4883.282552
749.550017	4861.179613
749.878473	4858.331361
750.206881	4821.790557
750.535242	4810.836130
750.863555	4793.348367
751.191821	4770.486734
751.520039	4775.792549
751.848210	4760.361577
752.176334	4769.110499
752.504411	4745.729628
752.832440	4718.882963
753.160421	4731.700097
753.488356	4708.866190
753.816243	4692.195095
754.144082	4660.662677
754.471875	4649.017612
754.799620	4637.801045
755.127318	4629.031957
755.454969	4621.548365
755.782572	4609.643680
756.110129	4615.488898
756.437638	4597.683542
756.765100	4597.381073
757.092515	4602.931383
757.419882	4605.784677
757.747203	4597.650775
758.074477	4607.833906
758.401703	4600.284778
758.728882	4628.542966
759.056014	4641.060151
759.383099	4661.610414
759.710138	4688.613355
760.037129	4711.921130
760.364073	4722.784816
760.690970	4720.483529
761.017820	4720.607038
761.344623	4754.990227
761.671379	4813.565915
761.998088	4895.832504
762.324751	5111.515751
762.651366	5557.841868
762.977935	6245.593885
763.304456	6797.927906
763.630931	7113.667974
763.957359	7064.544451
764.283740	6783.769825
764.610074	6464.074972
764.936362	6069.950002
765.262602	5753.083236
765.588796	5408.260752
765.914943	5154.378162
766.241044	4933.384059
766.567097	4761.203450
766.893104	4609.157208
767.219064	4516.488198
767.544978	4415.995317
767.870845	4337.212164
768.196665	4285.852889
768.522438	4240.777412
768.848165	4199.666802
769.173846	4160.096265
769.499479	4131.538128
769.825066	4097.444805
770.150607	4052.525604
770.476101	4043.222154
770.801548	4019.745501
771.126949	3984.618741
771.452303	3967.390597
771.777611	3930.365843
772.102872	3929.266872
772.428087	3903.090680
772.753256	3874.318295
773.078378	3859.444370
773.403453	3830.034279
773.728482	3799.673930
774.053465	3787.590284
774.378401	3770.226029
774.703291	3746.782143
775.028135	3722.065366
775.352932	3713.563460
775.677683	3693.126623
776.002388	3671.263138
776.327046	3674.486956
776.651658	3654.914676
776.976224	3640.471771
777.300743	3638.616626
777.625216	3622.311014
777.949643	3611.538068
778.274024	3618.139459
778.598359	3595.771859
778.922647	3597.563990
779.246889	3588.308431
779.571086	3585.571085
779.895236	3586.851538
780.219339	3586.294490
780.543397	3587.043102
780.867409	3598.657920
781.191374	3601.987602
781.515294	3595.119030
781.839167	3610.877677
782.162995	3606.920371
782.486776	3597.281685
782.810511	3594.042744
783.134201	3580.855085
783.457844	3580.527410
783.781441	3568.703384
784.104993	3562.346489
784.428498	3556.536559
784.751958	3553.789130
785.075372	3548.395096
785.398739	3536.888662
785.722061	3542.597769
786.045337	3543.674055
786.368568	3567.138106
786.691752	3563.548804
787.014891	3609.072944
787.337983	3651.244716
787.661030	3734.819485
787.984031	3831.039989
788.306987	3904.958428
788.629897	3956.337868
788.952760	3964.781800
789.275579	3950.795119
789.598351	3899.902150
789.921078	3851.731405
790.243759	3787.234883
790.566395	3741.728387
790.888984	3693.827343
791.211529	3661.745440
791.534027	3615.006382
791.856480	3575.153540
792.178888	3556.279460
792.501249	3539.341183
792.823566	3506.248529
793.145836	3500.952797
793.468062	3492.392918
793.790241	3474.741317
794.112375	3481.052842
794.434464	3503.798528
794.756507	3500.090759
795.078505	3518.760673
795.400457	3556.158473
795.722364	3605.579424
796.044226	3653.067093
796.366042	3697.124257
796.687812	3691.873896
797.009538	3717.188050
797.331218	3708.751679
797.652852	3697.003270
797.974442	3675.621216
798.295986	3669.239115
798.617484	3642.326915
798.938938	3618.308338
799.260346	3604.702263
799.581709	3567.490986
799.903026	3554.999007
800.224299	3535.013353
800.545526	3506.934126
800.866708	3487.293790
801.187845	3475.832727
801.508936	3457.926549
801.829983	3446.896504
802.150984	3418.759304
802.471940	3408.251019
802.792851	3403.386305
803.113717	3396.038823
803.434538	3385.638923
803.755314	3379.211452
804.076045	3374.092160
804.396731	3360.975078
804.717372	3362.084132
805.037967	3359.009028
805.358518	3363.054554
805.679024	3375.491080
805.999485	3373.076368
806.319901	3376.408570
806.640272	3376.272459
806.960598	3388.530025
807.280879	3391.491703
807.601115	3400.674164
807.921306	3390.773338
808.241453	3393.394738
808.561554	3399.328176
808.881611	3392.749471
809.201623	3395.693504
809.521590	3388.325858
809.841513	3389.021537
810.161390	3394.239132
810.481223	3375.231461
810.801011	3372.025287
811.120755	3369.333311
811.440453	3358.318390
811.760107	3353.982998
812.079716	3346.237265
812.399281	3333.611695
812.718801	3333.021880
813.038276	3326.992660
813.357707	3322.352278
813.677093	3329.349399
813.996434	3312.116215
814.315731	3317.779951
814.634983	3317.434632
814.954191	3321.540652
815.273354	3341.082685
815.592473	3345.239116
815.911547	3364.077908
816.230577	3374.497973
816.549562	3402.887231
816.868502	3421.277360
817.187399	3441.008436
817.506250	3466.647745
817.825058	3477.093016
818.143821	3519.705889
818.462539	3562.346489
818.781213	3616.533852
819.099843	3696.700801
819.418429	3847.237216
819.736970	3992.679546
820.055466	4172.232843
820.373919	4399.881268
820.692327	4724.425712
821.010691	5218.753696
821.329011	6251.323156
821.647286	7935.398736
821.965517	10049.482219
822.283704	11655.150213
822.601847	12706.482848
822.919945	12343.774349
823.237999	11689.697240
823.556010	10816.478653
823.873976	9885.236386
824.191897	8942.575904
824.509775	8187.776542
824.827609	7405.893580
825.145398	6861.408636
825.463144	6488.340566
825.780845	6351.211099
826.098502	6397.935033
826.416116	6764.794922
826.733685	7250.903305
827.051210	7545.911628
827.368692	7468.401368
827.686129	7039.409257
828.003522	6509.911663
828.320872	5959.568898
828.638177	5507.309342
828.955439	5145.553622
829.272656	4818.039939
829.589830	4542.059451
829.906960	4287.645019
830.224046	4082.759924
830.541088	3914.098040
830.858086	3803.164929
831.175041	3706.447872
831.491952	3660.056653
831.808819	3643.854385
832.125642	3674.912934
832.442421	3774.561422
832.759157	3976.263028
833.075849	4339.112679
833.392497	4793.373573
833.709101	5174.661244
834.025662	5288.256084
834.342179	5171.021531
834.658653	4909.975461
834.975083	4642.607785
835.291469	4405.797062
835.607811	4187.114329
835.924110	4035.020197
836.240366	3877.746279
836.556578	3721.157958
836.872746	3588.111826
837.188871	3476.054538
837.504952	3383.128428
837.820990	3313.137048
838.136984	3257.276023
838.452935	3227.071949
838.768842	3214.562326
839.084706	3244.353025
839.400526	3371.987478
839.716303	3591.418823
840.032037	3793.112868
840.347727	3861.160883
840.663373	3776.524951
840.978977	3635.029845
841.294537	3506.273735
841.610054	3402.592323
841.925527	3329.321673
842.240957	3264.104266
842.556344	3204.848023
842.871687	3148.475320
843.186987	3085.468458
843.502244	3035.492980
843.817458	2997.293637
844.132629	2963.878348
844.447756	2942.778599
844.762840	2921.046185
845.077881	2905.234606
845.392879	2889.254148
845.707833	2882.683004
846.022745	2868.408977
846.337613	2867.506610
846.652438	2856.332893
846.967221	2854.392048
847.281960	2845.454083
847.596656	2843.457786
847.911309	2839.941581
848.225919	2833.753565
848.540485	2828.001608
848.855009	2827.631083
849.169490	2822.836946
849.483928	2819.860145
849.798323	2818.206646
850.112675	2812.396716
850.426984	2815.229845
850.741251	2808.656180
851.055474	2809.175419
851.369654	2812.356387
851.683792	2808.310861
851.997887	2809.893783
852.311938	2806.795994
852.625947	2808.729277
852.939914	2804.293062
853.253837	2809.369503
853.567718	2808.063845
853.881555	2802.964717
854.195350	2806.594348
854.509103	2806.193577
854.822812	2807.290027
855.136479	2805.084523
855.450103	2806.249029
855.763685	2804.474543
856.077224	2802.672331
856.390720	2807.690799
856.704173	2805.132414
857.017584	2810.438228
857.330953	2813.404947
857.644278	2814.408137
857.957561	2815.323106
858.270802	2816.341419
858.584000	2819.620690
858.897155	2814.634989
859.210268	2813.417550
859.523339	2811.764052
859.836367	2810.009730
860.149352	2807.400933
860.462295	2807.705923
860.775195	2803.564615
861.088054	2803.771302
861.400869	2802.019501
861.713642	2803.173925
862.026373	2804.542599
862.339062	2805.744914
862.651708	2808.207517
862.964312	2812.421922
863.276873	2811.935451
863.589392	2818.809064
863.901869	2827.363902
864.214303	2833.216682
864.526696	2841.290090
864.839045	2846.159844
865.151353	2853.043540
865.463619	2855.586802
865.775842	2858.457739
866.088023	2864.575179
866.400162	2862.077287
866.712258	2865.338914
867.024313	2866.614326
867.336325	2864.610467
867.648296	2868.565253
867.960224	2865.926208
868.272110	2867.317567
868.583954	2867.143647
868.895755	2871.335367
869.207515	2873.634133
869.519233	2879.660832
869.830909	2881.024464
870.142542	2881.311810
870.454134	2884.366749
870.765684	2890.335475
871.077191	2896.614233
871.388657	2901.317629
871.700081	2906.837693
872.011463	2911.594021
872.322803	2916.882192
872.634101	2922.611463
872.945357	2929.200251
873.256571	2938.949843
873.567744	2946.735905
873.878874	2950.620114
874.189963	2959.179993
874.501010	2960.790642
874.812015	2958.232256
875.122979	2966.996302
875.433900	2967.984368
875.744780	2973.121304
876.055618	2978.974083
876.366415	2979.064824
876.677169	2983.329640
876.987882	2989.772235
877.298554	2998.264059
877.609183	3010.607324
877.919771	3025.103162
878.230317	3051.226421
878.540822	3084.956781
878.851285	3132.152064
879.161707	3194.097762
879.472087	3294.615849
879.782425	3447.662759
880.092722	3710.599262
880.402977	4117.480871
880.713191	4644.803207
881.023363	5230.857507
881.333494	5661.735008
881.643583	5947.850736
881.953631	6021.867477
882.263637	5963.715247
882.573602	5829.880174
882.883526	5671.277912
883.193408	5474.289785
883.503248	5256.774078
883.813048	5048.156009
884.122806	4838.607846
884.432522	4603.017083
884.742197	4384.294021
885.051831	4179.570242
885.361424	3988.649143
885.670975	3822.863237
885.980485	3682.164633
886.289954	3564.113413
886.599382	3462.602219
886.908768	3381.399313
887.218113	3306.949032
887.527417	3246.273704
887.836680	3188.330682
888.145901	3143.504742
888.455082	3109.817232
888.764221	3077.808425
889.073319	3047.448076
889.382376	3029.972916
889.691392	3013.649660
890.000366	3007.819566
890.309300	2998.531240
890.618193	2996.255159
890.927044	2989.618480
891.235855	2991.652585
891.544625	2994.684839
891.853353	2998.490911
892.162041	3011.260153
892.470687	3042.227961
892.779293	3068.807445
893.087858	3114.273612
893.396381	3186.558717
893.704864	3287.800209
894.013306	3439.302006
894.321707	3614.802215
894.630068	3764.000204
894.938387	3837.694312
895.246665	3851.076055
895.554903	3790.741005
895.863100	3710.392574
896.171256	3638.304074
896.479371	3568.481573
896.787446	3494.613546
897.095480	3426.497475
897.403473	3372.080740
897.711425	3319.204077
898.019336	3272.885956
898.327207	3218.895198
898.635038	3175.901717
898.942827	3127.428502
899.250576	3087.711772
899.558284	3047.178374
899.865952	3020.898839
900.173579	2992.134016
900.481165	2973.348156
900.788711	2952.563478
901.096216	2941.147786
901.403681	2928.691094
901.711105	2917.870258
902.018489	2912.183836
902.325832	2920.171544
902.633135	2928.136568
902.940397	2960.347020
903.247619	3046.974208
903.554800	3210.577294
903.861941	3475.298365
904.169041	3733.970051
904.476101	3893.094072
904.783121	3918.012496
905.090100	3857.460676
905.397039	3752.924789
905.703938	3653.596415
906.010796	3556.607135
906.317614	3474.098570
906.624391	3396.991602
906.931129	3326.337310
907.237826	3260.822474
907.544483	3199.501879
907.851099	3130.027217
908.157675	3059.130950
908.464211	2992.595281
908.770707	2933.954059
909.077163	2888.737430
909.383578	2851.405165
909.689954	2825.828871
909.996289	2806.458237
910.302584	2796.464150
910.608839	2785.431584
910.915054	2778.263064
911.221229	2774.893052
911.527363	2774.726694
911.833458	2773.836931
912.139513	2777.685852
912.445527	2778.883126
912.751502	2789.867800
913.057436	2805.029070
913.363331	2820.833087
913.669186	2851.992459
913.975000	2884.276008
914.280775	2941.213321
914.586510	3020.863551
914.892205	3123.811475
915.197859	3263.721138
915.503475	3436.693209
915.809050	3606.776698
916.114585	3730.032910
916.420081	3803.603509
916.725536	3839.249508
917.030952	3800.961944
917.336328	3758.212960
917.641665	3715.718553
917.946961	3659.328207
918.252218	3603.257973
918.557435	3533.117879
918.862612	3465.929380
919.167750	3414.204621
919.472848	3344.911441
919.777906	3278.010288
920.082925	3213.465875
920.387904	3144.639002
920.692843	3089.803851
920.997743	3038.623536
921.302603	2992.658296
921.607423	2959.686629
921.912204	2926.208326
922.216946	2902.968607
922.521647	2877.185626
922.826310	2857.769622
923.130932	2841.577435
923.435516	2819.537511
923.740059	2809.692137
924.044564	2793.620939
924.349028	2784.015020
924.653454	2768.936929
924.957840	2756.608787
925.262186	2748.547982
925.566493	2737.664131
925.870761	2722.036554
926.174989	2720.791389
926.479178	2713.043136
926.783328	2706.358566
927.087438	2700.175591
927.391509	2694.345496
927.695541	2687.897860
927.999533	2683.421316
928.303486	2679.186747
928.607400	2675.408402
928.911275	2672.292969
929.215110	2670.195849
929.518906	2665.923471
929.822663	2668.655776
930.126381	2664.489262
930.430060	2663.760816
930.733699	2662.808038
931.037299	2666.475477
931.340861	2665.033707
931.644383	2665.983965
931.947866	2666.999757
932.251309	2663.909530
932.554714	2664.038079
932.858080	2665.565549
933.161407	2664.340548
933.464694	2664.648059
933.767943	2661.464570
934.071153	2660.297543
934.374323	2658.442398
934.677455	2657.673622
934.980548	2656.567089
935.283602	2657.603046
935.586617	2653.242448
935.889593	2656.166317
936.192530	2657.038437
936.495428	2658.066832
936.798287	2658.689415
937.101108	2660.715959
937.403890	2670.057217
937.706632	2677.654236
938.009336	2689.710155
938.312002	2704.175746
938.614628	2710.956098
938.917216	2721.164435
939.219765	2727.486042
939.522275	2733.437124
939.824747	2736.421487
940.127179	2733.868142
940.429573	2736.119017
940.731929	2736.736559
941.034246	2736.454254
941.336524	2735.103225
941.638763	2735.849316
941.940964	2733.754716
942.243126	2727.954869
942.545250	2725.930846
942.847335	2718.936245
943.149381	2713.456510
943.451389	2708.559029
943.753359	2704.410160
944.055290	2699.187524
944.357182	2692.979343
944.659036	2693.798531
944.960851	2686.582119
945.262628	2682.639937
945.564367	2684.855524
945.866067	2683.864937
946.167729	2681.195646
946.469352	2684.154804
946.770937	2680.794875
947.072484	2675.778927
947.373992	2677.717250
947.675462	2675.350428
947.976893	2675.065603
948.278286	2673.923782
948.579641	2672.323216
948.880958	2671.524193
949.182236	2669.742145
949.483476	2668.809531
949.784678	2668.025632
950.085841	2669.507731
950.386967	2670.130314
950.688054	2670.815911
950.989103	2674.319512
951.290114	2677.008968
951.591087	2681.079700
951.892021	2683.980884
952.192917	2690.151256
952.493776	2693.821216
952.794596	2696.798017
953.095378	2697.748275
953.396122	2698.817000
953.696828	2697.962524
953.997496	2697.672658
954.298126	2694.637883
954.598718	2691.383818
954.899272	2691.691329
955.199788	2684.653878
955.500266	2680.933506
955.800706	2672.126611
956.101108	2666.619150
956.401472	2659.087666
956.701798	2654.568272
957.002087	2648.067704
957.302337	2645.504277
957.602550	2641.693165
957.902724	2632.311577
958.202861	2628.669344
958.502960	2625.143057
958.803022	2619.948148
959.103045	2616.890688
959.403031	2614.168465
959.702979	2609.744852
960.002889	2608.671087
960.302762	2608.857609
960.602596	2603.549274
960.902393	2599.365117
961.202153	2599.087853
961.501875	2597.462081
961.801559	2597.542739
962.101205	2593.582913
962.400814	2593.391349
962.700385	2592.259610
962.999918	2593.630804
963.299414	2587.624269
963.598873	2591.863880
963.898293	2586.109402
964.197677	2589.464290
964.497022	2586.558065
964.796331	2588.201481
965.095601	2589.035792
965.394835	2586.553024
965.694030	2585.564958
965.993189	2587.518405
966.292309	2585.411203
966.591393	2584.118147
966.890439	2584.496233
967.189447	2585.834660
967.488419	2583.808116
967.787353	2583.969433
968.086249	2585.338106
968.385108	2582.222673
968.683930	2584.967581
968.982714	2582.394072
969.281462	2590.180134
969.580172	2588.166193
969.878844	2590.301122
970.177480	2591.765577
970.476078	2586.187540
970.774639	2593.784559
971.073162	2592.133581
971.371649	2591.591657
971.670098	2591.722727
971.968510	2592.115937
972.266885	2592.055443
972.565223	2597.893100
972.863524	2596.322780
973.161788	2599.042483
973.460014	2600.002822
973.758204	2600.091043
974.056356	2600.426279
974.354471	2600.663214
974.652550	2602.084819
974.950591	2602.392329
975.248595	2600.932915
975.546563	2601.633636
975.844493	2601.303440
976.142386	2599.786053
976.440243	2598.465271
976.738062	2599.528954
977.035845	2596.141299
977.333590	2593.472008
977.631299	2594.449992
977.928971	2593.381267
978.226606	2594.661720
978.524204	2594.054261
978.821765	2591.994950
979.119290	2593.749271
979.416777	2593.222471
979.714228	2589.499578
980.011642	2592.844384
980.309020	2595.798500
980.606360	2594.160125
980.903664	2598.372009
981.200931	2605.069182
981.498162	2608.928185
981.795356	2622.854373
982.092513	2634.010446
982.389633	2652.624907
982.686717	2670.105108
982.983764	2684.507684
983.280775	2697.869263
983.577749	2702.244984
983.874686	2705.115921
984.171587	2699.353882
984.468451	2695.300795
984.765279	2688.719568
985.062070	2683.786799
985.358824	2676.298165
985.655543	2668.766682
985.952224	2658.457522
986.248869	2646.444452
986.545478	2632.543471
986.842050	2621.364712
987.138586	2607.776282
987.435086	2602.286465
987.731549	2593.204827
988.027975	2592.763726
988.324366	2586.709300
988.620719	2583.036819
988.917037	2582.391552
989.213318	2579.865933
989.509563	2579.271077
989.805772	2579.024061
990.101944	2576.032136
990.398080	2575.490212
990.694180	2572.831003
990.990244	2575.522979
991.286271	2574.933164
991.582262	2575.298648
991.878217	2575.301169
992.174136	2575.323854
992.470019	2577.514235
992.765865	2576.301838
993.061676	2578.194791
993.357450	2578.943402
993.653188	2581.748804
993.948890	2580.823753
994.244556	2585.325503
994.540186	2591.712645
994.835780	2595.619539
995.131337	2599.733121
995.426859	2606.016919
995.722345	2615.842128
996.017795	2625.629528
996.313208	2636.745272
996.608586	2639.500263
996.903928	2643.666777
997.199234	2643.487816
997.494504	2645.743732
997.789738	2643.296252
998.084936	2639.974131
998.380099	2634.980868
998.675225	2631.343676
998.970316	2625.264044
999.265371	2621.473097
999.560390	2610.997579
999.855373	2609.868361
1000.150320	2599.533995
1000.445232	2594.845722
1000.740108	2591.722727
1001.034948	2586.457242
1001.329752	2580.743094
1001.624521	2581.489185
1001.919254	2573.687999
1002.213951	2573.738411
1002.508613	2570.726322
1002.803239	2574.318144
1003.097829	2569.350087
1003.392384	2574.618092
1003.686903	2570.905282
1003.981386	2569.065261
1004.275834	2568.853533
1004.570246	2566.804304
1004.864623	2567.615930
1005.158964	2567.111814
1005.453270	2566.088460
1005.747540	2567.547874
1006.041775	2566.905127
1006.335974	2566.496793
1006.630138	2562.978068
1006.924266	2565.952349
1007.218359	2565.586865
1007.512416	2566.133830
1007.806438	2565.647359
1008.100425	2564.243398
1008.394376	2563.078891
1008.688292	2563.499828
1008.982172	2563.845147
1009.276017	2564.152657
1009.569827	2564.054354
1009.863602	2564.676937
1010.157341	2564.520661
1010.451045	2567.094170
1010.744714	2561.700136
1011.038347	2563.625856
1011.331945	2561.357337
1011.625508	2561.175856
1011.919036	2562.216854
1012.212528	2562.915054
1012.505986	2563.119220
1012.799408	2561.138047
1013.092795	2563.121741
1013.386147	2560.558314
1013.679464	2563.867832
1013.972745	2562.171483
1014.265992	2560.293654
1014.559204	2561.614436
1014.852380	2561.163253
1015.145521	2561.284240
1015.438628	2564.646690
1015.731699	2562.731052
1016.024736	2561.319528
1016.317737	2562.428582
1016.610703	2560.896072
1016.903635	2558.259548
1017.196531	2559.174518
1017.489393	2557.702501
1017.782219	2559.282902
1018.075011	2561.435475
1018.367768	2565.546536
1018.660490	2563.673747
1018.953177	2563.673747
1019.245829	2563.673747
