Dividing Wavelength (nm)	Counts (n)	Blue Motor Position (mm): 0.000000	Red Motor Position (mm): 36.000000	
326.493990	2129.499331
326.888308	2129.499331
327.282561	2129.499331
327.676750	2093.770153
328.070874	2091.665472
328.464933	2095.491707
328.858929	2102.098139
329.252859	2113.483585
329.646726	2124.402725
330.040528	2135.377317
330.434265	2151.463638
330.827938	2171.172029
331.221547	2189.138702
331.615091	2208.481609
332.008571	2228.316029
332.401986	2247.127094
332.795338	2266.898500
333.188625	2286.241407
333.581847	2303.590538
333.975006	2321.776501
334.368100	2342.835921
334.761129	2358.566841
335.154095	2375.119470
335.546996	2394.439692
335.939833	2416.270409
336.332606	2428.079312
336.725315	2444.064811
337.117960	2449.874740
337.510540	2459.478138
337.903056	2472.000365
338.295508	2478.085037
338.687896	2488.326141
339.080220	2495.814775
339.472480	2504.296517
339.864676	2507.149810
340.256807	2512.533762
340.648875	2513.829339
341.040879	2516.498630
341.432818	2520.758405
341.824694	2521.542304
342.216506	2519.949299
342.608253	2519.286388
342.999937	2521.370905
343.391557	2520.347551
343.783113	2520.342509
344.174605	2518.341171
344.566033	2515.689524
344.957397	2513.930162
345.348697	2510.449245
345.739934	2512.737929
346.131106	2508.062259
346.522215	2508.994872
346.913260	2504.737618
347.304241	2505.380365
347.695159	2505.196363
348.086012	2499.814931
348.476802	2498.189159
348.867528	2498.670589
349.258191	2497.115393
349.648789	2494.879641
350.039324	2497.546412
350.429796	2492.956441
350.820203	2491.623056
351.210548	2490.178765
351.600828	2488.822695
351.991045	2489.558703
352.381198	2486.602067
352.771288	2486.856645
353.161314	2491.096255
353.551276	2489.740185
353.941175	2489.586430
354.331010	2489.954434
354.720782	2488.192551
355.110490	2491.391163
355.500135	2488.474855
355.889717	2488.474855
356.279235	2488.462253
356.668689	2487.892602
357.058080	2488.704228
357.447408	2489.354537
357.836672	2485.745071
358.225873	2491.023159
358.615010	2485.792962
359.004084	2491.071050
359.393095	2492.563231
359.782043	2493.503406
360.170927	2493.238746
360.559748	2493.039620
360.948505	2492.757316
361.337199	2496.545743
361.725830	2494.660351
362.114398	2499.804849
362.502903	2496.951556
362.891344	2500.177894
363.279722	2497.261587
363.668037	2501.017246
364.056289	2499.189828
364.444478	2502.675786
364.832603	2502.010353
365.220665	2503.565549
365.608665	2500.127483
365.996601	2502.595127
366.384474	2502.806856
366.772284	2507.379182
367.160031	2510.406395
367.547715	2509.892198
367.935336	2512.634585
368.322893	2516.712879
368.710388	2516.523835
369.097820	2525.313087
369.485189	2526.626308
369.872495	2530.744930
370.259738	2538.883873
370.646918	2547.658002
371.034035	2555.262582
371.421090	2565.632236
371.808081	2572.342011
372.195010	2584.138311
372.581875	2597.479725
372.968678	2609.235696
373.355418	2622.423354
373.742096	2641.690644
374.128710	2653.333189
374.515262	2667.919768
374.901751	2683.691017
375.288177	2695.789787
375.674540	2719.639486
376.060841	2740.847620
376.447079	2760.029210
376.833254	2778.149638
377.219367	2788.163890
377.605417	2827.684015
377.991404	2836.780777
378.377329	2857.668798
378.763191	2876.951212
379.148991	2915.687438
379.534727	2938.501180
379.920402	2969.486632
380.306013	2979.757983
380.691563	3031.165149
381.077049	3046.754918
381.462474	3069.243505
381.847835	3107.072323
382.233134	3129.714666
382.618371	3131.355561
383.003545	3198.264276
383.388657	3205.450441
383.773706	3237.817169
384.158693	3253.653954
384.543618	3280.813170
384.928480	3312.970690
385.313280	3365.421376
385.698017	3363.694780
386.082692	3411.376534
386.467305	3423.293822
386.851856	3453.434881
387.236344	3474.635453
387.620770	3505.988909
388.005133	3529.581509
388.389435	3560.551838
388.773674	3569.144485
389.157851	3610.860033
389.541965	3629.981129
389.926018	3595.441664
390.310008	3663.388856
390.693936	3682.479706
391.077802	3727.318248
391.461606	3710.982389
391.845348	3776.129221
392.229027	3774.032101
392.612645	3790.980460
392.996200	3865.433261
393.379694	3906.737955
393.763125	3972.681288
394.146494	3937.236936
394.529801	3999.190196
394.913047	4048.843041
395.296230	4013.744007
395.679351	4066.666040
396.062410	4092.585133
396.445408	4075.057041
396.828343	4106.241618
397.211217	4126.728868
397.594028	4052.064338
397.976778	4114.839306
398.359466	4143.286538
398.742092	4174.574459
399.124656	4094.808282
399.507158	4173.737627
399.889598	4200.647307
400.271977	4264.281792
400.654294	4233.185434
401.036549	4240.558122
401.418742	4210.366651
401.800874	4313.617044
402.182944	4335.662009
402.564952	4399.165424
402.946898	4388.856265
403.328783	4380.228330
403.710606	4297.802944
404.092367	4486.188343
404.474067	4451.338846
404.855705	4459.644147
405.237282	4387.732088
405.618797	4500.777442
406.000250	4532.677863
406.381642	4615.446048
406.762972	4576.891303
407.144240	4585.720884
407.525447	4586.192232
407.906593	4645.884535
408.287677	4688.273077
408.668700	4616.401347
409.049661	4664.809026
409.430560	4711.926171
409.811399	4637.508658
410.192176	4795.558913
410.572891	4735.496086
410.953545	4836.561138
411.334138	4720.773396
411.714669	4791.336947
412.095139	4682.430380
412.475547	4826.262061
412.855894	4803.508813
413.236180	4815.471471
413.616405	4768.974388
413.996568	4856.123335
414.376670	4801.676353
414.756711	4750.390175
415.136691	4781.526861
415.516609	4860.458728
415.896466	4900.092279
416.276262	4932.219553
416.655997	4914.676337
417.035670	5093.932206
417.415283	5184.650290
417.794834	5129.071569
418.174324	5085.349642
418.553753	4994.419829
418.933121	5178.452192
419.312428	5243.604064
419.691674	5181.161812
420.070859	5307.215864
420.449983	5221.085230
420.829045	5338.806254
421.208047	5247.435341
421.586988	5312.509075
421.965867	5327.496426
422.344686	5458.077434
422.723444	5309.612933
423.102141	5132.169358
423.480777	5431.669349
423.859352	5196.554975
424.237866	5453.928564
424.616319	5451.128203
424.994712	5558.063679
425.373044	5440.072953
425.751314	5580.033028
426.129524	5382.419797
426.507673	5579.959931
426.885762	5659.378269
427.263789	5592.643474
427.641756	5473.904136
428.019662	5594.730512
428.397508	5605.337099
428.775292	5551.454727
429.153016	5647.607174
429.530679	5578.361885
429.908282	5659.680738
430.285824	5527.451272
430.663305	5803.812367
431.040726	5539.449219
431.418086	5535.799423
431.795385	5643.135671
432.172624	5660.136962
432.549802	5649.048944
432.926920	5662.360111
433.303977	5670.887223
433.680974	5714.533533
434.057910	5730.423250
434.434786	5734.957768
434.811601	5702.492737
435.188355	5937.775990
435.565050	5806.958048
435.941683	5793.294000
436.318257	6006.771742
436.694770	5991.083671
437.071222	6026.404516
437.447614	5956.511438
437.823946	5867.560278
438.200218	6025.582808
438.576429	5888.874277
438.952580	5985.543443
439.328670	6029.023395
439.704700	5936.906391
440.080670	5930.408343
440.456580	6190.272263
440.832429	6081.597588
441.208218	5925.248723
441.583947	6081.090953
441.959616	6085.338125
442.335224	6011.119737
442.710773	6150.880686
443.086261	6180.870511
443.461689	5968.322862
443.837057	6120.825327
444.212365	6275.833246
444.587612	6164.859806
444.962800	6323.711605
445.337927	6303.385672
445.712995	5910.309263
446.088002	6491.115721
446.462949	6320.190359
446.837837	6248.237970
447.212664	6424.048210
447.587431	6566.019706
447.962139	7110.592870
448.336786	8033.643263
448.711374	7772.357739
449.085901	6849.012438
449.460369	6768.371621
449.834776	6703.151693
450.209124	7096.366734
450.583412	7246.003304
450.957640	7388.925057
451.331808	7156.726990
451.705917	6714.522016
452.079965	6636.190047
452.453954	6846.862386
452.827883	6722.608026
453.201752	6814.707387
453.575562	6613.547704
453.949311	6819.922460
454.323001	6707.262754
454.696632	6783.202696
455.070202	6921.121103
455.443713	7073.091727
455.817164	7173.377921
456.190556	7254.296002
456.563888	7336.416398
456.937160	7370.393775
457.310373	7026.894593
457.683526	7051.326545
458.056619	6943.425688
458.429653	6934.505367
458.802628	6864.551795
459.175542	6980.964640
459.548398	7333.636202
459.921194	7495.240471
460.293930	7496.967066
460.666607	8024.559104
461.039224	8334.746341
461.411782	8459.842574
461.784280	8482.618507
462.156719	8372.973411
462.529099	8251.353054
462.901419	7841.852565
463.273680	7734.100422
463.645882	7750.050633
464.018024	7609.354550
464.390106	7774.381762
464.762130	8162.878283
465.134094	8626.424982
465.505999	9654.888422
465.877845	10874.532581
466.249631	11528.183712
466.621358	11142.245577
466.993026	10510.664617
467.364634	10261.790413
467.736184	9897.536801
468.107674	9559.918125
468.479105	9593.431716
468.850477	9359.438998
469.221790	9134.401891
469.593043	8806.003485
469.964238	8663.535436
470.335373	8672.906941
470.706449	8732.500941
471.077467	8711.179381
471.448425	10027.240648
471.819324	11101.019020
472.190164	11124.707402
472.560945	9879.343277
472.931667	9086.591587
473.302330	8950.127553
473.672934	8595.046320
474.043479	8953.858007
474.413965	8891.561948
474.784393	8775.086088
475.154761	8932.816231
475.525070	9015.322275
475.895321	8841.520934
476.265513	9021.880816
476.635645	9182.630609
477.005719	9191.898771
477.375734	9301.949680
477.745691	9540.484477
478.115588	9672.625722
478.485427	9914.308720
478.855207	10453.863416
479.224928	11269.519588
479.594591	11897.448231
479.964194	11715.603730
480.333739	11651.074440
480.703226	11565.495812
481.072653	11663.271512
481.442022	11890.204093
481.811333	12085.140471
482.180584	11892.218034
482.549777	11606.896288
482.918912	11421.394430
483.287988	11445.304622
483.657005	11456.637136
484.025964	11136.586881
484.394864	11265.095975
484.763706	11237.717469
485.132489	10997.813998
485.501213	10962.193205
485.869879	11033.742302
486.238487	10874.774556
486.607036	10984.896042
486.975527	10766.162897
487.343959	10955.664911
487.712333	11004.400266
488.080648	10935.593557
488.448905	10980.878242
488.817104	10905.717159
489.185244	11173.818323
489.553326	11336.256903
489.921350	11874.258924
490.289315	12937.161006
490.657222	13279.856124
491.025070	13182.917256
491.392861	13058.650293
491.760593	12685.214219
492.128267	12337.132629
492.495883	12013.611539
492.863440	11668.836946
493.230939	11336.698004
493.598380	11267.528332
493.965763	11129.476334
494.333088	11029.727023
494.700354	10958.740015
495.067563	11014.316215
495.434713	10845.659372
495.801805	10969.631428
496.168839	10898.473021
496.535815	10826.984418
496.902733	10832.312918
497.269593	10762.631568
497.636395	10866.980933
498.003139	10852.318737
498.369825	10713.644156
498.736453	10871.316325
499.103023	10797.476024
499.469535	10829.010962
499.835989	10819.044601
500.202385	10783.915320
500.568723	10631.397731
500.935003	10855.343429
501.301226	10655.539817
501.667390	10914.907182
502.033497	11006.832623
502.399546	10870.950841
502.765537	10777.334094
503.131470	10852.994251
503.497345	11034.127950
503.863163	10648.028498
504.228923	10952.509149
504.594625	11017.383757
504.960269	10760.763821
505.325856	10983.749179
505.691385	10775.007601
506.056856	10929.708010
506.422270	10956.426125
506.787625	10840.290543
507.152924	10962.946858
507.518164	10939.888620
507.883347	10858.307627
508.248472	10777.755030
508.613540	11006.457057
508.978550	10889.555219
509.343503	10867.348937
509.708398	10981.795732
510.073236	11090.803122
510.438016	11097.437281
510.802738	11044.114476
511.167403	11095.919893
511.532010	10995.684111
511.896561	11220.600231
512.261053	11293.467589
512.625488	11163.410861
512.989866	11143.536112
513.354186	11125.856785
513.718449	11029.669049
514.082655	11217.988913
514.446803	11116.061823
514.810894	11231.867210
515.174927	11102.039854
515.538904	11127.114553
515.902822	11266.711665
516.266684	11142.341358
516.630488	11088.920251
516.994235	11143.084929
517.357925	11202.994001
517.721558	11285.439552
518.085133	11296.792230
518.448651	11304.197685
518.812112	11180.381905
519.175516	11187.227792
519.538863	11304.376646
519.902152	11219.460930
520.265385	11375.313242
520.628560	11277.572831
520.991678	11244.223078
521.354739	11303.756584
521.717743	11236.273178
522.080690	11197.804133
522.443580	11329.337919
522.806413	11277.139292
523.169189	11301.523353
523.531908	11349.116886
523.894569	11157.424491
524.257174	11159.352732
524.619722	11265.826942
524.982213	11205.564989
525.344647	11245.581669
525.707025	11181.107832
526.069345	11267.046902
526.431608	11170.695328
526.793815	11272.100658
527.155964	11057.473533
527.518057	11097.321334
527.880093	11032.771880
528.242072	11085.270456
528.603995	10982.067954
528.965860	10892.521938
529.327669	10934.003073
529.689421	10861.823832
530.051117	10820.761113
530.412755	10914.695454
530.774337	10795.794799
531.135862	10749.900134
531.497331	10761.474624
531.858743	10598.504202
532.220098	10745.048024
532.581396	10603.472259
532.942638	10572.910264
533.303824	10517.722232
533.664953	10511.816521
534.026025	10413.768599
534.387040	10481.415842
534.747999	10466.166352
535.108902	10498.417134
535.469748	10252.416388
535.830537	10330.579478
536.191270	10284.205904
536.551947	10281.087950
536.912567	10258.894270
537.273131	10163.104786
537.633638	10117.099216
537.994089	10082.398433
538.354483	10008.298513
538.714821	10117.530234
539.075103	10095.512995
539.435328	10033.579899
539.795497	9856.872333
540.155609	9968.329724
540.515665	10012.187763
540.875665	9757.959854
541.235609	9780.740828
541.595496	9752.028936
541.955328	9850.563329
542.315102	9724.249658
542.674821	9645.564808
543.034483	9618.897104
543.394090	9587.518442
543.753640	9489.619235
544.113134	9642.998861
544.472571	9485.775355
544.831953	9573.695598
545.191278	9384.266681
545.550548	9367.764464
545.909761	9449.617679
546.268918	9386.111743
546.628019	9417.548379
546.987064	9264.776211
547.346053	9178.010392
547.704986	9201.376140
548.063863	9155.657916
548.422684	9115.800033
548.781449	9004.362807
549.140158	9044.271101
549.498811	8909.674814
549.857408	8765.520499
550.215949	8885.300835
550.574434	8740.775995
550.932864	8766.107793
551.291237	8780.470041
551.649555	8682.966564
552.007817	8661.740785
552.366022	8597.282072
552.724173	8547.896408
553.082267	8501.386723
553.440305	8537.257053
553.798288	8371.158595
554.156215	8423.309332
554.514086	8368.348152
554.871902	8222.467242
555.229661	8203.588121
555.587365	8143.174933
555.945014	8036.630147
556.302606	8061.377171
556.660143	7962.971327
557.017625	7992.368816
557.375050	7892.070019
557.732421	7940.439890
558.089735	7826.126686
558.446994	7787.221581
558.804197	7765.224506
559.161345	7719.569296
559.518437	7583.662309
559.875474	7578.109478
560.232455	7556.873618
560.589381	7484.346537
560.946251	7418.642658
561.303065	7459.773433
561.659825	7359.656117
562.016528	7279.123685
562.373177	7174.852458
562.729770	7173.282139
563.086307	7086.251659
563.442789	7105.350070
563.799216	6964.409491
564.155587	6958.985210
564.511904	6886.707666
564.868164	6838.889802
565.224370	6808.849566
565.580520	6705.276539
565.936615	6683.022366
566.292654	6552.932870
566.648638	6588.873777
567.004567	6511.570203
567.360441	6463.674200
567.716260	6367.463779
568.072023	6374.652464
568.427732	6296.023067
568.783385	6225.976235
569.138982	6203.535538
569.494525	6167.188819
569.850013	6074.116516
570.205445	6058.680503
570.560823	5984.870449
570.916145	5898.828035
571.271412	5885.637856
571.626625	5820.841385
571.981782	5772.158963
572.336884	5713.994129
572.691931	5688.009502
573.046923	5606.690649
573.401860	5554.590324
573.756743	5485.521475
574.111570	5465.092199
574.466342	5430.051139
574.821059	5394.616869
575.175722	5317.464530
575.530330	5274.531543
575.884882	5241.514506
576.239380	5171.213095
576.593823	5127.198781
576.948211	5099.863124
577.302544	5028.886198
577.656823	4987.208459
578.011047	4956.328871
578.365216	4911.102159
578.719330	4855.369683
579.073389	4814.856450
579.427394	4773.690388
579.781344	4736.673195
580.135239	4682.276624
580.489080	4658.537831
580.842866	4589.907563
581.196597	4567.615580
581.550273	4543.516344
581.903895	4501.657123
582.257463	4495.179241
582.610975	4423.967901
582.964434	4410.225716
583.317837	4353.066593
583.671186	4333.020445
584.024481	4295.791524
584.377721	4246.516765
584.730906	4213.673648
585.084037	4190.156665
585.437113	4155.788599
585.790135	4124.230976
586.143103	4074.096701
586.496016	4042.150909
586.848874	4024.194319
587.201679	4003.286133
587.554428	3946.358904
587.907124	3928.790482
588.259765	3903.655289
588.612352	3878.832648
588.964884	3835.123323
589.317362	3812.511228
589.669786	3793.997590
590.022155	3781.424953
590.374470	3753.433946
590.726731	3729.269175
591.078937	3674.504600
591.431090	3667.983868
591.783188	3631.561531
592.135232	3601.007098
592.487222	3588.694079
592.839157	3576.091195
593.191038	3545.985424
593.542866	3520.068852
593.894639	3482.184581
594.246358	3471.353662
594.598022	3452.787092
594.949633	3420.495981
595.301190	3397.188207
595.652692	3386.087586
596.004141	3375.791029
596.355535	3337.647138
596.706876	3317.510249
597.058162	3288.037143
597.409395	3282.161679
597.760573	3277.062552
598.111698	3250.253695
598.462768	3235.437744
598.813785	3216.460321
599.164748	3195.458874
599.515657	3186.387317
599.866511	3155.527894
600.217312	3161.320180
600.568060	3132.136940
600.918753	3130.836323
601.269392	3118.009107
601.619978	3091.628748
601.970510	3087.845363
602.320988	3076.512849
602.671412	3066.533885
603.021783	3052.393448
603.372100	3037.794267
603.722363	3025.161135
604.072572	3015.532531
604.422728	3006.466016
604.772830	2991.145949
605.122878	2972.246664
605.472872	2968.617033
605.822813	2957.241669
606.172701	2947.580298
606.522534	2944.485029
606.872314	2939.524534
607.222041	2923.410486
607.571714	2921.111720
607.921333	2909.612848
608.270899	2900.702608
608.620411	2899.202865
608.969870	2886.516801
609.319276	2880.734598
609.668627	2875.196890
610.017926	2872.567929
610.367171	2868.577855
610.716362	2864.149202
611.065500	2852.574712
611.414585	2842.293279
611.763616	2837.332784
612.112594	2832.309274
612.461518	2825.549087
612.810389	2822.579847
613.159207	2811.290183
613.507971	2807.466468
613.856682	2805.190387
614.205340	2796.620425
614.553945	2798.508337
614.902496	2784.705658
615.250994	2786.046605
615.599439	2778.515121
615.947830	2772.929523
616.296169	2771.530603
616.644454	2767.449789
616.992686	2763.202617
617.340864	2761.453336
617.688990	2755.182141
618.037063	2750.627458
618.385082	2746.408012
618.733048	2750.640061
619.080961	2745.215780
619.428821	2741.523134
619.776628	2736.933164
620.124382	2729.535271
620.472083	2726.147615
620.819731	2723.133005
621.167326	2715.357025
621.514868	2713.257385
621.862357	2703.404450
622.209793	2700.198276
622.557176	2696.939170
622.904506	2690.289888
623.251783	2684.908456
623.599007	2680.724298
623.946179	2679.385872
624.293297	2676.141890
624.640363	2674.082578
624.987376	2671.125942
625.334336	2668.522186
625.681243	2664.973213
626.028097	2660.763850
626.374899	2660.221926
626.721647	2658.031544
627.068343	2652.287150
627.414987	2651.001655
627.761577	2650.232879
628.108115	2648.234062
628.454600	2645.670635
628.801032	2646.381438
629.147412	2642.149389
629.493739	2640.831127
629.840014	2640.959677
630.186236	2639.512866
630.532405	2634.938019
630.878521	2637.259470
631.224585	2634.600261
631.570597	2630.474077
631.916556	2631.593213
632.262462	2629.518778
632.608316	2625.778242
632.954117	2627.134312
633.299866	2628.886113
633.645562	2623.897892
633.991206	2623.822274
634.336797	2623.179527
634.682336	2620.338837
635.027823	2617.765328
635.373257	2614.866665
635.718639	2612.673763
636.063968	2613.447580
636.409245	2611.549585
636.754470	2610.616972
637.099642	2608.439193
637.444762	2610.347270
637.789829	2605.364090
638.134845	2606.659666
638.479808	2604.854933
638.824719	2603.869388
639.169577	2602.755292
639.514383	2604.623040
639.859137	2598.140116
640.203839	2602.997268
640.548489	2599.836464
640.893086	2598.435024
641.237632	2594.989395
641.582125	2596.552153
641.926566	2597.141968
642.270955	2601.996599
642.615292	2597.371340
642.959576	2596.829416
643.303809	2597.189859
643.647990	2597.779674
643.992118	2596.693305
644.336195	2595.054930
644.680219	2595.148191
645.024192	2593.393870
645.368112	2597.343614
645.711981	2592.433530
646.055797	2599.513831
646.399562	2592.995619
646.743274	2596.237081
647.086935	2597.636001
647.430544	2598.308995
647.774101	2596.688264
648.117606	2596.075764
648.461059	2597.199941
648.804460	2600.844695
649.147810	2596.932760
649.491108	2592.204157
649.834354	2593.739189
650.177548	2591.079980
650.520690	2590.643920
650.863781	2590.313725
651.206820	2593.305650
651.549807	2587.583940
651.892742	2590.394383
652.235626	2586.691656
652.578458	2587.783066
652.921238	2587.341965
653.263967	2588.035123
653.606644	2586.066553
653.949269	2589.008066
654.291843	2584.965061
654.634365	2582.888105
654.976836	2588.264496
655.319255	2585.171748
655.661622	2584.218970
656.003938	2586.681573
656.346203	2583.281315
656.688416	2585.345668
657.030577	2583.898857
657.372687	2583.235945
657.714746	2580.400296
658.056753	2583.830801
658.398708	2577.448700
658.740612	2580.186047
659.082465	2577.627661
659.424266	2580.864082
659.766016	2577.002558
660.107715	2581.839545
660.449362	2582.499936
660.790958	2582.847776
661.132503	2582.449525
661.473996	2581.577405
661.815438	2581.055646
662.156829	2582.706624
662.498168	2577.393247
662.839456	2583.540935
663.180693	2581.151428
663.521879	2581.675708
663.863013	2582.073959
664.204097	2579.056828
664.545129	2582.633527
664.886110	2580.833835
665.227040	2583.122519
665.567918	2583.750142
665.908746	2583.293918
666.249522	2581.542117
666.590248	2579.631520
666.930922	2582.303331
667.271545	2581.229566
667.612118	2582.227714
667.952639	2580.911973
668.293109	2582.005903
668.633528	2580.823753
668.973896	2580.107909
669.314213	2578.189750
669.654480	2581.453897
669.994695	2578.338464
670.334859	2580.395255
670.674973	2579.384503
671.015035	2579.147569
671.355047	2578.272929
671.695008	2580.034812
672.034918	2580.914493
672.374777	2581.650502
672.714585	2578.386355
673.054342	2579.213104
673.394049	2577.693196
673.733705	2578.885429
674.073310	2580.702765
674.412864	2580.599421
674.752368	2576.760583
675.091820	2582.895667
675.431223	2580.339802
675.770574	2578.691345
676.109875	2572.563822
676.449125	2576.899214
676.788324	2572.697413
677.127473	2576.155644
677.466571	2571.749676
677.805619	2575.628844
678.144616	2576.591704
678.483562	2574.716395
678.822458	2575.848134
679.161303	2579.109760
679.500098	2577.211766
679.838842	2570.408729
680.177535	2575.651529
680.516179	2576.657239
680.854771	2577.693196
681.193314	2577.788978
681.531805	2578.467013
681.870247	2580.337281
682.208638	2580.090265
682.546978	2582.996490
682.885268	2580.165882
683.223508	2581.080852
683.561697	2576.485840
683.899836	2579.465162
684.237925	2578.640933
684.575963	2577.146231
684.913951	2576.067424
685.251889	2578.507342
685.589776	2577.957857
685.927614	2580.115471
686.265401	2578.194791
686.603137	2579.606314
686.940824	2579.714699
687.278460	2579.991962
687.616046	2580.254102
687.953582	2581.489185
688.291068	2582.053794
688.628504	2579.376942
688.965889	2580.304514
689.303224	2578.683783
689.640510	2580.181006
689.977745	2576.208576
690.314930	2577.310068
690.652065	2577.993145
690.989150	2574.983576
691.326185	2576.911817
691.663170	2575.807805
692.000105	2573.972825
692.336990	2572.399985
692.673825	2572.523493
693.010610	2572.248750
693.347345	2566.506876
693.684030	2568.059551
694.020665	2564.747513
694.357251	2564.457647
694.693786	2567.305899
695.030272	2567.109294
695.366707	2568.765313
695.703093	2570.171795
696.039429	2568.488049
696.375716	2568.049469
696.711952	2565.531413
697.048139	2568.309088
697.384276	2566.620302
697.720363	2567.487380
698.056400	2566.295147
698.392388	2565.241546
698.728326	2564.424879
699.064214	2565.188614
699.400053	2567.285734
699.735842	2566.123748
700.071581	2567.376475
700.407270	2565.407904
700.742910	2565.654921
701.078501	2565.082750
701.414042	2563.804817
701.749533	2562.763819
702.084974	2563.943449
702.420366	2563.782132
702.755709	2562.743654
703.091002	2560.117213
703.426246	2560.762481
703.761440	2563.230126
704.096584	2561.407749
704.431679	2562.274827
704.766725	2564.064437
705.101721	2560.336503
705.436668	2564.437482
705.771565	2561.725341
706.106413	2561.049827
706.441212	2560.580999
706.775961	2561.377502
707.110661	2560.487738
707.445311	2560.109652
707.779913	2562.466391
708.114465	2564.833213
708.448967	2563.688871
708.783421	2563.643500
709.117825	2562.662996
709.452180	2563.028480
709.786485	2561.937070
710.120742	2564.157698
710.454949	2568.538461
710.789107	2566.799263
711.123216	2564.533264
711.457275	2560.270968
711.791286	2567.242884
712.125247	2567.578121
712.459159	2567.028635
712.793023	2569.672720
713.126837	2569.617268
713.460602	2566.600137
713.794318	2569.324881
714.127985	2565.665003
714.461602	2565.571742
714.795171	2565.904458
715.128691	2564.389591
715.462162	2564.838254
715.795584	2564.006463
716.128957	2563.913202
716.462281	2563.877914
716.795556	2565.745662
717.128782	2562.915054
717.461960	2560.207954
717.795088	2561.737944
718.128167	2560.923798
718.461198	2558.917419
718.794180	2561.929508
719.127113	2559.882800
719.459997	2560.613767
719.792833	2558.695608
720.125619	2560.739796
720.458357	2560.454971
720.791046	2561.168294
721.123686	2558.516647
721.456278	2556.434650
721.788821	2558.718293
722.121315	2557.158056
722.453761	2555.970864
722.786158	2560.152501
723.118506	2556.694270
723.450805	2555.862479
723.783056	2556.270813
724.115259	2559.308108
724.447412	2559.832388
724.779518	2558.400700
725.111574	2559.630742
725.443582	2559.187120
725.775542	2558.078067
726.107453	2558.627552
726.439315	2557.853735
726.771129	2563.862791
727.102895	2559.204764
727.434612	2563.315825
727.766281	2560.646534
728.097901	2558.236863
728.429473	2555.214691
728.760996	2557.954558
729.092471	2555.098745
729.423897	2560.913716
729.755276	2560.956565
730.086606	2560.530588
730.417887	2560.951524
730.749120	2561.952193
731.080305	2562.973027
731.411442	2563.036041
731.742530	2562.375650
732.073570	2565.349931
732.404562	2565.659962
732.735506	2565.458316
733.066401	2564.238357
733.397249	2564.177863
733.728048	2563.706515
734.058798	2558.781307
734.389501	2558.574620
734.720156	2560.883469
735.050762	2558.531770
735.381320	2554.251831
735.711831	2559.383725
736.042293	2554.130843
736.372707	2555.887685
736.703073	2557.853735
737.033391	2555.065977
737.363661	2556.094373
737.693883	2556.779969
738.024056	2557.742830
738.354182	2555.519681
738.684260	2560.747358
739.014290	2558.178890
739.344272	2556.648899
739.674207	2558.090669
740.004093	2559.245094
740.333931	2559.436658
740.663722	2558.088149
740.993464	2559.482028
741.323159	2559.194682
741.652806	2559.683674
741.982405	2559.857594
742.311956	2559.376164
742.641460	2557.132850
742.970915	2555.988508
743.300323	2556.893395
743.629683	2559.446740
743.958996	2555.499516
744.288260	2555.071018
744.617477	2554.387942
744.946647	2549.583722
745.275768	2552.643703
745.604842	2549.719833
745.933869	2549.477858
746.262847	2550.680173
746.591778	2555.184444
746.920662	2553.742674
747.249498	2552.348795
747.578286	2555.023127
747.907027	2554.849207
748.235720	2555.744012
748.564365	2556.444733
748.892963	2554.279557
749.221514	2556.003632
749.550017	2554.009855
749.878473	2552.240410
750.206881	2556.588406
750.535242	2553.886347
750.863555	2552.437015
751.191821	2553.480534
751.520039	2553.840977
751.848210	2554.234187
752.176334	2553.336861
752.504411	2556.195196
752.832440	2554.201419
753.160421	2553.455328
753.488356	2552.847869
753.816243	2553.949362
754.144082	2551.227138
754.471875	2552.931048
754.799620	2552.179917
755.127318	2550.644885
755.454969	2551.456511
755.782572	2555.128992
756.110129	2550.007179
756.437638	2552.868034
756.765100	2552.537838
757.092515	2550.377704
757.419882	2551.625390
757.747203	2552.051367
758.074477	2552.290822
758.401703	2553.941800
758.728882	2552.517674
759.056014	2553.513302
759.383099	2553.462890
759.710138	2554.433312
760.037129	2554.415668
760.364073	2555.938097
760.690970	2551.902653
761.017820	2554.372818
761.344623	2552.870555
761.671379	2553.331820
761.998088	2551.327962
762.324751	2554.939948
762.651366	2561.377502
762.977935	2569.329922
763.304456	2573.990469
763.630931	2579.906263
763.957359	2574.542475
764.283740	2571.343863
764.610074	2567.255487
764.936362	2563.832544
765.262602	2560.147460
765.588796	2558.367933
765.914943	2556.154866
766.241044	2553.150339
766.567097	2554.519012
766.893104	2551.726213
767.219064	2549.140101
767.544978	2551.055739
767.870845	2551.363250
768.196665	2550.791079
768.522438	2549.203115
768.848165	2548.512477
769.173846	2548.530121
769.499479	2550.276881
769.825066	2546.322096
770.150607	2549.810574
770.476101	2546.281767
770.801548	2551.199412
771.126949	2548.595656
771.452303	2547.925183
771.777611	2549.208156
772.102872	2549.354350
772.428087	2544.567774
772.753256	2543.105840
773.078378	2548.721685
773.403453	2547.118598
773.728482	2546.324616
774.053465	2546.314534
774.378401	2542.659697
774.703291	2543.468803
775.028135	2545.127342
775.352932	2543.763710
775.677683	2546.743032
776.002388	2547.181612
776.327046	2543.168854
776.651658	2545.838145
776.976224	2546.647250
777.300743	2547.199257
777.625216	2543.506611
777.949643	2544.529966
778.274024	2544.512322
778.598359	2540.076106
778.922647	2541.139790
779.246889	2539.831610
779.571086	2540.045859
779.895236	2542.155582
780.219339	2541.394368
780.543397	2545.066848
780.867409	2543.345294
781.191374	2544.424101
781.515294	2544.862682
781.839167	2544.015768
782.162995	2541.530479
782.486776	2544.114070
782.810511	2544.802188
783.134201	2546.591797
783.457844	2543.499050
783.781441	2544.172044
784.104993	2544.315717
784.428498	2546.964843
784.751958	2542.826056
785.075372	2542.833617
785.398739	2543.378062
785.722061	2543.118443
786.045337	2543.249512
786.368568	2547.438711
786.691752	2544.169523
787.014891	2546.314534
787.337983	2545.646581
787.661030	2547.380738
787.984031	2547.506767
788.306987	2549.130018
788.629897	2550.402910
788.952760	2547.340409
789.275579	2544.260264
789.598351	2547.095913
789.921078	2546.427960
790.243759	2543.715819
790.566395	2544.144317
790.888984	2544.734132
791.211529	2545.185316
791.534027	2545.276056
791.856480	2543.614996
792.178888	2543.373021
792.501249	2542.841179
792.823566	2545.298742
793.145836	2543.294883
793.468062	2544.807229
793.790241	2542.226158
794.112375	2543.131045
794.434464	2542.321940
794.756507	2541.175078
795.078505	2542.750438
795.400457	2541.719522
795.722364	2540.910417
796.044226	2543.514173
796.366042	2543.307486
796.687812	2544.003165
797.009538	2543.836807
797.331218	2544.512322
797.652852	2545.114739
797.974442	2547.385779
798.295986	2544.146838
798.617484	2547.428629
798.938938	2546.226314
799.260346	2545.754966
799.581709	2540.615510
799.903026	2543.781354
800.224299	2540.663401
800.545526	2542.818494
800.866708	2542.624409
801.187845	2541.580891
801.508936	2541.951415
801.829983	2543.395706
802.150984	2542.846220
802.471940	2542.694986
802.792851	2543.627599
803.113717	2542.720191
803.434538	2544.436704
803.755314	2541.802701
804.076045	2541.049049
804.396731	2540.192053
804.717372	2542.997455
805.037967	2542.193391
805.358518	2541.812784
805.679024	2542.642053
805.999485	2540.343287
806.319901	2542.657177
806.640272	2540.194573
806.960598	2542.097609
807.280879	2540.459234
807.601115	2544.098947
807.921306	2543.103319
808.241453	2542.959646
808.561554	2542.158103
808.881611	2542.359749
809.201623	2543.650284
809.521590	2541.480068
809.841513	2542.112732
810.161390	2544.577857
810.481223	2541.374203
810.801011	2543.191539
811.120755	2543.002496
811.440453	2544.280428
811.760107	2540.136600
812.079716	2539.108205
812.399281	2540.401261
812.718801	2538.798174
813.038276	2535.821372
813.357707	2542.715150
813.677093	2539.468647
813.996434	2543.761190
814.315731	2542.163144
814.634983	2542.654656
814.954191	2541.520397
815.273354	2539.158616
815.592473	2541.951415
815.911547	2543.168854
816.230577	2544.567774
816.549562	2543.723381
816.868502	2542.878988
817.187399	2543.630120
817.506250	2544.003165
817.825058	2543.539379
818.143821	2543.163813
818.462539	2544.131714
818.781213	2545.152548
819.099843	2547.312682
819.418429	2548.114226
819.736970	2550.700338
820.055466	2554.151008
820.373919	2556.127140
820.692327	2561.264076
821.010691	2571.658935
821.329011	2586.018662
821.647286	2620.784979
821.965517	2660.002636
822.283704	2681.914011
822.601847	2692.578572
822.919945	2673.873370
823.237999	2650.779845
823.556010	2630.663120
823.873976	2611.889863
824.191897	2595.957297
824.509775	2586.482448
824.827609	2580.304514
825.145398	2573.965263
825.463144	2573.945098
825.780845	2570.494428
826.098502	2575.868298
826.416116	2584.871799
826.733685	2597.976279
827.051210	2604.141610
827.368692	2598.203131
827.686129	2588.458580
828.003522	2577.093299
828.320872	2566.569890
828.638177	2562.322718
828.955439	2554.299722
829.272656	2549.913918
829.589830	2545.180274
829.906960	2548.729247
830.224046	2547.572302
830.541088	2546.735470
830.858086	2546.228834
831.175041	2546.513660
831.491952	2546.861499
831.808819	2545.548279
832.125642	2547.257230
832.442421	2548.267981
832.759157	2553.031872
833.075849	2560.308777
833.392497	2569.110632
833.709101	2573.294789
834.025662	2576.742939
834.342179	2566.302709
834.658653	2560.109652
834.975083	2556.185113
835.291469	2558.748540
835.607811	2551.552293
835.924110	2547.005172
836.240366	2547.355532
836.556578	2545.271015
836.872746	2545.394523
837.188871	2541.056611
837.504952	2543.945192
837.820990	2540.595345
838.136984	2540.252547
838.452935	2540.570139
838.768842	2541.795140
839.084706	2541.530479
839.400526	2544.829914
839.716303	2546.964843
840.032037	2551.176727
840.347727	2550.695297
840.663373	2548.930893
840.978977	2546.831252
841.294537	2543.856972
841.610054	2541.086857
841.925527	2541.578370
842.240957	2543.340253
842.556344	2538.213400
842.871687	2539.425797
843.186987	2540.358411
843.502244	2537.711805
843.817458	2539.448483
844.132629	2535.546629
844.447756	2537.978986
844.762840	2531.102852
845.077881	2536.217103
845.392879	2533.262987
845.707833	2536.653163
846.022745	2532.542102
846.337613	2537.429500
846.652438	2535.476053
846.967221	2536.675848
847.281960	2540.250026
847.596656	2536.950591
847.911309	2537.999151
848.225919	2537.462268
848.540485	2533.149561
848.855009	2536.632998
849.169490	2536.660724
849.483928	2533.477236
849.798323	2536.385982
850.112675	2534.830786
850.426984	2536.186856
850.741251	2536.201979
851.055474	2534.442617
851.369654	2535.085364
851.683792	2535.264325
851.997887	2534.949253
852.311938	2535.284489
852.625947	2535.428162
852.939914	2534.747607
853.253837	2537.139634
853.567718	2536.151568
853.881555	2534.545960
854.195350	2538.616692
854.509103	2535.052596
854.822812	2533.711649
855.136479	2533.971269
855.450103	2539.980324
855.763685	2534.782895
856.077224	2537.863040
856.390720	2536.960673
856.704173	2534.868594
857.017584	2538.851106
857.330953	2536.685930
857.644278	2536.580066
857.957561	2539.728267
858.270802	2535.823893
858.584000	2537.953780
858.897155	2535.264325
859.210268	2535.581918
859.523339	2534.820703
859.836367	2534.243491
860.149352	2536.159130
860.462295	2538.173071
860.775195	2532.232071
861.088054	2530.271062
861.400869	2533.814993
861.713642	2532.143851
862.026373	2534.064530
862.339062	2535.939839
862.651708	2536.343132
862.964312	2535.448327
863.276873	2535.024870
863.589392	2534.530837
863.901869	2537.182484
864.214303	2536.494366
864.526696	2536.711136
864.839045	2537.101825
865.151353	2538.871270
865.463619	2539.569470
865.775842	2534.659386
866.088023	2536.985879
866.400162	2538.112577
866.712258	2538.596528
867.024313	2535.899510
867.336325	2535.473533
867.648296	2535.816331
867.960224	2535.861702
868.272110	2535.788605
868.583954	2537.986548
868.895755	2535.697864
869.207515	2535.531506
869.519233	2538.034439
869.830909	2535.138296
870.142542	2534.840868
870.454134	2539.045190
870.765684	2535.433203
871.077191	2536.801877
871.388657	2537.371527
871.700081	2537.651311
872.011463	2536.312885
872.322803	2538.467978
872.634101	2538.888914
872.945357	2539.264480
873.256571	2539.259439
873.567744	2534.792977
873.878874	2537.885725
874.189963	2540.149203
874.501010	2537.522762
874.812015	2538.944367
875.122979	2539.387989
875.433900	2537.966383
875.744780	2540.527289
876.055618	2540.171888
876.366415	2538.974614
876.677169	2539.143493
876.987882	2539.299768
877.298554	2534.855991
877.609183	2540.991076
877.919771	2535.191228
878.230317	2538.644418
878.540822	2542.884029
878.851285	2542.737835
879.161707	2546.571633
879.472087	2548.613300
879.782425	2553.992211
880.092722	2558.315001
880.402977	2569.629871
880.713191	2589.360947
881.023363	2609.696961
881.333494	2621.856224
881.643583	2626.118520
881.953631	2625.170783
882.263637	2620.941255
882.573602	2615.809360
882.883526	2600.779160
883.193408	2591.667275
883.503248	2585.443970
883.813048	2575.893504
884.122806	2568.730025
884.432522	2564.976886
884.742197	2559.847512
885.051831	2555.197047
885.361424	2554.445915
885.670975	2548.993907
885.980485	2547.705893
886.289954	2547.494164
886.599382	2544.827394
886.908768	2543.224307
887.218113	2543.806560
887.527417	2545.157589
887.836680	2541.580891
888.145901	2542.722712
888.455082	2540.411343
888.764221	2542.044677
889.073319	2539.221631
889.382376	2542.112732
889.691392	2540.255067
890.000366	2541.396888
890.309300	2539.897145
890.618193	2539.761034
890.927044	2538.296579
891.235855	2543.630120
891.544625	2540.630633
891.853353	2536.408667
892.162041	2541.517876
892.470687	2543.045346
892.779293	2544.179605
893.087858	2543.267157
893.396381	2542.669780
893.704864	2548.308310
894.013306	2550.775955
894.321707	2561.311967
894.630068	2568.377144
894.938387	2572.384861
895.246665	2566.902606
895.554903	2562.075702
895.863100	2560.359189
896.171256	2553.447767
896.479371	2551.867365
896.787446	2550.327292
897.095480	2547.892415
897.403473	2546.836293
897.711425	2542.279090
898.019336	2544.892929
898.327207	2543.012578
898.635038	2543.839328
898.942827	2542.652136
899.250576	2540.968390
899.558284	2541.293545
899.865952	2539.662732
900.173579	2539.161137
900.481165	2538.609130
900.788711	2539.367824
901.096216	2539.612320
901.403681	2539.098122
901.711105	2539.277083
902.018489	2537.742052
902.325832	2541.527958
902.633135	2539.019984
902.940397	2540.363452
903.247619	2543.806560
903.554800	2549.261088
903.861941	2559.897923
904.169041	2573.004923
904.476101	2581.138825
904.783121	2580.571695
905.090100	2573.042732
905.397039	2564.538305
905.703938	2560.419682
906.010796	2554.153528
906.317614	2551.998435
906.624391	2546.397713
906.931129	2545.039122
907.237826	2542.039636
907.544483	2542.432846
907.851099	2539.514018
908.157675	2537.369007
908.464211	2536.557381
908.770707	2533.048738
909.077163	2532.605116
909.383578	2533.522606
909.689954	2535.206352
909.996289	2530.497914
910.302584	2536.282638
910.608839	2535.287010
910.915054	2533.895652
911.221229	2534.331711
911.527363	2536.426311
911.833458	2536.433872
912.139513	2534.157792
912.445527	2536.756506
912.751502	2537.132072
913.057436	2536.242309
913.363331	2537.285827
913.669186	2541.563247
913.975000	2540.945705
914.280775	2542.866385
914.586510	2544.093906
914.892205	2549.092210
915.197859	2554.022458
915.503475	2560.283571
915.809050	2571.290931
916.114585	2574.476940
916.420081	2576.775706
916.725536	2575.999368
917.030952	2569.100549
917.336328	2565.024777
917.641665	2562.025290
917.946961	2556.238045
918.252218	2552.401727
918.557435	2550.347457
918.862612	2549.011551
919.167750	2545.714637
919.472848	2544.217414
919.777906	2543.683052
920.082925	2542.924358
920.387904	2539.077958
920.692843	2540.192053
920.997743	2538.180632
921.302603	2537.258101
921.607423	2537.792463
921.912204	2537.777340
922.216946	2536.136444
922.521647	2537.991589
922.826310	2535.995292
923.130932	2536.877494
923.435516	2534.162833
923.740059	2536.322967
924.044564	2534.364479
924.349028	2533.673841
924.653454	2529.250228
924.957840	2530.891124
925.262186	2532.411032
925.566493	2533.343645
925.870761	2528.529343
926.174989	2534.671989
926.479178	2530.926412
926.783328	2534.936650
927.087438	2532.834489
927.391509	2534.503111
927.695541	2530.649148
927.999533	2531.778367
928.303486	2532.237112
928.607400	2532.867256
928.911275	2535.022349
929.215110	2532.950435
929.518906	2531.428007
929.822663	2533.462112
930.126381	2528.831813
930.430060	2530.034128
930.733699	2531.876669
931.037299	2530.134951
931.340861	2532.201824
931.644383	2529.429189
931.947866	2531.271731
932.251309	2532.963038
932.554714	2529.734179
932.858080	2532.002698
933.161407	2531.584282
933.464694	2530.472708
933.767943	2532.189221
934.071153	2530.792821
934.374323	2529.436751
934.677455	2533.872966
934.980548	2530.303829
935.283602	2532.660569
935.586617	2529.416586
935.889593	2534.397246
936.192530	2529.653521
936.495428	2531.291896
936.798287	2531.027235
937.101108	2530.439941
937.403890	2530.974303
937.706632	2535.213913
938.009336	2531.445651
938.312002	2532.930271
938.614628	2533.696526
938.917216	2536.365817
939.219765	2533.494880
939.522275	2533.557894
939.824747	2536.040662
940.127179	2531.271731
940.429573	2531.193593
940.731929	2531.148223
941.034246	2527.511030
941.336524	2532.952956
941.638763	2529.731658
941.940964	2532.763912
942.243126	2533.058820
942.545250	2534.389685
942.847335	2530.838192
943.149381	2534.056968
943.451389	2530.989426
943.753359	2531.395239
944.055290	2532.675692
944.357182	2532.582431
944.659036	2532.204344
944.960851	2534.354397
945.262628	2530.881042
945.564367	2532.166536
945.866067	2531.067564
946.167729	2530.999509
946.469352	2531.770805
946.770937	2531.375075
947.072484	2532.655528
947.373992	2530.414735
947.675462	2530.180321
947.976893	2532.902544
948.278286	2532.640404
948.579641	2532.746268
948.880958	2532.630322
949.182236	2531.637215
949.483476	2531.551515
949.784678	2531.722914
950.085841	2532.693336
950.386967	2533.394057
950.688054	2530.397091
950.989103	2531.198634
951.290114	2533.767102
951.591087	2529.918181
951.892021	2531.453213
952.192917	2533.106711
952.493776	2530.986906
952.794596	2532.411032
953.095378	2532.239632
953.396122	2533.270548
953.696828	2530.177801
953.997496	2533.003367
954.298126	2529.887934
954.598718	2530.770136
954.899272	2529.638397
955.199788	2532.136289
955.500266	2531.974972
955.800706	2528.426000
956.101108	2526.873324
956.401472	2530.165198
956.701798	2525.182017
957.002087	2528.332738
957.302337	2528.788963
957.602550	2527.193437
957.902724	2530.644107
958.202861	2528.521782
958.502960	2530.056813
958.803022	2529.691329
959.103045	2529.071267
959.403031	2531.420445
959.702979	2527.034641
960.002889	2530.190403
960.302762	2526.722090
960.602596	2528.403314
960.902393	2527.987419
961.202153	2529.532533
961.501875	2527.208561
961.801559	2528.859539
962.101205	2528.652852
962.400814	2528.741072
962.700385	2529.484642
962.999918	2527.362316
963.299414	2529.053623
963.598873	2529.124199
963.898293	2529.671165
964.197677	2526.787625
964.497022	2528.458767
964.796331	2526.737213
965.095601	2529.454395
965.394835	2525.885258
965.694030	2528.552028
965.993189	2527.919364
966.292309	2527.871473
966.591393	2528.052954
966.890439	2528.955321
967.189447	2526.588499
967.488419	2527.266534
967.787353	2527.511030
968.086249	2528.148736
968.385108	2528.138654
968.683930	2525.761750
968.982714	2527.997502
969.281462	2528.945238
969.580172	2528.945238
969.878844	2527.311905
970.177480	2529.784591
970.476078	2528.718387
970.774639	2529.527492
971.073162	2526.117151
971.371649	2526.429703
971.670098	2523.737727
971.968510	2525.534898
972.266885	2521.907788
972.565223	2530.515558
972.863524	2529.388860
973.161788	2529.661082
973.460014	2524.753519
973.758204	2528.337779
974.056356	2527.316946
974.354471	2527.450536
974.652550	2527.052285
974.950591	2528.194107
975.248595	2529.898017
975.546563	2528.012625
975.844493	2526.107069
976.142386	2529.472039
976.440243	2529.746782
976.738062	2527.667306
977.035845	2526.283509
977.333590	2527.379960
977.631299	2527.223684
977.928971	2527.574045
978.226606	2527.304343
978.524204	2527.657224
978.821765	2529.877852
979.119290	2525.429034
979.416777	2530.444982
979.714228	2528.093283
980.011642	2526.117151
980.309020	2529.658562
980.606360	2527.589168
980.903664	2529.091432
981.200931	2529.711494
981.498162	2526.041534
981.795356	2530.258459
982.092513	2530.515558
982.389633	2528.420958
982.686717	2531.054961
982.983764	2527.836185
983.280775	2528.297450
983.577749	2527.677388
983.874686	2528.322656
984.171587	2529.192255
984.468451	2529.005732
984.765279	2527.357275
985.062070	2529.953469
985.358824	2529.640918
985.655543	2525.537418
985.952224	2529.454395
986.248869	2527.740403
986.545478	2523.130268
986.842050	2524.458612
987.138586	2523.425175
987.435086	2524.473735
987.731549	2524.108251
988.027975	2527.382481
988.324366	2525.756709
988.620719	2528.448685
988.917037	2525.935670
989.213318	2529.867770
989.509563	2527.611853
989.805772	2529.477080
990.101944	2525.839888
990.398080	2523.926770
990.694180	2527.132944
990.990244	2528.070598
991.286271	2526.170083
991.582262	2528.819210
991.878217	2525.461801
992.174136	2529.313243
992.470019	2526.580937
992.765865	2527.624456
993.061676	2525.222346
993.357450	2528.884745
993.653188	2526.475073
993.948890	2525.650844
994.244556	2526.880886
994.540186	2525.174455
994.835780	2528.781401
995.131337	2526.555732
995.426859	2527.458098
995.722345	2524.682943
996.017795	2527.695032
996.313208	2527.521113
996.608586	2529.000691
996.903928	2523.863755
997.199234	2528.733510
997.494504	2526.240659
997.789738	2526.086904
998.084936	2525.358458
998.380099	2526.512882
998.675225	2527.480783
998.970316	2525.194620
999.265371	2527.276617
999.560390	2526.447347
999.855373	2528.093283
1000.150320	2528.153777
1000.445232	2526.626308
1000.740108	2525.610515
1001.034948	2524.781245
1001.329752	2527.185876
1001.624521	2527.158149
1001.919254	2526.570855
1002.213951	2524.781245
1002.508613	2523.273940
1002.803239	2527.016997
1003.097829	2522.994156
1003.392384	2526.611184
1003.686903	2525.494569
1003.981386	2528.776360
1004.275834	2524.509023
1004.570246	2526.759898
1004.864623	2527.175793
1005.158964	2528.216792
1005.453270	2527.324508
1005.747540	2527.132944
1006.041775	2523.586492
1006.335974	2527.503468
1006.630138	2525.683612
1006.924266	2527.556401
1007.218359	2526.805269
1007.512416	2526.641431
1007.806438	2527.911802
1008.100425	2524.211595
1008.394376	2526.863242
1008.688292	2525.587830
1008.982172	2524.985412
1009.276017	2525.282840
1009.569827	2525.489527
1009.863602	2524.826616
1010.157341	2522.694208
1010.451045	2528.007584
1010.744714	2526.933818
1011.038347	2524.080525
1011.331945	2525.918026
1011.625508	2525.847449
1011.919036	2524.907274
1012.212528	2526.230577
1012.505986	2525.081194
1012.799408	2526.089425
1013.092795	2524.219157
1013.386147	2525.938190
1013.679464	2522.520288
1013.972745	2529.081350
1014.265992	2525.827285
1014.559204	2526.679240
1014.852380	2524.887110
1015.145521	2524.428365
1015.438628	2526.054137
1015.731699	2526.608664
1016.024736	2525.418951
1016.317737	2526.613705
1016.610703	2525.983561
1016.903635	2522.419465
1017.196531	2522.411903
1017.489393	2521.862417
1017.782219	2519.263703
1018.075011	2525.817203
1018.367768	2522.205216
1018.660490	2527.624456
1018.953177	2527.624456
1019.245829	2527.624456
