Dividing Wavelength (nm)	Counts (n)	Blue Motor Position (mm): 0.000000	Red Motor Position (mm): 2.000000	
326.493990	2150.440284
326.888308	2150.440284
327.282561	2150.440284
327.676750	2123.530605
328.070874	2125.229474
328.464933	2129.547222
328.858929	2140.703296
329.252859	2152.242497
329.646726	2168.500218
330.040528	2180.994718
330.434265	2199.180680
330.827938	2218.916798
331.221547	2239.088975
331.615091	2258.300812
332.008571	2278.483071
332.401986	2301.412760
332.795338	2318.746767
333.188625	2338.397185
333.581847	2358.463498
333.975006	2377.138452
334.368100	2396.309960
334.761129	2410.984759
335.154095	2430.241967
335.546996	2447.213011
335.939833	2459.367233
336.332606	2471.133286
336.725315	2481.790285
337.117960	2489.931749
337.510540	2501.443224
337.903056	2509.015037
338.295508	2518.096675
338.687896	2522.979033
339.080220	2530.724766
339.472480	2536.254912
339.864676	2540.912938
340.256807	2543.390665
340.648875	2547.486602
341.040879	2545.313865
341.432818	2547.862168
341.824694	2548.948537
342.216506	2548.288146
342.608253	2550.677653
342.999937	2548.751932
343.391557	2548.129349
343.783113	2549.251006
344.174605	2545.331509
344.566033	2544.872764
344.957397	2540.461754
345.348697	2541.780016
345.739934	2541.119625
346.131106	2537.472350
346.522215	2534.911444
346.913260	2532.101001
347.304241	2530.623943
347.695159	2532.753830
348.086012	2528.632687
348.476802	2527.637059
348.867528	2528.110927
349.258191	2524.448529
349.648789	2523.067253
350.039324	2522.043899
350.429796	2521.605318
350.820203	2520.536594
351.210548	2517.438805
351.600828	2517.179185
351.991045	2519.445184
352.381198	2518.343692
352.771288	2518.678929
353.161314	2517.451408
353.551276	2520.796213
353.941175	2519.112468
354.331010	2517.988291
354.720782	2518.338651
355.110490	2516.833866
355.500135	2515.888650
355.889717	2522.041378
356.279235	2517.360667
356.668689	2520.188754
357.058080	2520.529032
357.447408	2517.305214
357.836672	2518.676408
358.225873	2516.138187
358.615010	2517.312776
359.004084	2522.658920
359.393095	2523.677233
359.782043	2524.340144
360.170927	2524.231760
360.559748	2524.385515
360.948505	2525.141688
361.337199	2524.501461
361.725830	2521.083559
362.114398	2526.502799
362.502903	2524.267048
362.891344	2527.143026
363.279722	2528.247039
363.668037	2526.369209
364.056289	2525.262676
364.444478	2525.741585
364.832603	2528.247039
365.220665	2527.972296
365.608665	2530.185362
365.996601	2530.160157
366.384474	2530.094622
366.772284	2530.634025
367.160031	2529.043541
367.547715	2528.597399
367.935336	2527.243849
368.322893	2532.574869
368.710388	2532.121165
369.097820	2535.844057
369.485189	2534.278779
369.872495	2532.022863
370.259738	2532.998326
370.646918	2531.153264
371.034035	2532.577390
371.421090	2535.806249
371.808081	2533.073943
372.195010	2534.863553
372.581875	2532.675692
372.968678	2537.691640
373.355418	2535.465971
373.742096	2537.598379
374.128710	2534.669469
374.515262	2535.360107
374.901751	2537.152237
375.288177	2537.616023
375.674540	2536.065868
376.060841	2538.452855
376.447079	2538.525951
376.833254	2540.058462
377.219367	2533.472195
377.605417	2537.610982
377.991404	2533.845240
378.377329	2535.929757
378.763191	2534.992102
379.148991	2541.124666
379.534727	2540.197094
379.920402	2541.346477
380.306013	2542.516025
380.691563	2543.945192
381.077049	2541.538041
381.462474	2544.315717
381.847835	2542.911755
382.233134	2545.361756
382.618371	2546.072559
383.003545	2546.700182
383.388657	2546.793444
383.773706	2543.849410
384.158693	2548.792261
384.543618	2547.587425
384.928480	2547.988197
385.313280	2547.970553
385.698017	2548.061294
386.082692	2547.715975
386.467305	2545.760007
386.851856	2549.974412
387.236344	2549.213197
387.620770	2548.026006
388.005133	2551.859803
388.389435	2552.928528
388.773674	2551.534649
389.157851	2548.381407
389.541965	2549.921480
389.926018	2549.750080
390.310008	2547.032898
390.693936	2550.907025
391.077802	2550.347457
391.461606	2553.735112
391.845348	2550.002138
392.229027	2549.765204
392.612645	2550.697817
392.996200	2551.305276
393.379694	2549.966850
393.763125	2552.956254
394.146494	2549.825698
394.529801	2551.852242
394.913047	2553.185627
395.296230	2548.083979
395.679351	2551.237221
396.062410	2547.509287
396.445408	2549.669422
396.828343	2549.603887
397.211217	2545.061807
397.594028	2545.833104
397.976778	2547.796633
398.359466	2544.109029
398.742092	2542.705068
399.124656	2550.236552
399.507158	2548.567930
399.889598	2548.593136
400.271977	2547.287477
400.654294	2548.215049
401.036549	2550.060111
401.418742	2549.288815
401.800874	2548.308310
402.182944	2551.872406
402.564952	2547.408464
402.946898	2550.415513
403.328783	2547.892415
403.710606	2550.165976
404.092367	2549.548434
404.474067	2551.212015
404.855705	2552.237890
405.237282	2550.102961
405.618797	2549.082127
406.000250	2549.427447
406.381642	2551.133877
406.762972	2554.851728
407.144240	2551.012889
407.525447	2552.926007
407.906593	2550.649926
408.287677	2552.789896
408.668700	2553.309135
409.049661	2552.043805
409.430560	2551.237221
409.811399	2552.719320
410.192176	2552.167314
410.572891	2554.067829
410.953545	2554.362736
411.334138	2553.409958
411.714669	2551.602704
412.095139	2554.992880
412.475547	2553.586398
412.855894	2553.044474
413.236180	2554.266954
413.616405	2554.594629
413.996568	2554.032541
414.376670	2553.099927
414.756711	2555.902809
415.136691	2554.667726
415.516609	2555.025648
415.896466	2553.871224
416.276262	2556.522871
416.655997	2552.005997
417.035670	2549.795451
417.415283	2555.156718
417.794834	2550.576830
418.174324	2552.976419
418.553753	2557.153015
418.933121	2555.055895
419.312428	2554.156049
419.691674	2557.137891
420.070859	2556.777449
420.449983	2556.969013
420.829045	2555.955741
421.208047	2555.053374
421.586988	2557.523540
421.965867	2555.633107
422.344686	2557.130330
422.723444	2556.578323
423.102141	2556.895916
423.480777	2558.748540
423.859352	2558.627552
424.237866	2559.030845
424.616319	2556.454815
424.994712	2557.896585
425.373044	2559.013201
425.751314	2559.277861
426.129524	2557.016904
426.507673	2560.003787
426.885762	2559.096380
427.263789	2559.416493
427.641756	2558.405742
428.019662	2559.161915
428.397508	2556.870710
428.775292	2559.514795
429.153016	2559.391287
429.530679	2563.396484
429.908282	2556.742161
430.285824	2559.696277
430.663305	2557.357182
431.040726	2559.431616
431.418086	2559.098900
431.795385	2562.393294
432.172624	2560.787687
432.549802	2559.466904
432.926920	2558.370453
433.303977	2561.657286
433.680974	2562.053016
434.057910	2562.811710
434.434786	2560.424724
434.811601	2561.881617
435.188355	2562.494117
435.565050	2560.477656
435.941683	2561.954714
436.318257	2559.550083
436.694770	2559.545042
437.071222	2560.684343
437.447614	2559.078736
437.823946	2561.866494
438.200218	2561.032183
438.576429	2563.010836
438.952580	2561.208623
439.328670	2564.266083
439.704700	2562.557132
440.080670	2563.446895
440.456580	2562.579817
440.832429	2562.478994
441.208218	2559.051009
441.583947	2563.651062
441.959616	2564.450085
442.335224	2562.635270
442.710773	2562.103428
443.086261	2564.797925
443.461689	2563.577965
443.837057	2564.603840
444.212365	2562.763819
444.587612	2562.433623
444.962800	2564.162739
445.337927	2565.604509
445.712995	2562.945301
446.088002	2563.943449
446.462949	2564.409756
446.837837	2565.513768
447.212664	2564.447564
447.587431	2566.272462
447.962139	2562.529405
448.336786	2564.833213
448.711374	2565.092832
449.085901	2563.923284
449.460369	2564.676937
449.834776	2565.072668
450.209124	2563.134344
450.583412	2567.131979
450.957640	2568.704819
451.331808	2566.219530
451.705917	2565.367575
452.079965	2566.143913
452.453954	2567.734397
452.827883	2566.476629
453.201752	2565.274314
453.575562	2566.862277
453.949311	2564.886145
454.323001	2563.489745
454.696632	2564.918912
455.070202	2564.714746
455.443713	2567.096691
455.817164	2564.170301
456.190556	2562.443706
456.563888	2561.483366
456.937160	2561.823644
457.310373	2565.818758
457.683526	2564.460167
458.056619	2567.061403
458.429653	2568.152812
458.802628	2565.856567
459.175542	2568.384706
459.548398	2567.237843
459.921194	2567.489901
460.293930	2567.358831
460.666607	2564.760116
461.039224	2569.138358
461.411782	2565.728018
461.784280	2569.491239
462.156719	2567.331104
462.529099	2566.854715
462.901419	2567.663821
463.273680	2570.428893
463.645882	2568.142730
464.018024	2567.184911
464.390106	2567.290775
464.762130	2569.145920
465.134094	2568.697257
465.505999	2570.184398
465.877845	2567.830179
466.249631	2569.254305
466.621358	2568.609037
466.993026	2572.309244
467.364634	2575.033987
467.736184	2568.858574
468.107674	2569.697926
468.479105	2565.042421
468.850477	2567.830179
469.221790	2569.244222
469.593043	2566.887483
469.964238	2569.796229
470.335373	2566.837071
470.706449	2567.749520
471.077467	2567.194993
471.448425	2570.779254
471.819324	2569.604665
472.190164	2570.953173
472.560945	2570.496949
472.931667	2568.936712
473.302330	2569.173646
473.672934	2572.178174
474.043479	2570.121383
474.413965	2570.764130
474.784393	2564.659293
475.154761	2565.818758
475.525070	2565.309602
475.895321	2567.421845
476.265513	2564.142575
476.635645	2569.944943
477.005719	2570.040725
477.375734	2570.741445
477.745691	2570.292782
478.115588	2571.235478
478.485427	2568.908986
478.855207	2571.351425
479.224928	2571.134655
479.594591	2572.067268
479.964194	2569.617268
480.333739	2570.421332
480.703226	2567.121897
481.072653	2570.819583
481.442022	2570.731363
481.811333	2571.469892
482.180584	2572.541137
482.549777	2568.208265
482.918912	2572.079871
483.287988	2572.770509
483.657005	2570.524675
484.025964	2571.149778
484.394864	2571.515262
484.763706	2572.563822
485.132489	2567.411763
485.501213	2568.256156
485.869879	2572.994841
486.238487	2569.380333
486.607036	2569.418142
486.975527	2571.744635
487.343959	2573.851837
487.712333	2570.537278
488.080648	2571.981569
488.448905	2572.851168
488.817104	2568.785477
489.185244	2571.913513
489.553326	2571.873184
489.921350	2573.052814
490.289315	2571.364027
490.657222	2570.985941
491.025070	2571.674058
491.392861	2571.177505
491.760593	2572.704974
492.128267	2572.694892
492.495883	2572.324367
492.863440	2575.916189
493.230939	2574.731518
493.598380	2571.212793
493.965763	2569.584500
494.333088	2570.270097
494.700354	2571.469892
495.067563	2569.566856
495.434713	2565.745662
495.801805	2574.290417
496.168839	2571.275807
496.535815	2573.889646
496.902733	2573.753534
497.269593	2573.199007
497.636395	2573.110787
498.003139	2571.560633
498.369825	2574.103895
498.736453	2569.571897
499.103023	2574.318144
499.469535	2573.776220
499.835989	2570.761610
500.202385	2574.176991
500.568723	2573.002402
500.935003	2572.268915
501.301226	2573.635067
501.667390	2573.400654
502.033497	2572.455437
502.399546	2573.932495
502.765537	2570.620457
503.131470	2574.035839
503.497345	2569.816393
503.863163	2573.239337
504.228923	2573.448545
504.594625	2572.518452
504.960269	2573.501477
505.325856	2574.534913
505.691385	2573.783781
506.056856	2571.764799
506.422270	2573.693041
506.787625	2571.497618
507.152924	2576.261508
507.518164	2574.653380
507.883347	2571.351425
508.248472	2573.655232
508.613540	2572.064748
508.978550	2574.698751
509.343503	2573.078020
509.708398	2575.273442
510.073236	2577.733525
510.438016	2574.895356
510.802738	2572.236147
511.167403	2574.262691
511.532010	2570.990982
511.896561	2574.131621
512.261053	2576.556416
512.625488	2569.632391
512.989866	2569.007288
513.354186	2571.187587
513.718449	2569.329922
514.082655	2569.463513
514.446803	2572.374779
514.810894	2574.005592
515.174927	2577.269739
515.538904	2571.832855
515.902822	2574.129100
516.266684	2575.308730
516.630488	2573.582135
516.994235	2574.940726
517.357925	2573.370407
517.721558	2573.002402
518.085133	2570.635581
518.448651	2573.657753
518.812112	2573.909810
519.175516	2576.626992
519.538863	2573.975345
519.902152	2574.209759
520.265385	2574.078689
520.628560	2576.667321
520.991678	2575.916189
521.354739	2579.210583
521.717743	2575.933833
522.080690	2572.785633
522.443580	2574.393761
522.806413	2575.311251
523.169189	2574.650860
523.531908	2575.296127
523.894569	2575.588514
524.257174	2572.702454
524.619722	2572.888977
524.982213	2574.608010
525.344647	2575.558267
525.707025	2577.975501
526.069345	2572.188256
526.431608	2575.943916
526.793815	2574.965932
527.155964	2575.306210
527.518057	2574.043401
527.880093	2575.281004
528.242072	2574.328226
528.603995	2574.789492
528.965860	2573.919893
529.327669	2573.045252
529.689421	2574.938206
530.051117	2576.533731
530.412755	2575.522979
530.774337	2576.758062
531.135862	2573.473750
531.497331	2571.159861
531.858743	2571.447207
532.220098	2570.910324
532.581396	2569.206414
532.942638	2571.762279
533.303824	2574.076168
533.664953	2575.354101
534.026025	2575.555747
534.387040	2574.696230
534.747999	2574.900397
535.108902	2575.956519
535.469748	2576.745459
535.830537	2577.816704
536.191270	2574.814697
536.551947	2577.244533
536.912567	2577.189081
537.273131	2575.054152
537.633638	2574.479461
537.994089	2573.723287
538.354483	2578.698906
538.714821	2575.807805
539.075103	2573.584656
539.435328	2575.039029
539.795497	2573.123390
540.155609	2578.275449
540.515665	2573.990469
540.875665	2577.957857
541.235609	2575.807805
541.595496	2576.732856
541.955328	2574.524831
542.315102	2574.734039
542.674821	2575.349060
543.034483	2578.320820
543.394090	2575.704461
543.753640	2577.569688
544.113134	2576.465675
544.472571	2577.839390
544.831953	2575.578432
545.191278	2573.990469
545.550548	2574.171950
545.909761	2577.494071
546.268918	2572.077351
546.628019	2576.929461
546.987064	2576.052301
547.346053	2576.503484
547.704986	2576.294276
548.063863	2575.033988
548.422684	2576.039698
548.781449	2573.872002
549.140158	2577.035326
549.498811	2576.427867
549.857408	2574.179512
550.215949	2573.700602
550.574434	2571.742114
550.932864	2575.107084
551.291237	2571.868143
551.649555	2576.218659
552.007817	2574.970973
552.366022	2577.206725
552.724173	2575.636405
553.082267	2575.238154
553.440305	2575.724626
553.798288	2576.558937
554.156215	2576.722774
554.514086	2577.098340
554.871902	2575.989286
555.229661	2578.882908
555.587365	2576.684965
555.945014	2574.446693
556.302606	2575.873340
556.660143	2574.469378
557.017625	2575.112125
557.375050	2576.316961
557.732421	2576.256467
558.089735	2577.403330
558.446994	2574.106415
558.804197	2576.750500
559.161345	2574.398802
559.518437	2575.928792
559.875474	2577.345357
560.232455	2577.234451
560.589381	2575.336457
560.946251	2578.782085
561.303065	2577.814184
561.659825	2575.827969
562.016528	2575.281004
562.373177	2576.490881
562.729770	2577.012640
563.086307	2577.610017
563.442789	2575.414595
563.799216	2579.291242
564.155587	2575.893504
564.511904	2575.195304
564.868164	2572.702454
565.224370	2578.288052
565.580520	2576.712692
565.936615	2576.223700
566.292654	2576.500963
566.648638	2575.827969
567.004567	2576.422825
567.360441	2574.131621
567.716260	2576.069945
568.072023	2577.846951
568.427732	2572.745304
568.783385	2571.679100
569.138982	2572.006775
569.494525	2574.691189
569.850013	2573.889646
570.205445	2578.093968
570.560823	2575.767475
570.916145	2578.005748
571.271412	2573.798905
571.626625	2574.416446
571.981782	2575.165058
572.336884	2576.722774
572.691931	2576.231262
573.046923	2575.409553
573.401860	2575.253278
573.756743	2577.262177
574.111570	2576.374934
574.466342	2572.377299
574.821059	2573.970304
575.175722	2577.547003
575.530330	2575.041549
575.884882	2575.754872
576.239380	2578.227558
576.593823	2576.503484
576.948211	2575.830490
577.302544	2573.403174
577.656823	2575.114646
578.011047	2578.890470
578.365216	2576.989955
578.719330	2578.068762
579.073389	2575.459965
579.427394	2573.251940
579.781344	2575.956519
580.135239	2578.338464
580.489080	2577.980542
580.842866	2575.210428
581.196597	2576.208576
581.550273	2576.198494
581.903895	2575.442321
582.257463	2576.561457
582.610975	2574.391240
582.964434	2578.406519
583.317837	2574.902917
583.671186	2577.058011
584.024481	2575.470047
584.377721	2575.485171
584.730906	2573.882084
585.084037	2577.395768
585.437113	2577.942733
585.790135	2576.770665
586.143103	2576.112794
586.496016	2576.543813
586.848874	2573.123390
587.201679	2572.992320
587.554428	2572.727660
587.907124	2575.994327
588.259765	2574.436611
588.612352	2576.377455
588.964884	2574.378638
589.317362	2577.302507
589.669786	2576.206056
590.022155	2575.459965
590.374470	2576.001889
590.726731	2577.219328
591.078937	2576.513566
591.431090	2579.200501
591.783188	2576.450552
592.135232	2577.110943
592.487222	2577.042887
592.839157	2577.582291
593.191038	2576.319482
593.542866	2580.541448
593.894639	2575.361663
594.246358	2576.727815
594.598022	2577.610017
594.949633	2577.315110
595.301190	2576.100192
595.652692	2576.410223
596.004141	2574.827300
596.355535	2576.059862
596.706876	2574.529872
597.058162	2575.538103
597.409395	2576.387537
597.760573	2577.983062
598.111698	2575.601117
598.462768	2578.257805
598.813785	2576.291755
599.164748	2577.736046
599.515657	2576.924420
599.866511	2576.954667
600.217312	2577.758731
600.568060	2578.159503
600.918753	2576.286714
601.269392	2576.216138
601.619978	2577.368042
601.970510	2577.804102
602.320988	2577.105902
602.671412	2578.582960
603.021783	2575.099522
603.372100	2578.136818
603.722363	2578.537589
604.072572	2575.797722
604.422728	2577.809143
604.772830	2571.442165
605.122878	2574.325705
605.472872	2573.549368
605.822813	2573.607341
606.172701	2571.689182
606.522534	2576.581622
606.872314	2576.712692
607.222041	2576.959708
607.571714	2574.837382
607.921333	2577.141190
608.270899	2573.347722
608.620411	2576.289235
608.969870	2578.030953
609.319276	2574.905438
609.668627	2576.074986
610.017926	2576.747980
610.367171	2576.069945
610.716362	2580.901891
611.065500	2576.264029
611.414585	2576.942064
611.763616	2575.366704
612.112594	2574.224882
612.461518	2576.359811
612.810389	2574.280335
613.159207	2577.123546
613.507971	2579.283680
613.856682	2576.785788
614.205340	2576.541292
614.553945	2574.396282
614.902496	2576.253947
615.250994	2573.730849
615.599439	2578.232600
615.947830	2577.080696
616.296169	2577.123546
616.644454	2578.547672
616.992686	2575.853175
617.340864	2576.042218
617.688990	2576.944585
618.037063	2575.424677
618.385082	2574.459296
618.733048	2577.264698
619.080961	2574.401323
619.428821	2579.210583
619.776628	2572.125242
620.124382	2577.509194
620.472083	2576.405181
620.819731	2576.654718
621.167326	2575.026426
621.514868	2576.276632
621.862357	2574.827300
622.209793	2576.374934
622.557176	2578.381314
622.904506	2572.997361
623.251783	2574.189594
623.599007	2571.704305
623.946179	2577.678073
624.293297	2568.425035
624.640363	2575.961560
624.987376	2576.213617
625.334336	2575.238154
625.681243	2575.686817
626.028097	2573.549368
626.374899	2578.456931
626.721647	2575.853175
627.068343	2576.546334
627.414987	2577.594894
627.761577	2576.450552
628.108115	2574.923082
628.454600	2576.823597
628.801032	2573.980386
629.147412	2576.374934
629.493739	2576.924420
629.840014	2575.170099
630.186236	2576.677404
630.532405	2575.691858
630.878521	2577.352918
631.224585	2578.512384
631.570597	2575.603638
631.916556	2577.544482
632.262462	2576.667321
632.608316	2575.704461
632.954117	2577.413412
633.299866	2576.269070
633.645562	2577.267219
633.991206	2577.741087
634.336797	2575.873340
634.682336	2576.294276
635.027823	2575.928792
635.373257	2575.714543
635.718639	2575.898545
636.063968	2574.265212
636.409245	2573.594738
636.754470	2574.406364
637.099642	2575.535582
637.444762	2578.651015
637.789829	2575.449883
638.134845	2575.689338
638.479808	2576.488360
638.824719	2576.755542
639.169577	2574.086251
639.514383	2575.475088
639.859137	2575.565829
640.203839	2577.395768
640.548489	2575.601117
640.893086	2575.333936
641.237632	2573.801425
641.582125	2573.745973
641.926566	2568.752710
642.270955	2574.870150
642.615292	2575.936354
642.959576	2574.948288
643.303809	2575.860737
643.647990	2575.475088
643.992118	2577.136149
644.336195	2576.488360
644.680219	2576.720253
645.024192	2575.117167
645.368112	2576.629513
645.711981	2576.001889
646.055797	2576.110274
646.399562	2574.986097
646.743274	2577.683114
647.086935	2577.536920
647.430544	2576.674883
647.774101	2576.198494
648.117606	2575.863257
648.461059	2577.204204
648.804460	2579.457600
649.147810	2573.685479
649.491108	2574.494584
649.834354	2577.138669
650.177548	2577.373083
650.520690	2576.281673
650.863781	2576.077506
651.206820	2579.046746
651.549807	2576.513566
651.892742	2575.270922
652.235626	2573.640108
652.578458	2576.354770
652.921238	2575.338977
653.263967	2575.684296
653.606644	2574.678586
653.949269	2577.199163
654.291843	2574.565160
654.634365	2575.127249
654.976836	2575.132290
655.319255	2576.591704
655.661622	2576.730336
656.003938	2576.594225
656.346203	2578.456931
656.688416	2577.355439
657.030577	2574.131621
657.372687	2575.706982
657.714746	2575.533062
658.056753	2574.746642
658.398708	2573.879563
658.740612	2573.433421
659.082465	2570.524675
659.424266	2573.312433
659.766016	2570.612896
660.107715	2574.902918
660.449362	2573.340160
660.790958	2576.803433
661.132503	2575.124728
661.473996	2576.261508
661.815438	2574.996179
662.156829	2575.459965
662.498168	2576.513566
662.839456	2574.376117
663.180693	2573.771178
663.521879	2576.705130
663.863013	2575.333936
664.204097	2577.743608
664.545129	2577.398289
664.886110	2577.635223
665.227040	2576.727815
665.567918	2576.594225
665.908746	2574.368555
666.249522	2575.764955
666.590248	2573.415777
666.930922	2575.754872
667.271545	2577.085737
667.612118	2575.991807
667.952639	2574.076168
668.293109	2576.977352
668.633528	2579.185378
668.973896	2573.849316
669.314213	2573.748493
669.654480	2575.885942
669.994695	2574.880232
670.334859	2574.855027
670.674973	2572.843606
671.015035	2577.153793
671.355047	2575.827969
671.695008	2576.558937
672.034918	2576.828638
672.374777	2575.608679
672.714585	2574.131621
673.054342	2574.716395
673.394049	2575.525500
673.733705	2576.563978
674.073310	2576.909297
674.412864	2577.274780
674.752368	2576.886612
675.091820	2573.604820
675.431223	2574.260170
675.770574	2576.430387
676.109875	2570.960735
676.449125	2572.178174
676.788324	2573.239337
677.127473	2573.037691
677.466571	2569.050138
677.805619	2573.864440
678.144616	2576.712692
678.483562	2579.558423
678.822458	2577.052970
679.161303	2572.621795
679.500098	2575.054152
679.838842	2576.052301
680.177535	2574.187074
680.516179	2574.325705
680.854771	2574.323185
681.193314	2576.944585
681.531805	2574.426528
681.870247	2574.512228
682.208638	2574.507187
682.546978	2576.793350
682.885268	2575.384348
683.223508	2574.242526
683.561697	2574.161868
683.899836	2576.639595
684.237925	2570.696075
684.575963	2574.547516
684.913951	2577.443659
685.251889	2577.587332
685.589776	2574.451734
685.927614	2574.106415
686.265401	2573.108267
686.603137	2575.528021
686.940824	2575.442321
687.278460	2577.317630
687.616046	2573.914851
687.953582	2573.486353
688.291068	2573.730849
688.628504	2574.920562
688.965889	2571.028791
689.303224	2575.033988
689.640510	2574.313103
689.977745	2574.933164
690.314930	2572.974676
690.652065	2575.437280
690.989150	2571.174984
691.326185	2576.069945
691.663170	2574.686148
692.000105	2574.842424
692.336990	2573.773699
692.673825	2576.624472
693.010610	2573.836713
693.347345	2571.144737
693.684030	2574.076168
694.020665	2570.905282
694.357251	2571.764799
694.693786	2570.998544
695.030272	2569.818914
695.366707	2575.409553
695.703093	2573.083061
696.039429	2574.136662
696.375716	2573.970304
696.711952	2576.647157
697.048139	2573.345201
697.384276	2576.410223
697.720363	2575.860737
698.056400	2575.323854
698.392388	2573.546847
698.728326	2575.233113
699.064214	2574.260170
699.400053	2574.489543
699.735842	2573.078020
700.071581	2577.100861
700.407270	2574.489543
700.742910	2572.437793
701.078501	2574.802094
701.414042	2573.748493
701.749533	2574.582804
702.084974	2575.275963
702.420366	2575.275963
702.755709	2576.750500
703.091002	2575.396951
703.426246	2577.448700
703.761440	2571.479974
704.096584	2574.088771
704.431679	2573.962742
704.766725	2574.986097
705.101721	2575.585994
705.436668	2575.165057
705.771565	2571.442165
706.106413	2573.587176
706.441212	2575.036508
706.775961	2575.102043
707.110661	2573.461147
707.445311	2576.657239
707.779913	2575.273442
708.114465	2575.187743
708.448967	2575.449883
708.783421	2576.422825
709.117825	2574.368555
709.452180	2575.928792
709.786485	2577.496591
710.120742	2575.313772
710.454949	2577.113463
710.789107	2571.684141
711.123216	2571.429563
711.457275	2570.169274
711.791286	2571.525344
712.125247	2573.128431
712.459159	2573.831672
712.793023	2571.338822
713.126837	2572.636919
713.460602	2575.054152
713.794318	2576.072465
714.127985	2572.384861
714.461602	2573.685479
714.795171	2574.182032
715.128691	2574.900397
715.462162	2575.069276
715.795584	2574.494584
716.128957	2573.690520
716.462281	2574.812177
716.795556	2575.066755
717.128782	2575.066755
717.461960	2575.144893
717.795088	2573.161199
718.128167	2571.910993
718.461198	2576.712692
718.794180	2575.331416
719.127113	2572.382341
719.459997	2574.592887
719.792833	2573.072979
720.125619	2577.894842
720.458357	2572.901579
720.791046	2573.864440
721.123686	2575.701940
721.456278	2573.902248
721.788821	2575.054152
722.121315	2574.194635
722.453761	2576.760583
722.786158	2573.839234
723.118506	2572.415108
723.450805	2573.009964
723.783056	2572.914182
724.115259	2574.444172
724.447412	2572.626837
724.779518	2574.749162
725.111574	2573.025088
725.443582	2573.191446
725.775542	2572.349573
726.107453	2575.265881
726.439315	2574.277814
726.771129	2576.687486
727.102895	2573.377968
727.434612	2575.094481
727.766281	2573.632547
728.097901	2572.440314
728.429473	2567.404201
728.760996	2569.705488
729.092471	2567.978893
729.423897	2573.781261
729.755276	2576.821077
730.086606	2573.927454
730.417887	2571.522824
730.749120	2571.507700
731.080305	2573.022567
731.411442	2572.780592
731.742530	2577.794019
732.073570	2574.925603
732.404562	2576.979873
732.735506	2572.213462
733.066401	2571.764799
733.397249	2573.244378
733.728048	2575.109605
734.058798	2574.544996
734.389501	2574.600448
734.720156	2573.357804
735.050762	2576.241344
735.381320	2573.498956
735.711831	2574.857547
736.042293	2574.018195
736.372707	2573.554409
736.703073	2572.873853
737.033391	2573.859399
737.363661	2574.144224
737.693883	2572.465520
738.024056	2579.417271
738.354182	2574.978535
738.684260	2572.972156
739.014290	2570.479305
739.344272	2572.271435
739.674207	2573.791343
740.004093	2574.950808
740.333931	2573.655232
740.663722	2574.487022
740.993464	2572.911662
741.323159	2571.842937
741.652806	2574.224882
741.982405	2574.202197
742.311956	2572.397464
742.641460	2573.506518
742.970915	2574.736559
743.300323	2573.715726
743.629683	2573.987948
743.958996	2574.121539
744.288260	2574.297979
744.617477	2573.216652
744.946647	2570.166753
745.275768	2570.754048
745.604842	2570.224727
745.933869	2570.144068
746.262847	2566.895045
746.591778	2573.922413
746.920662	2573.657752
747.249498	2571.169943
747.578286	2573.793864
747.907027	2572.702454
748.235720	2573.385530
748.564365	2573.526682
748.892963	2571.059038
749.221514	2572.389902
749.550017	2572.883935
749.878473	2572.316806
750.206881	2572.581466
750.535242	2573.466189
750.863555	2574.817218
751.191821	2574.562640
751.520039	2574.282856
751.848210	2572.006775
752.176334	2571.560632
752.504411	2572.339491
752.832440	2574.292938
753.160421	2571.676579
753.488356	2572.856209
753.816243	2572.891497
754.144082	2574.986097
754.471875	2571.739593
754.799620	2572.049624
755.127318	2569.937381
755.454969	2571.953842
755.782572	2574.124059
756.110129	2570.817062
756.437638	2573.425859
756.765100	2571.878225
757.092515	2574.015674
757.419882	2570.600293
757.747203	2574.519790
758.074477	2571.628688
758.401703	2574.310582
758.728882	2573.377968
759.056014	2572.760427
759.383099	2572.321847
759.710138	2572.215982
760.037129	2573.708164
760.364073	2573.251940
760.690970	2569.347566
761.017820	2573.342680
761.344623	2571.394274
761.671379	2573.199007
761.998088	2570.449058
762.324751	2570.391085
762.651366	2568.087277
762.977935	2568.283882
763.304456	2569.372772
763.630931	2572.485684
763.957359	2573.193966
764.283740	2573.884604
764.610074	2574.807136
764.936362	2575.117167
765.262602	2573.501477
765.588796	2572.248750
765.914943	2571.611044
766.241044	2574.776889
766.567097	2570.421332
766.893104	2573.108267
767.219064	2572.445355
767.544978	2568.969479
767.870845	2571.754717
768.196665	2574.524831
768.522438	2570.905282
768.848165	2571.895869
769.173846	2572.778071
769.499479	2575.470047
769.825066	2573.937537
770.150607	2573.864440
770.476101	2570.297823
770.801548	2572.901579
771.126949	2572.042063
771.452303	2569.642473
771.777611	2575.185222
772.102872	2571.041394
772.428087	2573.720767
772.753256	2572.825962
773.078378	2571.787484
773.403453	2572.294120
773.728482	2571.449727
774.053465	2573.902248
774.378401	2572.195818
774.703291	2572.813359
775.028135	2574.136662
775.352932	2570.960735
775.677683	2573.932495
776.002388	2572.193297
776.327046	2572.019378
776.651658	2573.007444
776.976224	2573.700602
777.300743	2574.368555
777.625216	2572.309244
777.949643	2574.953329
778.274024	2571.530386
778.598359	2568.518296
778.922647	2569.319840
779.246889	2569.231619
779.571086	2566.496793
779.895236	2569.375292
780.219339	2572.379820
780.543397	2571.094326
780.867409	2572.566343
781.191374	2571.197669
781.515294	2572.967114
781.839167	2571.737073
782.162995	2571.510221
782.486776	2569.823955
782.810511	2570.343194
783.134201	2569.871846
783.457844	2572.662125
783.781441	2570.743966
784.104993	2568.034345
784.428498	2572.415108
784.751958	2568.510734
785.075372	2572.140365
785.398739	2570.504511
785.722061	2575.606158
786.045337	2571.212793
786.368568	2571.558112
786.691752	2572.571384
787.014891	2570.852350
787.337983	2573.163719
787.661030	2573.428380
787.984031	2573.327557
788.306987	2573.561971
788.629897	2571.227916
788.952760	2570.481826
789.275579	2569.899572
789.598351	2573.435942
789.921078	2573.304872
790.243759	2574.139183
790.566395	2572.929306
790.888984	2572.982238
791.211529	2575.205387
791.534027	2570.812021
791.856480	2570.317988
792.178888	2571.565674
792.501249	2570.610375
792.823566	2573.486353
793.145836	2575.263360
793.468062	2574.245047
793.790241	2573.660273
794.112375	2571.767320
794.434464	2568.006619
794.756507	2571.502659
795.078505	2573.015005
795.400457	2567.661300
795.722364	2568.288924
796.044226	2567.835220
796.366042	2568.601475
796.687812	2571.563153
797.009538	2572.914182
797.331218	2571.084243
797.652852	2571.827814
797.974442	2572.379820
798.295986	2572.654563
798.617484	2571.744635
798.938938	2571.212793
799.260346	2570.499470
799.581709	2575.772517
799.903026	2572.563822
800.224299	2568.984603
800.545526	2573.241857
800.866708	2570.113821
801.187845	2571.812690
801.508936	2570.824624
801.829983	2568.780436
802.150984	2570.078533
802.471940	2569.524006
802.792851	2572.084913
803.113717	2570.063410
803.434538	2573.269584
803.755314	2570.426373
804.076045	2568.419994
804.396731	2571.409398
804.717372	2569.937381
805.037967	2571.250602
805.358518	2570.058369
805.679024	2573.874522
805.999485	2570.421332
806.319901	2571.540468
806.640272	2570.091136
806.960598	2570.726322
807.280879	2567.053841
807.601115	2571.895869
807.921306	2572.168092
808.241453	2572.939388
808.561554	2572.805797
808.881611	2574.297979
809.201623	2571.578277
809.521590	2572.183215
809.841513	2571.449727
810.161390	2574.698751
810.481223	2570.307906
810.801011	2569.279510
811.120755	2572.253791
811.440453	2570.212124
811.760107	2568.921588
812.079716	2570.068451
812.399281	2569.672720
812.718801	2569.904613
813.038276	2564.659293
813.357707	2568.457802
813.677093	2571.762279
813.996434	2570.370920
814.315731	2570.428893
814.634983	2571.593400
814.954191	2571.583318
815.273354	2569.559294
815.592473	2569.791187
815.911547	2570.713719
816.230577	2572.168092
816.549562	2572.226065
816.868502	2570.020560
817.187399	2571.805128
817.506250	2571.275807
817.825058	2571.757237
818.143821	2569.486198
818.462539	2569.602144
818.781213	2571.532906
819.099843	2573.239337
819.418429	2572.959553
819.736970	2572.198338
820.055466	2568.997206
820.373919	2569.697926
820.692327	2570.491908
821.010691	2571.174984
821.329011	2567.721794
821.647286	2574.247567
821.965517	2571.726991
822.283704	2570.486867
822.601847	2571.318657
822.919945	2570.738924
823.237999	2573.430901
823.556010	2569.844120
823.873976	2571.540468
824.191897	2570.277659
824.509775	2572.629357
824.827609	2571.172464
825.145398	2572.894018
825.463144	2573.393092
825.780845	2571.288410
826.098502	2572.110118
826.416116	2571.371589
826.733685	2571.684141
827.051210	2570.980900
827.368692	2572.294120
827.686129	2568.062072
828.003522	2572.717577
828.320872	2567.343707
828.638177	2567.883111
828.955439	2569.261866
829.272656	2567.810014
829.589830	2567.767164
829.906960	2572.561302
830.224046	2572.752865
830.541088	2569.730694
830.858086	2569.914696
831.175041	2571.379151
831.491952	2569.236661
831.808819	2572.324367
832.125642	2570.897721
832.442421	2568.984603
832.759157	2573.635067
833.075849	2570.774212
833.392497	2571.053997
833.709101	2571.192628
834.025662	2571.512742
834.342179	2572.692372
834.658653	2571.963925
834.975083	2568.964438
835.291469	2570.307906
835.607811	2570.844789
835.924110	2571.096846
836.240366	2570.678431
836.556578	2572.541137
836.872746	2571.147258
837.188871	2570.330591
837.504952	2568.782957
837.820990	2570.610375
838.136984	2568.919068
838.452935	2566.113666
838.768842	2569.889490
839.084706	2571.026270
839.400526	2571.069120
839.716303	2569.012329
840.032037	2570.794377
840.347727	2570.365879
840.663373	2572.473081
840.978977	2568.253636
841.294537	2570.670869
841.610054	2570.106260
841.925527	2571.409398
842.240957	2568.921588
842.556344	2569.985272
842.871687	2570.227247
843.186987	2572.296641
843.502244	2570.018039
843.817458	2571.124573
844.132629	2570.277659
844.447756	2568.949315
844.762840	2566.645507
845.077881	2565.367575
845.392879	2567.956207
845.707833	2568.417473
846.022745	2567.741958
846.337613	2570.444017
846.652438	2570.565005
846.967221	2570.827145
847.281960	2568.178018
847.596656	2569.392936
847.911309	2571.558112
848.225919	2571.202711
848.540485	2569.977710
848.855009	2570.262535
849.169490	2567.646177
849.483928	2567.494942
849.798323	2570.048286
850.112675	2569.534089
850.426984	2568.334294
850.741251	2572.122721
851.055474	2568.208265
851.369654	2572.122721
851.683792	2570.431414
851.997887	2569.844120
852.311938	2570.403688
852.625947	2569.211455
852.939914	2569.471074
853.253837	2572.301682
853.567718	2570.156671
853.881555	2569.047617
854.195350	2571.364028
854.509103	2571.968966
854.822812	2569.284552
855.136479	2570.862433
855.450103	2570.484346
855.763685	2571.220355
856.077224	2569.599624
856.390720	2570.436455
856.704173	2570.058369
857.017584	2566.196845
857.330953	2569.070302
857.644278	2570.234809
857.957561	2572.823442
858.270802	2567.910837
858.584000	2569.821434
858.897155	2572.321847
859.210268	2569.652556
859.523339	2571.870663
859.836367	2570.938050
860.149352	2568.530899
860.462295	2571.933678
860.775195	2565.755744
861.088054	2565.972513
861.400869	2566.665672
861.713642	2565.170970
862.026373	2563.686350
862.339062	2568.813204
862.651708	2569.173646
862.964312	2569.917216
863.276873	2567.951166
863.589392	2568.989644
863.901869	2568.866136
864.214303	2567.298337
864.526696	2571.724470
864.839045	2567.920919
865.151353	2568.851012
865.463619	2568.815724
865.775842	2569.352607
866.088023	2567.084088
866.400162	2567.235323
866.712258	2569.881928
867.024313	2566.973183
867.336325	2567.366392
867.648296	2567.736917
867.960224	2569.715570
868.272110	2571.477453
868.583954	2570.247412
868.895755	2568.586352
869.207515	2569.405539
869.519233	2569.178687
869.830909	2569.939902
870.142542	2570.806980
870.454134	2568.248594
870.765684	2573.622464
871.077191	2569.408060
871.388657	2571.525344
871.700081	2567.164746
872.011463	2567.988975
872.322803	2568.689695
872.634101	2572.520972
872.945357	2569.443348
873.256571	2568.833368
873.567744	2567.227761
873.878874	2568.548543
874.189963	2565.387740
874.501010	2571.580797
874.812015	2567.378995
875.122979	2572.125242
875.433900	2567.837740
875.744780	2568.619119
876.055618	2567.096691
876.366415	2567.913358
876.677169	2569.665159
876.987882	2568.961918
877.298554	2566.695919
877.609183	2566.963100
877.919771	2563.590568
878.230317	2565.720456
878.540822	2572.410067
878.851285	2569.115673
879.161707	2567.668862
879.472087	2570.985941
879.782425	2570.859912
880.092722	2569.196331
880.402977	2569.042576
880.713191	2570.925447
881.023363	2567.754561
881.333494	2569.902093
881.643583	2568.609037
881.953631	2569.004767
882.263637	2568.339335
882.573602	2569.138358
882.883526	2569.206414
883.193408	2569.002247
883.503248	2567.552915
883.813048	2569.133317
884.122806	2568.515776
884.432522	2568.316650
884.742197	2567.633574
885.051831	2571.182546
885.361424	2569.897052
885.670975	2571.477453
885.980485	2568.193142
886.289954	2567.789849
886.599382	2567.832699
886.908768	2572.354614
887.218113	2568.757751
887.527417	2571.845458
887.836680	2569.501321
888.145901	2571.979048
888.455082	2567.512586
888.764221	2567.358831
889.073319	2569.264387
889.382376	2570.282700
889.691392	2567.308419
890.000366	2569.352607
890.309300	2569.231619
890.618193	2570.320509
890.927044	2568.853533
891.235855	2570.355797
891.544625	2569.518965
891.853353	2565.130641
892.162041	2570.960735
892.470687	2570.834706
892.779293	2568.155333
893.087858	2565.967472
893.396381	2569.375292
893.704864	2565.924623
894.013306	2565.281875
894.321707	2567.691547
894.630068	2569.213975
894.938387	2564.802966
895.246665	2566.711042
895.554903	2567.404201
895.863100	2568.798080
896.171256	2567.048800
896.479371	2565.039900
896.787446	2570.391085
897.095480	2570.133986
897.403473	2568.661969
897.711425	2566.809345
898.019336	2568.099880
898.327207	2571.013667
898.635038	2569.856723
898.942827	2569.869325
899.250576	2571.220355
899.558284	2569.738255
899.865952	2568.016701
900.173579	2569.871846
900.481165	2568.621640
900.788711	2569.692885
901.096216	2570.403688
901.403681	2567.200034
901.711105	2568.674572
902.018489	2569.362689
902.325832	2573.015005
902.633135	2567.013512
902.940397	2568.498132
903.247619	2569.052658
903.554800	2569.430745
903.861941	2569.541650
904.169041	2570.945612
904.476101	2568.999726
904.783121	2566.317832
905.090100	2569.443348
905.397039	2568.646846
905.703938	2567.570559
906.010796	2569.229099
906.317614	2566.171639
906.624391	2569.186249
906.931129	2569.574418
907.237826	2568.505693
907.544483	2568.026784
907.851099	2568.929150
908.157675	2566.451423
908.464211	2566.935374
908.770707	2562.733572
909.077163	2567.850343
909.383578	2566.035528
909.689954	2566.443861
909.996289	2563.265414
910.302584	2565.445713
910.608839	2568.820765
910.915054	2567.391598
911.221229	2570.330591
911.527363	2567.643656
911.833458	2566.758933
912.139513	2571.628688
912.445527	2566.988306
912.751502	2568.309088
913.057436	2568.972000
913.363331	2569.392936
913.669186	2567.477298
913.975000	2568.609037
914.280775	2567.026115
914.586510	2565.871690
914.892205	2568.223389
915.197859	2568.036866
915.503475	2568.140210
915.809050	2567.386557
916.114585	2568.016701
916.420081	2568.281362
916.725536	2568.440158
917.030952	2569.919737
917.336328	2567.835220
917.641665	2569.271949
917.946961	2567.414283
918.252218	2566.282544
918.557435	2567.820096
918.862612	2567.699109
919.167750	2567.686506
919.472848	2568.258677
919.777906	2566.274983
920.082925	2567.419325
920.387904	2563.527554
920.692843	2567.847823
920.997743	2569.241702
921.302603	2566.403532
921.607423	2566.716084
921.912204	2568.117524
922.216946	2567.389078
922.521647	2567.626012
922.826310	2566.890003
923.130932	2570.302865
923.435516	2566.491752
923.740059	2568.354459
924.044564	2568.430076
924.349028	2566.295147
924.653454	2563.124262
924.957840	2564.934036
925.262186	2563.240208
925.566493	2566.635425
925.870761	2561.679971
926.174989	2567.157185
926.479178	2568.717422
926.783328	2565.478480
927.087438	2565.980075
927.391509	2571.684141
927.695541	2566.030487
927.999533	2568.082236
928.303486	2567.129458
928.607400	2568.064592
928.911275	2569.458471
929.215110	2566.897565
929.518906	2566.554767
929.822663	2566.310271
930.126381	2565.972513
930.430060	2568.142730
930.733699	2567.018553
931.037299	2567.237843
931.340861	2566.811866
931.644383	2568.243553
931.947866	2564.959242
932.251309	2567.613409
932.554714	2569.886969
932.858080	2567.318502
933.161407	2566.758933
933.464694	2567.058882
933.767943	2570.038204
934.071153	2568.646846
934.374323	2567.043759
934.677455	2568.185580
934.980548	2567.482339
935.283602	2566.206927
935.586617	2564.737431
935.889593	2569.506362
936.192530	2569.322360
936.495428	2565.743141
936.798287	2566.892524
937.101108	2566.673234
937.403890	2566.801783
937.706632	2568.805642
938.009336	2565.564180
938.312002	2567.893193
938.614628	2568.266238
938.917216	2566.849674
939.219765	2565.201217
939.522275	2567.333625
939.824747	2569.650035
940.127179	2565.448233
940.429573	2563.136864
940.731929	2563.474622
941.034246	2560.079405
941.336524	2563.761968
941.638763	2569.188770
941.940964	2568.346897
942.243126	2565.478480
942.545250	2568.309088
942.847335	2565.710373
943.149381	2566.196845
943.451389	2568.193142
943.753359	2567.023594
944.055290	2568.311609
944.357182	2568.329253
944.659036	2566.900086
944.960851	2565.828841
945.262628	2567.076526
945.564367	2570.847309
945.866067	2566.738769
946.167729	2566.567370
946.469352	2567.285734
946.770937	2564.762637
947.072484	2568.389747
947.373992	2567.066444
947.675462	2567.943605
947.976893	2567.862946
948.278286	2565.662483
948.579641	2567.005950
948.880958	2565.304561
949.182236	2566.015363
949.483476	2567.303378
949.784678	2567.517627
950.085841	2564.717266
950.386967	2568.505693
950.688054	2565.012174
950.989103	2569.309757
951.290114	2565.894376
951.591087	2568.934191
951.892021	2566.791701
952.192917	2564.586196
952.493776	2565.843964
952.794596	2567.530230
953.095378	2566.877401
953.396122	2566.224571
953.696828	2566.348079
953.997496	2567.305899
954.298126	2568.513255
954.598718	2567.552915
954.899272	2567.431928
955.199788	2565.841443
955.500266	2566.065775
955.800706	2563.179714
956.101108	2563.265414
956.401472	2563.794735
956.701798	2560.933880
957.002087	2563.519992
957.302337	2565.160888
957.602550	2569.455951
957.902724	2568.301527
958.202861	2567.903275
958.502960	2568.561146
958.803022	2568.057031
959.103045	2566.380847
959.403031	2568.823286
959.702979	2563.721638
960.002889	2566.877401
960.302762	2564.533264
960.602596	2565.957390
960.902393	2564.404715
961.202153	2567.414283
961.501875	2563.577965
961.801559	2565.639797
962.101205	2567.252967
962.400814	2565.037379
962.700385	2565.906978
962.999918	2567.562997
963.299414	2566.716084
963.598873	2567.058882
963.898293	2566.360682
964.197677	2565.082750
964.497022	2566.665672
964.796331	2566.713563
965.095601	2564.603840
965.394835	2566.988306
965.694030	2566.673234
965.993189	2565.599468
966.292309	2564.752554
966.591393	2566.156516
966.890439	2564.082081
967.189447	2566.786660
967.488419	2565.788511
967.787353	2563.615774
968.086249	2567.429407
968.385108	2567.091650
968.683930	2563.658624
968.982714	2565.964952
969.281462	2565.493604
969.580172	2569.644994
969.878844	2566.380847
970.177480	2565.919581
970.476078	2566.499314
970.774639	2565.029818
971.073162	2566.511917
971.371649	2564.223233
971.670098	2562.766340
971.968510	2562.317677
972.266885	2561.672409
972.565223	2566.711042
972.863524	2566.242215
973.161788	2561.685012
973.460014	2565.367575
973.758204	2563.575445
974.056356	2567.721794
974.354471	2567.260528
974.652550	2568.036866
974.950591	2567.623491
975.248595	2564.971844
975.546563	2566.564849
975.844493	2567.404201
976.142386	2567.820096
976.440243	2566.433779
976.738062	2563.610733
977.035845	2565.906978
977.333590	2567.726835
977.631299	2565.622153
977.928971	2565.833882
978.226606	2568.367062
978.524204	2565.942267
978.821765	2567.489901
979.119290	2564.003943
979.416777	2566.494273
979.714228	2564.402194
980.011642	2567.336146
980.309020	2571.159861
980.606360	2565.803635
980.903664	2565.929664
981.200931	2565.735579
981.498162	2563.913202
981.795356	2565.236505
982.092513	2564.797925
982.389633	2567.683985
982.686717	2567.434448
982.983764	2562.983109
983.280775	2564.382029
983.577749	2565.365054
983.874686	2566.368244
984.171587	2565.029818
984.468451	2564.840774
984.765279	2563.477142
985.062070	2566.494273
985.358824	2565.758264
985.655543	2566.534602
985.952224	2565.385219
986.248869	2565.274314
986.545478	2562.630228
986.842050	2563.711556
987.138586	2565.438151
987.435086	2562.942780
987.731549	2561.506051
988.027975	2567.716753
988.324366	2566.090981
988.620719	2566.537123
988.917037	2565.927143
989.213318	2564.253480
989.509563	2567.973852
989.805772	2565.276834
990.101944	2566.464026
990.398080	2567.139541
990.694180	2566.776577
990.990244	2568.477967
991.286271	2566.292627
991.582262	2564.815569
991.878217	2564.218192
992.174136	2564.553429
992.470019	2563.033521
992.765865	2566.895045
993.061676	2566.126269
993.357450	2564.404715
993.653188	2561.090156
993.948890	2566.204407
994.244556	2563.192317
994.540186	2564.853377
994.835780	2567.089129
995.131337	2564.923953
995.426859	2563.351113
995.722345	2564.543346
996.017795	2566.254818
996.313208	2566.658110
996.608586	2565.354972
996.903928	2565.576783
997.199234	2565.717935
997.494504	2564.588717
997.789738	2566.890003
998.084936	2567.091650
998.380099	2568.508214
998.675225	2565.296999
998.970316	2565.082750
999.265371	2565.639797
999.560390	2565.382698
999.855373	2566.839592
1000.150320	2566.922771
1000.445232	2565.249108
1000.740108	2565.420507
1001.034948	2566.373285
1001.329752	2565.148285
1001.624521	2565.717935
1001.919254	2559.086297
1002.213951	2559.509754
1002.508613	2560.729713
1002.803239	2564.071998
1003.097829	2561.944632
1003.392384	2566.443861
1003.686903	2566.020404
1003.981386	2564.545867
1004.275834	2563.963614
1004.570246	2566.695919
1004.864623	2564.629046
1005.158964	2566.920250
1005.453270	2566.307750
1005.747540	2565.901937
1006.041775	2563.845147
1006.335974	2565.995199
1006.630138	2565.455795
1006.924266	2564.865980
1007.218359	2564.321536
1007.512416	2566.355641
1007.806438	2564.384550
1008.100425	2564.873542
1008.394376	2566.065775
1008.688292	2563.172153
1008.982172	2565.450754
1009.276017	2565.458316
1009.569827	2564.485373
1009.863602	2566.675754
1010.157341	2564.941598
1010.451045	2566.239695
1010.744714	2565.246587
1011.038347	2562.957903
1011.331945	2564.840774
1011.625508	2565.833882
1011.919036	2564.908830
1012.212528	2563.202399
1012.505986	2564.848336
1012.799408	2566.093501
1013.092795	2564.669375
1013.386147	2564.301371
1013.679464	2562.428582
1013.972745	2564.124931
1014.265992	2564.644169
1014.559204	2568.021742
1014.852380	2562.884807
1015.145521	2568.188101
1015.438628	2561.942111
1015.731699	2564.981927
1016.024736	2566.055692
1016.317737	2565.574262
1016.610703	2565.163408
1016.903635	2561.082594
1017.196531	2560.974209
1017.489393	2561.871535
1017.782219	2562.370609
1018.075011	2563.036041
1018.367768	2564.661813
1018.660490	2565.140723
1018.953177	2565.140723
1019.245829	2565.140723
