Dividing Wavelength (nm)	Counts (n)	Blue Motor Position (mm): 0.000000	Red Motor Position (mm): 48.000000	
326.493990	2079.665005
326.888308	2079.665005
327.282561	2079.665005
327.676750	2053.203988
328.070874	2054.129040
328.464933	2060.720349
328.858929	2071.662173
329.252859	2086.180696
329.646726	2097.810638
330.040528	2117.468618
330.434265	2134.197687
330.827938	2153.233083
331.221547	2174.128666
331.615091	2195.664475
332.008571	2213.953782
332.401986	2235.166957
332.795338	2254.956006
333.188625	2278.047012
333.581847	2294.002263
333.975006	2312.977167
334.368100	2330.863180
334.761129	2346.125274
335.154095	2360.681605
335.546996	2406.810684
335.939833	2496.918788
336.332606	2506.804491
336.725315	2519.598939
337.117960	2527.795855
337.510540	2534.815662
337.903056	2545.707075
338.295508	2552.439536
338.687896	2560.374312
339.080220	2565.055023
339.472480	2571.769840
339.864676	2578.003227
340.256807	2579.129925
340.648875	2580.485995
341.040879	2581.645461
341.432818	2584.647468
341.824694	2581.831983
342.216506	2582.835173
342.608253	2582.837694
342.999937	2583.576223
343.391557	2581.174113
343.783113	2581.731160
344.174605	2582.076479
344.566033	2575.573391
344.957397	2575.076837
345.348697	2575.417115
345.739934	2573.272104
346.131106	2570.325550
346.522215	2568.059551
346.913260	2569.861764
347.304241	2565.266752
347.695159	2564.762637
348.086012	2566.035528
348.476802	2562.766340
348.867528	2556.540515
349.258191	2556.021276
349.648789	2561.362378
350.039324	2556.568241
350.429796	2560.800290
350.820203	2557.831050
351.210548	2558.809034
351.600828	2556.278375
351.991045	2555.358364
352.381198	2553.528425
352.771288	2555.176883
353.161314	2556.807696
353.551276	2554.236707
353.941175	2555.234856
354.331010	2554.617314
354.720782	2561.745506
355.110490	2556.452294
355.500135	2557.561348
355.889717	2555.171841
356.279235	2557.175700
356.668689	2560.124775
357.058080	2558.703170
357.447408	2559.101421
357.836672	2558.130999
358.225873	2558.050340
358.615010	2559.426575
359.004084	2561.163253
359.393095	2565.612071
359.782043	2564.624005
360.170927	2564.661813
360.559748	2565.914540
360.948505	2568.777916
361.337199	2571.520303
361.725830	2570.391085
362.114398	2571.348904
362.502903	2569.448389
362.891344	2571.500139
363.279722	2573.627506
363.668037	2567.810014
364.056289	2573.050293
364.444478	2572.798236
364.832603	2570.501990
365.220665	2573.597259
365.608665	2577.584811
365.996601	2578.666139
366.384474	2578.814853
366.772284	2580.382652
367.160031	2581.254771
367.547715	2580.518763
367.935336	2583.314083
368.322893	2583.601428
368.710388	2585.144022
369.097820	2584.372725
369.485189	2587.110072
369.872495	2588.594691
370.259738	2589.171903
370.646918	2593.164497
371.034035	2593.300608
371.421090	2599.425610
371.808081	2599.506269
372.195010	2602.868718
372.581875	2606.440376
372.968678	2614.400358
373.355418	2616.096706
373.742096	2629.170939
374.128710	2634.060858
374.515262	2649.234731
374.901751	2658.639003
375.288177	2675.965449
375.674540	2691.540094
376.060841	2711.036757
376.447079	2730.664489
376.833254	2753.974784
377.219367	2774.487239
377.605417	2803.708288
377.991404	2831.671568
378.377329	2867.012577
378.763191	2899.737227
379.148991	2944.129628
379.534727	2990.944303
379.920402	3037.955583
380.306013	3079.141810
380.691563	3137.654483
381.077049	3191.436033
381.462474	3244.610124
381.847835	3313.827687
382.233134	3380.970815
382.618371	3437.709001
383.003545	3521.016589
383.388657	3596.432251
383.773706	3686.926003
384.158693	3754.364039
384.543618	3841.802852
384.928480	3917.276487
385.313280	4020.874719
385.698017	4118.206797
386.082692	4234.591916
386.467305	4295.680618
386.851856	4415.586983
387.236344	4562.944951
387.620770	4623.922748
388.005133	4735.634717
388.389435	4877.144947
388.773674	4958.927586
389.157851	5083.340742
389.541965	5214.884611
389.926018	5241.421244
390.310008	5410.252007
390.693936	5527.582342
391.077802	5638.775073
391.461606	5767.107726
391.845348	5879.207864
392.229027	5997.816132
392.612645	6211.984512
392.996200	6330.481874
393.379694	6498.536300
393.763125	6707.834925
394.146494	6805.202291
394.529801	6936.819256
394.913047	7171.759711
395.296230	7167.560429
395.679351	7224.979172
396.062410	7470.362376
396.445408	7373.287397
396.828343	7528.973352
397.211217	7661.752303
397.594028	7551.348513
397.976778	7751.799913
398.359466	7910.843276
398.742092	7896.939774
399.124656	8036.839355
399.507158	8219.818116
399.889598	8246.599246
400.271977	8455.718910
400.654294	8484.292170
401.036549	8688.474024
401.418742	8707.065800
401.800874	9012.824383
402.182944	9086.178213
402.564952	9448.906876
402.946898	9288.411661
403.328783	9339.465947
403.710606	9531.455770
404.092367	9790.432446
404.474067	10139.721393
404.855705	9952.122415
405.237282	9898.091328
405.618797	10320.454321
406.000250	10567.627135
406.381642	10926.879922
406.762972	10881.867460
407.144240	10690.578357
407.525447	10938.257807
407.906593	10889.635878
408.287677	11154.092288
408.668700	11296.388938
409.049661	11284.406115
409.430560	11447.399222
409.811399	11423.219327
410.192176	11580.314284
410.572891	11666.381904
410.953545	12136.870272
411.334138	11626.324895
411.714669	12209.316693
412.095139	11557.767723
412.475547	12031.517718
412.855894	11895.366235
413.236180	12223.041235
413.616405	11911.540777
413.996568	12193.142151
414.376670	12173.211950
414.756711	12058.097202
415.136691	12334.594408
415.516609	12504.630006
415.896466	12589.374323
416.276262	12880.692522
416.655997	13337.143797
417.035670	13385.077608
417.415283	14004.060724
417.794834	14088.464763
418.174324	13838.249612
418.553753	13741.043563
418.933121	14238.628133
419.312428	14066.044231
419.691674	13974.784223
420.070859	14441.108598
420.449983	14090.332510
420.829045	14655.158511
421.208047	14407.610131
421.586988	14862.871693
421.965867	15101.882879
422.344686	15103.932108
422.723444	15682.638926
423.102141	14383.289084
423.480777	15568.653396
423.859352	15065.137909
424.237866	16172.843247
424.616319	15888.809515
424.994712	16536.837239
425.373044	16330.633882
425.751314	17027.719595
426.129524	16154.274156
426.507673	17224.773258
426.885762	16963.956561
427.263789	17132.459649
427.641756	17328.926017
428.019662	17390.783495
428.397508	17442.828367
428.775292	17721.636943
429.153016	17709.472638
429.530679	17782.917209
429.908282	17820.133527
430.285824	17543.152370
430.663305	18262.822452
431.040726	17875.603863
431.418086	17716.835244
431.795385	18354.425259
432.172624	18793.255180
432.549802	18353.827882
432.926920	18563.733966
433.303977	18447.926060
433.680974	18698.973001
434.057910	19009.291308
434.434786	19064.570080
434.811601	18973.158838
435.188355	20037.303565
435.565050	19693.635504
435.941683	19655.683178
436.318257	20557.263296
436.694770	20357.404231
437.071222	20953.611414
437.447614	20025.663541
437.823946	20058.683098
438.200218	20231.856815
438.576429	19999.973821
438.952580	20316.013838
439.328670	20285.681215
439.704700	20706.448682
440.080670	20266.240005
440.456580	20887.239583
440.832429	21063.057385
441.208218	20073.914945
441.583947	20503.965697
441.959616	20637.765482
442.335224	20890.168493
442.710773	21023.834687
443.086261	21578.984193
443.461689	20920.511198
443.837057	21079.998182
444.212365	21740.583421
444.587612	21742.607444
444.962800	21345.067093
445.337927	21768.561824
445.712995	20475.205914
446.088002	22392.984346
446.462949	22591.575560
446.837837	22769.424947
447.212664	22798.714051
447.587431	25761.011998
447.962139	28748.704757
448.336786	31067.771637
448.711374	29411.107331
449.085901	25673.106878
449.460369	25681.119792
449.834776	25658.394270
450.209124	28228.505571
450.583412	27715.860554
450.957640	28214.178612
451.331808	26852.603287
451.705917	25477.391641
452.079965	25510.648133
452.453954	25891.386318
452.827883	25809.326416
453.201752	25603.208759
453.575562	25774.749142
453.949311	26902.112459
454.323001	26978.992576
454.696632	26762.583403
455.070202	28371.286171
455.443713	28548.631443
455.817164	29144.939449
456.190556	29713.566479
456.563888	29110.815879
456.937160	29564.313038
457.310373	27854.714095
457.683526	28294.401013
458.056619	28294.274984
458.429653	28266.876313
458.802628	28885.574604
459.175542	29029.444094
459.548398	30407.488868
459.921194	32027.463657
460.293930	32779.205559
460.666607	34883.287393
461.039224	36695.551953
461.411782	37051.825419
461.784280	35760.155775
462.156719	35198.556113
462.529099	34643.850229
462.901419	33295.616318
463.273680	32234.045100
463.645882	32389.075704
464.018024	32363.504451
464.390106	33310.580983
464.762130	36239.065390
465.134094	40575.617163
465.505999	46084.269973
465.877845	50632.093983
466.249631	51679.156761
466.621358	49831.339462
466.993026	47599.595449
467.364634	45447.395802
467.736184	43495.350128
468.107674	42191.513658
468.479105	41401.237176
468.850477	40674.776660
469.221790	39230.637317
469.593043	37428.823068
469.964238	36523.769595
470.335373	36480.944993
470.706449	38335.779578
471.077467	41101.802720
471.448425	45812.171174
471.819324	48593.428683
472.190164	46619.842158
472.560945	42975.339985
472.931667	39786.192636
473.302330	38669.453551
473.672934	37828.193358
474.043479	38363.034576
474.413965	37572.591735
474.784393	37194.248098
475.154761	38126.768298
475.525070	38182.226031
475.895321	37690.811834
476.265513	38336.969290
476.635645	39315.638733
477.005719	39175.993730
477.375734	39690.214108
477.745691	40428.007138
478.115588	41787.097173
478.485427	43924.294347
478.855207	47413.728107
479.224928	50069.944836
479.594591	51637.627735
479.964194	50531.633870
480.333739	50682.634071
480.703226	50752.181830
481.072653	51388.118346
481.442022	51880.989437
481.811333	52092.382662
482.180584	50822.422747
482.549777	50303.781277
482.918912	49750.038254
483.287988	49436.586869
483.657005	48611.884347
484.025964	47923.693750
484.394864	47924.076878
484.763706	47467.323134
485.132489	46593.280318
485.501213	46434.423478
485.869879	46571.830209
486.238487	46165.946748
486.607036	46351.751076
486.975527	45777.707326
487.343959	46014.729777
487.712333	46087.070334
488.080648	45968.913250
488.448905	46434.695701
488.817104	46219.085551
489.185244	47233.925273
489.553326	49014.410399
489.921350	51766.479628
490.289315	54590.551656
490.657222	55089.635969
491.025070	55317.843963
491.392861	54420.957159
491.760593	53163.080889
492.128267	51473.044145
492.495883	49940.863571
492.863440	48495.267335
493.230939	47103.843339
493.598380	46007.825916
493.965763	45690.102154
494.333088	44850.006468
494.700354	44351.297721
495.067563	44050.615580
495.434713	43884.900250
495.801805	43981.329961
496.168839	43574.423146
496.535815	43243.191612
496.902733	43248.499947
497.269593	42813.037516
497.636395	42744.442536
498.003139	43125.687357
498.369825	42578.961620
498.736453	42898.101946
499.103023	42417.410283
499.469535	42300.034577
499.835989	42364.518497
500.202385	42033.138249
500.568723	42032.762683
500.935003	42227.252919
501.301226	42027.028370
501.667390	42634.953715
502.033497	42893.106163
502.399546	42324.758916
502.765537	41594.288162
503.131470	41986.336176
503.497345	42351.996271
503.863163	40984.230409
504.228923	41631.083544
504.594625	42034.491798
504.960269	41287.934722
505.325856	41978.313180
505.691385	41363.839376
506.056856	41494.735456
506.422270	41935.665018
506.787625	41480.065698
507.152924	41697.626775
507.518164	41786.925774
507.883347	40989.498415
508.248472	41224.302758
508.613540	41737.305697
508.978550	42029.168340
509.343503	41788.831330
509.708398	41976.876451
510.073236	42522.992209
510.438016	42501.675690
510.802738	41954.912144
511.167403	42589.616098
511.532010	42815.487517
511.896561	43109.243113
512.261053	43976.170340
512.625488	43513.503323
512.989866	43389.735434
513.354186	43234.321702
513.718449	43218.258065
514.082655	43901.268876
514.446803	43562.505858
514.810894	44097.379843
515.174927	44018.891598
515.538904	43920.367288
515.902822	44594.866111
516.266684	44027.108679
516.630488	44459.468280
516.994235	44302.353159
517.357925	44892.367284
517.721558	45069.800776
518.085133	45361.091248
518.448651	45491.463048
518.812112	45262.307318
519.175516	45348.581625
519.538863	45692.524428
519.902152	45654.491443
520.265385	46122.948226
520.628560	46148.872360
520.991678	45926.738957
521.354739	46159.801581
521.717743	46483.219327
522.080690	46368.192799
522.443580	46927.097964
522.806413	46956.518138
523.169189	46912.894513
523.531908	47092.483098
523.894569	46936.484593
524.257174	47113.035883
524.619722	47393.520642
524.982213	47381.799959
525.344647	47285.967624
525.707025	47341.495934
526.069345	47752.244108
526.431608	47659.693565
526.793815	47987.948297
527.155964	47498.066611
527.518057	47675.149742
527.880093	47463.282649
528.242072	47985.115169
528.603995	47668.820574
528.965860	47673.677725
529.327669	47764.410933
529.689421	47671.079011
530.051117	47619.944067
530.412755	47785.135116
530.774337	47842.621914
531.135862	47655.206938
531.497331	47839.748457
531.858743	47740.034433
532.220098	48079.876258
532.581396	47791.731466
532.942638	47437.101417
533.303824	47755.006660
533.664953	47727.587825
534.026025	47428.954912
534.387040	47905.651461
534.747999	47867.232827
535.108902	48030.220893
535.469748	47503.937034
535.830537	47635.604411
536.191270	47828.887291
536.551947	47471.741705
536.912567	47785.896331
537.273131	47917.006660
537.633638	47416.699867
537.994089	47745.927542
538.354483	47313.381419
538.714821	47917.404911
539.075103	48245.561341
539.435328	48013.655661
539.795497	47892.978000
540.155609	47889.436589
540.515665	48356.295327
540.875665	47791.993606
541.235609	48116.752299
541.595496	48093.333618
541.955328	48775.845355
542.315102	48107.448849
542.674821	47878.726658
543.034483	47916.013552
543.394090	47909.986853
543.753640	47846.249024
544.113134	48864.791474
544.472571	47831.891818
544.831953	49097.874263
545.191278	48302.365063
545.550548	48018.863173
545.909761	48487.806428
546.268918	48673.023461
546.628019	48980.659874
546.987064	48527.195483
547.346053	47796.044173
547.704986	48664.579528
548.063863	48209.625476
548.422684	48412.809182
548.781449	48211.589005
549.140158	48628.361358
549.498811	48469.328078
549.857408	47878.525012
550.215949	48712.243638
550.574434	48635.136669
550.932864	48399.752593
551.291237	49110.855234
551.649555	48714.063494
552.007817	48932.789077
552.366022	48581.365202
552.724173	48751.080687
553.082267	49146.622221
553.440305	49394.500797
553.798288	48710.978308
554.156215	49016.542808
554.514086	49232.982227
554.871902	48935.939799
555.229661	48976.110233
555.587365	48790.318508
555.945014	48881.207991
556.302606	48802.518100
556.660143	49009.954019
557.017625	49077.369370
557.375050	48879.105830
557.732421	49197.850426
558.089735	49164.944294
558.446994	49086.597202
558.804197	49544.402027
559.161345	49459.942535
559.518437	48690.107931
559.875474	48992.317543
560.232455	49173.423515
560.589381	49342.385348
560.946251	49016.930976
561.303065	49690.414007
561.659825	49461.442278
562.016528	49134.989758
562.373177	48847.616263
562.729770	49327.211475
563.086307	48817.462601
563.442789	49264.968348
563.799216	49299.273400
564.155587	49085.841029
564.511904	49123.758067
564.868164	49158.347945
565.224370	49394.326877
565.580520	49138.316920
565.936615	49345.964567
566.292654	49027.129231
566.648638	49279.696079
567.004567	49224.437472
567.360441	49285.816040
567.716260	49132.287700
568.072023	49403.378268
568.427732	49369.146313
568.783385	48889.384743
569.138982	49278.403023
569.494525	49237.050438
569.850013	48976.241303
570.205445	48967.189911
570.560823	48892.371627
570.916145	48757.062016
571.271412	48780.679822
571.626625	48527.805463
571.981782	48542.013955
572.336884	48227.183815
572.691931	48533.209580
573.046923	48122.993247
573.401860	47961.083988
573.756743	47915.189324
574.111570	48022.278555
574.466342	47860.094553
574.821059	47946.540260
575.175722	47467.348340
575.530330	47482.975917
575.884882	47176.972837
576.239380	47134.853997
576.593823	47100.553986
576.948211	47024.251081
577.302544	46519.477826
577.656823	46524.322375
578.011047	46747.524502
578.365216	46468.337841
578.719330	46231.287663
579.073389	46084.169150
579.427394	46155.030129
579.781344	46102.498786
580.135239	45752.995589
580.489080	45811.072202
580.842866	45273.246622
581.196597	45731.535398
581.550273	45648.066493
581.903895	45524.585950
582.257463	45918.791578
582.610975	45293.592719
582.964434	45575.196614
583.317837	45196.116968
583.671186	45015.920924
584.024481	45240.867291
584.377721	44742.029994
584.730906	45020.463003
585.084037	45051.181274
585.437113	44747.280356
585.790135	44755.779741
586.143103	44344.885374
586.496016	44467.758457
586.848874	44485.082383
587.201679	44473.820445
587.554428	43952.744098
587.907124	44149.896063
588.259765	43896.315943
588.612352	44122.298267
588.964884	43491.894417
589.317362	43778.952840
589.669786	43712.971698
590.022155	43479.888909
590.374470	43903.469340
590.726731	43399.558122
591.078937	42900.128490
591.431090	43003.779654
591.783188	42634.232830
592.135232	42313.307935
592.487222	42557.738362
592.839157	42640.244406
593.191038	42292.435038
593.542866	42036.349464
593.894639	41442.483897
594.246358	41709.876779
594.598022	41690.904396
594.949633	41278.139761
595.301190	41234.914387
595.652692	41061.786040
596.004141	41388.886349
596.355535	40389.160006
596.706876	40348.402277
597.058162	40156.541003
597.409395	40627.384772
597.760573	40703.226411
598.111698	40277.468202
598.462768	40294.466972
598.813785	40319.060241
599.164748	39773.695615
599.515657	40156.624182
599.866511	39636.122527
600.217312	40252.388461
600.568060	39209.542609
600.918753	39966.860028
601.269392	39923.369994
601.619978	39569.072660
601.970510	39767.830233
602.320988	39949.415115
602.671412	40254.830900
603.021783	39995.168627
603.372100	39654.716823
603.722363	39748.426832
604.072572	39824.868368
604.422728	39831.482362
604.772830	39639.479935
605.122878	39744.441800
605.472872	39652.397892
605.822813	39934.301736
606.172701	39766.401066
606.522534	40023.404130
606.872314	40275.144230
607.222041	40033.040296
607.571714	40404.265824
607.921333	39846.046255
608.270899	40138.947376
608.620411	40493.448876
608.969870	40284.356938
609.319276	40297.330348
609.668627	40333.167910
610.017926	40814.172125
610.367171	40968.141567
610.716362	41057.906873
611.065500	41004.067349
611.414585	41169.434840
611.763616	41469.685963
612.112594	41420.073447
612.461518	41629.064562
612.810389	41946.080042
613.159207	41797.630664
613.507971	41872.615307
613.856682	42336.174609
614.205340	42230.539751
614.553945	42921.150102
614.902496	42367.996893
615.250994	42845.575644
615.599439	42914.163062
615.947830	43113.775111
616.296169	43192.223026
616.644454	43302.047083
616.992686	43468.453051
617.340864	43978.993386
617.688990	43679.758056
618.037063	44311.964118
618.385082	44267.629691
618.733048	44568.392491
619.080961	44571.654118
619.428821	44595.828971
619.776628	44710.235437
620.124382	44522.822981
620.472083	44657.772149
620.819731	44782.490295
621.167326	44447.699706
621.514868	44422.567034
621.862357	43974.584897
622.209793	44012.489333
622.557176	43675.626830
622.904506	43406.104060
623.251783	43064.959097
623.599007	42850.029503
623.946179	42623.684216
624.293297	42564.062489
624.640363	41969.145842
624.987376	41961.402629
625.334336	41746.281471
625.681243	41370.607125
626.028097	41333.907525
626.374899	41201.002545
626.721647	41179.975892
627.068343	41075.371950
627.414987	40830.835659
627.761577	40615.318771
628.108115	40954.094391
628.454600	40398.400441
628.801032	40590.624678
629.147412	40564.985370
629.493739	40554.913145
629.840014	40201.066994
630.186236	40550.212269
630.532405	40132.403958
630.878521	40368.173683
631.224585	40220.581301
631.570597	39916.756000
631.916556	40094.466755
632.262462	40041.106142
632.608316	40069.999515
632.954117	39957.410385
633.299866	39953.243871
633.645562	39867.065346
633.991206	39383.371676
634.336797	38935.003891
634.682336	38924.210781
635.027823	38674.129221
635.373257	38495.841253
635.718639	38252.545086
636.063968	38126.110427
636.409245	37536.565129
636.754470	37590.399611
637.099642	37346.874072
637.444762	36876.083234
637.789829	37023.002622
638.134845	36682.570982
638.479808	36630.437890
638.824719	36525.972579
639.169577	36148.790928
639.514383	36216.972534
639.859137	35904.247075
640.203839	36152.556670
640.548489	35795.910159
640.893086	35857.334098
641.237632	35589.227892
641.582125	35719.375361
641.926566	35649.096635
642.270955	35618.088498
642.615292	35640.269575
642.959576	35607.118947
643.303809	35605.001663
643.647990	35755.225527
643.992118	35728.850210
644.336195	35703.881375
644.680219	35793.805477
645.024192	36110.309280
645.368112	36628.469319
645.711981	36624.340614
646.055797	37509.047991
646.399562	37430.252236
646.743274	38409.652646
647.086935	38827.828960
647.430544	38724.974298
647.774101	38824.950462
648.117606	39079.962270
648.461059	39364.535405
648.804460	38973.538471
649.147810	38328.674071
649.491108	38081.932276
649.834354	37736.237671
650.177548	36883.501292
650.520690	36450.708152
650.863781	36473.353015
651.206820	36325.795922
651.549807	35880.011728
651.892742	35397.240589
652.235626	35219.970935
652.578458	35081.107311
652.921238	34460.732836
653.263967	34801.650947
653.606644	34472.665247
653.949269	34422.276394
654.291843	34013.232130
654.634365	34406.096811
654.976836	34009.562170
655.319255	34023.364849
655.661622	34006.897920
656.003938	33780.363590
656.346203	33663.509643
656.688416	33885.895104
657.030577	33685.219373
657.372687	33530.982750
657.714746	33764.514202
658.056753	33893.484561
658.398708	33353.624875
658.740612	33409.916920
659.082465	33681.468754
659.424266	33521.891029
659.766016	33638.039214
660.107715	33505.270345
660.449362	33633.804644
660.790958	33609.937302
661.132503	33618.109012
661.473996	33659.786751
661.815438	33787.751401
662.156829	33962.979388
662.498168	33732.795262
662.839456	33760.037657
663.180693	33892.378028
663.521879	34079.664455
663.863013	34021.383676
664.204097	34006.978578
664.545129	34469.814475
664.886110	34432.482210
665.227040	34521.529152
665.567918	34632.152232
665.908746	34699.426430
666.249522	34841.579406
666.590248	34853.675655
666.930922	34952.141993
667.271545	34921.837096
667.612118	34994.449876
667.952639	34779.011125
668.293109	34837.672512
668.633528	34735.775669
668.973896	34655.538144
669.314213	34692.966191
669.654480	34419.723050
669.994695	34447.759427
670.334859	34338.598281
670.674973	34234.359823
671.015035	34385.561671
671.355047	34325.652598
671.695008	34280.400681
672.034918	34188.470199
672.374777	34284.652894
672.714585	34090.752473
673.054342	34321.513811
673.394049	34088.206690
673.733705	34373.346955
674.073310	34037.578382
674.412864	34108.015904
674.752368	33702.339131
675.091820	34015.004095
675.431223	33581.850513
675.770574	33296.561534
676.109875	33139.811897
676.449125	32862.203116
676.788324	32786.953813
677.127473	32239.814701
677.466571	32173.750379
677.805619	31817.509681
678.144616	31817.408858
678.483562	31734.617988
678.822458	31414.192168
679.161303	31355.311491
679.500098	31268.833017
679.838842	31150.076035
680.177535	31309.442032
680.516179	31602.975818
680.854771	31837.979286
681.193314	32711.434807
681.531805	33855.645661
681.870247	34621.548164
682.208638	35328.496895
682.546978	35543.885234
682.885268	35626.101412
683.223508	35106.343327
683.561697	34764.369094
683.899836	34564.441974
684.237925	34069.486366
684.575963	33902.682147
684.913951	33449.595842
685.251889	33597.631845
685.589776	33606.269862
685.927614	33579.919751
686.265401	33728.570775
686.603137	33809.052796
686.940824	34348.025239
687.278460	34724.425512
687.616046	34837.755691
687.953582	35439.850942
688.291068	35289.990041
688.628504	35577.829843
688.965889	35510.129668
689.303224	35121.809587
689.640510	34771.628356
689.977745	33998.123792
690.314930	33191.599670
690.652065	32678.851310
690.989150	31945.381069
691.326185	31015.877999
691.663170	30330.029019
692.000105	29592.014178
692.336990	28895.964422
692.673825	28427.527804
693.010610	27916.259022
693.347345	27341.055807
693.684030	26681.763624
694.020665	26402.224082
694.357251	25726.560752
694.693786	25678.730285
695.030272	25439.008296
695.366707	24893.265583
695.703093	24606.207160
696.039429	24607.532983
696.375716	24329.712474
696.711952	24311.516429
697.048139	24152.556246
697.384276	23963.273522
697.720363	24097.907617
698.056400	23897.052925
698.392388	23669.921218
698.728326	23630.186843
699.064214	23424.661521
699.400053	23366.292522
699.735842	22999.450277
700.071581	22725.123287
700.407270	22437.253238
700.742910	22234.382084
701.078501	21972.330304
701.414042	21692.397552
701.749533	21386.177702
702.084974	21031.330883
702.420366	21247.200653
702.755709	20800.287241
703.091002	20498.750623
703.426246	20520.286433
703.761440	20412.572098
704.096584	20135.532968
704.431679	20101.764799
704.766725	20008.856334
705.101721	19936.906465
705.436668	20031.223933
705.771565	19705.988852
706.106413	20061.798531
706.441212	20051.501975
706.775961	20176.351191
707.110661	20245.281408
707.445311	20608.456213
707.779913	20446.869588
708.114465	20689.643996
708.448967	20974.655711
708.783421	21671.512051
709.117825	21939.025921
709.452180	22160.879540
709.786485	22572.424217
710.120742	23372.399879
710.454949	23382.088977
710.789107	23862.533624
711.123216	24567.851541
711.457275	24658.120962
711.791286	25206.036412
712.125247	25274.011330
712.459159	24944.934890
712.793023	25601.736742
713.126837	24502.412323
713.460602	24757.961014
713.794318	24385.001329
714.127985	23990.334436
714.461602	23080.302823
714.795171	23036.028889
715.128691	22012.107528
715.462162	21469.644087
715.795584	21056.894574
716.128957	20788.629572
716.462281	20395.190200
716.795556	20153.610546
717.128782	19642.404778
717.461960	19102.935782
717.795088	19030.774185
718.128167	18615.546946
718.461198	18165.402154
718.794180	18019.523765
719.127113	17665.055032
719.459997	17453.538299
719.792833	17104.118282
720.125619	17070.768528
720.458357	16746.274497
720.791046	16578.038590
721.123686	16419.927841
721.456278	16177.962538
721.788821	16141.762013
722.121315	15875.369799
722.453761	15963.557224
722.786158	15877.638318
723.118506	15882.601334
723.450805	15761.364105
723.783056	15914.138793
724.115259	15807.042000
724.447412	15748.153761
724.779518	15983.290821
725.111574	15997.970661
725.443582	16213.364041
725.775542	16192.917121
726.107453	16660.317782
726.439315	16545.397119
726.771129	16936.469669
727.102895	17310.815672
727.434612	17517.127413
727.766281	17640.650806
728.097901	17885.313126
728.429473	17930.055887
728.760996	17915.229853
729.092471	18003.805447
729.423897	17872.551445
729.755276	17744.695180
730.086606	17864.399899
730.417887	18388.427841
730.749120	18902.580163
731.080305	19064.955729
731.411442	19397.802952
731.742530	19462.662438
732.073570	19557.042920
732.404562	19850.183496
732.735506	19657.402211
733.066401	19367.956801
733.397249	18834.532148
733.728048	18195.054221
734.058798	17363.213425
734.389501	16685.268973
734.720156	16216.174484
735.050762	15692.388517
735.381320	15343.142420
735.711831	15103.904382
736.042293	14756.528553
736.372707	14767.379637
736.703073	14559.003542
737.033391	14744.152520
737.363661	14715.765783
737.693883	14817.236648
738.024056	14995.993443
738.354182	15170.863508
738.684260	15457.584174
739.014290	15676.350087
739.344272	15854.665780
739.674207	16128.438243
740.004093	16241.297075
740.333931	16229.725106
740.663722	16269.577948
740.993464	16256.470948
741.323159	16079.039976
741.652806	15805.668286
741.982405	15585.276601
742.311956	15242.145423
742.641460	15132.666685
742.970915	14813.027285
743.300323	14496.084901
743.629683	14276.474596
743.958996	13997.718952
744.288260	13731.598962
744.617477	13435.257253
744.946647	13366.886604
745.275768	13092.819234
745.604842	12900.854616
745.933869	12734.141138
746.262847	12685.330166
746.591778	12613.753343
746.920662	12505.638237
747.249498	12506.331396
747.578286	12628.047535
747.907027	12775.702931
748.235720	12992.202845
748.564365	13026.896065
748.892963	12916.920774
749.221514	12972.754073
749.550017	12825.776712
749.878473	12791.209520
750.206881	12561.345508
750.535242	12468.391672
750.863555	12389.227913
751.191821	12284.281172
751.520039	12297.945219
751.848210	12212.301057
752.176334	12251.065009
752.504411	12154.262252
752.832440	11988.488949
753.160421	12046.845346
753.488356	11931.874271
753.816243	11848.261693
754.144082	11697.016996
754.471875	11636.069446
754.799620	11581.917371
755.127318	11552.519882
755.454969	11526.164730
755.782572	11468.960237
756.110129	11479.539098
756.437638	11391.177753
756.765100	11394.754452
757.092515	11393.849565
757.419882	11408.539487
757.747203	11419.178842
758.074477	11482.563790
758.401703	11440.024014
758.728882	11603.581730
759.056014	11646.182000
759.383099	11755.512024
759.710138	11854.389216
760.037129	11944.393977
760.364073	11956.938888
760.690970	11947.930346
761.017820	11951.292796
761.344623	12140.043678
761.671379	12469.929224
761.998088	13115.282616
762.324751	14710.220514
762.651366	17613.965458
762.977935	21224.124771
763.304456	23360.691800
763.630931	23764.916721
763.957359	22562.909039
764.283740	20655.442288
764.610074	18789.807031
764.936362	16668.333217
765.262602	15165.903013
765.588796	13709.254047
765.914943	12692.186135
766.241044	11852.098011
766.567097	11219.851619
766.893104	10681.438745
767.219064	10329.982101
767.544978	9955.232807
767.870845	9644.904417
768.196665	9457.696128
768.522438	9262.323690
768.848165	9098.201365
769.173846	8926.978574
769.499479	8812.415833
769.825066	8658.769025
770.150607	8475.505439
770.476101	8413.345491
770.801548	8297.862739
771.126949	8157.590113
771.452303	8069.758089
771.777611	7905.068634
772.102872	7883.830253
772.428087	7767.626616
772.753256	7645.759242
773.078378	7558.300264
773.403453	7411.874909
773.728482	7312.944786
774.053465	7246.590598
774.378401	7157.581465
774.703291	7070.253557
775.028135	6968.712116
775.352932	6928.491270
775.677683	6846.685946
776.002388	6764.356342
776.327046	6764.255519
776.651658	6675.546335
776.976224	6601.204439
777.300743	6587.338745
777.625216	6519.983889
777.949643	6479.808413
778.274024	6477.121478
778.598359	6421.298261
778.922647	6420.542088
779.246889	6377.840994
779.571086	6385.382560
779.895236	6388.082098
780.219339	6390.572428
780.543397	6388.490432
780.867409	6445.768022
781.191374	6434.185971
781.515294	6401.985601
781.839167	6453.085257
782.162995	6424.133910
782.486776	6369.170210
782.810511	6334.686197
783.134201	6260.687099
783.457844	6252.013794
783.781441	6203.369180
784.104993	6154.134751
784.428498	6130.761441
784.751958	6112.144460
785.075372	6082.646148
785.398739	6041.835488
785.722061	6074.363533
786.045337	6070.217184
786.368568	6179.108627
786.691752	6203.354057
787.014891	6457.007274
787.337983	6733.990952
787.661030	7174.764238
787.984031	7592.577590
788.306987	7849.482351
788.629897	7925.303826
788.952760	7834.323602
789.275579	7655.894482
789.598351	7359.144440
789.921078	7098.214317
790.243759	6818.500855
790.566395	6614.654237
790.888984	6430.894097
791.211529	6289.688857
791.534027	6129.546523
791.856480	5996.528117
792.178888	5936.916473
792.501249	5871.326020
792.823566	5765.963384
793.145836	5759.455255
793.468062	5744.089818
793.790241	5707.238983
794.112375	5746.343214
794.434464	5842.074725
794.756507	5877.919850
795.078505	5996.936451
795.400457	6213.892589
795.722364	6452.911337
796.044226	6639.081148
796.366042	6795.296424
796.687812	6733.834676
797.009538	6764.134531
797.331218	6673.290418
797.652852	6602.033709
797.974442	6483.480894
798.295986	6413.376088
798.617484	6285.570235
798.938938	6177.278688
799.260346	6111.761332
799.581709	5973.290919
799.903026	5919.527013
800.224299	5845.119582
800.545526	5731.668415
800.866708	5673.072563
801.187845	5624.037260
801.508936	5543.247728
801.829983	5522.692423
802.150984	5414.479015
802.471940	5384.826948
802.792851	5366.623341
803.113717	5345.344631
803.434538	5322.830838
803.755314	5292.026867
804.076045	5280.575886
804.396731	5243.213375
804.717372	5255.695272
805.037967	5262.946971
805.358518	5290.461589
805.679024	5350.005178
805.999485	5357.519018
806.319901	5372.385380
806.640272	5392.678545
806.960598	5439.125216
807.280879	5429.277322
807.601115	5463.199246
807.921306	5427.596097
808.241453	5420.926651
808.561554	5431.230769
808.881611	5401.185492
809.201623	5397.097116
809.521590	5346.206668
809.841513	5329.160007
810.161390	5344.298592
810.481223	5259.592083
810.801011	5242.747068
811.120755	5224.641764
811.440453	5171.828116
811.760107	5139.970544
812.079716	5113.338128
812.399281	5064.557403
812.718801	5057.386362
813.038276	5023.333367
813.357707	4987.954550
813.677093	5012.555380
813.996434	4948.245381
814.315731	4965.947393
814.634983	4970.416375
814.954191	4974.025842
815.273354	5033.458525
815.592473	5075.466460
815.911547	5152.089478
816.230577	5201.840625
816.549562	5286.758862
816.868502	5338.932283
817.187399	5388.925406
817.506250	5472.235514
817.825058	5499.901367
818.143821	5655.509183
818.462539	5828.140976
818.781213	6051.786725
819.099843	6422.606440
819.418429	7048.526184
819.736970	7659.745923
820.055466	8359.684929
820.373919	9278.528479
820.692327	10751.178067
821.010691	13502.977593
821.329011	19800.288676
821.647286	29240.310518
821.965517	39270.013770
822.283704	44323.750336
822.601847	45561.804789
822.919945	40983.063382
823.237999	35969.537579
823.556010	30933.621492
823.873976	26383.435701
824.191897	22293.134211
824.509775	19305.711154
824.827609	16614.579393
825.145398	15123.912722
825.463144	14420.094548
825.780845	14748.545886
826.098502	16037.286620
826.416116	18458.827555
826.733685	20634.730707
827.051210	21053.950540
827.368692	19580.786755
827.686129	17060.756797
828.003522	14649.230114
828.320872	12485.980258
828.638177	10889.618234
828.955439	9676.882977
829.272656	8635.005026
829.589830	7816.896333
829.906960	7089.490600
830.224046	6570.637403
830.541088	6171.400703
830.858086	5918.130613
831.175041	5717.974120
831.491952	5661.079658
831.808819	5706.190423
832.125642	5959.021933
832.442421	6521.486152
832.759157	7645.499623
833.075849	9408.055886
833.392497	11204.501306
833.709101	12249.749268
834.025662	11951.955707
834.342179	10887.485826
834.658653	9606.793294
834.975083	8537.355355
835.291469	7655.881879
835.607811	6940.060718
835.924110	6429.875784
836.240366	5950.288134
836.556578	5506.767418
836.872746	5156.591228
837.188871	4891.073655
837.504952	4675.602137
837.820990	4509.798587
838.136984	4396.654930
838.452935	4352.658260
838.768842	4390.976070
839.084706	4685.923899
839.400526	5438.928611
839.716303	6318.786397
840.032037	6848.616708
840.347727	6669.214645
840.663373	6078.600622
840.978977	5510.714642
841.294537	5083.486936
841.610054	4760.684211
841.925527	4530.656361
842.240957	4325.922500
842.556344	4143.468019
842.871687	3988.465141
843.186987	3837.054085
843.502244	3724.306159
843.817458	3638.059578
844.132629	3567.112900
844.447756	3522.622197
844.762840	3478.433963
845.077881	3437.081378
845.392879	3403.698857
845.707833	3380.292779
846.022745	3352.057277
846.337613	3340.134948
846.652438	3318.523521
846.967221	3310.986996
847.281960	3289.940179
847.596656	3278.010288
847.911309	3269.218516
848.225919	3256.235024
848.540485	3245.255391
848.855009	3238.686768
849.169490	3226.358626
849.483928	3218.975856
849.798323	3215.242882
850.112675	3203.953218
850.426984	3205.972200
850.741251	3197.679502
851.055474	3192.852597
851.369654	3199.048175
851.683792	3196.215047
851.997887	3192.915612
852.311938	3196.391487
852.625947	3197.155222
852.939914	3187.672812
853.253837	3199.227136
853.567718	3194.155735
853.881555	3186.382276
854.195350	3195.259748
854.509103	3190.069880
854.822812	3190.337061
855.136479	3185.293387
855.450103	3186.682225
855.763685	3179.790967
856.077224	3182.331709
856.390720	3188.610466
856.704173	3202.879452
857.017584	3203.454144
857.330953	3212.104764
857.644278	3221.942575
857.957561	3221.332596
858.270802	3221.199005
858.584000	3219.621124
858.897155	3213.002089
859.210268	3203.849874
859.523339	3193.150025
859.836367	3189.664067
860.149352	3183.944878
860.462295	3177.504804
860.775195	3170.416942
861.088054	3165.496776
861.400869	3167.505676
861.713642	3161.456291
862.026373	3172.080523
862.339062	3175.115297
862.651708	3188.202133
862.964312	3203.247456
863.276873	3211.288097
863.589392	3242.334043
863.901869	3265.447733
864.214303	3288.805919
864.526696	3307.957263
864.839045	3323.206753
865.151353	3333.089935
865.463619	3338.365503
865.775842	3338.733507
866.088023	3340.321471
866.400162	3332.928618
866.712258	3336.812828
867.024313	3337.785770
867.336325	3332.946263
867.648296	3336.820389
867.960224	3334.151098
868.272110	3336.414576
868.583954	3335.527333
868.895755	3343.217613
869.207515	3342.156451
869.519233	3358.217567
869.830909	3362.931046
870.142542	3376.703478
870.454134	3380.864950
870.765684	3395.844739
871.077191	3412.271339
871.388657	3425.436312
871.700081	3446.488171
872.011463	3465.634473
872.322803	3483.023933
872.634101	3501.368692
872.945357	3521.142618
873.256571	3550.013306
873.567744	3561.060995
873.878874	3567.554001
874.189963	3582.347267
874.501010	3584.691403
874.812015	3581.850713
875.122979	3598.647838
875.433900	3598.297477
875.744780	3599.709001
876.055618	3606.633025
876.366415	3603.124382
876.677169	3612.120321
876.987882	3631.974906
877.298554	3650.145745
877.609183	3683.787885
877.919771	3736.762850
878.230317	3805.524189
878.540822	3908.225095
878.851285	4061.241759
879.161707	4286.541006
879.472087	4664.677956
879.782425	5302.406603
880.092722	6490.987172
880.402977	8416.337416
880.713191	10746.825031
881.023363	13033.106767
881.333494	14267.405560
881.643583	14667.751313
881.953631	14236.846085
882.263637	13420.630345
882.573602	12425.312492
882.883526	11502.683035
883.193408	10580.068703
883.503248	9688.482672
883.813048	8889.696721
884.122806	8140.694686
884.432522	7394.442599
884.742197	6741.814823
885.051831	6198.164189
885.361424	5711.818872
885.670975	5333.732333
885.980485	5014.420607
886.289954	4750.801029
886.599382	4540.126168
886.908768	4363.456411
887.218113	4197.932645
887.527417	4070.003284
887.836680	3949.922999
888.145901	3848.671424
888.455082	3776.421607
888.764221	3703.773539
889.073319	3647.544509
889.382376	3615.981845
889.691392	3591.970829
890.000366	3587.327927
890.309300	3577.648911
890.618193	3584.144438
890.927044	3578.024477
891.235855	3588.169799
891.544625	3600.450050
891.853353	3628.967857
892.162041	3692.783824
892.470687	3783.645581
892.779293	3904.560177
893.087858	4081.325716
893.396381	4358.911811
893.704864	4775.500162
894.013306	5336.605791
894.321707	5892.640019
894.630068	6226.397171
894.938387	6254.478918
895.246665	6072.795734
895.554903	5757.678248
895.863100	5423.399337
896.171256	5165.070449
896.479371	4928.277370
896.787446	4711.986665
897.095480	4521.214280
897.403473	4370.934963
897.711425	4234.622163
898.019336	4111.534830
898.327207	3991.235255
898.635038	3890.830594
898.942827	3783.743883
899.250576	3703.221533
899.558284	3617.640385
899.865952	3562.956468
900.173579	3498.802745
900.481165	3452.182154
900.788711	3412.924168
901.096216	3382.314282
901.403681	3355.278574
901.711105	3345.526462
902.018489	3341.115452
902.325832	3376.254815
902.633135	3436.121038
902.940397	3610.010598
903.247619	4025.628527
903.554800	4783.802942
903.861941	5717.001178
904.169041	6387.819958
904.476101	6565.591208
904.783121	6287.533764
905.090100	5894.989197
905.397039	5486.892669
905.703938	5142.491121
906.010796	4833.874203
906.317614	4587.298765
906.624391	4353.207745
906.931129	4163.645237
907.237826	3983.512207
907.544483	3816.997855
907.851099	3642.921771
908.157675	3488.753204
908.464211	3351.996783
908.770707	3249.167327
909.077163	3174.021367
909.383578	3116.375773
909.689954	3071.842220
909.996289	3041.834751
910.302584	3022.151566
910.608839	3010.219155
910.915054	3000.144409
911.221229	2993.197699
911.527363	2998.705160
911.833458	3003.083402
912.139513	3018.106040
912.445527	3029.889737
912.751502	3062.735375
913.057436	3108.864453
913.363331	3169.136489
913.669186	3255.645209
913.975000	3371.455637
914.280775	3562.938824
914.586510	3834.057119
914.892205	4207.422617
915.197859	4706.002815
915.503475	5270.324700
915.809050	5750.129120
916.114585	6014.043606
916.420081	6069.995373
916.725536	6001.526421
917.030952	5770.074445
917.336328	5567.420061
917.641665	5362.965984
917.946961	5145.780474
918.252218	4946.788487
918.557435	4726.177513
918.862612	4535.097617
919.167750	4362.206205
919.472848	4174.292154
919.777906	4008.924664
920.082925	3854.194008
920.387904	3707.037687
920.692843	3595.056016
920.997743	3499.384998
921.302603	3403.882859
921.607423	3338.148733
921.912204	3279.550361
922.216946	3227.601271
922.521647	3178.702078
922.826310	3139.733959
923.130932	3099.384564
923.435516	3062.395097
923.740059	3036.183618
924.044564	3002.236488
924.349028	2980.493991
924.653454	2950.882254
924.957840	2924.454005
925.262186	2904.823752
925.566493	2881.213507
925.870761	2857.623428
926.174989	2848.554392
926.479178	2833.277176
926.783328	2816.880823
927.087438	2805.371868
927.391509	2793.711680
927.695541	2780.067797
927.999533	2768.621857
928.303486	2760.561052
928.607400	2756.029055
928.911275	2751.111409
929.215110	2745.256109
929.518906	2742.054976
929.822663	2743.027919
930.126381	2741.760069
930.430060	2745.422467
930.733699	2742.836355
931.037299	2750.637541
931.340861	2746.924731
931.644383	2752.885895
931.947866	2749.155441
932.251309	2750.307345
932.554714	2745.689648
932.858080	2742.312075
933.161407	2740.386354
933.464694	2735.990468
933.767943	2733.303533
934.071153	2733.860581
934.374323	2726.959241
934.677455	2725.913202
934.980548	2723.271637
935.283602	2718.207798
935.586617	2718.409444
935.889593	2719.858776
936.192530	2724.058057
936.495428	2728.653069
936.798287	2736.245046
937.101108	2750.261975
937.403890	2771.399533
937.706632	2799.851805
938.009336	2829.019921
938.312002	2859.128212
938.614628	2882.743498
938.917216	2901.799059
939.219765	2911.334402
939.522275	2926.780497
939.824747	2922.724889
940.127179	2912.481264
940.429573	2908.090419
940.731929	2906.056314
941.034246	2899.255797
941.336524	2897.095663
941.638763	2890.232132
941.940964	2884.674260
942.243126	2868.897969
942.545250	2857.441947
942.847335	2845.169257
943.149381	2828.717452
943.451389	2814.952581
943.753359	2803.809111
944.055290	2796.769139
944.357182	2784.136008
944.659036	2784.899743
944.960851	2780.244237
945.262628	2774.913217
945.564367	2773.426077
945.866067	2774.252826
946.167729	2769.345262
946.469352	2770.542537
946.770937	2769.768719
947.072484	2760.987029
947.373992	2763.295878
947.675462	2757.251534
947.976893	2751.572675
948.278286	2753.090062
948.579641	2746.024885
948.880958	2742.521283
949.182236	2741.079513
949.483476	2741.129924
949.784678	2739.224368
950.085841	2740.212434
950.386967	2745.087230
950.688054	2749.704927
950.989103	2756.991915
951.290114	2764.997267
951.591087	2779.329268
951.892021	2788.980557
952.192917	2801.611168
952.493776	2810.627271
952.794596	2813.188177
953.095378	2816.669094
953.396122	2814.362766
953.696828	2811.890080
953.997496	2807.143834
954.298126	2797.956331
954.598718	2788.269754
954.899272	2778.631068
955.199788	2767.149840
955.500266	2756.238262
955.800706	2739.562126
956.101108	2727.405383
956.401472	2713.910214
956.701798	2702.118955
957.002087	2686.612366
957.302337	2677.185408
957.602550	2667.085457
957.902724	2657.623211
958.202861	2648.155924
958.502960	2643.094606
958.803022	2633.241670
959.103045	2628.717235
959.403031	2621.304218
959.702979	2615.063270
960.002889	2612.068824
960.302762	2605.502721
960.602596	2603.607247
960.902393	2602.064654
961.202153	2596.005187
961.501875	2591.022007
961.801559	2591.445464
962.101205	2589.252562
962.400814	2589.948241
962.700385	2582.094123
962.999918	2583.140163
963.299414	2578.386355
963.598873	2580.138156
963.898293	2576.942064
964.197677	2578.043556
964.497022	2575.069276
964.796331	2574.111456
965.095601	2572.803277
965.394835	2572.669686
965.694030	2570.459140
965.993189	2573.027608
966.292309	2570.812021
966.591393	2568.263718
966.890439	2567.144582
967.189447	2568.354459
967.488419	2568.576269
967.787353	2571.835375
968.086249	2571.742114
968.385108	2575.180181
968.683930	2568.495611
968.982714	2575.268401
969.281462	2575.364183
969.580172	2577.478947
969.878844	2578.618248
970.177480	2581.958012
970.476078	2584.188723
970.774639	2586.626121
971.073162	2592.647779
971.371649	2589.492017
971.670098	2589.204671
971.968510	2594.157605
972.266885	2591.584096
972.565223	2597.366299
972.863524	2597.991402
973.161788	2598.994592
973.460014	2598.740013
973.758204	2601.303440
974.056356	2602.924171
974.354471	2601.394181
974.652550	2601.537854
974.950591	2600.791763
975.248595	2603.138420
975.546563	2598.550970
975.844493	2599.055086
976.142386	2596.305136
976.440243	2594.457553
976.738062	2590.855649
977.035845	2589.378591
977.333590	2590.908581
977.631299	2586.285843
977.928971	2584.942375
978.226606	2582.162179
978.524204	2581.416088
978.821765	2580.566654
979.119290	2580.128073
979.416777	2577.489029
979.714228	2579.618917
980.011642	2579.248392
980.309020	2586.580750
980.606360	2591.019486
980.903664	2598.394694
981.200931	2611.763834
981.498162	2629.637245
981.795356	2658.926349
982.092513	2693.934642
982.389633	2737.535582
982.686717	2777.985800
982.983764	2807.771458
983.280775	2826.436330
983.577749	2826.257369
983.874686	2813.649443
984.171587	2800.998667
984.468451	2784.506533
984.765279	2766.716301
985.062070	2747.696027
985.358824	2730.515775
985.655543	2710.585573
985.952224	2688.694363
986.248869	2663.418017
986.545478	2638.824748
986.842050	2617.611573
987.138586	2596.826896
987.435086	2584.649988
987.731549	2577.357959
988.027975	2571.923596
988.324366	2566.882442
988.620719	2559.343396
988.917037	2556.049002
989.213318	2552.878116
989.509563	2552.333672
989.805772	2549.256047
990.101944	2549.762683
990.398080	2547.305121
990.694180	2548.041129
990.990244	2549.624052
991.286271	2546.211190
991.582262	2546.349822
991.878217	2548.378887
992.174136	2548.739329
992.470019	2550.410472
992.765865	2553.662016
993.061676	2552.885678
993.357450	2555.751574
993.653188	2561.987481
993.948890	2563.923284
994.244556	2572.510890
994.540186	2579.538258
994.835780	2589.920515
995.131337	2605.653956
995.426859	2621.092490
995.722345	2642.038484
996.017795	2661.020949
996.313208	2672.943277
996.608586	2678.838907
996.903928	2685.646985
997.199234	2683.290246
997.494504	2682.718075
997.789738	2675.269770
998.084936	2665.936074
998.380099	2650.991573
998.675225	2642.761889
998.970316	2628.606329
999.265371	2615.622838
999.560390	2600.869901
999.855373	2592.637697
1000.150320	2582.212591
1000.445232	2573.390571
1000.740108	2566.388409
1001.034948	2563.217523
1001.329752	2554.690411
1001.624521	2551.764021
1001.919254	2541.341436
1002.213951	2545.311344
1002.508613	2539.108205
1002.803239	2533.772143
1003.097829	2533.326001
1003.392384	2537.661393
1003.686903	2533.701567
1003.981386	2536.892617
1004.275834	2532.612678
1004.570246	2534.296423
1004.864623	2529.033459
1005.158964	2532.607637
1005.453270	2530.205527
1005.747540	2531.773326
1006.041775	2530.810465
1006.335974	2530.180321
1006.630138	2529.396422
1006.924266	2528.400794
1007.218359	2527.034641
1007.512416	2526.081863
1007.806438	2526.210413
1008.100425	2530.013963
1008.394376	2524.808972
1008.688292	2524.637573
1008.982172	2527.223684
1009.276017	2527.495907
1009.569827	2525.691174
1009.863602	2524.695546
1010.157341	2523.011800
1010.451045	2522.958868
1010.744714	2520.680267
1011.038347	2525.613036
1011.331945	2522.477438
1011.625508	2524.927439
1011.919036	2524.148581
1012.212528	2521.184382
1012.505986	2521.738909
1012.799408	2523.258817
1013.092795	2521.547345
1013.386147	2520.990298
1013.679464	2520.955010
1013.972745	2519.535925
1014.265992	2523.992305
1014.559204	2522.386697
1014.852380	2521.461646
1015.145521	2523.173117
1015.438628	2520.256810
1015.731699	2523.198323
1016.024736	2518.837725
1016.317737	2522.026255
1016.610703	2526.654034
1016.903635	2520.934845
1017.196531	2517.458969
1017.489393	2521.842253
1017.782219	2519.203209
1018.075011	2523.765453
1018.367768	2522.868128
1018.660490	2521.824609
1018.953177	2521.824609
1019.245829	2521.824609
