Dividing Wavelength (nm)	Counts (n)	Blue Motor Position (mm): 27.700000	Red Motor Position (mm): 0.000000	
326.493990	2205.393902
326.888308	2205.393902
327.282561	2205.393902
327.676750	2167.287820
328.070874	2162.816317
328.464933	2162.942346
328.858929	2168.812769
329.252859	2170.118428
329.646726	2180.483041
330.040528	2193.267407
330.434265	2205.146886
330.827938	2224.653631
331.221547	2239.048645
331.615091	2258.053795
332.008571	2278.248658
332.401986	2293.102418
332.795338	2313.009934
333.188625	2333.086329
333.581847	2351.637775
333.975006	2371.973790
334.368100	2388.619680
334.761129	2406.172978
335.154095	2424.537901
335.546996	2449.879782
335.939833	2485.056953
336.332606	2502.801815
336.725315	2515.356808
337.117960	2527.894158
337.510540	2541.338915
337.903056	2550.458362
338.295508	2560.913716
338.687896	2570.529717
339.080220	2576.863926
339.472480	2584.130750
339.864676	2588.725761
340.256807	2593.633325
340.648875	2598.939139
341.040879	2600.149016
341.432818	2604.534820
341.824694	2604.249995
342.216506	2607.448607
342.608253	2605.921137
342.999937	2607.113370
343.391557	2607.183946
343.783113	2607.259563
344.174605	2606.190839
344.566033	2608.590428
344.957397	2605.545571
345.348697	2602.241095
345.739934	2599.261773
346.131106	2601.177411
346.522215	2595.977461
346.913260	2598.467791
347.304241	2595.637183
347.695159	2592.786411
348.086012	2592.330186
348.476802	2585.433888
348.867528	2583.271233
349.258191	2580.659915
349.648789	2582.613362
350.039324	2576.783268
350.429796	2581.617734
350.820203	2581.952971
351.210548	2580.269226
351.600828	2576.962229
351.991045	2576.858885
352.381198	2577.373083
352.771288	2574.643298
353.161314	2575.233113
353.551276	2574.875191
353.941175	2571.979048
354.331010	2571.600962
354.720782	2571.409398
355.110490	2574.751683
355.500135	2574.035839
355.889717	2573.468709
356.279235	2572.551219
356.668689	2569.977710
357.058080	2572.520972
357.447408	2572.296641
357.836672	2572.354614
358.225873	2575.457444
358.615010	2573.398133
359.004084	2575.157496
359.393095	2576.720253
359.782043	2573.955181
360.170927	2576.511046
360.559748	2574.988617
360.948505	2579.087075
361.337199	2578.056159
361.725830	2579.858372
362.114398	2580.392734
362.502903	2579.933989
362.891344	2580.780903
363.279722	2579.576067
363.668037	2579.447518
364.056289	2580.657395
364.444478	2582.328537
364.832603	2582.696541
365.220665	2582.028588
365.608665	2583.465317
365.996601	2584.183682
366.384474	2584.692838
366.772284	2585.333065
367.160031	2584.213929
367.547715	2584.649988
367.935336	2583.150245
368.322893	2582.610842
368.710388	2583.049422
369.097820	2585.212077
369.485189	2586.585792
369.872495	2583.770307
370.259738	2587.846080
370.646918	2585.385997
371.034035	2587.833477
371.421090	2588.420772
371.808081	2587.594022
372.195010	2588.453539
372.581875	2590.011256
372.968678	2591.662233
373.355418	2589.401276
373.742096	2588.950093
374.128710	2588.826584
374.515262	2589.660895
374.901751	2591.256421
375.288177	2589.844897
375.674540	2590.901019
376.060841	2592.390680
376.447079	2591.122830
376.833254	2593.754312
377.219367	2591.947059
377.605417	2593.063674
377.991404	2592.587285
378.377329	2592.625094
378.763191	2592.168869
379.148991	2593.648448
379.534727	2595.831268
379.920402	2594.046699
380.306013	2593.638366
380.691563	2597.005857
381.077049	2596.060640
381.462474	2597.555342
381.847835	2593.587954
382.233134	2595.153233
382.618371	2595.667430
383.003545	2594.205496
383.388657	2599.060127
383.773706	2597.782194
384.158693	2598.417380
384.543618	2598.170363
384.928480	2597.986361
385.313280	2596.300095
385.698017	2597.005857
386.082692	2599.823862
386.467305	2599.488625
386.851856	2599.039962
387.236344	2600.179263
387.620770	2598.248501
388.005133	2597.298243
388.389435	2598.631629
388.773674	2596.521906
389.157851	2603.776126
389.541965	2604.257556
389.926018	2600.564911
390.310008	2602.520879
390.693936	2603.090529
391.077802	2602.467947
391.461606	2601.031218
391.845348	2602.213368
392.229027	2607.625047
392.612645	2604.857454
392.996200	2604.731425
393.379694	2608.033381
393.763125	2606.064810
394.146494	2603.952567
394.529801	2606.450458
394.913047	2605.084306
395.296230	2606.339553
395.679351	2604.539861
396.062410	2607.647732
396.445408	2606.964656
396.828343	2608.908021
397.211217	2605.835438
397.594028	2609.175202
397.976778	2608.030860
398.359466	2608.282918
398.742092	2607.183946
399.124656	2608.038422
399.507158	2608.260232
399.889598	2611.910028
400.271977	2610.470778
400.654294	2612.542693
401.036549	2609.830552
401.418742	2611.012702
401.800874	2610.485902
402.182944	2612.706530
402.564952	2611.249637
402.946898	2612.305758
403.328783	2613.492950
403.710606	2612.197374
404.092367	2611.080758
404.474067	2614.259206
404.855705	2615.315327
405.237282	2614.591922
405.618797	2614.264247
406.000250	2613.271139
406.381642	2615.330451
406.762972	2611.451283
407.144240	2612.315841
407.525447	2613.724843
407.906593	2613.185440
408.287677	2617.848507
408.668700	2613.850872
409.049661	2614.284411
409.430560	2616.996552
409.811399	2618.589557
410.192176	2617.422530
410.572891	2616.986470
410.953545	2617.104937
411.334138	2619.842283
411.714669	2619.136522
412.095139	2617.972015
412.475547	2621.465535
412.855894	2621.117695
413.236180	2623.040896
413.616405	2621.105092
413.996568	2621.021913
414.376670	2620.459825
414.756711	2624.180196
415.136691	2622.993005
415.516609	2622.244393
415.896466	2620.958899
416.276262	2621.808333
416.655997	2624.245731
417.035670	2624.671709
417.415283	2623.618108
417.794834	2623.587861
418.174324	2626.390742
418.553753	2626.040382
418.933121	2628.618932
419.312428	2626.897378
419.691674	2627.535084
420.070859	2627.038531
420.449983	2627.570372
420.829045	2629.304529
421.208047	2631.320991
421.586988	2629.901906
421.965867	2632.170425
422.344686	2632.329222
422.723444	2633.287041
423.102141	2631.210085
423.480777	2635.041362
423.859352	2633.594551
424.237866	2633.927267
424.616319	2636.442803
424.994712	2637.052783
425.373044	2634.287710
425.751314	2635.832823
426.129524	2631.777215
426.507673	2635.429531
426.885762	2635.124541
427.263789	2640.722743
427.641756	2640.695016
428.019662	2638.789460
428.397508	2642.741725
428.775292	2641.204173
429.153016	2641.821714
429.530679	2644.183495
429.908282	2644.032260
430.285824	2646.446973
430.663305	2648.995276
431.040726	2647.026706
431.418086	2646.310862
431.795385	2651.248672
432.172624	2651.505771
432.549802	2652.292191
432.926920	2653.653302
433.303977	2657.257727
433.680974	2662.210661
434.057910	2664.693429
434.434786	2670.316836
434.811601	2670.589059
435.188355	2673.951508
435.565050	2679.365707
435.941683	2683.922911
436.318257	2695.000846
436.694770	2703.830427
437.071222	2712.554144
437.447614	2721.872717
437.823946	2731.382853
438.200218	2745.568660
438.576429	2759.262955
438.952580	2780.037550
439.328670	2794.488017
439.704700	2814.400575
440.080670	2837.448730
440.456580	2875.895090
440.832429	2900.253946
441.208218	2916.519228
441.583947	2956.056998
441.959616	2997.896054
442.335224	3026.123995
442.710773	3077.258939
443.086261	3132.346148
443.461689	3141.629433
443.837057	3231.399780
444.212365	3306.941470
444.587612	3340.467664
444.962800	3422.111671
445.337927	3466.945173
445.712995	3492.513905
446.088002	3681.128676
446.462949	3721.057135
446.837837	3794.819298
447.212664	3877.864746
447.587431	4040.656207
447.962139	4246.342846
448.336786	4732.214294
448.711374	4999.647506
449.085901	4694.889591
449.460369	4701.420406
449.834776	4703.474676
450.209124	5010.710318
450.583412	5230.237445
450.957640	5604.343992
451.331808	5526.095202
451.705917	5376.181369
452.079965	5300.478362
452.453954	5695.223393
452.827883	5705.401483
453.201752	5918.238998
453.575562	5891.810749
453.949311	6155.657180
454.323001	6270.865189
454.696632	6484.705894
455.070202	6737.227373
455.443713	6966.017619
455.817164	7307.792727
456.190556	7454.462577
456.563888	7772.597193
456.937160	8009.856579
457.310373	7840.405754
457.683526	8014.086107
458.056619	7956.236346
458.429653	8160.284609
458.802628	8042.944192
459.175542	8362.558387
459.548398	9001.506993
459.921194	9350.566568
460.293930	9514.094037
460.666607	10188.557571
461.039224	10928.704820
461.411782	11529.272601
461.784280	11671.448263
462.156719	11891.824824
462.529099	11863.097809
462.901419	11357.810356
463.273680	11382.534695
463.645882	11432.426995
464.018024	11389.304965
464.390106	11696.384331
464.762130	12375.115202
465.134094	13022.885828
465.505999	14506.401622
465.877845	16981.880383
466.249631	19375.576505
466.621358	19486.194544
466.993026	18650.482142
467.364634	18452.629456
467.736184	17508.940580
468.107674	16996.035943
468.479105	17243.130620
468.850477	16953.889377
469.221790	16740.003301
469.593043	16313.282231
469.964238	16000.823954
470.335373	15818.235882
470.706449	16260.786175
471.077467	15966.208871
471.448425	17628.529352
471.819324	21265.679002
472.190164	23331.601821
472.560945	20369.737414
472.931667	18249.201254
473.302330	17740.319459
473.672934	17294.920914
474.043479	17757.976100
474.413965	17655.325605
474.784393	17385.407105
475.154761	18063.961536
475.525070	18165.129932
475.895321	17852.926233
476.265513	18477.124423
476.635645	19077.036854
477.005719	18945.855948
477.375734	19173.753911
477.745691	19684.044709
478.115588	20205.035356
478.485427	20743.513766
478.855207	21784.421294
479.224928	23498.600125
479.594591	25698.032863
479.964194	25851.909043
480.333739	26109.426305
480.703226	25718.893157
481.072653	25416.159266
481.442022	25974.734236
481.811333	26878.761834
482.180584	26853.863575
482.549777	25952.550638
482.918912	25597.812204
483.287988	25717.378291
483.657005	25452.279133
484.025964	25173.669684
484.394864	25148.405941
484.763706	24879.049529
485.132489	24310.079701
485.501213	24477.778724
485.869879	24409.093003
486.238487	24197.956877
486.607036	24377.568148
486.975527	24063.907555
487.343959	24401.556478
487.712333	24373.910791
488.080648	24051.387850
488.448905	24507.314845
488.817104	24261.722432
489.185244	24921.813637
489.553326	24902.924434
489.921350	25848.012231
490.289315	28084.850330
490.657222	29914.728683
491.025070	30412.406514
491.392861	30220.857791
491.760593	29390.715864
492.128267	28505.527057
492.495883	27467.949211
492.863440	26602.531809
493.230939	25712.995007
493.598380	25569.924541
493.965763	25162.425390
494.333088	24739.712037
494.700354	24656.331352
495.067563	24555.236053
495.434713	24299.720129
495.801805	24442.788076
496.168839	24277.004690
496.535815	24088.589045
496.902733	24306.273629
497.269593	23971.266271
497.636395	24168.698020
498.003139	24148.573734
498.369825	23892.094950
498.736453	24083.971348
499.103023	23975.095027
499.469535	23997.979345
499.835989	24193.903790
500.202385	24224.939653
500.568723	23722.359300
500.935003	23995.305013
501.301226	23586.918620
501.667390	24407.124433
502.033497	24648.242821
502.399546	24387.088367
502.765537	23972.435819
503.131470	24360.087947
503.497345	24490.076619
503.863163	23697.133366
504.228923	24323.123686
504.594625	24507.042622
504.960269	24014.035420
505.325856	24525.100036
505.691385	23927.836731
506.056856	24535.489854
506.422270	24511.027655
506.787625	24109.025882
507.152924	24505.545400
507.518164	24530.340315
507.883347	24333.281611
508.248472	24028.377503
508.613540	24803.212932
508.978550	24588.603451
509.343503	24562.369286
509.708398	24839.000083
510.073236	25007.876216
510.438016	25212.204264
510.802738	24893.273145
511.167403	25134.696523
511.532010	24817.219777
511.896561	25609.827794
512.261053	25592.120741
512.625488	25424.830051
512.989866	25311.477186
513.354186	25185.894482
513.718449	25259.616316
514.082655	25641.871888
514.446803	25386.305553
514.810894	25829.390208
515.174927	25318.645707
515.538904	25354.780697
515.902822	25844.165830
516.266684	25613.404492
516.630488	25495.549877
516.994235	25501.939540
517.357925	25773.486333
517.721558	25980.312272
518.085133	26061.686578
518.448651	25997.190055
518.812112	25690.723190
519.175516	25892.560907
519.538863	26061.253038
519.902152	25836.200807
520.265385	26144.411912
520.628560	25922.384373
520.991678	25938.853823
521.354739	26005.321437
521.717743	26065.961476
522.080690	25852.214032
522.443580	26191.355137
522.806413	26196.413935
523.169189	26288.389787
523.531908	26334.536509
523.894569	25936.292917
524.257174	26014.826532
524.619722	26208.253085
524.982213	25891.383798
525.344647	25967.038914
525.707025	26089.463335
526.069345	26070.909369
526.431608	26031.346393
526.793815	26222.484262
527.155964	25680.051067
527.518057	25835.883215
527.880093	25774.144203
528.242072	25993.641083
528.603995	25710.282867
528.965860	25508.041857
529.327669	25547.186416
529.689421	25545.361518
530.051117	25369.074889
530.412755	25553.558435
530.774337	25357.031572
531.135862	25219.682815
531.497331	25431.933036
531.858743	24974.649971
532.220098	25450.103875
532.581396	25136.476051
532.942638	25080.625107
533.303824	25155.203937
533.664953	25188.684760
534.026025	24854.990623
534.387040	25089.588279
534.747999	25140.980322
535.108902	25312.190509
535.469748	24801.980369
535.830537	24997.499001
536.191270	25107.431443
536.551947	25009.769169
536.912567	24661.354862
537.273131	24978.650127
537.633638	24696.587487
537.994089	24904.114146
538.354483	24453.462719
538.714821	24943.692245
539.075103	24991.623536
539.435328	24769.469968
539.795497	24329.818338
540.155609	24737.037705
540.515665	25024.862384
540.875665	24256.857719
541.235609	24546.474528
541.595496	24524.711867
541.955328	24882.164962
542.315102	24786.123420
542.674821	24354.308264
543.034483	24230.263112
543.394090	24399.224945
543.753640	24178.245966
544.113134	24816.060312
544.472571	24430.094450
544.831953	24708.081317
545.191278	24313.364012
545.550548	24250.213478
545.909761	24451.035403
546.268918	24685.199520
546.628019	24650.160980
546.987064	24340.621531
547.346053	24106.618731
547.704986	24243.027313
548.063863	24387.577359
548.422684	24380.842377
548.781449	23932.913173
549.140158	24344.762839
549.498811	23924.809518
549.857408	23653.852540
550.215949	24079.845163
550.574434	23772.365026
550.932864	23990.089940
551.291237	24131.131342
551.649555	24011.030893
552.007817	24054.399939
552.366022	23928.867647
552.724173	23966.139418
553.082267	23910.658999
553.440305	24375.322314
553.798288	23656.952849
554.156215	24168.037629
554.514086	24261.820735
554.871902	23630.234734
555.229661	23909.993567
555.587365	23782.086891
555.945014	23621.195945
556.302606	23888.288879
556.660143	23823.457120
557.017625	24074.509102
557.375050	23613.213278
557.732421	24007.923021
558.089735	23813.730213
558.446994	23880.097004
558.804197	23898.751794
559.161345	23862.021947
559.518437	23592.945319
559.875474	23802.765704
560.232455	23977.071160
560.589381	23812.585872
560.946251	23782.946407
561.303065	24113.784732
561.659825	24188.850033
562.016528	23794.349497
562.373177	23538.337020
562.729770	23890.844744
563.086307	23754.589917
563.442789	23920.645525
563.799216	23743.829574
564.155587	23761.662656
564.511904	23737.414706
564.868164	23666.278984
565.224370	23663.413088
565.580520	23573.322628
565.936615	23704.624521
566.292654	23378.114027
566.648638	23692.339229
567.004567	23507.225539
567.360441	23471.534170
567.716260	23189.128731
568.072023	23508.080015
568.427732	23272.166618
568.783385	23060.896901
569.138982	23288.585656
569.494525	23334.051822
569.850013	23077.162184
570.205445	23176.311598
570.560823	22977.223829
570.916145	22732.201067
571.271412	22924.563936
571.626625	22672.216378
571.981782	22790.905304
572.336884	22592.238472
572.691931	22720.210683
573.046923	22461.392803
573.401860	22338.681036
573.756743	22339.900996
574.111570	22260.772524
574.466342	22194.062935
574.821059	22281.544599
575.175722	21969.678657
575.530330	21970.979275
575.884882	21993.175475
576.239380	21898.978995
576.593823	21796.925877
576.948211	21769.907812
577.302544	21615.298145
577.656823	21478.342597
578.011047	21581.671128
578.365216	21458.311573
578.719330	21345.677072
579.073389	21233.100545
579.427394	21375.523224
579.781344	21155.202115
580.135239	21051.755118
580.489080	21011.561998
580.842866	20770.110894
581.196597	20968.389557
581.550273	20943.443407
581.903895	20835.035914
582.257463	21149.493009
582.610975	20678.429949
582.964434	20992.052733
583.317837	20689.099551
583.671186	20793.000253
584.024481	20751.342678
584.377721	20536.392919
584.730906	20585.319838
585.084037	20609.023343
585.437113	20514.297542
585.790135	20717.357739
586.143103	20183.721358
586.496016	20203.328926
586.848874	20443.134093
587.201679	20371.950481
587.554428	20039.090654
587.907124	20373.208248
588.259765	20164.635549
588.612352	20231.670292
588.964884	19798.783891
589.317362	19975.322578
589.669786	20034.170488
590.022155	20069.171219
590.374470	20253.727861
590.726731	20065.128213
591.078937	19812.969698
591.431090	19913.389483
591.783188	19655.766357
592.135232	19641.081475
592.487222	19726.856708
592.839157	19750.179606
593.191038	19631.614188
593.542866	19531.511997
593.894639	19246.308718
594.246358	19463.295103
594.598022	19368.803715
594.949633	19120.423544
595.301190	19089.349872
595.652692	19250.628987
596.004141	19490.383743
596.355535	18817.697215
596.706876	18828.190377
597.058162	18723.629284
597.409395	18953.389953
597.760573	19028.011633
598.111698	18805.200194
598.462768	18748.005783
598.813785	18709.814002
599.164748	18530.636271
599.515657	18560.086692
599.866511	18359.473974
600.217312	18713.781390
600.568060	18244.276047
600.918753	18554.208706
601.269392	18455.412173
601.619978	18234.571826
601.970510	18450.295402
602.320988	18380.702273
602.671412	18601.729143
603.021783	18495.633019
603.372100	18240.427126
603.722363	18372.419657
604.072572	18314.416141
604.422728	18459.142627
604.772830	18216.774032
605.122878	18166.952309
605.472872	18148.456315
605.822813	18137.612793
606.172701	18106.012321
606.522534	18306.551941
606.872314	18333.257454
607.222041	18168.147062
607.571714	18381.070277
607.921333	18208.269606
608.270899	18275.909288
608.620411	18466.245613
608.969870	18231.363132
609.319276	18236.646261
609.668627	18268.864275
610.017926	18393.854643
610.367171	18516.153036
610.716362	18559.630467
611.065500	18374.819247
611.414585	18505.261623
611.763616	18486.180856
612.112594	18436.185212
612.461518	18406.976767
612.810389	18603.133104
613.159207	18451.918653
613.507971	18363.108646
613.856682	18640.994690
614.205340	18570.088341
614.553945	18714.151915
614.902496	18449.945042
615.250994	18688.021094
615.599439	18638.423702
615.947830	18625.397360
616.296169	18668.794133
616.644454	18636.384555
616.992686	18611.624928
617.340864	18813.243355
617.688990	18582.439168
618.037063	18751.791690
618.385082	18596.612372
618.733048	18884.807575
619.080961	18746.410258
619.428821	18789.378533
619.776628	18682.622018
620.124382	18599.042208
620.472083	18635.600656
620.819731	18664.191560
621.167326	18354.200927
621.514868	18395.379592
621.862357	18157.172470
622.209793	18174.960182
622.557176	18001.738574
622.904506	17832.718768
623.251783	17738.590343
623.599007	17507.937390
623.946179	17448.915561
624.293297	17400.044095
624.640363	17145.024725
624.987376	17171.077408
625.334336	16961.531766
625.681243	16805.016542
626.028097	16811.363354
626.374899	16744.031183
626.721647	16612.343642
627.068343	16446.429186
627.414987	16373.576952
627.761577	16351.910072
628.108115	16394.127215
628.454600	16117.405678
628.801032	16220.373766
629.147412	16142.828217
629.493739	16162.342523
629.840014	15968.190044
630.186236	16073.575366
630.532405	15837.651886
630.878521	16031.985846
631.224585	15928.347285
631.570597	15748.332722
631.916556	15788.886284
632.262462	15766.964827
632.608316	15678.290931
632.954117	15616.680469
633.299866	15621.464524
633.645562	15534.635690
633.991206	15295.778259
634.336797	15168.882335
634.682336	15131.693743
635.027823	15018.323234
635.373257	14903.568928
635.718639	14792.318225
636.063968	14749.917080
636.409245	14509.234751
636.754470	14532.852557
637.099642	14379.709865
637.444762	14146.087672
637.789829	14192.267162
638.134845	14034.511814
638.479808	14054.333631
638.824719	14010.583977
639.169577	13859.074619
639.514383	13909.032453
639.859137	13724.884145
640.203839	13810.624089
640.548489	13656.137930
640.893086	13635.123880
641.237632	13508.963964
641.582125	13653.745902
641.926566	13487.090397
642.270955	13493.109535
642.615292	13460.566366
642.959576	13467.913848
643.303809	13505.997245
643.647990	13433.888580
643.992118	13492.638187
644.336195	13270.456893
644.680219	13474.162358
645.024192	13397.100760
645.368112	13638.509015
645.711981	13691.627653
646.055797	13873.073903
646.399562	13842.756404
646.743274	14103.681486
647.086935	14384.206574
647.430544	14353.332027
647.774101	14378.822622
648.117606	14534.765675
648.461059	14501.713349
648.804460	14493.733203
649.147810	14224.182707
649.491108	14115.134987
649.834354	14140.880160
650.177548	13833.352131
650.520690	13635.590187
650.863781	13559.839288
651.206820	13602.273201
651.549807	13435.509311
651.892742	13242.463366
652.235626	13174.107840
652.578458	13181.621680
652.921238	12869.871685
653.263967	13065.667580
653.606644	12898.470151
653.949269	12864.903628
654.291843	12675.300790
654.634365	12820.813696
654.976836	12683.006194
655.319255	12692.178573
655.661622	12645.875575
656.003938	12566.764748
656.346203	12491.356648
656.688416	12562.638564
657.030577	12528.545240
657.372687	12446.293774
657.714746	12414.345462
658.056753	12606.589863
658.398708	12416.157756
658.740612	12429.042946
659.082465	12529.467771
659.424266	12497.469047
659.766016	12520.023170
660.107715	12422.895258
660.449362	12500.438287
660.790958	12458.954632
661.132503	12409.324472
661.473996	12467.022999
661.815438	12484.427582
662.156829	12501.580108
662.498168	12485.403046
662.839456	12482.753919
663.180693	12497.332936
663.521879	12578.004001
663.863013	12568.884553
664.204097	12543.633414
664.545129	12659.761434
664.886110	12632.662711
665.227040	12724.948594
665.567918	12721.475239
665.908746	12757.431269
666.249522	12740.082138
666.590248	12789.077112
666.930922	12901.751942
667.271545	12881.965413
667.612118	12965.986324
667.952639	12874.234803
668.293109	12889.106207
668.633528	12840.953106
668.973896	12816.042244
669.314213	12899.949729
669.654480	12644.562355
669.994695	12707.574257
670.334859	12724.043707
670.674973	12675.046212
671.015035	12715.514075
671.355047	12655.799087
671.695008	12624.377575
672.034918	12634.507773
672.374777	12677.823888
672.714585	12589.041607
673.054342	12623.543264
673.394049	12576.121130
673.733705	12671.852641
674.073310	12573.474524
674.412864	12592.809869
674.752368	12458.551340
675.091820	12475.419040
675.431223	12465.636681
675.770574	12334.924603
676.109875	12254.472829
676.449125	12216.402035
676.788324	12158.542192
677.127473	11991.864002
677.466571	11984.987868
677.805619	11883.789225
678.144616	11798.104733
678.483562	11770.464087
678.822458	11643.096814
679.161303	11621.523196
679.500098	11612.282761
679.838842	11560.489947
680.177535	11586.051117
680.516179	11645.100673
680.854771	11599.490833
681.193314	11810.798358
681.531805	11961.906945
681.870247	12377.512271
682.208638	12778.694856
682.546978	13097.754524
682.885268	13157.708967
683.223508	12845.447294
683.561697	12690.910723
683.899836	12591.073192
684.237925	12388.159188
684.575963	12297.854478
684.913951	12231.119684
685.251889	12173.751353
685.589776	12277.213474
685.927614	12201.792771
686.265401	12162.234837
686.603137	12211.131509
686.940824	12364.584232
687.278460	12481.153353
687.616046	12528.177236
687.953582	12699.468082
688.291068	12625.456382
688.628504	12862.667876
688.965889	12879.165052
689.303224	12841.583250
689.640510	12728.374058
689.977745	12423.827872
690.314930	12208.971374
690.652065	12106.716610
690.989150	11820.585759
691.326185	11596.055287
691.663170	11393.542055
692.000105	11152.320322
692.336990	11040.333610
692.673825	10788.646443
693.010610	10656.553089
693.347345	10459.907759
693.684030	10258.866544
694.020665	10199.708604
694.357251	10005.523357
694.693786	9949.543865
695.030272	9779.034397
695.366707	9666.074743
695.703093	9595.231408
696.039429	9593.572868
696.375716	9516.387762
696.711952	9382.663594
697.048139	9424.979039
697.384276	9381.315085
697.720363	9401.482221
698.056400	9337.197428
698.392388	9285.208008
698.728326	9247.989169
699.064214	9187.747381
699.400053	9232.580882
699.735842	9045.060042
700.071581	9005.222323
700.407270	8930.368750
700.742910	8851.104168
701.078501	8760.290302
701.414042	8629.986557
701.749533	8570.329543
702.084974	8428.857122
702.420366	8546.323568
702.755709	8430.187986
703.091002	8295.037172
703.426246	8321.646903
703.761440	8272.765355
704.096584	8231.017039
704.431679	8164.201586
704.766725	8149.630131
705.101721	8096.123324
705.436668	8144.427660
705.771565	8040.622741
706.106413	8113.918597
706.441212	8156.970051
706.775961	8110.714944
707.110661	8152.269175
707.445311	8294.724621
707.779913	8192.348868
708.114465	8325.669744
708.448967	8359.369857
708.783421	8495.322215
709.117825	8683.601749
709.452180	8718.678097
709.786485	8805.655645
710.120742	9089.722144
710.454949	9087.604859
710.789107	9189.138739
711.123216	9394.510306
711.457275	9567.825175
711.791286	9730.152849
712.125247	9717.242454
712.459159	9708.206186
712.793023	9965.063057
713.126837	9531.039875
713.460602	9687.222383
713.794318	9512.904324
714.127985	9544.371207
714.461602	9223.302639
714.795171	9170.559567
715.128691	8925.123430
715.462162	8674.550357
715.795584	8615.137839
716.128957	8477.234555
716.462281	8301.414232
716.795556	8354.674022
717.128782	8145.067887
717.461960	7882.605253
717.795088	7956.982437
718.128167	7858.087601
718.461198	7697.393260
718.794180	7636.430587
719.127113	7633.857078
719.459997	7474.964950
719.792833	7243.906184
720.125619	7313.521998
720.458357	7172.248702
720.791046	7157.462998
721.123686	7153.057030
721.456278	6997.608010
721.788821	7015.715834
722.121315	6906.632827
722.453761	6971.086499
722.786158	6918.678664
723.118506	6926.774757
723.450805	6894.269397
723.783056	6967.293031
724.115259	6871.947168
724.447412	6868.254523
724.779518	6915.076760
725.111574	6912.183137
725.443582	6996.201528
725.775542	6974.007848
726.107453	7166.685789
726.439315	7080.502223
726.771129	7140.076059
727.102895	7307.525545
727.434612	7422.912516
727.766281	7452.715817
728.097901	7532.000564
728.429473	7523.402877
728.760996	7498.192066
729.092471	7475.103582
729.423897	7424.573576
729.755276	7433.171264
730.086606	7362.075871
730.417887	7452.632638
730.749120	7656.363309
731.080305	7843.029674
731.411442	7963.440155
731.742530	7963.619116
732.073570	8067.595434
732.404562	8153.201788
732.735506	7996.825196
733.066401	8147.477558
733.397249	8081.075480
733.728048	7839.732760
734.058798	7505.448807
734.389501	7279.521936
734.720156	7105.229083
735.050762	6870.102106
735.381320	6772.969153
735.711831	6726.890487
736.042293	6612.985615
736.372707	6639.681046
736.703073	6501.427401
737.033391	6538.850407
737.363661	6546.628907
737.693883	6575.212250
738.024056	6656.566390
738.354182	6704.117074
738.684260	6739.440439
739.014290	6849.110741
739.344272	6961.069727
739.674207	6990.963769
740.004093	7060.070427
740.333931	7076.902839
740.663722	7086.155877
740.993464	7159.804614
741.323159	7149.140053
741.652806	6898.400623
741.982405	6910.517036
742.311956	6968.830583
742.641460	6809.018444
742.970915	6612.824298
743.300323	6601.635458
743.629683	6553.308436
743.958996	6422.679537
744.288260	6329.622358
744.617477	6279.475480
744.946647	6288.262211
745.275768	6112.071363
745.604842	6071.618624
745.933869	6060.437345
746.262847	6014.119224
746.591778	6004.266288
746.920662	5961.839938
747.249498	5948.861487
747.578286	6002.141442
747.907027	6071.419499
748.235720	6132.790506
748.564365	6102.500733
748.892963	6133.347553
749.221514	6283.019411
749.550017	6119.121417
749.878473	5989.725080
750.206881	6050.360079
750.535242	5996.565926
750.863555	5923.872488
751.191821	5945.105828
751.520039	5940.180620
751.848210	5851.395819
752.176334	5870.947934
752.504411	5923.123876
752.832440	5849.235684
753.160421	5775.977637
753.488356	5819.651673
753.816243	5858.609710
754.144082	5710.672009
754.471875	5673.778325
754.799620	5724.973762
755.127318	5729.760338
755.454969	5687.397002
755.782572	5650.069778
756.110129	5698.230441
756.437638	5687.633936
756.765100	5624.717815
757.092515	5620.916785
757.419882	5668.021327
757.747203	5651.783770
758.074477	5713.971444
758.401703	5702.729671
758.728882	5651.995499
759.056014	5703.818560
759.383099	5837.184806
759.710138	5849.757444
760.037129	5834.139949
760.364073	5838.881154
760.690970	5921.150264
761.017820	5904.459004
761.344623	5853.261046
761.671379	5955.183094
761.998088	6077.801600
762.324751	6316.023845
762.651366	6906.766417
762.977935	8206.199439
763.304456	9838.751906
763.630931	10739.840512
763.957359	10357.297593
764.283740	9421.908977
764.610074	8592.190506
764.936362	7597.225533
765.262602	7001.300655
765.588796	6463.772503
765.914943	6128.102233
766.241044	5962.938909
766.567097	5764.244351
766.893104	5508.662892
767.219064	5325.169933
767.544978	5262.095016
767.870845	5184.201628
768.196665	5079.864867
768.522438	5007.930122
768.848165	4975.250842
769.173846	4908.629473
769.499479	4871.438361
769.825066	4815.899969
770.150607	4754.864199
770.476101	4725.577615
770.801548	4726.462338
771.126949	4654.696472
771.452303	4595.162965
771.777611	4555.037901
772.102872	4574.171601
772.428087	4538.346641
772.753256	4496.333665
773.078378	4455.795226
773.403453	4378.973083
773.728482	4370.819016
774.053465	4325.564578
774.378401	4310.456240
774.703291	4312.989420
775.028135	4238.639963
775.352932	4191.495092
775.677683	4177.896579
776.002388	4195.419630
776.327046	4209.421435
776.651658	4133.068119
776.976224	4069.123603
777.300743	4078.656425
777.625216	4096.315587
777.949643	4093.580761
778.274024	4051.005696
778.598359	4004.506093
778.922647	4026.112478
779.246889	4022.450080
779.571086	4011.268801
779.895236	3999.454857
780.219339	3983.499605
780.543397	3976.429386
780.867409	4030.190772
781.191374	4045.483112
781.515294	3982.982886
781.839167	3973.873521
782.162995	3993.551665
782.486776	3982.914831
782.810511	3990.269874
783.134201	3988.901201
783.457844	3940.669962
783.781441	3887.856313
784.104993	3892.300090
784.428498	3913.566198
784.751958	3914.105601
785.075372	3889.842528
785.398739	3853.367259
785.722061	3861.140718
786.045337	3902.838622
786.368568	3938.368675
786.691752	3850.783668
787.014891	3897.769742
787.337983	4023.725492
787.661030	4187.636088
787.984031	4343.170808
788.306987	4517.012478
788.629897	4598.711938
788.952760	4559.282553
789.275579	4487.743539
789.598351	4425.807923
789.921078	4286.006644
790.243759	4083.110284
790.566395	4062.353333
790.888984	4063.595977
791.211529	3955.382569
791.534027	3895.302097
791.856480	3881.920355
792.178888	3820.098164
792.501249	3770.135289
792.823566	3782.102988
793.145836	3811.031649
793.468062	3760.698249
793.790241	3712.242678
794.112375	3744.485898
794.434464	3804.725166
794.756507	3830.155266
795.078505	3811.258501
795.400457	3842.569108
795.722364	3980.469871
796.044226	4084.330243
796.366042	4160.968385
796.687812	4139.238491
797.009538	4146.868277
797.331218	4103.912605
797.652852	4075.029314
797.974442	4062.060946
798.295986	4055.336047
798.617484	3978.254284
798.938938	3891.596849
799.260346	3930.633024
799.581709	3929.644958
799.903026	3853.500850
800.224299	3817.522135
800.545526	3809.453768
800.866708	3774.130403
801.187845	3711.103377
801.508936	3746.088985
801.829983	3746.449427
802.150984	3665.556552
802.471940	3658.471210
802.792851	3671.348838
803.113717	3668.545956
803.434538	3673.544260
803.755314	3611.868264
804.076045	3585.140066
804.396731	3605.982717
804.717372	3631.178403
805.037967	3618.605766
805.358518	3609.904734
805.679024	3635.281903
805.999485	3647.897390
806.319901	3651.600118
806.640272	3665.566634
806.960598	3678.550126
807.280879	3654.415602
807.601115	3668.719876
807.921306	3683.513142
808.241453	3721.011765
808.561554	3700.668189
808.881611	3634.223260
809.201623	3669.269362
809.521590	3681.501722
809.841513	3653.185561
810.161390	3681.594983
810.481223	3662.846932
810.801011	3606.688478
811.120755	3597.836212
811.440453	3631.218733
811.760107	3638.420021
812.079716	3595.590378
812.399281	3561.736509
812.718801	3584.966146
813.038276	3560.025037
813.357707	3557.431364
813.677093	3574.251174
813.996434	3525.669574
814.315731	3529.788197
814.634983	3533.811038
814.954191	3550.507339
815.273354	3576.822162
815.592473	3574.150351
815.911547	3579.912389
816.230577	3619.029223
816.549562	3672.631812
816.868502	3710.826114
817.187399	3734.138930
817.506250	3732.987026
817.825058	3704.529713
818.143821	3794.163948
818.462539	3898.510792
818.781213	3944.841516
819.099843	4000.077439
819.418429	4238.566866
819.736970	4486.705061
820.055466	4728.894695
820.373919	5090.642853
820.692327	5496.054966
821.010691	5933.271719
821.329011	7296.724873
821.647286	10011.857567
821.965517	14533.419687
822.283704	18551.844405
822.601847	20726.527598
822.919945	18929.683927
823.237999	16374.552415
823.556010	13895.383529
823.873976	11814.014615
824.191897	9731.251821
824.509775	8386.995380
824.827609	7263.143227
825.145398	6721.199024
825.463144	6598.570436
825.780845	6709.664864
826.098502	6893.881228
826.416116	7765.353055
826.733685	9078.432480
827.051210	10186.117653
827.368692	10240.115972
827.686129	8998.746961
828.003522	7488.997002
828.320872	6475.495706
828.638177	5776.267503
828.955439	5221.133121
829.272656	4728.347729
829.589830	4440.394501
829.906960	4269.454015
830.224046	4083.150613
830.541088	3961.149649
830.858086	3915.519645
831.175041	3835.110721
831.491952	3819.546158
831.808819	3831.695339
832.125642	3900.769229
832.442421	4047.693658
832.759157	4322.315555
833.075849	4864.398389
833.392497	5720.421601
833.709101	6497.714592
834.025662	6830.556774
834.342179	6474.132074
834.658653	5819.109749
834.975083	5180.156102
835.291469	4601.209829
835.607811	4191.974001
835.924110	4052.220614
836.240366	3855.756766
836.556578	3649.203049
836.872746	3543.351421
837.188871	3503.521265
837.504952	3437.449382
837.820990	3356.122967
838.136984	3310.984476
838.452935	3334.745954
838.768842	3329.591375
839.084706	3353.141125
839.400526	3510.533510
839.716303	3844.711598
840.032037	4360.434239
840.347727	4631.471876
840.663373	4356.035833
840.978977	3978.037514
841.294537	3668.626615
841.610054	3443.405505
841.925527	3335.643280
842.240957	3265.062085
842.556344	3212.865978
842.871687	3155.835404
843.186987	3108.841768
843.502244	3069.356931
843.817458	3034.230171
844.132629	3002.032321
844.447756	3011.872653
844.762840	3000.162053
845.077881	2964.697536
845.392879	2950.163889
845.707833	2945.031995
846.022745	2942.897066
846.337613	2942.715584
846.652438	2931.425920
846.967221	2928.915426
847.281960	2915.079979
847.596656	2912.254412
847.911309	2910.721902
848.225919	2905.680748
848.540485	2899.404511
848.855009	2900.987433
849.169490	2892.780435
849.483928	2880.180071
849.798323	2880.061604
850.112675	2878.186295
850.426984	2888.644168
850.741251	2886.748694
851.055474	2873.964328
851.369654	2872.293186
851.683792	2875.459030
851.997887	2882.743498
852.311938	2885.551420
852.625947	2873.356869
852.939914	2876.631099
853.253837	2883.769373
853.567718	2866.899151
853.881555	2863.544263
854.195350	2878.665204
854.509103	2876.230327
854.822812	2868.860160
855.136479	2865.979141
855.450103	2866.747917
855.763685	2860.859849
856.077224	2857.900692
856.390720	2870.763196
856.704173	2880.192674
857.017584	2873.750079
857.330953	2872.091540
857.644278	2878.390461
857.957561	2885.881616
858.270802	2890.085938
858.584000	2890.181720
858.897155	2879.368445
859.210268	2876.341232
859.523339	2878.453476
859.836367	2874.871736
860.149352	2870.788401
860.462295	2864.434027
860.775195	2873.387116
861.088054	2869.780171
861.400869	2854.472707
861.713642	2855.654857
862.026373	2867.340252
862.339062	2871.441231
862.651708	2874.334853
862.964312	2876.646222
863.276873	2871.700850
863.589392	2881.664691
863.901869	2896.410066
864.214303	2918.659198
864.526696	2934.064964
864.839045	2930.828544
865.151353	2926.553645
865.463619	2925.003490
865.775842	2925.074067
866.088023	2944.666511
866.400162	2953.498613
866.712258	2923.486103
867.024313	2911.147879
867.336325	2921.177255
867.648296	2940.442024
867.960224	2932.277875
868.272110	2919.861513
868.583954	2927.632452
868.895755	2939.058227
869.207515	2926.656989
869.519233	2931.614964
869.830909	2939.829524
870.142542	2950.978036
870.454134	2950.804116
870.765684	2955.187399
871.077191	2949.619445
871.388657	2963.565797
871.700081	2969.983186
872.011463	2980.436018
872.322803	2985.454487
872.634101	2985.565392
872.945357	3003.272445
873.256571	3027.739685
873.567744	3021.314735
873.878874	3011.857530
874.189963	3036.854091
874.501010	3038.558001
874.812015	3028.359747
875.122979	3026.068543
875.433900	3025.009900
875.744780	3030.051054
876.055618	3037.930378
876.366415	3034.935932
876.677169	3046.636450
876.987882	3041.814587
877.298554	3036.218906
877.609183	3054.845969
877.919771	3078.594845
878.230317	3107.551233
878.540822	3156.236176
878.851285	3199.544729
879.161707	3237.217272
879.472087	3339.340966
879.782425	3562.684246
880.092722	3992.422447
880.402977	4518.020709
880.713191	5143.655627
881.023363	6287.569052
881.333494	7562.544916
881.643583	8114.475644
881.953631	7829.539547
882.263637	7199.450769
882.573602	6620.020546
882.883526	6040.108892
883.193408	5475.847501
883.503248	5015.222151
883.813048	4711.434658
884.122806	4409.590531
884.432522	4098.238787
884.742197	3863.152139
885.051831	3671.205165
885.361424	3537.143240
885.670975	3462.670274
885.980485	3376.174157
886.289954	3303.150523
886.599382	3259.030344
886.908768	3220.556258
887.218113	3175.475740
887.527417	3122.737709
887.836680	3071.433886
888.145901	3065.011456
888.455082	3056.993501
888.764221	3006.793691
889.073319	2978.036429
889.382376	2973.096098
889.691392	2978.059114
890.000366	2975.956953
890.309300	2961.750981
890.618193	2976.415698
890.927044	2993.001094
891.235855	2991.433295
891.544625	2980.463744
891.853353	2990.541011
892.162041	3008.560615
892.470687	3047.783313
892.779293	3098.144440
893.087858	3146.504229
893.396381	3214.378324
893.704864	3333.959534
894.013306	3573.898293
894.321707	3873.647821
894.630068	4079.357145
894.938387	4074.671393
895.246665	4027.224052
895.554903	3909.361876
895.863100	3710.606823
896.171256	3543.021226
896.479371	3407.633477
896.787446	3287.691824
897.095480	3181.671318
897.403473	3121.300980
897.711425	3081.662387
898.019336	3075.602920
898.327207	3045.043446
898.635038	3009.321830
898.942827	2995.037720
899.250576	2985.144456
899.558284	2954.080866
899.865952	2934.337187
900.173579	2911.770462
900.481165	2907.949267
900.788711	2895.613563
901.096216	2871.710932
901.403681	2855.100331
901.711105	2865.749768
902.018489	2864.421424
902.325832	2861.542925
902.633135	2874.312168
902.940397	2906.431880
903.247619	2985.393993
903.554800	3177.038497
903.861941	3514.168182
904.169041	3939.485290
904.476101	4237.762802
904.783121	4200.054971
905.090100	3956.277374
905.397039	3679.603727
905.703938	3435.765636
906.010796	3253.006165
906.317614	3138.965183
906.624391	3047.049825
906.931129	2975.062148
907.237826	2912.995462
907.544483	2866.069881
907.851099	2837.844461
908.157675	2814.690441
908.464211	2797.598409
908.770707	2783.906635
909.077163	2770.431631
909.383578	2755.668612
909.689954	2745.278794
909.996289	2741.480285
910.302584	2744.313413
910.608839	2745.306520
910.915054	2736.970972
911.221229	2730.823285
911.527363	2734.097515
911.833458	2744.293248
912.139513	2744.885584
912.445527	2746.859196
912.751502	2756.649117
913.057436	2765.617329
913.363331	2780.219031
913.669186	2802.190900
913.975000	2833.017556
914.280775	2893.791186
914.586510	2963.011270
914.892205	3040.503887
915.197859	3167.293947
915.503475	3361.625387
915.809050	3573.943663
916.114585	3717.258626
916.420081	3735.749578
916.725536	3678.464427
917.030952	3561.996129
917.336328	3437.711522
917.641665	3305.295534
917.946961	3205.770554
918.252218	3135.312867
918.557435	3058.712534
918.862612	3001.016529
919.167750	2952.147583
919.472848	2912.219124
919.777906	2885.921945
920.082925	2860.091073
920.387904	2828.525888
920.692843	2812.752118
920.997743	2800.986065
921.302603	2787.705145
921.607423	2777.950512
921.912204	2764.493152
922.216946	2755.272882
922.521647	2745.649319
922.826310	2738.369893
923.130932	2730.596433
923.435516	2722.109651
923.740059	2719.324413
924.044564	2709.121118
924.349028	2702.292875
924.653454	2693.556556
924.957840	2688.008766
925.262186	2683.738908
925.566493	2682.960050
925.870761	2675.521828
926.174989	2670.931857
926.479178	2670.460509
926.783328	2661.179745
927.087438	2660.726041
927.391509	2661.550270
927.695541	2656.967861
927.999533	2653.454177
928.303486	2650.469814
928.607400	2651.969557
928.911275	2650.368991
929.215110	2647.651809
929.518906	2648.889412
929.822663	2649.776655
930.126381	2645.499236
930.430060	2649.126346
930.733699	2650.618528
931.037299	2652.549290
931.340861	2651.730102
931.644383	2651.581388
931.947866	2651.296563
932.251309	2648.738177
932.554714	2649.897643
932.858080	2648.473517
933.161407	2641.642753
933.464694	2644.080151
933.767943	2640.679893
934.071153	2641.385654
934.374323	2640.669811
934.677455	2642.096457
934.980548	2639.336425
935.283602	2639.066724
935.586617	2641.131076
935.889593	2641.030253
936.192530	2641.277270
936.495428	2640.442959
936.798287	2641.741056
937.101108	2645.032929
937.403890	2649.630462
937.706632	2655.309321
938.009336	2660.138747
938.312002	2670.354645
938.614628	2677.339164
938.917216	2684.633713
939.219765	2685.528518
939.522275	2683.738908
939.824747	2682.385359
940.127179	2679.252282
940.429573	2676.414112
940.731929	2674.110305
941.034246	2669.359017
941.336524	2668.716270
941.638763	2665.684016
941.940964	2660.363078
942.243126	2660.869714
942.545250	2660.574807
942.847335	2655.636996
943.149381	2653.827222
943.451389	2647.094761
943.753359	2648.097951
944.055290	2646.325985
944.357182	2644.344812
944.659036	2646.452014
944.960851	2642.779533
945.262628	2641.463792
945.564367	2640.984883
945.866067	2645.158958
946.167729	2641.673000
946.469352	2642.119142
946.770937	2642.295583
947.072484	2641.131076
947.373992	2644.087713
947.675462	2638.073616
947.976893	2632.566156
948.278286	2633.884417
948.579641	2633.571866
948.880958	2631.651186
949.182236	2633.319808
949.483476	2630.239663
949.784678	2633.907103
950.085841	2633.992802
950.386967	2631.963738
950.688054	2634.199490
950.989103	2634.771661
951.290114	2635.401805
951.591087	2638.975983
951.892021	2639.333905
952.192917	2642.353556
952.493776	2643.616365
952.794596	2644.738022
953.095378	2645.819349
953.396122	2643.878505
953.696828	2647.334216
953.997496	2640.478247
954.298126	2639.555716
954.598718	2638.469347
954.899272	2635.389202
955.199788	2633.801238
955.500266	2629.085239
955.800706	2627.862759
956.101108	2625.563993
956.401472	2624.810341
956.701798	2622.456122
957.002087	2618.168620
957.302337	2618.849176
957.602550	2621.286574
957.902724	2617.331789
958.202861	2613.865996
958.502960	2614.362549
958.803022	2614.765842
959.103045	2611.940275
959.403031	2614.826335
959.702979	2610.730398
960.002889	2611.231993
960.302762	2609.744852
960.602596	2608.184615
960.902393	2607.564553
961.202153	2607.831734
961.501875	2606.894080
961.801559	2607.211672
962.101205	2608.129163
962.400814	2607.541868
962.700385	2605.595983
962.999918	2606.463061
963.299414	2604.519696
963.598873	2604.617999
963.898293	2604.635643
964.197677	2606.473143
964.497022	2605.918617
964.796331	2606.823504
965.095601	2607.226796
965.394835	2605.933740
965.694030	2604.804522
965.993189	2603.367793
966.292309	2606.904162
966.591393	2605.820314
966.890439	2604.396188
967.189447	2607.410798
967.488419	2603.561877
967.787353	2605.795108
968.086249	2604.290324
968.385108	2605.716970
968.683930	2606.997423
968.982714	2605.417022
969.281462	2606.894080
969.580172	2603.496342
969.878844	2604.509614
970.177480	2607.330140
970.476078	2603.889552
970.774639	2607.131014
971.073162	2604.497011
971.371649	2606.594131
971.670098	2606.904162
971.968510	2607.587238
972.266885	2607.095726
972.565223	2608.638319
972.863524	2605.497680
973.161788	2608.845006
973.460014	2605.545571
973.758204	2607.131014
974.056356	2604.744028
974.354471	2607.614965
974.652550	2606.997423
974.950591	2604.907865
975.248595	2604.232351
975.546563	2605.936261
975.844493	2603.617330
976.142386	2607.413319
976.440243	2606.881477
976.738062	2607.181426
977.035845	2602.072216
977.333590	2605.762341
977.631299	2601.714294
977.928971	2598.389653
978.226606	2596.431165
978.524204	2602.737648
978.821765	2600.063316
979.119290	2602.525920
979.416777	2603.818976
979.714228	2603.413163
980.011642	2601.857967
980.309020	2602.475508
980.606360	2603.914758
980.903664	2607.136055
981.200931	2605.134717
981.498162	2605.331322
981.795356	2605.762341
982.092513	2608.749224
982.389633	2607.914913
982.686717	2611.035388
982.983764	2617.606532
983.280775	2619.444032
983.577749	2621.125257
983.874686	2618.284567
984.171587	2618.655092
984.468451	2612.620831
984.765279	2611.932713
985.062070	2612.840121
985.358824	2612.366252
985.655543	2604.048348
985.952224	2608.088833
986.248869	2607.438524
986.545478	2604.111363
986.842050	2605.250664
987.138586	2602.503235
987.435086	2603.932402
987.731549	2601.701691
988.027975	2602.324274
988.324366	2599.786053
988.620719	2602.152875
988.917037	2600.360744
989.213318	2598.901330
989.509563	2600.383430
989.805772	2601.109356
990.101944	2600.270004
990.398080	2599.720518
990.694180	2599.418049
990.990244	2598.987030
991.286271	2598.114910
991.582262	2599.231526
991.878217	2601.152206
992.174136	2598.402256
992.470019	2600.194386
992.765865	2596.589961
993.061676	2595.531319
993.357450	2597.283120
993.653188	2595.488469
993.948890	2600.552308
994.244556	2600.106166
994.540186	2598.636670
994.835780	2600.920312
995.131337	2601.731938
995.426859	2602.125148
995.722345	2603.516507
996.017795	2604.290324
996.313208	2604.655807
996.608586	2604.393667
996.903928	2603.340066
997.199234	2606.344594
997.494504	2605.432145
997.789738	2603.254367
998.084936	2604.678493
998.380099	2603.748400
998.675225	2604.184460
998.970316	2601.331167
999.265371	2599.768409
999.560390	2602.059613
999.855373	2602.659511
1000.150320	2599.569283
1000.445232	2599.465940
1000.740108	2598.835795
1001.034948	2598.006526
1001.329752	2599.390322
1001.624521	2597.547781
1001.919254	2598.563573
1002.213951	2598.462750
1002.508613	2599.050044
1002.803239	2595.034765
1003.097829	2598.029211
1003.392384	2598.051896
1003.686903	2599.198758
1003.981386	2596.854622
1004.275834	2598.634149
1004.570246	2598.334201
1004.864623	2597.651124
1005.158964	2597.749427
1005.453270	2599.788573
1005.747540	2599.932246
1006.041775	2598.308995
1006.335974	2596.650455
1006.630138	2597.820003
1006.924266	2597.739344
1007.218359	2595.566607
1007.512416	2595.206165
1007.806438	2593.512337
1008.100425	2594.573500
1008.394376	2592.390680
1008.688292	2597.595672
1008.982172	2598.004005
1009.276017	2597.469643
1009.569827	2598.926536
1009.863602	2597.091556
1010.157341	2597.247832
1010.451045	2597.010898
1010.744714	2598.626588
1011.038347	2596.327821
1011.331945	2596.632811
1011.625508	2596.484097
1011.919036	2597.638521
1012.212528	2598.480394
1012.505986	2594.888572
1012.799408	2598.515682
1013.092795	2594.969230
1013.386147	2597.182297
1013.679464	2598.467791
1013.972745	2594.669282
1014.265992	2597.961155
1014.559204	2594.671802
1014.852380	2597.240270
1015.145521	2595.382605
1015.438628	2597.784715
1015.731699	2594.991916
1016.024736	2596.214395
1016.317737	2596.290013
1016.610703	2596.627770
1016.903635	2597.424272
1017.196531	2595.924529
1017.489393	2599.327308
1017.782219	2596.652976
1018.075011	2597.383943
1018.367768	2595.922008
1018.660490	2596.141299
1018.953177	2596.141299
1019.245829	2596.141299
